timestamps,TP9,AF7,AF8,TP10,Right AUX
1622759270844858.250,-12.695,-13.184,-26.855,-14.160,1.000
1622759270848764.500,-62.500,-16.602,-38.086,-62.988,1.000
1622759270852670.750,-75.195,-19.531,-41.992,-63.965,1.000
1622759270856577.000,-24.414,-21.973,-30.273,-24.414,1.000
1622759270860483.250,-3.418,-25.879,-31.250,-17.090,1.000
1622759270864389.500,-60.547,-23.438,-41.992,-75.195,1.000
1622759270868295.750,-88.379,-30.273,-28.320,-91.309,1.000
1622759270872202.000,-33.691,-36.621,-12.207,-28.320,1.000
1622759270876108.250,10.742,-25.879,-21.973,3.418,1.000
1622759270880014.500,-33.691,-31.250,-36.133,-51.758,1.000
1622759270883920.750,-81.543,-26.367,-35.156,-85.938,1.000
1622759270887827.000,-42.969,-4.883,-37.598,-32.227,1.000
1622759270891733.250,11.230,-18.555,-42.480,1.000,1.000
1622759270895639.500,-5.371,-41.504,-28.320,1.000,1.000
1622759270899545.750,-61.035,-35.156,-13.672,1.000,1.000
1622759270903452.000,-60.059,-25.879,-10.742,1.000,1.000
1622759270907358.250,2.441,-22.949,-10.742,1.000,1.000
1622759270911264.500,7.324,-25.391,-18.066,1.000,1.000
1622759270915170.750,-60.059,-33.691,-31.250,1.000,1.000
1622759270919077.000,-77.148,-20.996,-41.016,1.000,1.000
1622759270922983.250,-18.555,-6.348,-30.762,1.000,1.000
1622759270926889.500,13.672,-12.207,-20.996,1.000,1.000
1622759270930795.750,-37.109,-19.043,-42.480,1.000,1.000
1622759270934702.000,-80.078,-40.527,-58.105,1.000,1.000
1622759270938608.250,-36.621,-43.945,-36.621,1.000,1.000
1622759270942514.500,5.859,-35.156,-15.625,1.000,1.000
1622759270946420.750,-21.484,-23.926,-8.789,1.000,1.000
1622759270950327.000,-81.055,-10.742,-25.879,1.000,1.000
1622759270954233.250,-71.777,-21.484,-43.457,1.000,1.000
1622759270958139.500,-13.184,-24.414,-36.133,1.000,1.000
1622759270962045.750,-13.672,-20.996,-22.949,1.000,1.000
1622759270965952.000,-68.848,-43.945,-27.832,1.000,1.000
1622759270969858.250,-89.844,-54.199,-59.082,1.000,1.000
1622759270973764.500,-31.738,-35.645,-66.895,1.000,1.000
1622759270977670.750,-3.418,-27.344,-41.016,1.000,1.000
1622759270981577.000,-56.152,-20.996,-31.250,1.000,1.000
1622759270985483.250,-80.566,-16.602,-34.668,-76.660,1.000
1622759270989389.500,-20.020,-10.254,-24.902,-7.812,1.000
1622759270993295.750,10.742,-28.809,-24.902,15.137,1.000
1622759270997202.000,-25.391,-43.457,-34.180,-36.621,1.000
1622759271001108.250,-56.641,-27.344,-29.785,-62.012,1.000
1622759271005014.500,-31.738,-38.574,-26.855,-29.785,1.000
1622759271008920.750,9.277,-49.805,-27.832,2.441,1.000
1622759271012827.000,-14.160,-30.273,-38.086,-28.809,1.000
1622759271016733.250,-63.477,-27.344,-39.062,-73.730,1.000
1622759271020639.500,-50.293,-18.066,-26.367,-51.758,1.000
1622759271024545.750,1.465,0.000,-27.832,2.441,1.000
1622759271028452.000,1.953,-7.324,-29.785,-6.348,1.000
1622759271032358.250,-3.906,-38.086,-22.949,-3.418,1.000
1622759271036264.500,-44.434,-32.227,-40.527,-43.457,1.000
1622759271040170.750,-97.168,-9.766,-52.734,-91.797,1.000
1622759271044077.000,-58.105,-7.812,-37.109,-48.828,1.000
1622759271047983.250,-1.465,-18.066,-34.668,6.836,1.000
1622759271051889.500,-11.719,-30.762,-37.109,-11.230,1.000
1622759271055795.750,-54.688,-37.109,-39.062,-54.199,1.000
1622759271059702.000,-60.059,-43.457,-42.480,-54.688,1.000
1622759271063608.250,-10.254,-41.504,-30.762,-11.719,1.000
1622759271067514.500,-3.418,-21.973,-25.879,-9.277,1.000
1622759271071420.750,-52.734,-16.113,-23.438,-53.711,1.000
1622759271075327.000,-66.895,-22.949,-16.113,-58.594,1.000
1622759271079233.250,-20.020,-16.602,-20.508,1.000,1.000
1622759271083139.500,13.184,-10.742,-29.297,1.000,1.000
1622759271087045.750,-30.273,-6.836,-30.273,1.000,1.000
1622759271090952.000,-70.312,-3.906,-33.691,1.000,1.000
1622759271094858.250,-40.527,-26.367,-34.668,1.000,1.000
1622759271098764.500,-1.953,-55.664,-34.180,1.000,1.000
1622759271102670.750,-18.066,-62.012,-34.668,1.000,1.000
1622759271106577.000,-69.824,-41.992,-23.438,1.000,1.000
1622759271110483.250,-72.266,-27.832,-22.461,1.000,1.000
1622759271114389.500,-16.113,-24.902,-39.551,1.000,1.000
1622759271118295.750,-18.066,-23.438,-50.293,1.000,1.000
1622759271122202.000,-74.707,-31.738,-43.945,1.000,1.000
1622759271126108.250,-71.777,-29.297,-30.762,1.000,1.000
1622759271130014.500,-12.695,-25.391,-21.973,1.000,1.000
1622759271133920.750,6.348,-20.996,-22.949,1.000,1.000
1622759271137827.000,-62.500,-28.320,-34.668,1.000,1.000
1622759271141733.250,-87.402,-38.086,-30.273,1.000,1.000
1622759271145639.500,-20.020,-21.973,-16.113,1.000,1.000
1622759271149545.750,5.859,-20.996,-17.578,1.000,1.000
1622759271153452.000,-41.016,-29.785,-23.926,1.000,1.000
1622759271157358.250,-72.266,-26.367,-20.020,1.000,1.000
1622759271161264.500,-39.551,-38.574,-16.602,1.000,1.000
1622759271165170.750,7.324,-31.250,-19.043,1.000,1.000
1622759271169077.000,-18.066,-10.254,-27.344,1.000,1.000
1622759271172983.250,-75.195,-13.672,-26.855,1.000,1.000
1622759271176889.500,-61.523,-17.578,-29.297,1.000,1.000
1622759271180795.750,-1.953,-10.742,-32.715,1.000,1.000
1622759271184702.000,3.418,-24.414,-34.668,1.000,1.000
1622759271188608.250,-51.758,-31.738,-30.762,1.000,1.000
1622759271192514.500,-63.965,-22.461,-26.367,1.000,1.000
1622759271196420.750,-7.324,-23.438,-20.020,1.000,1.000
1622759271200327.000,17.090,-28.809,-21.484,1.000,1.000
1622759271204233.250,-35.645,-17.090,-34.180,1.000,1.000
1622759271208139.500,-74.707,-11.719,-40.527,1.000,1.000
1622759271212045.750,-21.973,-27.832,-27.832,1.000,1.000
1622759271215952.000,17.578,-33.203,-22.461,1.000,1.000
1622759271219858.250,-30.273,-47.852,-32.227,-43.945,1.000
1622759271223764.500,-75.684,-60.547,-34.180,-79.102,1.000
1622759271227670.750,-36.621,-33.203,-32.227,-33.203,1.000
1622759271231577.000,11.719,-13.184,-22.949,11.719,1.000
1622759271235483.250,-12.695,-14.160,-30.762,-14.648,1.000
1622759271239389.500,-65.430,-3.906,-45.410,-62.988,1.000
1622759271243295.750,-60.547,0.977,-43.457,-53.223,1.000
1622759271247202.000,-4.395,-5.859,-30.762,1.465,1.000
1622759271251108.250,2.441,-23.438,-13.184,2.930,1.000
1622759271255014.500,-65.430,-40.527,-10.742,-57.617,1.000
1622759271258920.750,-81.543,-44.434,-12.695,-64.941,1.000
1622759271262827.000,-21.484,-30.273,-17.090,-9.277,1.000
1622759271266733.250,-22.949,-20.996,-36.133,-7.812,1.000
1622759271270639.500,-6.836,-27.832,-21.973,-6.836,1.000
1622759271274545.750,-53.711,-35.645,-30.762,-52.734,1.000
1622759271278452.000,-70.801,-34.668,-44.922,-61.035,1.000
1622759271282358.250,-20.508,-36.621,-41.504,-19.531,1.000
1622759271286264.500,5.371,-42.969,-31.250,-4.395,1.000
1622759271290170.750,-37.598,-28.809,-30.273,-54.688,1.000
1622759271294077.000,-74.219,-11.719,-35.645,-81.055,1.000
1622759271297983.250,-45.410,-18.066,-38.086,-44.434,1.000
1622759271301889.500,-5.859,-17.578,-31.738,-11.719,1.000
1622759271305795.750,-27.344,-12.207,-22.949,-37.109,1.000
1622759271309702.000,-75.684,-23.926,-17.578,-78.125,1.000
1622759271313608.250,-63.477,-32.715,-25.879,1.000,1.000
1622759271317514.500,-8.789,-41.016,-35.645,1.000,1.000
1622759271321420.750,-6.836,-39.062,-32.227,1.000,1.000
1622759271325327.000,-61.035,-26.367,-22.949,1.000,1.000
1622759271329233.250,-77.637,-31.738,-33.203,1.000,1.000
1622759271333139.500,-19.043,-33.203,-42.969,1.000,1.000
1622759271337045.750,6.348,-32.227,-44.922,1.000,1.000
1622759271340952.000,-44.434,-26.855,-49.316,1.000,1.000
1622759271344858.250,-74.219,-24.414,-25.879,1.000,1.000
1622759271348764.500,-29.785,-13.672,-20.996,1.000,1.000
1622759271352670.750,11.719,-26.855,-41.016,1.000,1.000
1622759271356577.000,-36.621,-62.500,-47.363,1.000,1.000
1622759271360483.250,-6.836,-19.531,-42.480,-9.277,1.000
1622759271364389.500,-53.711,-23.438,-42.969,-61.035,1.000
1622759271368295.750,-72.754,-36.621,-28.809,-68.848,1.000
1622759271372202.000,-18.066,-47.852,-24.902,-11.719,1.000
1622759271376108.250,3.906,-41.992,-35.156,1.465,1.000
1622759271380014.500,-36.621,-27.344,-38.086,-46.875,1.000
1622759271383920.750,-69.336,-34.668,-38.086,-72.754,1.000
1622759271387827.000,-31.738,-45.410,-42.480,-33.203,1.000
1622759271391733.250,15.625,-27.832,-34.180,10.254,1.000
1622759271395639.500,-18.066,-8.301,-26.367,-25.391,1.000
1622759271399545.750,-76.660,-28.809,-32.715,-83.008,1.000
1622759271403452.000,-57.617,-48.340,-32.227,-50.293,1.000
1622759271407358.250,-2.441,-17.578,-27.344,1.000,1.000
1622759271411264.500,-18.066,-15.137,-25.879,1.000,1.000
1622759271415170.750,-86.914,-62.988,-30.273,1.000,1.000
1622759271419077.000,-84.473,-62.500,-36.621,1.000,1.000
1622759271422983.250,-8.301,-22.949,-41.504,1.000,1.000
1622759271426889.500,4.395,-18.555,-54.688,1.000,1.000
1622759271430795.750,-49.805,-3.418,-38.086,1.000,1.000
1622759271434702.000,-77.148,-8.789,-13.672,1.000,1.000
1622759271438608.250,-32.715,-29.297,-16.113,1.000,1.000
1622759271442514.500,21.484,-3.906,-4.395,1.000,1.000
1622759271446420.750,-15.625,-12.207,-12.695,1.000,1.000
1622759271450327.000,-67.383,-34.180,-37.598,1.000,1.000
1622759271454233.250,-34.668,-36.133,-39.062,1.000,1.000
1622759271458139.500,13.672,-44.434,-29.297,1.000,1.000
1622759271462045.750,-8.789,-25.391,-46.387,1.000,1.000
1622759271465952.000,-63.965,-20.508,-65.430,1.000,1.000
1622759271469858.250,-41.504,-36.133,-30.762,1.000,1.000
1622759271473764.500,5.859,-26.855,-22.949,1.000,1.000
1622759271477670.750,0.977,-12.695,-40.039,1.000,1.000
1622759271481577.000,-48.828,-5.859,-35.156,1.000,1.000
1622759271485483.250,-68.848,-25.391,-37.109,1.000,1.000
1622759271489389.500,-16.602,-30.762,-37.109,1.000,1.000
1622759271493295.750,15.137,-24.414,-36.621,1.000,1.000
1622759271497202.000,-17.578,-39.551,-45.898,1.000,1.000
1622759271501108.250,-53.711,-38.574,-44.434,1.000,1.000
1622759271505014.500,-34.668,-18.555,-28.320,1.000,1.000
1622759271508920.750,2.930,-7.812,-12.207,1.000,1.000
1622759271512827.000,-19.531,-4.395,-21.484,1.000,1.000
1622759271516733.250,-65.918,-9.277,-41.992,1.000,1.000
1622759271520639.500,-59.082,-34.668,-44.434,1.000,1.000
1622759271524545.750,-15.625,-30.273,-39.062,1.000,1.000
1622759271528452.000,-20.508,-21.484,-19.043,1.000,1.000
1622759271532358.250,-71.289,-36.133,-13.184,1.000,1.000
1622759271536264.500,-60.547,-39.062,-45.898,1.000,1.000
1622759271540170.750,25.391,-20.020,-62.500,1.000,1.000
1622759271544077.000,15.625,-36.133,-39.551,1.000,1.000
1622759271547983.250,-105.469,-47.363,-26.855,-104.492,1.000
1622759271551889.500,-125.977,-15.137,-28.320,-110.840,1.000
1622759271555795.750,-46.387,-9.766,-6.348,-27.832,1.000
1622759271559702.000,22.461,4.395,-11.230,27.344,1.000
1622759271563608.250,-22.461,11.719,-37.598,-20.020,1.000
1622759271567514.500,-130.371,-50.293,-26.367,-116.699,1.000
1622759271571420.750,-132.324,-71.289,-22.461,-121.094,1.000
1622759271575327.000,-78.125,-52.246,-23.926,-86.426,1.000
1622759271579233.250,-101.562,-58.105,-29.297,-111.816,1.000
1622759271583139.500,-144.531,-44.434,-37.598,-142.090,1.000
1622759271587045.750,-93.750,-22.461,-21.484,-87.402,1.000
1622759271590952.000,-50.293,-16.113,-27.344,-44.922,1.000
1622759271594858.250,3.418,-40.039,-15.137,-99.609,1.000
1622759271598764.500,-18.066,-31.738,-25.879,-134.277,1.000
1622759271602670.750,-59.570,-18.066,-39.062,-64.941,1.000
1622759271606577.000,-28.809,15.137,-20.020,-19.043,1.000
1622759271610483.250,15.137,0.488,-33.691,-65.918,1.000
1622759271614389.500,2.930,-38.086,-56.152,-116.211,1.000
1622759271618295.750,-40.039,-61.035,-35.645,-101.074,1.000
1622759271622202.000,-56.641,-67.871,-15.137,-55.176,1.000
1622759271626108.250,-10.742,-23.926,-17.578,-48.828,1.000
1622759271630014.500,14.648,8.789,-33.203,-82.520,1.000
1622759271633920.750,-22.461,-16.602,-23.926,-95.703,1.000
1622759271637827.000,-41.992,-33.691,-17.090,-48.828,1.000
1622759271641733.250,-18.555,-3.418,-29.297,1.000,1.000
1622759271645639.500,-23.438,-18.066,-46.387,1.000,1.000
1622759271649545.750,-69.336,-48.340,-48.340,1.000,1.000
1622759271653452.000,-84.961,-29.785,-29.785,1.000,1.000
1622759271657358.250,-27.344,-25.879,-17.090,1.000,1.000
1622759271661264.500,14.160,-43.457,-20.996,1.000,1.000
1622759271665170.750,-12.695,-34.180,-19.531,1.000,1.000
1622759271669077.000,-49.316,-30.273,-30.762,1.000,1.000
1622759271672983.250,-25.879,-34.668,-51.758,1.000,1.000
1622759271676889.500,29.785,-30.762,-28.320,1.000,1.000
1622759271680795.750,6.348,-10.254,-10.742,1.000,1.000
1622759271684702.000,-77.148,-16.602,-22.461,1.000,1.000
1622759271688608.250,-77.637,-16.602,-26.367,1.000,1.000
1622759271692514.500,-12.207,-10.254,-28.320,1.000,1.000
1622759271696420.750,2.441,-33.691,-35.645,1.000,1.000
1622759271700327.000,-37.598,-58.594,-46.875,1.000,1.000
1622759271704233.250,-61.523,-46.875,-24.414,1.000,1.000
1622759271708139.500,-19.531,-28.320,0.488,1.000,1.000
1622759271712045.750,16.602,-15.625,2.441,1.000,1.000
1622759271715952.000,-10.254,0.488,4.883,1.000,1.000
1622759271719858.250,-70.801,-14.648,-2.930,1.000,1.000
1622759271723764.500,-44.922,-11.230,-16.602,1.000,1.000
1622759271727670.750,17.090,0.000,-33.203,1.000,1.000
1622759271731577.000,-18.555,-23.438,-40.039,1.000,1.000
1622759271735483.250,-25.879,-9.766,-37.598,-0.977,1.000
1622759271739389.500,-18.066,-37.598,-36.621,-38.086,1.000
1622759271743295.750,-68.359,-56.641,-29.297,-79.102,1.000
1622759271747202.000,-87.402,-51.758,-25.391,-50.293,1.000
1622759271751108.250,-41.016,-17.090,-44.922,-1.953,1.000
1622759271755014.500,2.441,5.371,-47.852,-32.227,1.000
1622759271758920.750,-29.785,-9.766,-13.184,-77.148,1.000
1622759271762827.000,-78.125,-33.691,-16.602,-42.480,1.000
1622759271766733.250,-50.293,-29.297,-46.875,10.254,1.000
1622759271770639.500,9.766,-10.742,-41.992,-9.277,1.000
1622759271774545.750,-10.742,-22.461,-39.551,-76.172,1.000
1622759271778452.000,-73.242,-24.902,-37.598,-73.242,1.000
1622759271782358.250,-59.082,-20.508,-17.578,1.000,1.000
1622759271786264.500,0.488,-46.387,-17.090,1.000,1.000
1622759271790170.750,0.000,-55.176,-29.297,1.000,1.000
1622759271794077.000,-46.875,-36.621,-33.203,1.000,1.000
1622759271797983.250,-42.969,-3.906,-48.828,1.000,1.000
1622759271801889.500,12.207,10.254,-56.641,1.000,1.000
1622759271805795.750,22.461,4.395,-31.738,1.000,1.000
1622759271809702.000,-33.691,-11.719,-12.207,1.000,1.000
1622759271813608.250,-69.336,-41.992,-9.766,1.000,1.000
1622759271817514.500,-20.508,-48.828,-11.719,1.000,1.000
1622759271821420.750,27.832,-40.039,-24.414,1.000,1.000
1622759271825327.000,-19.043,-19.531,-48.340,1.000,1.000
1622759271829233.250,-82.031,-9.277,-45.410,-83.008,1.000
1622759271833139.500,-54.199,-16.602,-26.855,-52.246,1.000
1622759271837045.750,19.043,-18.555,-16.113,12.207,1.000
1622759271840952.000,8.789,-23.926,-12.695,-6.836,1.000
1622759271844858.250,-49.316,-15.137,-26.367,-57.129,1.000
1622759271848764.500,-35.156,-31.738,-36.621,-32.715,1.000
1622759271852670.750,15.137,-58.105,-31.250,11.719,1.000
1622759271856577.000,8.301,-37.109,-22.949,-6.836,1.000
1622759271860483.250,-50.781,-1.465,-31.738,-64.453,1.000
1622759271864389.500,-64.941,-3.906,-43.457,-69.336,1.000
1622759271868295.750,-10.254,-30.762,-34.180,-11.230,1.000
1622759271872202.000,9.766,-48.340,-35.645,8.301,1.000
1622759271876108.250,-15.137,-50.293,-11.719,-8.301,1.000
1622759271880014.500,-70.312,-51.270,-8.789,-61.035,1.000
1622759271883920.750,-101.074,-16.113,-40.527,-87.891,1.000
1622759271887827.000,-37.598,-3.906,-42.480,-26.855,1.000
1622759271891733.250,-0.488,-16.602,-26.855,0.000,1.000
1622759271895639.500,-58.105,-40.039,-43.457,-57.617,1.000
1622759271899545.750,-96.191,-43.945,-52.734,-91.309,1.000
1622759271903452.000,-66.895,-40.527,-33.691,-58.105,1.000
1622759271907358.250,-19.043,-31.738,-38.574,-18.066,1.000
1622759271911264.500,-22.949,-7.812,-42.480,-33.203,1.000
1622759271915170.750,-71.777,-24.414,-31.738,-68.848,1.000
1622759271919077.000,-68.848,-49.316,-32.715,-53.223,1.000
1622759271922983.250,-10.254,-10.254,-2.441,1.000,1.000
1622759271926889.500,-12.695,6.836,-1.465,1.000,1.000
1622759271930795.750,-76.172,-23.926,-36.621,1.000,1.000
1622759271934702.000,-90.332,-53.711,-48.828,1.000,1.000
1622759271938608.250,-38.574,-71.289,-42.480,1.000,1.000
1622759271942514.500,-6.836,-47.363,-40.527,1.000,1.000
1622759271946420.750,-46.875,-20.508,-49.805,1.000,1.000
1622759271950327.000,-74.707,-25.391,-30.273,1.000,1.000
1622759271954233.250,-17.090,-15.625,-8.789,1.000,1.000
1622759271958139.500,32.715,-8.301,-27.344,1.000,1.000
1622759271962045.750,0.977,-26.855,-30.273,1.000,1.000
1622759271965952.000,-49.805,-38.086,-33.691,1.000,1.000
1622759271969858.250,-31.738,-14.648,-42.480,1.000,1.000
1622759271973764.500,9.766,9.277,-32.715,1.000,1.000
1622759271977670.750,-19.043,-16.113,-44.922,1.000,1.000
1622759271981577.000,-84.961,-72.266,-59.082,1.000,1.000
1622759271985483.250,-76.660,-70.312,-31.250,1.000,1.000
1622759271989389.500,-9.766,-6.836,-5.371,1.000,1.000
1622759271993295.750,-4.883,6.348,-12.695,1.000,1.000
1622759271997202.000,-55.176,-28.809,-24.902,1.000,1.000
1622759272001108.250,-54.199,-19.043,-28.809,1.000,1.000
1622759272005014.500,-7.812,5.371,-48.828,1.000,1.000
1622759272008920.750,0.977,-16.113,-40.527,1.000,1.000
1622759272012827.000,-51.270,-45.410,-12.695,1.000,1.000
1622759272016733.250,-90.332,-44.434,-19.043,1.000,1.000
1622759272020639.500,-56.641,-28.809,-29.297,1.000,1.000
1622759272024545.750,-9.766,-22.461,-33.203,1.000,1.000
1622759272028452.000,-36.133,-41.992,-34.668,1.000,1.000
1622759272032358.250,-85.449,-43.945,-30.273,1.000,1.000
1622759272036264.500,-53.223,-16.602,-18.555,1.000,1.000
1622759272040170.750,8.789,-14.160,-20.020,1.000,1.000
1622759272044077.000,4.395,-20.996,-36.133,1.000,1.000
1622759272047983.250,-47.363,-11.230,-35.645,1.000,1.000
1622759272051889.500,-54.199,-10.254,-20.020,1.000,1.000
1622759272055795.750,-19.043,-34.180,-28.320,1.000,1.000
1622759272059702.000,-7.812,-40.527,-41.992,1.000,1.000
1622759272063608.250,-59.570,-23.438,-42.480,-65.918,1.000
1622759272067514.500,-99.121,-23.926,-32.227,-92.285,1.000
1622759272071420.750,-32.227,-22.461,-21.973,-27.832,1.000
1622759272075327.000,19.043,-17.090,-33.691,11.230,1.000
1622759272079233.250,-39.062,-37.109,-44.922,-44.922,1.000
1622759272083139.500,-76.660,-35.156,-24.902,-71.777,1.000
1622759272087045.750,-29.785,-17.090,-10.254,-17.090,1.000
1622759272090952.000,1.465,-23.926,-24.902,7.812,1.000
1622759272094858.250,-25.879,-26.367,-56.152,-28.809,1.000
1622759272098764.500,-58.594,-16.602,-61.523,-56.641,1.000
1622759272102670.750,-38.086,-20.996,-29.785,-28.320,1.000
1622759272106577.000,-4.395,-20.996,-26.367,6.348,1.000
1622759272110483.250,2.930,-9.277,-32.227,-26.855,1.000
1622759272114389.500,-9.277,-27.832,-24.414,-70.312,1.000
1622759272118295.750,-76.660,-51.270,-31.738,-44.434,1.000
1622759272122202.000,-69.824,-47.363,-30.273,4.883,1.000
1622759272126108.250,2.441,-46.387,-22.461,3.906,1.000
1622759272130014.500,-2.441,-52.246,-26.855,-52.246,1.000
1622759272133920.750,-70.312,-34.180,-45.898,-62.500,1.000
1622759272137827.000,-74.707,-13.672,-27.832,-4.395,1.000
1622759272141733.250,-1.465,-1.465,2.441,13.672,1.000
1622759272145639.500,14.648,-13.672,-0.977,-38.086,1.000
1622759272149545.750,-52.246,-30.762,-19.531,-82.520,1.000
1622759272153452.000,-88.379,-26.855,-41.016,-44.434,1.000
1622759272157358.250,-35.645,-29.785,-34.180,-18.066,1.000
1622759272161264.500,9.277,-41.992,-22.461,20.508,1.000
1622759272165170.750,-21.973,-33.203,-35.156,-26.855,1.000
1622759272169077.000,-62.500,-21.484,-24.414,-62.500,1.000
1622759272172983.250,-48.828,-16.602,-11.719,-34.668,1.000
1622759272176889.500,-2.441,-25.391,-18.066,10.254,1.000
1622759272180795.750,-7.324,-29.785,-33.203,-4.883,1.000
1622759272184702.000,-61.523,-23.438,-45.898,-60.059,1.000
1622759272188608.250,-56.641,-15.137,-33.203,-47.852,1.000
1622759272192514.500,-6.348,-21.484,-21.484,-7.324,1.000
1622759272196420.750,-1.953,-30.273,-32.715,-12.695,1.000
1622759272200327.000,-58.594,-28.320,-43.945,-63.477,1.000
1622759272204233.250,6.348,-40.527,-37.598,3.418,1.000
1622759272208139.500,-32.227,-29.785,-34.668,-40.527,1.000
1622759272212045.750,-72.754,-16.602,-27.344,-69.824,1.000
1622759272215952.000,-44.922,-13.184,-28.809,-33.691,1.000
1622759272219858.250,12.207,-25.391,-22.949,9.766,1.000
1622759272223764.500,-15.137,-37.109,-22.949,-26.367,1.000
1622759272227670.750,-84.473,-43.945,-29.297,-83.008,1.000
1622759272231577.000,-66.895,-45.410,-17.090,-55.664,1.000
1622759272235483.250,-4.883,-29.785,-24.414,3.418,1.000
1622759272239389.500,2.930,-16.113,-50.293,-3.418,1.000
1622759272243295.750,-39.551,-26.367,-37.109,-45.898,1.000
1622759272247202.000,-55.176,-46.387,-14.160,-46.387,1.000
1622759272251108.250,-15.137,-45.410,-20.508,1.000,1.000
1622759272255014.500,6.348,-25.879,-29.785,1.000,1.000
1622759272258920.750,-45.410,-20.508,-39.062,1.000,1.000
1622759272262827.000,-82.031,-20.508,-46.875,1.000,1.000
1622759272266733.250,-36.621,-25.879,-41.992,1.000,1.000
1622759272270639.500,9.277,-29.297,-30.273,1.000,1.000
1622759272274545.750,-24.902,-31.738,-31.250,1.000,1.000
1622759272278452.000,-71.777,-37.109,-29.785,1.000,1.000
1622759272282358.250,-41.992,-22.949,-32.227,1.000,1.000
1622759272286264.500,5.371,-20.508,-38.086,1.000,1.000
1622759272290170.750,-11.719,-25.879,-36.133,1.000,1.000
1622759272294077.000,-69.824,-40.527,-23.438,1.000,1.000
1622759272297983.250,-65.430,-55.176,-13.184,1.000,1.000
1622759272301889.500,1.465,-16.602,-27.832,1.000,1.000
1622759272305795.750,20.020,9.766,-36.621,1.000,1.000
1622759272309702.000,-51.758,-21.484,-45.898,1.000,1.000
1622759272313608.250,-79.102,-38.086,-43.945,1.000,1.000
1622759272317514.500,-20.996,-28.809,-15.137,1.000,1.000
1622759272321420.750,0.000,-42.480,-14.648,1.000,1.000
1622759272325327.000,-36.133,-56.641,-36.621,1.000,1.000
1622759272329233.250,-63.965,-28.809,-36.133,1.000,1.000
1622759272333139.500,-40.039,-2.930,-26.367,1.000,1.000
1622759272337045.750,6.348,-4.883,-37.109,1.000,1.000
1622759272340952.000,-20.020,-8.789,-52.734,1.000,1.000
1622759272344858.250,-76.660,-37.598,-73.730,-88.867,1.000
1622759272348764.500,-55.664,-40.527,-61.523,-55.176,1.000
1622759272352670.750,-14.648,-9.766,-18.066,-14.648,1.000
1622759272356577.000,-26.855,-5.859,-28.320,-34.668,1.000
1622759272360483.250,-70.312,-29.785,-44.922,-73.730,1.000
1622759272364389.500,-71.777,-53.223,-55.664,-64.941,1.000
1622759272368295.750,-4.883,-45.898,-51.270,-15.137,1.000
1622759272372202.000,12.207,-59.082,-24.902,-4.395,1.000
1622759272376108.250,-52.246,-29.297,-20.996,-63.477,1.000
1622759272380014.500,-84.961,11.719,-21.484,-90.332,1.000
1622759272383920.750,-41.992,-0.977,-30.762,-52.246,1.000
1622759272387827.000,1.465,-17.090,-32.715,-17.578,1.000
1622759272391733.250,-11.230,-20.996,-38.574,-12.695,1.000
1622759272395639.500,-7.324,-11.230,-21.484,-9.277,1.000
1622759272399545.750,-74.707,-18.555,-47.363,-80.566,1.000
1622759272403452.000,-90.820,-43.945,-47.852,-98.145,1.000
1622759272407358.250,-36.133,-62.500,-33.203,-34.180,1.000
1622759272411264.500,-5.371,-41.992,-35.645,9.766,1.000
1622759272415170.750,-35.156,-30.273,-40.527,-28.320,1.000
1622759272419077.000,-63.477,-32.227,-29.785,-62.988,1.000
1622759272422983.250,-12.695,-26.367,-29.785,-8.301,1.000
1622759272426889.500,28.320,-33.203,-43.945,19.043,1.000
1622759272430795.750,-23.438,-29.297,-39.551,-38.086,1.000
1622759272434702.000,-78.613,-23.438,-28.809,-88.867,1.000
1622759272438608.250,-67.383,-24.902,-24.902,1.000,1.000
1622759272442514.500,-29.297,-32.227,-38.086,1.000,1.000
1622759272446420.750,-30.762,-13.184,-36.133,1.000,1.000
1622759272450327.000,-70.312,-8.789,-24.414,1.000,1.000
1622759272454233.250,-73.730,-37.598,-23.438,1.000,1.000
1622759272458139.500,-19.531,-38.574,-15.625,1.000,1.000
1622759272462045.750,12.207,-18.066,-14.160,1.000,1.000
1622759272465952.000,-29.785,-9.766,-35.645,1.000,1.000
1622759272469858.250,-75.195,-33.203,-44.434,1.000,1.000
1622759272473764.500,-44.434,-55.664,-24.902,1.000,1.000
1622759272477670.750,-11.719,-48.828,-32.227,1.000,1.000
1622759272481577.000,-55.176,-28.320,-58.105,1.000,1.000
1622759272485483.250,-94.238,-30.762,-54.199,1.000,1.000
1622759272489389.500,-51.270,-28.809,-29.785,1.000,1.000
1622759272493295.750,10.742,-6.836,-25.391,1.000,1.000
1622759272497202.000,-11.230,-15.625,-40.527,1.000,1.000
1622759272501108.250,-72.266,-30.273,-47.363,1.000,1.000
1622759272505014.500,-57.617,-27.344,-33.691,1.000,1.000
1622759272508920.750,-8.301,-35.645,-22.949,1.000,1.000
1622759272512827.000,6.836,-36.621,-34.180,1.000,1.000
1622759272516733.250,-37.598,-48.340,-58.105,1.000,1.000
1622759272520639.500,-57.129,-40.039,-58.105,1.000,1.000
1622759272524545.750,-6.836,-15.625,-30.762,1.000,1.000
1622759272528452.000,2.441,-9.766,-18.066,1.000,1.000
1622759272532358.250,-57.129,-16.113,-32.715,-72.754,1.000
1622759272536264.500,-82.031,-22.949,-25.391,-86.914,1.000
1622759272540170.750,-24.902,-11.719,-13.184,-26.367,1.000
1622759272544077.000,8.301,-16.113,-26.855,0.000,1.000
1622759272547983.250,-35.156,-27.344,-40.527,-43.945,1.000
1622759272551889.500,-67.383,-22.949,-41.992,-69.336,1.000
1622759272555795.750,-27.832,-30.273,-28.809,-24.902,1.000
1622759272559702.000,18.066,-41.992,-27.832,20.996,1.000
1622759272563608.250,0.488,-40.527,-36.133,6.348,1.000
1622759272567514.500,-54.688,-43.457,-33.203,-51.758,1.000
1622759272571420.750,-54.199,-40.527,-31.250,-48.340,1.000
1622759272575327.000,17.578,-50.293,-13.184,15.137,1.000
1622759272579233.250,23.438,-41.504,-27.344,32.227,1.000
1622759272583139.500,-1.953,-40.527,-11.719,11.719,1.000
1622759272587045.750,-74.219,-16.602,-18.555,-49.316,1.000
1622759272590952.000,-65.918,-12.207,-36.621,-48.340,1.000
1622759272594858.250,-4.883,-26.855,-24.414,-0.977,1.000
1622759272598764.500,-8.301,-41.504,-25.879,-8.789,1.000
1622759272602670.750,-52.246,-48.828,-38.574,-62.500,1.000
1622759272606577.000,-61.035,-41.992,-28.809,-62.988,1.000
1622759272610483.250,-9.277,-29.297,-17.090,-2.441,1.000
1622759272614389.500,28.809,-20.508,-1.465,25.391,1.000
1622759272618295.750,-17.578,-23.926,-11.230,-19.531,1.000
1622759272622202.000,-67.871,-34.180,-53.223,-61.523,1.000
1622759272626108.250,-25.879,-26.367,-41.992,1.000,1.000
1622759272630014.500,17.090,-26.855,-23.926,1.000,1.000
1622759272633920.750,-23.926,-25.879,-41.992,1.000,1.000
1622759272637827.000,-73.242,-9.766,-37.109,1.000,1.000
1622759272641733.250,-52.734,-17.090,-13.184,1.000,1.000
1622759272645639.500,-13.672,-30.762,-7.812,1.000,1.000
1622759272649545.750,-23.926,-35.156,-35.156,1.000,1.000
1622759272653452.000,-71.777,-48.828,-43.945,1.000,1.000
1622759272657358.250,-83.984,-48.340,-32.715,1.000,1.000
1622759272661264.500,-23.926,-20.508,-27.344,1.000,1.000
1622759272665170.750,-12.207,-17.578,-26.367,1.000,1.000
1622759272669077.000,-73.730,-33.203,-27.344,1.000,1.000
1622759272672983.250,0.977,-4.395,-61.523,-15.137,1.000
1622759272676889.500,-52.246,-2.930,-50.781,-67.871,1.000
1622759272680795.750,-65.918,-20.508,-32.227,-52.246,1.000
1622759272684702.000,-3.418,-33.691,-28.320,-10.742,1.000
1622759272688608.250,1.465,-32.227,-23.438,1.953,1.000
1622759272692514.500,-57.129,-21.484,-26.367,-52.734,1.000
1622759272696420.750,-76.172,-12.207,-33.203,-62.500,1.000
1622759272700327.000,-26.367,-22.461,-30.273,-4.395,1.000
1622759272704233.250,3.418,-40.527,-32.715,11.230,1.000
1622759272708139.500,-43.457,-38.086,-40.527,-45.410,1.000
1622759272712045.750,-86.426,-36.133,-37.109,-91.797,1.000
1622759272715952.000,-41.992,-32.715,-33.691,-43.945,1.000
1622759272719858.250,3.418,-28.809,-42.480,1.000,1.000
1622759272723764.500,-25.879,-35.156,-38.574,1.000,1.000
1622759272727670.750,-79.102,-45.410,-35.156,1.000,1.000
1622759272731577.000,-52.734,-31.250,-33.691,1.000,1.000
1622759272735483.250,12.695,-4.395,-32.227,1.000,1.000
1622759272739389.500,-9.277,-6.348,-38.574,1.000,1.000
1622759272743295.750,-73.242,-37.598,-35.645,1.000,1.000
1622759272747202.000,-73.730,-51.270,-39.551,1.000,1.000
1622759272751108.250,-14.648,-43.457,-48.340,1.000,1.000
1622759272755014.500,0.000,-30.762,-34.180,1.000,1.000
1622759272758920.750,-60.547,-20.020,-34.180,1.000,1.000
1622759272762827.000,-80.566,-28.809,-39.551,1.000,1.000
1622759272766733.250,-34.180,-31.738,-26.855,1.000,1.000
1622759272770639.500,-8.789,-30.273,-37.598,1.000,1.000
1622759272774545.750,-45.898,-43.945,-49.316,1.000,1.000
1622759272778452.000,-88.867,-58.105,-45.898,1.000,1.000
1622759272782358.250,-27.832,-39.551,-28.809,1.000,1.000
1622759272786264.500,27.832,-17.578,-8.789,1.000,1.000
1622759272790170.750,-27.832,-20.508,-32.227,1.000,1.000
1622759272794077.000,-92.773,-21.484,-48.340,1.000,1.000
1622759272797983.250,-79.590,-20.020,-30.273,1.000,1.000
1622759272801889.500,-15.625,-24.902,-24.902,1.000,1.000
1622759272805795.750,-18.555,-39.062,-33.691,1.000,1.000
1622759272809702.000,-80.566,-34.180,-31.250,1.000,1.000
1622759272813608.250,-81.055,-26.367,-37.109,1.000,1.000
1622759272817514.500,-10.254,-41.504,-50.781,1.000,1.000
1622759272821420.750,20.020,-44.922,-36.621,1.000,1.000
1622759272825327.000,-39.062,-46.387,-21.973,1.000,1.000
1622759272829233.250,-80.566,-36.621,-28.809,1.000,1.000
1622759272833139.500,-40.039,-14.648,-29.785,1.000,1.000
1622759272837045.750,0.488,-22.461,-33.203,1.000,1.000
1622759272840952.000,-43.945,-41.992,-30.762,1.000,1.000
1622759272844858.250,-84.961,-40.527,-28.809,1.000,1.000
1622759272848764.500,-47.852,-21.484,-30.762,1.000,1.000
1622759272852670.750,-6.836,-16.602,-21.484,1.000,1.000
1622759272856577.000,-37.598,-26.855,-25.879,1.000,1.000
1622759272860483.250,-11.230,-35.156,-29.297,3.418,1.000
1622759272864389.500,-58.105,-30.762,-36.621,-64.453,1.000
1622759272868295.750,-103.516,-29.785,-41.504,-94.727,1.000
1622759272872202.000,-61.523,-41.504,-37.109,-45.898,1.000
1622759272876108.250,-27.832,-49.316,-32.715,-24.414,1.000
1622759272880014.500,-47.363,-20.996,-26.855,-71.777,1.000
1622759272883920.750,-101.562,-21.973,-43.457,-102.539,1.000
1622759272887827.000,-93.750,-27.832,-44.434,-74.707,1.000
1622759272891733.250,-35.156,-17.578,-35.156,-56.641,1.000
1622759272895639.500,-69.824,-47.852,-38.086,-99.609,1.000
1622759272899545.750,-147.949,-50.293,-41.504,-137.207,1.000
1622759272903452.000,-136.719,-12.207,-55.176,-116.699,1.000
1622759272907358.250,-57.617,-15.137,-51.758,1.000,1.000
1622759272911264.500,-53.711,-51.270,-26.367,1.000,1.000
1622759272915170.750,-131.348,-81.055,-49.316,1.000,1.000
1622759272919077.000,-143.555,-48.828,-74.707,1.000,1.000
1622759272922983.250,-103.516,7.812,-41.016,1.000,1.000
1622759272926889.500,-75.195,13.672,-17.090,1.000,1.000
1622759272930795.750,-103.027,-4.883,-28.320,1.000,1.000
1622759272934702.000,-108.887,-20.020,-49.805,1.000,1.000
1622759272938608.250,-57.617,-31.250,-41.992,1.000,1.000
1622759272942514.500,-24.902,-24.902,-16.602,1.000,1.000
1622759272946420.750,-52.734,-24.414,-25.391,1.000,1.000
1622759272950327.000,-102.539,-32.227,-49.316,1.000,1.000
1622759272954233.250,-76.172,-38.574,-40.039,-65.918,1.000
1622759272958139.500,2.930,-41.016,-21.973,-25.391,1.000
1622759272962045.750,-0.977,-28.809,-22.949,-28.320,1.000
1622759272965952.000,-76.172,-28.320,-33.691,-74.707,1.000
1622759272969858.250,-74.219,-30.762,-37.598,-82.031,1.000
1622759272973764.500,-25.391,-20.996,-37.598,-22.461,1.000
1622759272977670.750,-0.977,-12.695,-43.457,-6.836,1.000
1622759272981577.000,-46.387,-16.113,-41.016,-57.129,1.000
1622759272985483.250,-51.758,-11.230,-40.039,-72.754,1.000
1622759272989389.500,-4.883,-15.625,-41.992,-13.184,1.000
1622759272993295.750,12.695,-54.688,-41.992,13.672,1.000
1622759272997202.000,-22.461,-75.195,-45.410,-45.898,1.000
1622759273001108.250,-68.848,-40.527,-37.109,1.000,1.000
1622759273005014.500,-41.504,-7.812,-19.043,1.000,1.000
1622759273008920.750,4.883,6.348,-28.809,1.000,1.000
1622759273012827.000,-7.324,-1.953,-43.945,1.000,1.000
1622759273016733.250,-57.129,-19.043,-32.227,1.000,1.000
1622759273020639.500,-54.199,-5.859,-20.508,1.000,1.000
1622759273024545.750,6.836,-1.953,-20.020,1.000,1.000
1622759273028452.000,4.395,-31.250,-34.668,1.000,1.000
1622759273032358.250,-67.383,-50.781,-54.199,1.000,1.000
1622759273036264.500,-69.824,-50.781,-44.434,1.000,1.000
1622759273040170.750,2.930,-34.668,-30.762,1.000,1.000
1622759273044077.000,32.227,-8.301,-30.762,1.000,1.000
1622759273047983.250,-31.738,-3.906,-35.156,-39.551,1.000
1622759273051889.500,-63.965,-8.789,-33.203,-76.172,1.000
1622759273055795.750,-24.414,-22.949,-20.020,-24.902,1.000
1622759273059702.000,3.906,-34.668,-22.461,-1.465,1.000
1622759273063608.250,-22.461,-8.789,-31.250,-46.387,1.000
1622759273067514.500,-58.594,-5.859,-21.484,-74.707,1.000
1622759273071420.750,-27.832,-11.719,-12.695,-33.203,1.000
1622759273075327.000,41.504,-19.531,-22.461,17.578,1.000
1622759273079233.250,14.648,-45.898,-31.738,1.465,1.000
1622759273083139.500,-55.664,-45.410,-35.156,-44.434,1.000
1622759273087045.750,-48.828,-16.602,-44.922,-29.785,1.000
1622759273090952.000,17.090,12.207,-38.086,17.578,1.000
1622759273094858.250,42.480,-20.508,-11.230,-8.301,1.000
1622759273098764.500,28.809,-22.949,-48.828,-76.172,1.000
1622759273102670.750,-44.922,-39.551,-76.172,-56.641,1.000
1622759273106577.000,-60.547,-52.246,-38.086,11.719,1.000
1622759273110483.250,-18.066,-59.570,-10.742,-3.906,1.000
1622759273114389.500,5.859,-33.691,-10.742,-58.594,1.000
1622759273118295.750,-36.133,-3.906,-19.043,-81.055,1.000
1622759273122202.000,-44.922,-1.465,-20.508,-44.434,1.000
1622759273126108.250,-3.906,-3.418,-27.344,5.859,1.000
1622759273130014.500,2.441,-20.020,-33.203,-28.320,1.000
1622759273133920.750,-35.156,-42.480,-32.715,-74.707,1.000
1622759273137827.000,-65.430,-44.922,-42.969,-33.691,1.000
1622759273141733.250,-33.203,-57.617,-43.457,1.000,1.000
1622759273145639.500,13.184,-49.316,-40.527,1.000,1.000
1622759273149545.750,-4.395,-28.809,-27.832,1.000,1.000
1622759273153452.000,-69.336,-24.414,-28.320,1.000,1.000
1622759273157358.250,-54.688,-17.090,-27.832,1.000,1.000
1622759273161264.500,6.348,-8.789,-28.320,1.000,1.000
1622759273165170.750,-2.441,-0.488,-33.203,1.000,1.000
1622759273169077.000,-56.152,-7.324,-24.902,1.000,1.000
1622759273172983.250,-60.059,-29.297,-13.184,1.000,1.000
1622759273176889.500,-6.836,-27.344,-14.648,1.000,1.000
1622759273180795.750,9.277,-20.996,-29.297,1.000,1.000
1622759273184702.000,-38.574,-42.480,-53.711,1.000,1.000
1622759273188608.250,-59.082,-48.340,-49.805,-48.828,1.000
1622759273192514.500,-18.555,-33.203,-13.184,2.441,1.000
1622759273196420.750,13.184,-28.809,-1.953,23.926,1.000
1622759273200327.000,-31.250,-32.715,-21.484,-39.551,1.000
1622759273204233.250,-88.379,-34.180,-32.715,-87.891,1.000
1622759273208139.500,-52.734,-43.945,-24.414,-37.598,1.000
1622759273212045.750,3.906,-33.203,-21.973,17.090,1.000
1622759273215952.000,-11.719,-26.855,-28.320,-13.184,1.000
1622759273219858.250,-64.453,-41.992,-37.109,-63.477,1.000
1622759273223764.500,-41.504,-43.457,-23.438,-34.180,1.000
1622759273227670.750,20.508,-41.992,-5.371,28.809,1.000
1622759273231577.000,11.719,-32.715,-24.414,7.324,1.000
1622759273235483.250,3.418,0.488,-17.578,-9.766,1.000
1622759273239389.500,-16.602,-8.301,-23.438,-33.203,1.000
1622759273243295.750,-53.711,-5.859,-16.113,-62.012,1.000
1622759273247202.000,-45.898,-31.250,-28.320,-45.898,1.000
1622759273251108.250,-0.977,-57.617,-53.711,-6.836,1.000
1622759273255014.500,-4.883,-56.641,-62.012,-19.531,1.000
1622759273258920.750,-70.801,-35.645,-48.828,-77.637,1.000
1622759273262827.000,-80.078,-17.090,-24.414,-69.336,1.000
1622759273266733.250,-29.785,-6.348,-13.672,-13.672,1.000
1622759273270639.500,-19.531,-11.230,-24.902,-7.812,1.000
1622759273274545.750,-55.176,-28.809,-39.062,-48.340,1.000
1622759273278452.000,-81.543,-37.109,-43.945,-69.336,1.000
1622759273282358.250,-22.949,-20.508,-34.180,1.000,1.000
1622759273286264.500,6.348,-30.762,-54.688,1.000,1.000
1622759273290170.750,-49.805,-41.504,-44.922,1.000,1.000
1622759273294077.000,-80.566,-47.852,-21.484,1.000,1.000
1622759273297983.250,-38.086,-56.641,-27.832,1.000,1.000
1622759273301889.500,8.789,-49.316,-7.324,1.000,1.000
1622759273305795.750,-19.043,-28.809,3.418,1.000,1.000
1622759273309702.000,-73.730,0.488,-9.766,1.000,1.000
1622759273313608.250,-59.570,-0.977,-7.324,1.000,1.000
1622759273317514.500,11.719,-48.340,-8.301,1.000,1.000
1622759273321420.750,17.090,-51.270,-30.273,1.000,1.000
1622759273325327.000,-53.223,-5.859,-39.062,1.000,1.000
1622759273329233.250,-78.613,0.488,-26.855,1.000,1.000
1622759273333139.500,-38.086,-14.648,-23.926,1.000,1.000
1622759273337045.750,-17.578,-32.715,-36.621,1.000,1.000
1622759273340952.000,-56.641,-44.922,-52.734,1.000,1.000
1622759273344858.250,-75.195,-59.082,-47.363,1.000,1.000
1622759273348764.500,-21.484,-54.688,-34.668,1.000,1.000
1622759273352670.750,6.836,-40.527,-46.875,1.000,1.000
1622759273356577.000,-31.250,-36.621,-41.992,1.000,1.000
1622759273360483.250,-70.801,-23.926,-18.555,1.000,1.000
1622759273364389.500,-53.223,-13.672,-18.555,1.000,1.000
1622759273368295.750,-8.301,-12.207,-18.066,1.000,1.000
1622759273372202.000,-17.578,-19.531,-13.672,1.000,1.000
1622759273376108.250,-68.848,-15.137,-24.902,-67.383,1.000
1622759273380014.500,-68.359,-4.395,-42.480,-62.988,1.000
1622759273383920.750,0.977,-0.977,-26.855,-0.977,1.000
1622759273387827.000,14.160,-26.855,-28.320,-0.488,1.000
1622759273391733.250,-51.270,-48.828,-61.035,-63.965,1.000
1622759273395639.500,-75.195,-60.547,-48.828,-75.684,1.000
1622759273399545.750,-25.391,-46.875,-21.484,-19.043,1.000
1622759273403452.000,4.883,-14.160,-9.277,7.324,1.000
1622759273407358.250,-49.316,-24.414,-23.438,-44.434,1.000
1622759273411264.500,-88.379,-21.973,-29.785,-73.730,1.000
1622759273415170.750,-48.340,-22.461,-22.461,-36.133,1.000
1622759273419077.000,-10.742,-35.645,-28.809,-13.184,1.000
1622759273422983.250,2.441,-27.344,-20.508,-45.410,1.000
1622759273426889.500,-52.246,-18.555,-26.855,-78.125,1.000
1622759273430795.750,-92.285,-8.301,-36.133,-42.969,1.000
1622759273434702.000,-54.199,-26.367,-21.484,0.488,1.000
1622759273438608.250,-2.930,-42.969,-13.184,-37.598,1.000
1622759273442514.500,-20.020,-67.383,-18.066,-80.566,1.000
1622759273446420.750,-64.941,-70.801,-38.574,-50.781,1.000
1622759273450327.000,-58.105,-34.180,-37.598,1.953,1.000
1622759273454233.250,-5.859,-18.066,-31.250,3.418,1.000
1622759273458139.500,-13.672,-30.762,-48.828,-49.805,1.000
1622759273462045.750,-67.871,-22.461,-25.391,-59.570,1.000
1622759273465952.000,-66.406,-33.203,-11.719,-6.836,1.000
1622759273469858.250,-20.020,-40.039,-24.902,1.000,1.000
1622759273473764.500,-0.977,-12.695,-22.461,1.000,1.000
1622759273477670.750,-50.781,-5.859,-29.297,1.000,1.000
1622759273481577.000,-80.566,-31.738,-49.805,1.000,1.000
1622759273485483.250,-17.090,-37.598,-49.805,1.000,1.000
1622759273489389.500,18.555,-18.555,-45.898,1.000,1.000
1622759273493295.750,-28.809,-34.180,-55.176,1.000,1.000
1622759273497202.000,-81.055,-33.691,-41.992,1.000,1.000
1622759273501108.250,-52.734,-14.160,-17.578,1.000,1.000
1622759273505014.500,-3.418,-32.715,-18.555,1.000,1.000
1622759273508920.750,-22.949,-53.223,-27.832,1.000,1.000
1622759273512827.000,-66.406,-34.668,-35.645,1.000,1.000
1622759273516733.250,-51.270,-12.695,-28.320,1.000,1.000
1622759273520639.500,0.000,-38.086,-21.484,1.000,1.000
1622759273524545.750,-3.906,-41.992,-30.762,1.000,1.000
1622759273528452.000,-65.918,-22.461,-46.875,1.000,1.000
1622759273532358.250,-82.520,-26.855,-36.133,1.000,1.000
1622759273536264.500,-35.645,-38.086,-29.297,1.000,1.000
1622759273540170.750,-10.742,-49.805,-32.227,1.000,1.000
1622759273544077.000,-56.641,-41.992,-29.785,1.000,1.000
1622759273547983.250,-88.379,-37.109,-46.387,1.000,1.000
1622759273551889.500,-32.715,-22.949,-51.270,1.000,1.000
1622759273555795.750,16.113,-9.766,-36.621,1.000,1.000
1622759273559702.000,-27.832,-11.719,-32.227,1.000,1.000
1622759273563608.250,-81.055,-8.301,-20.508,-78.613,1.000
1622759273567514.500,-53.223,-31.250,-16.113,-43.945,1.000
1622759273571420.750,-0.488,-48.828,-22.949,4.395,1.000
1622759273575327.000,-8.789,-48.828,-22.949,-16.113,1.000
1622759273579233.250,-64.453,-41.504,-44.434,-76.172,1.000
1622759273583139.500,-65.430,-29.785,-63.477,-67.383,1.000
1622759273587045.750,-8.301,-18.066,-38.574,-6.348,1.000
1622759273590952.000,-5.371,-16.602,-27.832,-17.090,1.000
1622759273594858.250,-54.688,-14.160,-44.922,-73.242,1.000
1622759273598764.500,-57.617,-11.230,-29.785,-65.430,1.000
1622759273602670.750,0.000,-32.227,-24.902,-7.812,1.000
1622759273606577.000,27.344,-36.621,-17.578,12.207,1.000
1622759273610483.250,15.137,-24.414,-13.672,-14.648,1.000
1622759273614389.500,6.836,-0.488,-13.672,-72.266,1.000
1622759273618295.750,-54.199,-13.672,-21.484,-76.172,1.000
1622759273622202.000,-78.125,-23.438,-43.945,-24.902,1.000
1622759273626108.250,-28.809,-30.762,-60.059,0.488,1.000
1622759273630014.500,3.906,-40.527,-57.617,-42.969,1.000
1622759273633920.750,-42.969,-27.832,-44.922,-79.590,1.000
1622759273637827.000,-79.102,-16.602,-16.602,-38.574,1.000
1622759273641733.250,-41.992,-21.973,-9.766,13.184,1.000
1622759273645639.500,3.906,-21.484,-20.508,-24.414,1.000
1622759273649545.750,-21.484,-35.156,-14.160,-71.289,1.000
1622759273653452.000,-65.918,-41.016,-9.766,-36.621,1.000
1622759273657358.250,-36.621,-27.832,-18.066,1.000,1.000
1622759273661264.500,5.859,-27.344,-20.996,1.000,1.000
1622759273665170.750,-21.973,-17.578,-34.668,1.000,1.000
1622759273669077.000,-76.172,-16.602,-45.898,1.000,1.000
1622759273672983.250,-68.848,-22.461,-51.758,1.000,1.000
1622759273676889.500,-10.742,-29.297,-46.387,1.000,1.000
1622759273680795.750,-7.812,-42.480,-26.855,1.000,1.000
1622759273684702.000,-66.895,-45.898,-40.527,1.000,1.000
1622759273688608.250,-69.824,-37.109,-49.805,1.000,1.000
1622759273692514.500,-9.277,-26.367,-31.250,1.000,1.000
1622759273696420.750,-2.441,-24.414,-20.508,1.000,1.000
1622759273700327.000,-63.477,-33.203,-30.273,1.000,1.000
1622759273704233.250,5.371,-13.184,-20.020,1.465,1.000
1622759273708139.500,-30.273,-24.902,-38.086,-35.645,1.000
1622759273712045.750,-99.121,-49.316,-55.664,-102.539,1.000
1622759273715952.000,-79.590,-61.035,-38.574,-80.078,1.000
1622759273719858.250,-13.672,-55.664,-27.832,-18.066,1.000
1622759273723764.500,-8.301,-39.551,-30.273,-29.297,1.000
1622759273727670.750,-64.453,-39.062,-44.434,-88.379,1.000
1622759273731577.000,-74.707,-25.879,-52.246,-84.473,1.000
1622759273735483.250,-27.344,-2.441,-44.922,-32.715,1.000
1622759273739389.500,-4.395,-5.371,-34.180,-21.484,1.000
1622759273743295.750,-47.363,-24.414,-26.855,-61.523,1.000
1622759273747202.000,-81.543,-24.902,-25.391,-73.242,1.000
1622759273751108.250,-35.645,-17.578,-23.438,1.000,1.000
1622759273755014.500,-5.859,-31.250,-26.855,1.000,1.000
1622759273758920.750,-44.922,-43.457,-35.156,1.000,1.000
1622759273762827.000,-86.426,-34.668,-28.809,1.000,1.000
1622759273766733.250,-49.805,-26.367,-11.719,1.000,1.000
1622759273770639.500,0.488,-20.996,-15.625,1.000,1.000
1622759273774545.750,-24.414,-20.508,-36.133,1.000,1.000
1622759273778452.000,-82.031,-23.926,-36.133,1.000,1.000
1622759273782358.250,-71.289,-15.625,-23.926,1.000,1.000
1622759273786264.500,-24.414,-22.461,-20.508,1.000,1.000
1622759273790170.750,-29.785,-15.625,-38.086,1.000,1.000
1622759273794077.000,-65.430,-1.465,-44.922,1.000,1.000
1622759273797983.250,-75.684,-23.926,-42.480,-62.500,1.000
1622759273801889.500,-29.297,-45.898,-35.156,-15.137,1.000
1622759273805795.750,-1.953,-45.410,-19.043,-2.930,1.000
1622759273809702.000,-56.641,-45.898,-25.391,-66.406,1.000
1622759273813608.250,-96.191,-42.480,-29.785,-95.215,1.000
1622759273817514.500,-42.969,-18.555,-38.086,-40.527,1.000
1622759273821420.750,20.020,-3.906,-30.762,8.789,1.000
1622759273825327.000,-2.930,-5.371,-16.602,-15.625,1.000
1622759273829233.250,-70.801,-28.320,-49.316,-70.312,1.000
1622759273833139.500,-57.129,-35.645,-51.270,-49.316,1.000
1622759273837045.750,-0.977,-23.438,-7.324,9.277,1.000
1622759273840952.000,-17.578,-20.508,-9.766,-11.719,1.000
1622759273844858.250,15.137,-46.875,-13.184,-39.551,1.000
1622759273848764.500,-41.016,-53.711,-16.602,-97.168,1.000
1622759273852670.750,-85.938,-42.480,-25.879,-62.500,1.000
1622759273856577.000,-54.199,-24.414,-25.391,1.465,1.000
1622759273860483.250,-6.348,-32.715,-26.855,-9.277,1.000
1622759273864389.500,-27.832,-55.176,-37.598,-53.711,1.000
1622759273868295.750,-97.656,-45.410,-54.199,-46.387,1.000
1622759273872202.000,-84.961,-17.578,-48.340,5.859,1.000
1622759273876108.250,-7.812,-27.832,-34.668,4.883,1.000
1622759273880014.500,-0.488,-27.832,-34.180,-53.711,1.000
1622759273883920.750,-51.758,-25.391,-24.902,-71.289,1.000
1622759273887827.000,-46.387,-58.105,-13.184,-13.672,1.000
1622759273891733.250,8.789,-58.594,-16.602,1.000,1.000
1622759273895639.500,11.719,-26.855,-14.160,1.000,1.000
1622759273899545.750,-53.711,-13.184,-12.207,1.000,1.000
1622759273903452.000,-77.148,-18.555,-26.855,1.000,1.000
1622759273907358.250,-25.879,-33.691,-23.926,1.000,1.000
1622759273911264.500,12.207,-32.227,-16.113,1.000,1.000
1622759273915170.750,-26.855,-31.738,-34.668,1.000,1.000
1622759273919077.000,-75.195,-40.039,-36.133,1.000,1.000
1622759273922983.250,-37.109,-53.711,-11.230,1.000,1.000
1622759273926889.500,14.648,-43.457,-13.184,1.000,1.000
1622759273930795.750,6.348,-33.203,-24.414,1.000,1.000
1622759273934702.000,-52.246,-61.523,-36.621,1.000,1.000
1622759273938608.250,-68.848,-57.129,-41.504,-55.176,1.000
1622759273942514.500,-3.418,-19.531,-16.602,0.488,1.000
1622759273946420.750,3.906,-16.113,-8.789,0.000,1.000
1622759273950327.000,-63.477,-33.691,-22.461,-64.941,1.000
1622759273954233.250,-80.566,-41.504,-24.414,-72.754,1.000
1622759273958139.500,-26.367,-38.086,-20.020,-7.324,1.000
1622759273962045.750,3.906,-41.504,-28.320,14.160,1.000
1622759273965952.000,-44.922,-42.969,-30.273,-41.504,1.000
1622759273969858.250,-86.426,-34.668,-23.926,-72.754,1.000
1622759273973764.500,-45.410,-48.828,-23.926,-21.484,1.000
1622759273977670.750,-1.465,-40.039,-26.367,14.160,1.000
1622759273981577.000,-44.434,-22.461,-46.387,-40.039,1.000
1622759273985483.250,8.789,-10.742,-3.906,0.488,1.000
1622759273989389.500,18.066,-45.898,-5.371,-0.488,1.000
1622759273993295.750,-36.621,-61.035,-25.391,-49.316,1.000
1622759273997202.000,-37.109,-24.902,-39.551,-32.227,1.000
1622759274001108.250,6.348,-3.418,-35.645,10.254,1.000
1622759274005014.500,7.324,-12.207,-19.531,4.883,1.000
1622759274008920.750,-42.969,-3.906,-31.250,-39.062,1.000
1622759274012827.000,-77.148,0.488,-49.805,-69.824,1.000
1622759274016733.250,-31.738,3.418,-40.039,-29.297,1.000
1622759274020639.500,6.348,-10.742,-25.391,6.836,1.000
1622759274024545.750,-38.086,-31.738,-28.809,-39.551,1.000
1622759274028452.000,-73.242,-25.879,-25.879,-67.871,1.000
1622759274032358.250,-40.527,-43.457,-18.066,1.000,1.000
1622759274036264.500,11.230,-58.594,-20.996,1.000,1.000
1622759274040170.750,-7.324,-28.320,-39.551,1.000,1.000
1622759274044077.000,-64.941,-0.488,-29.785,1.000,1.000
1622759274047983.250,-64.453,-10.742,-15.625,1.000,1.000
1622759274051889.500,-28.320,-27.344,-36.133,1.000,1.000
1622759274055795.750,-22.949,-18.066,-40.039,1.000,1.000
1622759274059702.000,-74.707,-11.719,-42.969,1.000,1.000
1622759274063608.250,-84.961,-14.160,-54.199,1.000,1.000
1622759274067514.500,-26.855,-28.809,-46.875,1.000,1.000
1622759274071420.750,-14.648,-70.801,-39.062,1.000,1.000
1622759274075327.000,-55.176,-70.312,-24.414,1.000,1.000
1622759274079233.250,-6.348,-54.688,-7.812,-21.973,1.000
1622759274083139.500,-40.039,-54.199,-24.414,-82.031,1.000
1622759274087045.750,-91.309,-43.945,-24.902,-75.684,1.000
1622759274090952.000,-64.941,-13.184,-5.371,-24.902,1.000
1622759274094858.250,-5.859,5.859,-20.508,-12.695,1.000
1622759274098764.500,-16.602,-22.949,-33.203,-60.059,1.000
1622759274102670.750,-69.824,-47.852,-34.668,-78.613,1.000
1622759274106577.000,-75.684,-34.668,-49.805,-21.973,1.000
1622759274110483.250,-27.832,-23.926,-44.434,11.719,1.000
1622759274114389.500,-1.465,-25.391,-43.457,-40.527,1.000
1622759274118295.750,-39.551,-43.457,-47.363,-91.309,1.000
1622759274122202.000,-77.148,-58.105,-33.691,-49.316,1.000
1622759274126108.250,-40.527,-34.180,-24.902,1.000,1.000
1622759274130014.500,-3.906,-10.742,-17.090,1.000,1.000
1622759274133920.750,-38.574,-20.996,-21.484,1.000,1.000
1622759274137827.000,-85.449,-32.227,-34.180,1.000,1.000
1622759274141733.250,-53.223,-26.855,-36.621,1.000,1.000
1622759274145639.500,-6.348,-46.387,-43.945,1.000,1.000
1622759274149545.750,-21.484,-44.922,-46.875,1.000,1.000
1622759274153452.000,-71.289,-27.344,-28.809,1.000,1.000
1622759274157358.250,-72.754,-22.461,-20.996,1.000,1.000
1622759274161264.500,-11.230,-35.156,-16.602,1.000,1.000
1622759274165170.750,20.508,-28.320,-13.184,1.000,1.000
1622759274169077.000,-28.320,-10.254,-15.625,1.000,1.000
1622759274172983.250,-75.684,-32.227,-16.113,1.000,1.000
1622759274176889.500,-35.645,-32.227,-23.438,1.000,1.000
1622759274180795.750,-7.812,-32.227,-39.551,1.000,1.000
1622759274184702.000,-47.852,-32.227,-39.551,1.000,1.000
1622759274188608.250,-74.707,-27.344,-28.320,1.000,1.000
1622759274192514.500,-37.598,-48.828,-31.250,1.000,1.000
1622759274196420.750,4.883,-48.828,-26.855,1.000,1.000
1622759274200327.000,-20.020,-13.672,-18.066,1.000,1.000
1622759274204233.250,-73.242,-23.438,-19.043,1.000,1.000
1622759274208139.500,-50.293,-29.785,-16.113,1.000,1.000
1622759274212045.750,5.371,-15.625,-25.879,1.000,1.000
1622759274215952.000,-12.695,-18.066,-57.617,1.000,1.000
1622759274219858.250,-52.246,-18.066,-50.293,-63.477,1.000
1622759274223764.500,-54.199,-28.809,-26.367,-56.641,1.000
1622759274227670.750,-5.371,-36.621,-17.578,-11.230,1.000
1622759274231577.000,17.090,-39.062,-17.090,3.906,1.000
1622759274235483.250,-47.852,-53.711,-33.691,-58.594,1.000
1622759274239389.500,-77.148,-57.129,-34.668,-80.078,1.000
1622759274243295.750,-23.438,-27.832,-37.109,-21.484,1.000
1622759274247202.000,6.836,-24.902,-45.898,1.953,1.000
1622759274251108.250,-31.250,-31.738,-45.410,-47.852,1.000
1622759274255014.500,-75.684,-18.555,-46.387,-85.938,1.000
1622759274258920.750,-34.668,-15.137,-35.645,-38.574,1.000
1622759274262827.000,15.625,-22.461,-39.062,-1.465,1.000
1622759274266733.250,14.160,-9.277,-32.715,-36.133,1.000
1622759274270639.500,-33.203,-5.371,-43.945,-72.754,1.000
1622759274274545.750,-77.148,-28.320,-36.133,-48.340,1.000
1622759274278452.000,-53.711,-46.387,-31.250,0.488,1.000
1622759274282358.250,-5.859,-43.945,-35.156,-28.809,1.000
1622759274286264.500,-18.555,-37.109,-53.223,-94.727,1.000
1622759274290170.750,-69.336,-42.480,-57.617,-88.379,1.000
1622759274294077.000,-48.828,-39.551,-14.648,-31.250,1.000
1622759274297983.250,0.000,-22.949,-2.930,-23.438,1.000
1622759274301889.500,-7.812,-6.836,-36.133,-79.102,1.000
1622759274305795.750,-56.641,6.348,-36.621,-96.191,1.000
1622759274309702.000,-61.035,-2.930,-5.371,-32.715,1.000
1622759274313608.250,-12.695,-31.738,6.348,1.000,1.000
1622759274317514.500,11.230,-32.227,-12.207,1.000,1.000
1622759274321420.750,-41.504,-36.621,-40.039,1.000,1.000
1622759274325327.000,-86.914,-48.340,-43.457,1.000,1.000
1622759274329233.250,-40.039,-68.359,-30.762,1.000,1.000
1622759274333139.500,10.742,-54.688,-25.391,1.000,1.000
1622759274337045.750,-24.414,-4.395,-25.391,1.000,1.000
1622759274340952.000,-70.801,3.906,-20.508,1.000,1.000
1622759274344858.250,-46.387,-21.484,-15.137,1.000,1.000
1622759274348764.500,-19.043,-25.391,-18.066,1.000,1.000
1622759274352670.750,-38.086,-27.344,-23.926,1.000,1.000
1622759274356577.000,-86.426,-47.852,-21.973,1.000,1.000
1622759274360483.250,1.953,-13.672,-16.113,-11.230,1.000
1622759274364389.500,-46.387,2.441,-29.297,-62.988,1.000
1622759274368295.750,-80.078,-9.277,-39.062,-76.660,1.000
1622759274372202.000,-20.508,-37.109,-34.668,-15.137,1.000
1622759274376108.250,19.531,-42.480,-33.203,17.578,1.000
1622759274380014.500,-32.715,-32.715,-42.480,-27.832,1.000
1622759274383920.750,-79.590,-28.809,-30.273,-70.312,1.000
1622759274387827.000,-57.617,-38.086,-18.066,-44.922,1.000
1622759274391733.250,-16.113,-43.457,-21.484,0.000,1.000
1622759274395639.500,-28.809,-29.785,-30.762,-26.367,1.000
1622759274399545.750,-77.148,-25.879,-42.480,-81.055,1.000
1622759274403452.000,-64.453,-26.367,-44.922,-60.547,1.000
1622759274407358.250,-3.906,-33.691,-38.574,1.000,1.000
1622759274411264.500,-0.977,-33.203,-31.250,1.000,1.000
1622759274415170.750,-53.711,-30.273,-20.020,1.000,1.000
1622759274419077.000,-73.730,-62.988,-19.043,1.000,1.000
1622759274422983.250,-15.137,-55.176,-3.906,1.000,1.000
1622759274426889.500,22.461,-12.695,-2.441,1.000,1.000
1622759274430795.750,-22.461,-5.859,-24.902,1.000,1.000
1622759274434702.000,-67.871,-13.672,-22.949,1.000,1.000
1622759274438608.250,-43.945,-19.043,-22.949,1.000,1.000
1622759274442514.500,-6.836,-16.602,-27.832,1.000,1.000
1622759274446420.750,-33.203,-29.785,-30.762,1.000,1.000
1622759274450327.000,-76.660,-37.109,-29.785,1.000,1.000
1622759274454233.250,-51.758,-32.715,-16.602,1.000,1.000
1622759274458139.500,8.301,-24.902,-14.648,1.000,1.000
1622759274462045.750,4.883,-32.227,-26.855,1.000,1.000
1622759274465952.000,-53.223,-59.082,-32.227,1.000,1.000
1622759274469858.250,-56.152,-46.875,-20.020,1.000,1.000
1622759274473764.500,-5.859,-16.113,-7.324,1.000,1.000
1622759274477670.750,0.000,-11.719,-29.297,1.000,1.000
1622759274481577.000,-56.152,-22.461,-42.969,1.000,1.000
1622759274485483.250,-83.984,-30.762,-40.527,1.000,1.000
1622759274489389.500,-25.879,-8.789,-39.062,1.000,1.000
1622759274493295.750,20.020,-7.324,-29.785,1.000,1.000
1622759274497202.000,-25.391,-43.457,-26.855,1.000,1.000
1622759274501108.250,5.371,-39.551,-32.715,2.930,1.000
1622759274505014.500,-12.207,-34.668,-26.367,-20.020,1.000
1622759274508920.750,-64.941,-23.926,-22.461,-69.336,1.000
1622759274512827.000,-59.082,-49.805,-38.574,-52.734,1.000
1622759274516733.250,-11.230,-62.988,-37.598,-0.977,1.000
1622759274520639.500,3.418,-29.297,-24.902,-2.441,1.000
1622759274524545.750,-53.711,-18.066,-39.551,-59.082,1.000
1622759274528452.000,-69.336,-12.695,-35.156,-62.988,1.000
1622759274532358.250,-9.766,-17.578,-21.484,-5.371,1.000
1622759274536264.500,9.277,-47.363,-20.996,6.836,1.000
1622759274540170.750,-42.480,-46.387,-35.645,-47.363,1.000
1622759274544077.000,-74.707,-34.180,-41.992,-69.824,1.000
1622759274547983.250,-31.250,-51.270,-18.555,1.000,1.000
1622759274551889.500,15.137,-27.344,3.418,1.000,1.000
1622759274555795.750,-12.695,10.742,-14.648,1.000,1.000
1622759274559702.000,-61.523,-9.277,-45.898,1.000,1.000
1622759274563608.250,-26.367,-26.855,-31.250,1.000,1.000
1622759274567514.500,32.227,-6.348,-5.371,1.000,1.000
1622759274571420.750,10.742,-18.555,-13.184,1.000,1.000
1622759274575327.000,-51.758,-44.434,-24.414,1.000,1.000
1622759274579233.250,-55.664,-28.320,-18.066,1.000,1.000
1622759274583139.500,-1.953,-20.020,-6.836,1.000,1.000
1622759274587045.750,12.207,-27.832,-10.254,1.000,1.000
1622759274590952.000,-41.992,-20.020,-25.391,1.000,1.000
1622759274594858.250,-55.176,2.930,-15.625,1.000,1.000
1622759274598764.500,-5.859,0.977,-6.836,1.000,1.000
1622759274602670.750,17.578,-30.273,-5.859,1.000,1.000
1622759274606577.000,-20.020,-33.203,-19.531,1.000,1.000
1622759274610483.250,-63.965,-30.273,-39.062,1.000,1.000
1622759274614389.500,-30.273,-39.551,-40.039,1.000,1.000
1622759274618295.750,14.160,-38.574,-32.227,1.000,1.000
1622759274622202.000,-20.020,-34.180,-29.785,1.000,1.000
1622759274626108.250,-74.707,-20.508,-42.480,1.000,1.000
1622759274630014.500,-49.316,-9.277,-44.922,1.000,1.000
1622759274633920.750,9.277,-19.531,-23.926,1.000,1.000
1622759274637827.000,-6.348,-54.199,-21.484,1.000,1.000
1622759274641733.250,13.184,-20.020,-24.414,-23.926,1.000
1622759274645639.500,-17.090,-28.809,-30.762,-80.078,1.000
1622759274649545.750,-62.988,-28.809,-27.344,-61.523,1.000
1622759274653452.000,-29.297,-36.621,-20.508,-4.395,1.000
1622759274657358.250,23.926,-46.875,-28.320,-6.348,1.000
1622759274661264.500,0.000,-46.387,-26.855,-60.059,1.000
1622759274665170.750,-48.828,-48.340,-15.137,-61.035,1.000
1622759274669077.000,-38.086,-39.062,-11.719,-4.883,1.000
1622759274672983.250,17.090,-12.695,-10.742,16.602,1.000
1622759274676889.500,25.391,-3.906,-17.578,-42.969,1.000
1622759274680795.750,-44.434,-20.996,-40.527,-86.914,1.000
1622759274684702.000,-72.754,-41.504,-42.480,-38.086,1.000
1622759274688608.250,-13.672,-44.434,-29.297,-17.090,1.000
1622759274692514.500,10.742,-25.879,-31.250,2.441,1.000
1622759274696420.750,-37.598,-22.949,-27.344,-52.246,1.000
1622759274700327.000,-77.148,-24.902,-25.391,-83.008,1.000
1622759274704233.250,-30.762,-26.367,-34.180,-28.320,1.000
1622759274708139.500,20.508,-56.152,-29.785,12.207,1.000
1622759274712045.750,-21.484,-79.590,-32.715,-32.715,1.000
1622759274715952.000,-68.848,-33.691,-30.273,-63.965,1.000
1622759274719858.250,-53.223,13.184,-26.855,-37.109,1.000
1622759274723764.500,-20.996,-4.395,-42.969,-4.883,1.000
1622759274727670.750,-33.691,-23.926,-49.805,-25.391,1.000
1622759274731577.000,-84.473,-30.273,-48.828,-78.613,1.000
1622759274735483.250,15.625,-39.551,-45.410,12.695,1.000
1622759274739389.500,-38.574,-29.297,-30.273,-43.457,1.000
1622759274743295.750,-76.660,-13.184,-28.809,-74.707,1.000
1622759274747202.000,-19.043,-10.254,-20.996,-17.090,1.000
1622759274751108.250,27.344,-11.230,-20.020,12.695,1.000
1622759274755014.500,-10.742,-16.113,-27.344,-36.133,1.000
1622759274758920.750,-60.059,-26.367,-25.879,-66.406,1.000
1622759274762827.000,-48.828,-30.273,-28.320,-37.109,1.000
1622759274766733.250,2.441,-15.137,-27.832,5.371,1.000
1622759274770639.500,0.977,-0.488,-26.855,-12.207,1.000
1622759274774545.750,-68.359,-18.555,-41.504,-80.566,1.000
1622759274778452.000,-83.008,-37.598,-42.480,-79.102,1.000
1622759274782358.250,-13.184,-42.480,-32.227,1.000,1.000
1622759274786264.500,1.465,-40.527,-36.621,1.000,1.000
1622759274790170.750,-54.688,-37.109,-45.410,1.000,1.000
1622759274794077.000,-71.289,-43.457,-41.504,1.000,1.000
1622759274797983.250,-24.414,-41.016,-30.273,1.000,1.000
1622759274801889.500,20.508,-7.324,-19.043,1.000,1.000
1622759274805795.750,-23.926,-10.742,-25.879,1.000,1.000
1622759274809702.000,-83.496,-35.156,-51.270,1.000,1.000
1622759274813608.250,-43.945,-20.508,-54.199,1.000,1.000
1622759274817514.500,5.859,-12.695,-31.738,1.000,1.000
1622759274821420.750,-16.113,-25.391,-22.949,1.000,1.000
1622759274825327.000,-70.801,-43.457,-41.016,1.000,1.000
1622759274829233.250,-63.477,-38.086,-30.762,1.000,1.000
1622759274833139.500,-10.254,-18.555,-19.043,1.000,1.000
1622759274837045.750,-17.090,-20.508,-29.785,1.000,1.000
1622759274840952.000,-79.102,-32.715,-31.738,1.000,1.000
1622759274844858.250,-72.754,-20.508,-30.762,1.000,1.000
1622759274848764.500,5.859,-2.441,-19.043,1.000,1.000
1622759274852670.750,-2.441,-18.066,-37.109,1.000,1.000
1622759274856577.000,-63.965,-27.832,-53.223,1.000,1.000
1622759274860483.250,-78.125,-7.812,-43.945,1.000,1.000
1622759274864389.500,-27.832,-23.926,-37.109,1.000,1.000
1622759274868295.750,3.906,-63.477,-38.086,1.000,1.000
1622759274872202.000,-36.621,-55.664,-54.688,1.000,1.000
1622759274876108.250,0.000,-15.625,-56.152,-6.348,1.000
1622759274880014.500,-45.410,-20.996,-50.781,-53.711,1.000
1622759274883920.750,-56.641,-38.086,-32.227,-58.105,1.000
1622759274887827.000,4.395,-30.762,-13.184,7.324,1.000
1622759274891733.250,27.344,-24.414,-8.301,25.879,1.000
1622759274895639.500,-40.527,-15.625,-31.250,-32.227,1.000
1622759274899545.750,-83.008,-9.766,-51.270,-65.918,1.000
1622759274903452.000,-53.711,-29.785,-46.387,-31.250,1.000
1622759274907358.250,-11.230,-71.777,-38.574,4.883,1.000
1622759274911264.500,-32.227,-57.617,-27.832,-34.668,1.000
1622759274915170.750,-92.285,1.953,-28.320,-84.473,1.000
1622759274919077.000,-71.777,8.301,-26.367,-51.270,1.000
1622759274922983.250,-23.438,-7.324,-14.648,1.000,1.000
1622759274926889.500,-34.668,-15.137,-18.555,1.000,1.000
1622759274930795.750,-94.727,-28.809,-28.320,1.000,1.000
1622759274934702.000,-89.355,-39.062,-15.137,1.000,1.000
1622759274938608.250,-26.367,-38.574,-12.695,1.000,1.000
1622759274942514.500,-30.762,-34.180,-35.645,1.000,1.000
1622759274946420.750,-74.707,-30.762,-36.133,1.000,1.000
1622759274950327.000,-93.262,-44.434,-37.598,1.000,1.000
1622759274954233.250,-58.105,-55.664,-39.551,1.000,1.000
1622759274958139.500,-24.902,-43.945,-21.973,1.000,1.000
1622759274962045.750,-59.082,-31.738,-24.902,1.000,1.000
1622759274965952.000,-91.797,-33.203,-42.480,1.000,1.000
1622759274969858.250,-51.270,-28.320,-38.086,1.000,1.000
1622759274973764.500,-11.719,-23.438,-25.391,1.000,1.000
1622759274977670.750,-37.109,-29.297,-20.996,1.000,1.000
1622759274981577.000,-82.520,-47.363,-25.391,1.000,1.000
1622759274985483.250,-66.406,-36.133,-33.691,1.000,1.000
1622759274989389.500,-10.742,-21.484,-36.621,1.000,1.000
1622759274993295.750,-18.066,-43.945,-42.480,1.000,1.000
1622759274997202.000,-75.684,-63.477,-32.227,1.000,1.000
1622759275001108.250,-59.570,-31.738,-23.438,1.000,1.000
1622759275005014.500,21.973,12.207,-20.996,1.000,1.000
1622759275008920.750,34.180,-20.508,-15.625,1.000,1.000
1622759275012827.000,-39.062,-55.664,-24.414,1.000,1.000
1622759275016733.250,-77.148,-52.734,-20.020,1.000,1.000
1622759275020639.500,-28.320,-36.621,-21.484,1.000,1.000
1622759275024545.750,11.719,-15.625,-25.391,1.000,1.000
1622759275028452.000,-30.762,-28.320,-34.180,1.000,1.000
1622759275032358.250,-73.730,-30.762,-49.805,1.000,1.000
1622759275036264.500,-42.969,-1.465,-40.527,1.000,1.000
1622759275040170.750,-1.465,-30.273,-38.574,1.000,1.000
1622759275044077.000,-15.137,-57.129,-34.668,1.000,1.000
1622759275047983.250,-66.895,-29.785,-23.438,1.000,1.000
1622759275051889.500,-66.895,-20.020,-25.879,1.000,1.000
1622759275055795.750,-10.254,-16.113,-21.973,1.000,1.000
1622759275059702.000,-11.719,-18.066,-19.043,1.000,1.000
1622759275063608.250,33.203,-22.949,-52.246,-9.277,1.000
1622759275067514.500,-5.371,-37.109,-36.621,-55.176,1.000
1622759275071420.750,-84.473,-49.805,-31.738,-55.664,1.000
1622759275075327.000,-59.570,-58.594,-35.156,6.348,1.000
1622759275079233.250,19.531,-29.297,-38.086,-6.836,1.000
1622759275083139.500,-0.977,-9.766,-24.902,-66.895,1.000
1622759275087045.750,-69.336,-39.062,-12.695,-83.008,1.000
1622759275090952.000,-65.430,-41.992,-13.672,-34.180,1.000
1622759275094858.250,-7.324,-12.695,-30.273,-1.953,1.000
1622759275098764.500,-3.906,0.977,-57.129,-46.875,1.000
1622759275102670.750,-68.359,-20.020,-52.246,-65.918,1.000
1622759275106577.000,-81.055,-52.734,-25.391,-19.531,1.000
1622759275110483.250,-28.320,-58.594,-27.344,1.000,1.000
1622759275114389.500,-6.348,-29.297,-38.086,1.000,1.000
1622759275118295.750,-41.992,-0.488,-49.316,1.000,1.000
1622759275122202.000,-71.777,1.465,-40.527,1.000,1.000
1622759275126108.250,-41.992,-16.113,-23.438,1.000,1.000
1622759275130014.500,11.719,-17.578,-14.160,1.000,1.000
1622759275133920.750,-13.184,-38.574,-24.414,1.000,1.000
1622759275137827.000,-69.336,-36.621,-42.480,1.000,1.000
1622759275141733.250,-42.480,-3.418,-37.598,1.000,1.000
1622759275145639.500,9.277,-10.742,-33.203,1.000,1.000
1622759275149545.750,2.930,-48.340,-40.527,1.000,1.000
1622759275153452.000,-39.062,-53.223,-29.297,1.000,1.000
1622759275157358.250,11.719,-21.484,-14.160,2.930,1.000
1622759275161264.500,-29.785,-39.551,-25.879,-46.387,1.000
1622759275165170.750,-79.590,-46.387,-46.387,-78.613,1.000
1622759275169077.000,-32.227,-34.180,-42.969,-36.133,1.000
1622759275172983.250,25.391,-25.391,-28.320,14.160,1.000
1622759275176889.500,-17.578,-20.996,-39.062,-23.438,1.000
1622759275180795.750,-68.848,-5.859,-45.898,-71.289,1.000
1622759275184702.000,-47.852,-4.395,-40.527,-39.062,1.000
1622759275188608.250,7.812,-20.020,-36.621,11.230,1.000
1622759275192514.500,8.301,-38.086,-33.203,-7.812,1.000
1622759275196420.750,-46.387,-60.059,-35.156,-56.641,1.000
1622759275200327.000,-47.363,-44.922,-18.555,-41.504,1.000
1622759275204233.250,3.906,-18.555,-13.184,1.000,1.000
1622759275208139.500,6.836,-15.137,-39.551,1.000,1.000
1622759275212045.750,-42.969,-16.602,-52.734,1.000,1.000
1622759275215952.000,-75.195,-28.809,-45.410,1.000,1.000
1622759275219858.250,-28.809,-16.602,-25.391,1.000,1.000
1622759275223764.500,15.625,-8.789,-23.438,1.000,1.000
1622759275227670.750,-26.367,-17.090,-36.133,1.000,1.000
1622759275231577.000,-79.590,-25.879,-34.668,1.000,1.000
1622759275235483.250,-54.199,-28.320,-33.203,1.000,1.000
1622759275239389.500,5.859,-11.230,-25.879,1.000,1.000
1622759275243295.750,-6.836,-16.113,-32.715,1.000,1.000
1622759275247202.000,-66.406,-46.875,-40.039,1.000,1.000
1622759275251108.250,-49.805,-38.574,-27.832,1.000,1.000
1622759275255014.500,14.648,-16.113,-27.344,1.000,1.000
1622759275258920.750,3.906,-36.133,-34.668,1.000,1.000
1622759275262827.000,-67.383,-64.941,-36.133,1.000,1.000
1622759275266733.250,-78.613,-60.059,-29.785,1.000,1.000
1622759275270639.500,-11.719,-38.086,-21.484,1.000,1.000
1622759275274545.750,1.953,-26.855,-28.320,1.000,1.000
1622759275278452.000,-50.781,-30.273,-35.156,1.000,1.000
1622759275282358.250,-83.984,-37.598,-38.086,1.000,1.000
1622759275286264.500,-50.293,-37.109,-26.367,1.000,1.000
1622759275290170.750,-0.977,-37.109,-30.273,1.000,1.000
1622759275294077.000,-16.602,-22.461,-51.758,1.000,1.000
1622759275297983.250,-105.957,-15.625,-26.367,-57.129,1.000
1622759275301889.500,-136.230,-18.066,-32.227,-83.496,1.000
1622759275305795.750,-195.801,-33.203,-32.715,-25.879,1.000
1622759275309702.000,-193.848,-53.711,-37.598,11.719,1.000
1622759275313608.250,-144.043,-54.688,-45.898,-43.945,1.000
1622759275317514.500,-178.711,-36.621,-57.129,-105.469,1.000
1622759275321420.750,-220.215,-17.090,-60.059,-81.055,1.000
1622759275325327.000,-182.129,-5.859,-39.062,-21.484,1.000
1622759275329233.250,-130.859,4.883,-37.109,-70.801,1.000
1622759275333139.500,-171.875,-18.066,-37.109,-143.555,1.000
1622759275337045.750,-228.516,-59.570,-21.973,-139.160,1.000
1622759275340952.000,-182.617,-62.500,-17.090,-97.656,1.000
1622759275344858.250,-100.098,-45.898,-20.020,1.000,1.000
1622759275348764.500,-102.051,-48.340,-45.410,1.000,1.000
1622759275352670.750,-167.480,-76.172,-57.129,1.000,1.000
1622759275356577.000,-164.062,-63.477,-36.133,1.000,1.000
1622759275360483.250,-78.613,-23.438,-23.926,1.000,1.000
1622759275364389.500,-37.598,-26.367,-36.621,1.000,1.000
1622759275368295.750,-71.777,-43.945,-49.316,1.000,1.000
1622759275372202.000,-102.539,-49.805,-41.992,1.000,1.000
1622759275376108.250,-39.062,-39.551,-27.344,1.000,1.000
1622759275380014.500,4.395,-30.273,-20.508,1.000,1.000
1622759275383920.750,-30.762,-40.039,-23.926,1.000,1.000
1622759275387827.000,-60.059,-48.828,-26.855,1.000,1.000
1622759275391733.250,-30.762,-42.480,-19.531,-18.555,1.000
1622759275395639.500,17.578,-38.086,-15.137,31.250,1.000
1622759275399545.750,-0.488,-37.109,-29.297,12.695,1.000
1622759275403452.000,-48.340,-33.691,-47.852,-47.363,1.000
1622759275407358.250,-28.809,-49.805,-36.621,-29.297,1.000
1622759275411264.500,29.785,-54.688,-20.996,30.762,1.000
1622759275415170.750,29.297,-41.016,-30.762,26.367,1.000
1622759275419077.000,-14.648,-38.574,-36.621,-23.438,1.000
1622759275422983.250,-20.020,-46.875,-34.180,-19.531,1.000
1622759275426889.500,33.691,-37.109,-36.133,39.551,1.000
1622759275430795.750,62.012,-27.832,-27.832,54.199,1.000
1622759275434702.000,7.812,-34.668,-23.926,-4.883,1.000
1622759275438608.250,-19.043,-27.832,-21.973,-25.879,1.000
1622759275442514.500,45.898,-19.043,-12.695,37.109,1.000
1622759275446420.750,81.543,-26.367,-18.555,65.918,1.000
1622759275450327.000,24.902,-30.762,-26.855,12.207,1.000
1622759275454233.250,-29.785,-34.668,-22.949,-22.949,1.000
1622759275458139.500,14.160,-37.109,-23.926,24.902,1.000
1622759275462045.750,55.176,-64.941,-34.180,58.105,1.000
1622759275465952.000,20.996,-59.082,-33.691,11.230,1.000
1622759275469858.250,-49.316,-32.715,-32.227,-44.922,1.000
1622759275473764.500,-49.805,-18.555,-15.137,-25.879,1.000
1622759275477670.750,13.184,-5.859,-10.254,-2.441,1.000
1622759275481577.000,29.785,-24.414,-43.945,12.207,1.000
1622759275485483.250,53.711,-36.133,-5.371,12.207,1.000
1622759275489389.500,29.785,-14.160,-13.184,-47.852,1.000
1622759275493295.750,-27.344,-14.648,-22.949,-44.434,1.000
1622759275497202.000,-8.789,-9.766,-20.996,43.945,1.000
1622759275501108.250,37.109,-10.742,-15.137,56.152,1.000
1622759275505014.500,34.180,-33.691,-28.809,-29.785,1.000
1622759275508920.750,-15.137,-36.621,-42.969,-29.785,1.000
1622759275512827.000,-30.762,-41.992,-32.715,36.133,1.000
1622759275516733.250,4.883,-50.293,-19.531,35.645,1.000
1622759275520639.500,13.184,-41.504,-8.789,-2.441,1.000
1622759275524545.750,-37.109,-40.527,-30.762,-41.992,1.000
1622759275528452.000,-61.523,-26.367,-48.340,0.000,1.000
1622759275532358.250,-7.812,-1.953,-19.531,1.000,1.000
1622759275536264.500,14.648,-15.625,-13.672,1.000,1.000
1622759275540170.750,-33.203,-35.645,-23.438,1.000,1.000
1622759275544077.000,-89.844,-33.203,-34.180,1.000,1.000
1622759275547983.250,-72.266,-26.367,-42.969,1.000,1.000
1622759275551889.500,-16.602,-19.043,-39.551,1.000,1.000
1622759275555795.750,-30.273,-21.484,-46.387,1.000,1.000
1622759275559702.000,-72.754,-23.438,-51.758,1.000,1.000
1622759275563608.250,-65.430,-25.879,-40.039,1.000,1.000
1622759275567514.500,-16.602,-23.926,-26.855,1.000,1.000
1622759275571420.750,-19.043,-18.066,-29.297,1.000,1.000
1622759275575327.000,-79.590,-19.531,-34.180,1.000,1.000
1622759275579233.250,57.617,-32.715,-64.941,62.012,1.000
1622759275583139.500,33.203,-1.465,-46.387,12.695,1.000
1622759275587045.750,-20.996,-24.414,-11.719,-32.227,1.000
1622759275590952.000,13.672,-47.363,6.348,14.648,1.000
1622759275594858.250,71.289,-38.574,1.465,70.312,1.000
1622759275598764.500,36.621,-48.828,-3.418,28.809,1.000
1622759275602670.750,-27.832,-56.152,-25.879,-23.438,1.000
1622759275606577.000,-15.137,-43.945,-36.621,6.836,1.000
1622759275610483.250,42.480,-48.340,-21.973,62.500,1.000
1622759275614389.500,39.551,-46.387,-12.207,38.086,1.000
1622759275618295.750,7.324,-37.109,-12.207,-14.160,1.000
1622759275622202.000,1.953,-37.598,-31.250,-9.766,1.000
1622759275626108.250,46.875,-17.090,-16.602,1.000,1.000
1622759275630014.500,64.453,-13.184,-1.465,1.000,1.000
1622759275633920.750,7.812,-28.320,-11.230,1.000,1.000
1622759275637827.000,-15.625,-54.199,-18.555,1.000,1.000
1622759275641733.250,48.340,-62.012,-25.391,1.000,1.000
1622759275645639.500,97.168,-62.500,-30.273,1.000,1.000
1622759275649545.750,35.645,-42.480,-37.598,1.000,1.000
1622759275653452.000,-19.531,7.324,-35.156,1.000,1.000
1622759275657358.250,10.254,-4.883,-26.855,1.000,1.000
1622759275661264.500,73.242,-21.973,-14.160,1.000,1.000
1622759275665170.750,52.246,-10.254,-19.043,1.000,1.000
1622759275669077.000,-21.973,-5.859,-33.691,1.000,1.000
1622759275672983.250,9.277,-6.836,-25.879,1.000,1.000
1622759275676889.500,51.270,-19.043,-18.555,1.000,1.000
1622759275680795.750,35.645,-30.762,-5.859,1.000,1.000
1622759275684702.000,-12.207,-25.879,-19.043,1.000,1.000
1622759275688608.250,-26.367,-34.668,-22.949,1.000,1.000
1622759275692514.500,35.645,-55.664,-8.301,1.000,1.000
1622759275696420.750,46.875,-38.086,-14.648,1.000,1.000
1622759275700327.000,-10.742,-19.531,-22.949,1.000,1.000
1622759275704233.250,-15.137,-26.367,-25.391,1.000,1.000
1622759275708139.500,33.691,-16.113,-5.859,1.000,1.000
1622759275712045.750,49.316,-18.555,4.395,1.000,1.000
1622759275715952.000,2.930,-36.133,-21.484,1.000,1.000
1622759275719858.250,56.641,-3.418,-30.762,-23.438,1.000
1622759275723764.500,-10.742,-36.133,-38.574,-58.105,1.000
1622759275727670.750,-31.738,-26.367,-41.992,-9.277,1.000
1622759275731577.000,6.836,-2.441,-39.062,34.668,1.000
1622759275735483.250,6.836,-6.348,-27.832,-6.836,1.000
1622759275739389.500,-12.207,2.930,-17.578,-62.012,1.000
1622759275743295.750,-59.570,-0.488,-20.508,-30.273,1.000
1622759275747202.000,-42.969,-16.602,-31.250,31.250,1.000
1622759275751108.250,4.883,-32.227,-38.086,27.344,1.000
1622759275755014.500,-0.488,-35.156,-36.621,-37.598,1.000
1622759275758920.750,-52.246,-35.645,-36.621,-48.828,1.000
1622759275762827.000,-45.898,-46.387,-42.969,17.090,1.000
1622759275766733.250,26.367,-44.922,-42.480,1.000,1.000
1622759275770639.500,22.461,-46.387,-45.410,1.000,1.000
1622759275774545.750,-37.109,-30.762,-33.691,1.000,1.000
1622759275778452.000,-52.246,-30.762,-26.855,1.000,1.000
1622759275782358.250,-15.625,-31.738,-36.133,1.000,1.000
1622759275786264.500,3.418,-14.160,-34.668,1.000,1.000
1622759275790170.750,-41.992,-5.859,-35.645,1.000,1.000
1622759275794077.000,-79.102,-18.066,-50.781,1.000,1.000
1622759275797983.250,-31.250,-31.250,-56.152,1.000,1.000
1622759275801889.500,15.625,-25.879,-39.062,1.000,1.000
1622759275805795.750,-23.438,-27.832,-35.645,1.000,1.000
1622759275809702.000,-81.543,-28.320,-36.133,1.000,1.000
1622759275813608.250,-17.090,-26.367,-29.297,-30.273,1.000
1622759275817514.500,-62.988,-47.363,-34.668,-73.730,1.000
1622759275821420.750,-61.035,-38.574,-38.086,-56.641,1.000
1622759275825327.000,-19.531,-27.832,-42.969,-14.648,1.000
1622759275829233.250,-1.953,-16.113,-40.527,-4.395,1.000
1622759275833139.500,-31.738,-13.672,-36.133,-35.156,1.000
1622759275837045.750,-69.824,-29.785,-45.410,-60.059,1.000
1622759275840952.000,-38.086,-32.715,-25.879,-25.391,1.000
1622759275844858.250,-20.020,-39.551,-20.020,-21.973,1.000
1622759275848764.500,-63.477,-27.344,-40.039,-71.777,1.000
1622759275852670.750,-94.238,-21.484,-41.504,-97.168,1.000
1622759275856577.000,-61.035,-37.598,-43.457,-60.547,1.000
1622759275860483.250,-4.395,-45.898,-41.504,1.000,1.000
1622759275864389.500,-21.973,-41.992,-39.551,1.000,1.000
1622759275868295.750,-67.383,-36.621,-37.109,1.000,1.000
1622759275872202.000,-59.570,-49.805,-40.527,1.000,1.000
1622759275876108.250,3.906,-36.133,-28.809,1.000,1.000
1622759275880014.500,9.766,-15.137,-29.297,1.000,1.000
1622759275883920.750,-65.918,-34.180,-52.246,1.000,1.000
1622759275887827.000,-86.914,-43.457,-45.898,1.000,1.000
1622759275891733.250,-31.738,-24.414,-25.879,1.000,1.000
1622759275895639.500,-0.977,-7.324,-28.320,1.000,1.000
1622759275899545.750,-42.480,-35.156,-48.340,1.000,1.000
1622759275903452.000,-84.473,-56.152,-42.480,1.000,1.000
1622759275907358.250,-40.527,-32.227,-20.508,1.000,1.000
1622759275911264.500,8.789,-22.461,-24.414,1.000,1.000
1622759275915170.750,-15.137,-20.996,-29.785,1.000,1.000
1622759275919077.000,-66.406,-33.203,-40.039,1.000,1.000
1622759275922983.250,-48.828,-51.270,-41.504,1.000,1.000
1622759275926889.500,1.465,-39.551,-30.273,1.000,1.000
1622759275930795.750,-11.230,-16.602,-29.785,1.000,1.000
1622759275934702.000,-51.270,2.441,-18.066,1.000,1.000
1622759275938608.250,-46.387,-18.066,-20.020,1.000,1.000
1622759275942514.500,3.418,-21.973,-27.344,1.000,1.000
1622759275946420.750,-4.395,-7.324,-34.180,1.000,1.000
1622759275950327.000,-63.965,-9.277,-35.156,1.000,1.000
1622759275954233.250,23.438,-26.367,-25.391,20.996,1.000
1622759275958139.500,-20.996,-41.016,-25.879,-39.062,1.000
1622759275962045.750,-72.266,-34.180,-24.414,-83.984,1.000
1622759275965952.000,-41.504,-26.367,-23.438,-30.762,1.000
1622759275969858.250,13.672,-24.902,-24.414,21.484,1.000
1622759275973764.500,-4.883,-14.648,-30.273,-18.555,1.000
1622759275977670.750,-73.730,-15.137,-22.949,-82.520,1.000
1622759275981577.000,-68.359,-17.578,-22.461,-65.430,1.000
1622759275985483.250,-9.277,-18.555,-43.945,-13.184,1.000
1622759275989389.500,-0.488,-13.184,-31.250,-15.137,1.000
1622759275993295.750,-55.664,-23.438,-31.250,-68.359,1.000
1622759275997202.000,-75.195,-25.391,-44.922,-69.336,1.000
1622759276001108.250,-15.137,-12.207,-16.113,1.000,1.000
1622759276005014.500,6.348,-30.273,-3.418,1.000,1.000
1622759276008920.750,-51.758,-44.434,-25.391,1.000,1.000
1622759276012827.000,-104.980,-51.270,-38.086,1.000,1.000
1622759276016733.250,-70.801,-39.062,-39.551,1.000,1.000
1622759276020639.500,-14.160,-15.625,-31.250,1.000,1.000
1622759276024545.750,-30.762,-26.855,-31.250,1.000,1.000
1622759276028452.000,-65.430,-38.086,-33.691,1.000,1.000
1622759276032358.250,-31.250,-20.508,-41.504,1.000,1.000
1622759276036264.500,18.555,-19.531,-48.828,1.000,1.000
1622759276040170.750,-12.695,-30.762,-45.898,1.000,1.000
1622759276044077.000,-76.660,-30.762,-40.039,1.000,1.000
1622759276047983.250,-68.359,-40.039,-24.902,-59.570,1.000
1622759276051889.500,-19.043,-34.180,-16.113,-2.441,1.000
1622759276055795.750,-10.742,-13.184,-29.297,-11.230,1.000
1622759276059702.000,-59.570,-19.531,-46.875,-73.730,1.000
1622759276063608.250,-84.473,-25.391,-32.715,-86.426,1.000
1622759276067514.500,-38.574,-32.227,-38.086,-40.527,1.000
1622759276071420.750,-12.207,-48.340,-51.758,-27.832,1.000
1622759276075327.000,-50.781,-48.828,-35.645,-69.336,1.000
1622759276079233.250,-72.266,-51.270,-30.273,-78.613,1.000
1622759276083139.500,-28.320,-46.387,-19.531,-26.367,1.000
1622759276087045.750,5.371,-34.180,-20.508,2.441,1.000
1622759276090952.000,-32.227,-28.320,-37.598,-37.598,1.000
1622759276094858.250,-32.227,-63.477,-38.574,-21.484,1.000
1622759276098764.500,-83.496,-61.523,-48.340,-75.684,1.000
1622759276102670.750,-69.336,-46.387,-45.410,-42.969,1.000
1622759276106577.000,-2.441,-28.809,-36.133,0.000,1.000
1622759276110483.250,9.766,-33.203,-27.344,-28.809,1.000
1622759276114389.500,-62.012,-22.461,-24.414,-66.406,1.000
1622759276118295.750,-90.820,-7.324,-43.945,-9.766,1.000
1622759276122202.000,-34.668,-0.977,-54.199,20.508,1.000
1622759276126108.250,-14.160,9.277,-41.016,-41.016,1.000
1622759276130014.500,-76.660,-11.230,-39.551,-89.844,1.000
1622759276133920.750,-115.234,-32.227,-33.691,-48.828,1.000
1622759276137827.000,-71.289,-38.574,-27.344,3.906,1.000
1622759276141733.250,-24.414,-27.832,-25.879,1.000,1.000
1622759276145639.500,-48.340,-24.902,-32.227,1.000,1.000
1622759276149545.750,-95.215,-26.367,-39.551,1.000,1.000
1622759276153452.000,-69.824,-19.531,-27.832,1.000,1.000
1622759276157358.250,-13.672,-37.598,-26.855,1.000,1.000
1622759276161264.500,-27.344,-52.246,-46.387,1.000,1.000
1622759276165170.750,-78.125,-33.203,-54.688,1.000,1.000
1622759276169077.000,-73.242,-7.812,-37.109,1.000,1.000
1622759276172983.250,-15.137,-16.602,-33.203,1.000,1.000
1622759276176889.500,-4.883,-16.602,-28.320,1.000,1.000
1622759276180795.750,-71.777,-17.578,-19.531,1.000,1.000
1622759276184702.000,-100.098,-21.484,-23.926,1.000,1.000
1622759276188608.250,-36.133,-0.488,-14.160,-29.785,1.000
1622759276192514.500,-5.371,-13.184,-17.578,-5.859,1.000
1622759276196420.750,-51.758,-37.598,-47.852,-56.641,1.000
1622759276200327.000,-94.727,-49.805,-71.777,-88.379,1.000
1622759276204233.250,-66.406,-60.547,-64.941,-52.734,1.000
1622759276208139.500,11.230,-35.156,-44.922,8.789,1.000
1622759276212045.750,-9.766,-19.043,-25.391,-18.066,1.000
1622759276215952.000,-91.309,-32.715,-19.531,-84.961,1.000
1622759276219858.250,-77.148,-24.414,-11.230,-60.059,1.000
1622759276223764.500,-13.672,-18.066,-1.953,1.465,1.000
1622759276227670.750,-25.879,-16.113,-16.602,-19.043,1.000
1622759276231577.000,-85.938,-18.066,-41.504,-74.219,1.000
1622759276235483.250,-60.547,-31.738,-32.227,-59.082,1.000
1622759276239389.500,-40.527,-26.855,-17.090,-28.809,1.000
1622759276243295.750,28.809,-13.672,0.000,41.992,1.000
1622759276247202.000,17.090,-20.508,-16.113,24.902,1.000
1622759276251108.250,-45.898,-16.113,-26.367,-35.645,1.000
1622759276255014.500,-41.504,-25.391,-32.715,-24.902,1.000
1622759276258920.750,5.859,-46.387,-37.598,24.902,1.000
1622759276262827.000,14.160,-56.641,-20.020,26.367,1.000
1622759276266733.250,-32.715,-52.246,-24.902,-18.555,1.000
1622759276270639.500,-63.965,-29.785,-37.109,-38.086,1.000
1622759276274545.750,-20.996,-18.066,-19.531,2.441,1.000
1622759276278452.000,10.254,-23.926,-12.207,18.066,1.000
1622759276282358.250,-28.320,-31.738,-20.996,1.000,1.000
1622759276286264.500,-66.406,-18.555,-16.113,1.000,1.000
1622759276290170.750,-34.668,-16.602,-14.160,1.000,1.000
1622759276294077.000,9.766,-38.086,-31.738,1.000,1.000
1622759276297983.250,-7.324,-53.711,-41.992,1.000,1.000
1622759276301889.500,-61.523,-38.086,-38.574,1.000,1.000
1622759276305795.750,-54.199,-26.855,-35.156,1.000,1.000
1622759276309702.000,24.902,-39.062,-29.297,1.000,1.000
1622759276313608.250,25.879,-25.879,-41.992,1.000,1.000
1622759276317514.500,-62.012,-18.066,-51.758,1.000,1.000
1622759276321420.750,-80.078,-27.832,-43.457,1.000,1.000
1622759276325327.000,-22.949,-33.691,-36.621,1.000,1.000
1622759276329233.250,-7.812,-28.320,-25.391,-12.695,1.000
1622759276333139.500,-61.035,-23.926,-15.625,-68.848,1.000
1622759276337045.750,-97.168,-24.902,-27.832,-93.750,1.000
1622759276340952.000,-54.688,-42.480,-39.062,-50.781,1.000
1622759276344858.250,-19.043,-34.180,-31.738,-17.578,1.000
1622759276348764.500,-52.734,-12.695,-31.738,-54.688,1.000
1622759276352670.750,-108.398,-41.504,-41.504,-111.816,1.000
1622759276356577.000,-88.379,-58.594,-29.297,-80.078,1.000
1622759276360483.250,-30.273,-33.691,-17.578,-22.461,1.000
1622759276364389.500,-33.691,-23.926,-24.414,-37.598,1.000
1622759276368295.750,-95.215,-33.691,-32.715,-95.703,1.000
1622759276372202.000,-100.098,-29.785,-41.016,-88.379,1.000
1622759276376108.250,-28.809,-31.738,-36.621,1.000,1.000
1622759276380014.500,-23.438,-40.039,-38.574,1.000,1.000
1622759276383920.750,-75.684,-28.320,-39.551,1.000,1.000
1622759276387827.000,-85.938,-15.137,-34.180,1.000,1.000
1622759276391733.250,-30.273,-30.762,-24.414,1.000,1.000
1622759276395639.500,4.883,-42.969,-21.484,1.000,1.000
1622759276399545.750,-41.016,-39.551,-35.156,1.000,1.000
1622759276403452.000,-75.684,-41.016,-24.902,1.000,1.000
1622759276407358.250,-36.621,-29.785,-19.531,1.000,1.000
1622759276411264.500,2.441,-27.344,-30.762,1.000,1.000
1622759276415170.750,-29.297,-28.320,-34.668,1.000,1.000
1622759276419077.000,-72.754,-10.742,-30.273,1.000,1.000
1622759276422983.250,-32.715,-21.484,-35.645,-25.391,1.000
1622759276426889.500,-64.941,-46.387,-29.297,-54.688,1.000
1622759276430795.750,-35.156,-50.781,-19.043,-16.113,1.000
1622759276434702.000,-5.859,-37.109,-14.160,6.348,1.000
1622759276438608.250,-44.434,-32.227,-22.461,-37.109,1.000
1622759276442514.500,-85.449,-36.621,-40.039,-65.918,1.000
1622759276446420.750,-51.270,-58.105,-32.715,-24.414,1.000
1622759276450327.000,-7.324,-44.922,-23.926,17.090,1.000
1622759276454233.250,-33.691,-35.645,-33.691,-19.043,1.000
1622759276458139.500,-85.938,-43.457,-33.203,-74.707,1.000
1622759276462045.750,-67.871,-21.484,-11.230,-48.828,1.000
1622759276465952.000,-10.742,-22.461,-15.625,16.113,1.000
1622759276469858.250,-14.160,-53.223,-40.039,1.000,1.000
1622759276473764.500,-60.059,-24.414,-24.414,1.000,1.000
1622759276477670.750,-73.242,-7.812,-21.484,1.000,1.000
1622759276481577.000,-29.785,-37.109,-22.949,1.000,1.000
1622759276485483.250,2.441,-38.086,-19.531,1.000,1.000
1622759276489389.500,-45.898,-53.711,-40.527,1.000,1.000
1622759276493295.750,-81.055,-51.270,-53.223,1.000,1.000
1622759276497202.000,-28.320,-18.066,-29.785,1.000,1.000
1622759276501108.250,12.207,-7.812,-11.719,1.000,1.000
1622759276505014.500,-18.555,-14.160,-17.090,1.000,1.000
1622759276508920.750,-74.707,-49.316,-20.020,1.000,1.000
1622759276512827.000,-62.988,-63.965,-27.344,1.000,1.000
1622759276516733.250,3.418,-24.414,-30.273,1.000,1.000
1622759276520639.500,2.930,0.488,-31.250,1.000,1.000
1622759276524545.750,-45.410,-5.859,-38.574,1.000,1.000
1622759276528452.000,-55.664,-29.297,-35.156,1.000,1.000
1622759276532358.250,-7.812,-48.340,-22.461,1.000,1.000
1622759276536264.500,0.488,-35.645,-26.367,1.000,1.000
1622759276540170.750,-51.270,-19.043,-28.320,1.000,1.000
1622759276544077.000,-73.730,-34.668,-37.598,1.000,1.000
1622759276547983.250,-28.320,-60.059,-51.270,1.000,1.000
1622759276551889.500,11.719,-41.992,-30.273,1.000,1.000
1622759276555795.750,-33.203,-10.254,-16.113,1.000,1.000
1622759276559702.000,-71.777,-1.465,-28.809,1.000,1.000
1622759276563608.250,-34.180,-9.766,-33.691,1.000,1.000
1622759276567514.500,10.742,-14.160,-22.949,1.000,1.000
1622759276571420.750,-15.625,-27.832,-25.391,1.000,1.000
1622759276575327.000,-61.523,-36.621,-32.227,1.000,1.000
1622759276579233.250,-29.785,-45.410,-31.738,1.000,1.000
1622759276583139.500,33.691,-55.176,-31.250,1.000,1.000
1622759276587045.750,29.785,-35.156,-12.695,1.000,1.000
1622759276590952.000,-27.832,-17.090,-11.719,1.000,1.000
1622759276594858.250,-41.504,-6.348,-11.719,1.000,1.000
1622759276598764.500,10.254,0.977,-8.301,1.000,1.000
1622759276602670.750,14.648,-17.090,-30.273,1.000,1.000
1622759276606577.000,-41.992,-38.574,-31.738,1.000,1.000
1622759276610483.250,-51.758,-54.199,-16.113,-62.500,1.000
1622759276614389.500,-0.488,-49.316,-16.113,-0.488,1.000
1622759276618295.750,23.926,-32.715,-23.438,14.160,1.000
1622759276622202.000,-27.832,-44.434,-33.203,-42.969,1.000
1622759276626108.250,-69.824,-43.457,-32.715,-73.242,1.000
1622759276630014.500,-28.809,-19.043,-16.602,-27.832,1.000
1622759276633920.750,18.555,3.418,-19.531,16.602,1.000
1622759276637827.000,-6.836,-2.930,-42.969,-14.160,1.000
1622759276641733.250,-58.105,-30.762,-51.758,-65.918,1.000
1622759276645639.500,-49.316,-30.273,-34.180,-46.387,1.000
1622759276649545.750,-11.719,-40.039,-25.879,-9.766,1.000
1622759276653452.000,-13.184,-68.848,-29.297,-19.531,1.000
1622759276657358.250,-4.395,-58.594,-23.438,-56.641,1.000
1622759276661264.500,-66.895,-45.898,-21.484,-56.641,1.000
1622759276665170.750,-71.777,-29.785,-19.043,-8.789,1.000
1622759276669077.000,-20.020,-18.066,-18.555,2.930,1.000
1622759276672983.250,-10.254,-26.855,-30.762,-55.176,1.000
1622759276676889.500,-62.500,-34.668,-37.109,-75.684,1.000
1622759276680795.750,-66.406,-20.508,-27.344,-28.320,1.000
1622759276684702.000,-8.789,-0.488,-18.555,4.395,1.000
1622759276688608.250,13.672,-14.648,-26.855,-28.809,1.000
1622759276692514.500,-25.879,-37.598,-36.133,-62.012,1.000
1622759276696420.750,-63.965,-36.621,-40.039,-35.156,1.000
1622759276700327.000,-24.414,-18.066,-26.855,4.883,1.000
1622759276704233.250,22.949,1.953,-10.742,1.000,1.000
1622759276708139.500,-2.930,-1.953,-22.949,1.000,1.000
1622759276712045.750,-51.758,-14.160,-37.109,1.000,1.000
1622759276715952.000,-22.461,-15.137,-22.461,1.000,1.000
1622759276719858.250,41.504,-4.395,-11.230,1.000,1.000
1622759276723764.500,22.461,-23.438,-26.855,1.000,1.000
1622759276727670.750,-40.039,-41.992,-38.574,1.000,1.000
1622759276731577.000,-51.270,-38.086,-42.480,1.000,1.000
1622759276735483.250,-11.719,-40.039,-37.598,1.000,1.000
1622759276739389.500,-5.859,-27.344,-23.438,1.000,1.000
1622759276743295.750,-61.035,-21.973,-31.250,1.000,1.000
1622759276747202.000,-82.031,-20.996,-37.109,1.000,1.000
1622759276751108.250,-29.297,-20.996,-31.738,-32.715,1.000
1622759276755014.500,2.441,-19.043,-37.109,-11.719,1.000
1622759276758920.750,-46.387,-24.414,-40.039,-65.918,1.000
1622759276762827.000,-102.539,-30.762,-39.551,-106.934,1.000
1622759276766733.250,-60.547,-31.250,-37.598,-58.594,1.000
1622759276770639.500,-4.883,-42.480,-37.109,-12.207,1.000
1622759276774545.750,-44.922,-37.109,-41.016,-54.688,1.000
1622759276778452.000,-110.352,-32.227,-40.039,-109.863,1.000
1622759276782358.250,-85.449,-23.438,-26.367,-73.242,1.000
1622759276786264.500,-18.555,-22.461,-17.090,-7.812,1.000
1622759276790170.750,-20.020,-25.391,-26.855,-26.855,1.000
1622759276794077.000,-83.008,-26.855,-40.527,-91.309,1.000
1622759276797983.250,-81.055,-32.715,-33.203,-67.383,1.000
1622759276801889.500,-69.336,-30.762,-14.160,-44.434,1.000
1622759276805795.750,0.000,-25.391,-10.742,20.508,1.000
1622759276809702.000,6.348,-46.387,-10.254,17.578,1.000
1622759276813608.250,-46.875,-65.918,-16.113,-40.039,1.000
1622759276817514.500,-44.922,-37.109,-16.602,-24.414,1.000
1622759276821420.750,18.066,-1.953,-8.301,34.180,1.000
1622759276825327.000,43.945,2.441,-17.090,43.945,1.000
1622759276829233.250,-6.348,0.000,-24.902,-3.418,1.000
1622759276833139.500,-51.270,0.488,-10.254,-27.832,1.000
1622759276837045.750,-25.879,-2.930,-5.859,4.883,1.000
1622759276840952.000,19.043,-18.555,-11.230,37.598,1.000
1622759276844858.250,-7.324,-47.363,-10.742,1.000,1.000
1622759276848764.500,-70.801,-44.434,-20.996,1.000,1.000
1622759276852670.750,-45.410,-22.461,-25.879,1.000,1.000
1622759276856577.000,16.602,-22.461,-15.625,1.000,1.000
1622759276860483.250,2.441,-6.836,-16.113,1.000,1.000
1622759276864389.500,-50.293,5.859,-36.621,1.000,1.000
1622759276868295.750,-43.945,-2.441,-55.664,1.000,1.000
1622759276872202.000,25.391,-1.465,-42.480,1.000,1.000
1622759276876108.250,19.043,-12.695,-34.180,1.000,1.000
1622759276880014.500,-38.086,-25.391,-34.180,1.000,1.000
1622759276883920.750,-46.875,-34.668,-16.602,1.000,1.000
1622759276887827.000,-13.184,-50.293,-22.949,1.000,1.000
1622759276891733.250,2.930,-42.969,-47.363,1.000,1.000
1622759276895639.500,-39.551,-27.344,-54.688,1.000,1.000
1622759276899545.750,-73.242,-21.484,-48.828,1.000,1.000
1622759276903452.000,-34.180,-21.973,-39.551,1.000,1.000
1622759276907358.250,12.695,-4.883,-35.645,1.000,1.000
1622759276911264.500,-23.438,4.395,-52.734,1.000,1.000
1622759276915170.750,-94.238,-12.695,-59.082,1.000,1.000
1622759276919077.000,-89.844,-19.043,-39.551,1.000,1.000
1622759276922983.250,-33.691,-22.461,-27.344,1.000,1.000
1622759276926889.500,-25.391,-58.105,-27.344,1.000,1.000
1622759276930795.750,-74.707,-57.617,-40.039,1.000,1.000
1622759276934702.000,-78.125,-25.879,-48.828,1.000,1.000
1622759276938608.250,-21.973,-27.344,-47.363,1.000,1.000
1622759276942514.500,-6.348,-30.273,-40.039,1.000,1.000
1622759276946420.750,-54.688,-27.344,-46.875,1.000,1.000
1622759276950327.000,-86.914,-45.410,-73.730,1.000,1.000
1622759276954233.250,-41.016,-23.438,-54.688,1.000,1.000
1622759276958139.500,-8.301,-7.812,-29.785,1.000,1.000
1622759276962045.750,-44.922,-28.320,-35.645,1.000,1.000
1622759276965952.000,-80.078,-41.016,-33.203,1.000,1.000
1622759276969858.250,-43.945,-31.250,-24.414,1.000,1.000
1622759276973764.500,3.418,-18.066,-37.109,1.000,1.000
1622759276977670.750,-10.254,-32.715,-48.828,1.000,1.000
1622759276981577.000,-54.688,-36.621,-48.828,1.000,1.000
1622759276985483.250,-39.062,-30.273,-49.805,-42.480,1.000
1622759276989389.500,2.930,-44.922,-38.086,0.977,1.000
1622759276993295.750,-15.625,-42.969,-41.016,-23.438,1.000
1622759276997202.000,-63.965,-17.578,-34.180,-67.383,1.000
1622759277001108.250,-55.176,-24.414,-19.531,-41.992,1.000
1622759277005014.500,5.371,-40.527,-25.879,20.020,1.000
1622759277008920.750,15.137,-24.902,-32.227,18.066,1.000
1622759277012827.000,-51.758,-12.695,-31.738,-54.688,1.000
1622759277016733.250,-72.754,-11.230,-21.973,-63.477,1.000
1622759277020639.500,-19.531,-33.691,-22.461,-4.883,1.000
1622759277024545.750,11.230,-44.434,-29.297,15.137,1.000
1622759277028452.000,-25.879,-24.414,-35.645,-31.250,1.000
1622759277032358.250,-60.547,-49.316,-19.043,-65.430,1.000
1622759277036264.500,-99.609,-33.203,-37.598,-98.633,1.000
1622759277040170.750,-51.758,-16.113,-26.367,-47.363,1.000
1622759277044077.000,5.371,-8.789,-19.531,11.230,1.000
1622759277047983.250,-15.137,-37.598,-32.715,-13.184,1.000
1622759277051889.500,-60.547,-44.434,-39.062,-57.617,1.000
1622759277055795.750,-50.293,-27.832,-31.738,-37.109,1.000
1622759277059702.000,-18.066,-29.297,-34.180,-9.766,1.000
1622759277063608.250,-29.297,-30.762,-35.156,-38.574,1.000
1622759277067514.500,-82.520,-31.738,-44.434,-91.797,1.000
1622759277071420.750,-82.031,-43.457,-44.922,-80.566,1.000
1622759277075327.000,-8.789,-43.945,-23.438,-10.254,1.000
1622759277079233.250,10.254,-25.879,-24.414,1.000,1.000
1622759277083139.500,-55.664,-15.137,-38.574,1.000,1.000
1622759277087045.750,-71.777,-18.066,-43.457,1.000,1.000
1622759277090952.000,-15.625,-30.273,-41.504,1.000,1.000
1622759277094858.250,11.719,-28.809,-42.480,1.000,1.000
1622759277098764.500,-24.902,-34.180,-30.762,1.000,1.000
1622759277102670.750,-60.547,-34.180,-22.461,1.000,1.000
1622759277106577.000,-23.926,-28.809,-17.578,1.000,1.000
1622759277110483.250,3.906,-25.879,-20.508,1.000,1.000
1622759277114389.500,-26.367,-14.160,-28.320,1.000,1.000
1622759277118295.750,-64.453,-20.996,-15.625,1.000,1.000
1622759277122202.000,-45.410,-29.785,-1.465,1.000,1.000
1622759277126108.250,11.230,-23.926,-8.789,1.000,1.000
1622759277130014.500,19.531,-17.578,-17.578,1.000,1.000
1622759277133920.750,-48.340,-20.020,-44.922,1.000,1.000
1622759277137827.000,-72.266,-38.574,-54.199,1.000,1.000
1622759277141733.250,4.395,-31.250,-26.367,1.000,1.000
1622759277145639.500,29.785,-33.691,-28.809,1.000,1.000
1622759277149545.750,-41.992,-44.922,-37.598,1.000,1.000
1622759277153452.000,-68.359,-17.578,-21.973,1.000,1.000
1622759277157358.250,-21.484,-8.789,-21.973,1.000,1.000
1622759277161264.500,16.113,-27.344,-17.090,1.000,1.000
1622759277165170.750,-28.320,-40.039,-17.578,1.000,1.000
1622759277169077.000,-81.543,-42.480,-30.762,1.000,1.000
1622759277172983.250,-79.102,-91.309,-34.180,-78.125,1.000
1622759277176889.500,-28.809,-56.641,-18.066,-20.996,1.000
1622759277180795.750,-11.230,-27.832,-33.691,-11.230,1.000
1622759277184702.000,-55.176,-34.668,-57.129,-66.895,1.000
1622759277188608.250,-69.824,0.000,-41.992,-82.031,1.000
1622759277192514.500,-31.250,12.695,-24.414,-39.551,1.000
1622759277196420.750,-4.395,-23.438,-33.691,-6.836,1.000
1622759277200327.000,-15.625,-36.621,-45.898,-23.438,1.000
1622759277204233.250,-63.477,-35.156,-55.176,-72.266,1.000
1622759277208139.500,-72.754,-32.715,-39.062,-66.895,1.000
1622759277212045.750,-20.996,-56.152,-24.902,-10.742,1.000
1622759277215952.000,2.441,-54.199,-24.902,0.488,1.000
1622759277219858.250,3.418,-23.438,-36.621,-48.828,1.000
1622759277223764.500,-61.523,-33.203,-43.945,-61.035,1.000
1622759277227670.750,-70.801,-32.715,-31.250,-10.742,1.000
1622759277231577.000,-13.184,-14.648,-23.926,5.859,1.000
1622759277235483.250,-2.930,0.977,-32.227,-37.109,1.000
1622759277239389.500,-52.734,-1.465,-40.527,-67.383,1.000
1622759277243295.750,-65.918,-21.973,-25.879,-38.574,1.000
1622759277247202.000,-31.250,-45.410,-14.160,4.395,1.000
1622759277251108.250,-20.996,-63.965,-22.461,-25.879,1.000
1622759277255014.500,-57.617,-66.895,-40.039,-71.289,1.000
1622759277258920.750,-84.473,-45.410,-44.922,-47.852,1.000
1622759277262827.000,-47.852,-26.855,-24.902,0.488,1.000
1622759277266733.250,-8.789,-33.203,-24.902,-3.418,1.000
1622759277270639.500,-28.320,-14.648,-26.367,-27.344,1.000
1622759277274545.750,-81.055,-2.930,-18.555,-69.824,1.000
1622759277278452.000,-71.289,-37.598,-25.391,-49.316,1.000
1622759277282358.250,-6.836,-45.898,-22.949,3.906,1.000
1622759277286264.500,-16.602,-30.273,-21.973,-18.066,1.000
1622759277290170.750,-81.055,-32.715,-34.668,-79.102,1.000
1622759277294077.000,-85.938,-44.434,-49.805,-73.730,1.000
1622759277297983.250,-22.949,-20.508,-32.227,-11.230,1.000
1622759277301889.500,-5.859,-2.441,-14.160,-8.301,1.000
1622759277305795.750,-62.988,-28.320,-22.461,-64.941,1.000
1622759277309702.000,-80.566,-45.410,-16.113,-66.406,1.000
1622759277313608.250,-61.035,-54.199,-29.297,-73.242,1.000
1622759277317514.500,-60.059,-68.359,-27.344,-56.641,1.000
1622759277321420.750,-0.488,-28.809,-19.531,5.859,1.000
1622759277325327.000,6.836,-10.742,-23.926,1.953,1.000
1622759277329233.250,-58.105,-12.207,-45.410,-61.523,1.000
1622759277333139.500,-86.426,-25.391,-42.969,-80.078,1.000
1622759277337045.750,-42.480,-35.645,-25.391,-28.809,1.000
1622759277340952.000,-14.160,-39.062,-36.133,-13.184,1.000
1622759277344858.250,-49.316,-33.691,-42.969,-61.035,1.000
1622759277348764.500,-79.590,-31.738,-34.180,-83.984,1.000
1622759277352670.750,-39.551,-37.109,-27.344,-33.203,1.000
1622759277356577.000,0.488,-32.715,-26.367,-1.465,1.000
1622759277360483.250,-31.738,-29.297,-32.715,1.000,1.000
1622759277364389.500,-83.984,-34.180,-38.086,1.000,1.000
1622759277368295.750,-59.082,-61.035,-32.715,1.000,1.000
1622759277372202.000,6.348,-38.086,-25.879,1.000,1.000
1622759277376108.250,-0.977,-20.020,-39.551,1.000,1.000
1622759277380014.500,-59.570,-29.297,-63.477,1.000,1.000
1622759277383920.750,-62.988,-9.766,-50.781,1.000,1.000
1622759277387827.000,-20.020,-30.273,-29.297,1.000,1.000
1622759277391733.250,-9.766,-44.434,-26.855,1.000,1.000
1622759277395639.500,-63.965,-42.969,-42.480,1.000,1.000
1622759277399545.750,-91.309,-62.988,-56.152,1.000,1.000
1622759277403452.000,-24.902,-45.898,-34.180,1.000,1.000
1622759277407358.250,18.555,-5.371,-22.461,1.000,1.000
1622759277411264.500,-13.184,15.137,-22.949,1.000,1.000
1622759277415170.750,-59.082,-18.555,-33.203,1.000,1.000
1622759277419077.000,-42.969,-48.828,-48.340,1.000,1.000
1622759277422983.250,6.348,-27.832,-29.785,1.000,1.000
1622759277426889.500,-15.625,-12.207,-23.926,1.000,1.000
1622759277430795.750,-68.359,-11.230,-36.133,1.000,1.000
1622759277434702.000,-57.617,-24.902,-40.039,1.000,1.000
1622759277438608.250,-7.812,-32.715,-36.133,1.000,1.000
1622759277442514.500,1.953,-40.527,-27.832,1.000,1.000
1622759277446420.750,-47.363,-39.062,-25.879,1.000,1.000
1622759277450327.000,-58.105,-19.043,-26.855,1.000,1.000
1622759277454233.250,3.418,7.324,-40.039,1.000,1.000
1622759277458139.500,21.973,-11.719,-39.551,1.000,1.000
1622759277462045.750,-38.086,-50.781,-31.738,1.000,1.000
1622759277465952.000,-79.590,-41.504,-28.809,1.000,1.000
1622759277469858.250,-30.762,-28.809,-28.809,1.000,1.000
1622759277473764.500,13.672,-19.531,-37.598,1.000,1.000
1622759277477670.750,-33.691,-16.602,-45.410,1.000,1.000
1622759277481577.000,-80.078,-11.719,-41.016,1.000,1.000
1622759277485483.250,-41.992,-14.160,-32.227,1.000,1.000
1622759277489389.500,7.812,-30.273,-28.809,1.000,1.000
1622759277493295.750,-20.996,-36.133,-27.344,1.000,1.000
1622759277497202.000,-77.637,-32.227,-19.531,1.000,1.000
1622759277501108.250,-59.570,-19.043,-16.602,-42.969,1.000
1622759277505014.500,-7.324,-21.973,-21.484,0.488,1.000
1622759277508920.750,-16.602,-28.809,-40.039,-17.090,1.000
1622759277512827.000,-75.684,-42.480,-57.129,-67.383,1.000
1622759277516733.250,-92.773,-55.176,-52.734,-74.707,1.000
1622759277520639.500,-37.598,-42.480,-33.203,-24.414,1.000
1622759277524545.750,-11.230,-57.129,-20.996,-7.812,1.000
1622759277528452.000,-52.734,-61.523,-18.555,-55.664,1.000
1622759277532358.250,-83.984,-19.531,-19.531,-73.242,1.000
1622759277536264.500,-40.039,-4.395,-23.926,-21.973,1.000
1622759277540170.750,6.348,-14.648,-29.785,11.719,1.000
1622759277544077.000,-26.367,-17.090,-28.809,-34.180,1.000
1622759277547983.250,-39.062,-27.344,-23.438,-52.246,1.000
1622759277551889.500,-61.523,-29.297,-6.348,-59.082,1.000
1622759277555795.750,-37.109,-51.270,-1.953,-23.438,1.000
1622759277559702.000,-11.719,-45.410,-26.367,-6.348,1.000
1622759277563608.250,-42.969,-20.508,-37.109,-48.828,1.000
1622759277567514.500,-89.844,-13.672,-38.574,-93.750,1.000
1622759277571420.750,-62.988,-19.531,-29.297,-54.688,1.000
1622759277575327.000,5.859,-45.898,-17.578,18.066,1.000
1622759277579233.250,-6.836,-42.969,-30.273,-4.395,1.000
1622759277583139.500,-77.637,-23.438,-32.715,-80.078,1.000
1622759277587045.750,-75.195,-20.020,-14.160,-69.336,1.000
1622759277590952.000,-7.812,-24.414,-11.719,-0.977,1.000
1622759277594858.250,5.859,-27.832,-21.484,1.000,1.000
1622759277598764.500,-51.270,-39.062,-25.391,1.000,1.000
1622759277602670.750,-73.242,-50.781,-24.414,1.000,1.000
1622759277606577.000,-17.578,-41.504,-20.508,1.000,1.000
1622759277610483.250,15.137,-24.902,-31.250,1.000,1.000
1622759277614389.500,-31.250,-22.461,-49.316,1.000,1.000
1622759277618295.750,-78.125,-11.230,-48.828,1.000,1.000
1622759277622202.000,-51.758,-11.230,-32.227,1.000,1.000
1622759277626108.250,-10.254,-32.715,-17.578,1.000,1.000
1622759277630014.500,-23.926,-35.645,-14.160,1.000,1.000
1622759277633920.750,-74.219,-37.109,-22.461,1.000,1.000
1622759277637827.000,-70.312,-41.992,-20.508,1.000,1.000
1622759277641733.250,-19.043,-29.785,-17.578,-7.324,1.000
1622759277645639.500,-4.395,-21.484,-30.762,-18.555,1.000
1622759277649545.750,-58.594,-17.090,-44.922,-76.660,1.000
1622759277653452.000,-81.543,-19.043,-51.758,-80.566,1.000
1622759277657358.250,-23.926,-36.133,-49.805,-20.508,1.000
1622759277661264.500,-1.465,-41.016,-39.551,-7.324,1.000
1622759277665170.750,-38.574,-21.973,-21.973,-46.875,1.000
1622759277669077.000,-63.965,-32.715,-33.203,-60.059,1.000
1622759277672983.250,-29.785,-45.410,-40.039,-21.973,1.000
1622759277676889.500,12.207,-27.832,-17.578,10.742,1.000
1622759277680795.750,-27.344,-33.691,-17.578,-28.320,1.000
1622759277684702.000,-84.961,-29.297,-41.504,-75.195,1.000
1622759277688608.250,-80.566,-28.320,-23.926,-75.195,1.000
1622759277692514.500,-24.902,-16.113,-4.883,-13.672,1.000
1622759277696420.750,29.297,-39.551,-10.254,27.832,1.000
1622759277700327.000,-0.488,-55.176,-22.949,-9.277,1.000
1622759277704233.250,-60.547,-57.617,-28.809,-61.523,1.000
1622759277708139.500,-53.711,-30.762,-30.762,-34.180,1.000
1622759277712045.750,-6.836,-17.090,-27.344,15.137,1.000
1622759277715952.000,-17.090,-32.715,-25.391,-15.137,1.000
1622759277719858.250,-76.660,-32.715,-41.992,-80.566,1.000
1622759277723764.500,-80.566,-18.066,-51.758,-74.219,1.000
1622759277727670.750,-6.348,-10.254,-39.551,-1.465,1.000
1622759277731577.000,17.578,-34.180,-20.020,6.836,1.000
1622759277735483.250,-2.930,-29.297,-48.828,-62.988,1.000
1622759277739389.500,-55.664,-45.898,-50.293,-73.242,1.000
1622759277743295.750,-67.383,-39.062,-48.340,-14.648,1.000
1622759277747202.000,-18.555,-18.555,-33.203,-3.418,1.000
1622759277751108.250,-9.766,-17.090,-27.832,-56.641,1.000
1622759277755014.500,-58.594,-43.457,-24.414,-82.031,1.000
1622759277758920.750,-67.383,-46.875,-18.066,-36.621,1.000
1622759277762827.000,-7.812,-30.762,-18.066,8.301,1.000
1622759277766733.250,24.414,-27.344,-27.832,-24.414,1.000
1622759277770639.500,-20.996,-32.227,-32.715,-74.707,1.000
1622759277774545.750,-86.914,-54.199,-36.133,-50.781,1.000
1622759277778452.000,-65.918,-39.062,-33.691,4.395,1.000
1622759277782358.250,2.930,-9.766,-26.367,1.000,1.000
1622759277786264.500,-9.766,-33.691,-37.109,1.000,1.000
1622759277790170.750,-62.988,-32.715,-31.250,1.000,1.000
1622759277794077.000,-46.875,-17.578,-9.766,1.000,1.000
1622759277797983.250,1.953,-39.551,0.488,1.000,1.000
1622759277801889.500,-3.906,-30.273,2.441,1.000,1.000
1622759277805795.750,-54.199,-23.438,-19.043,1.000,1.000
1622759277809702.000,-67.383,-16.602,-32.715,1.000,1.000
1622759277813608.250,-25.879,1.465,-37.598,1.000,1.000
1622759277817514.500,-13.184,-7.812,-39.551,1.000,1.000
1622759277821420.750,-61.035,-32.227,-24.902,1.000,1.000
1622759277825327.000,-76.172,-37.109,-12.207,1.000,1.000
1622759277829233.250,-12.207,-14.648,-12.695,-2.441,1.000
1622759277833139.500,32.715,-18.555,-14.648,37.598,1.000
1622759277837045.750,-12.207,-34.180,-27.344,-21.484,1.000
1622759277840952.000,-69.824,-13.672,-51.270,-74.219,1.000
1622759277844858.250,-46.387,-20.508,-44.434,-41.504,1.000
1622759277848764.500,9.766,-50.293,-21.484,21.484,1.000
1622759277852670.750,20.508,-47.363,-18.555,18.066,1.000
1622759277856577.000,-33.691,-19.531,-17.090,-44.922,1.000
1622759277860483.250,-66.406,0.488,-11.230,-51.758,1.000
1622759277864389.500,-18.555,-11.230,-22.461,-10.254,1.000
1622759277868295.750,-3.418,-26.367,-43.945,-19.531,1.000
1622759277872202.000,-64.453,-25.879,-46.387,-71.289,1.000
1622759277876108.250,-50.293,-21.973,-33.203,-58.594,1.000
1622759277880014.500,-51.270,-12.207,-36.133,-60.059,1.000
1622759277883920.750,-1.465,-20.996,-27.832,-6.836,1.000
1622759277887827.000,9.277,-16.602,-27.344,0.977,1.000
1622759277891733.250,-55.176,-0.488,-31.738,-59.082,1.000
1622759277895639.500,-62.988,-12.207,-22.949,-45.410,1.000
1622759277899545.750,-12.207,-46.875,-22.949,10.742,1.000
1622759277903452.000,-3.418,-64.453,-39.062,0.488,1.000
1622759277907358.250,-44.434,-35.645,-38.574,-45.898,1.000
1622759277911264.500,-81.543,-8.301,-27.344,-74.219,1.000
1622759277915170.750,-44.434,-5.859,-17.578,-43.457,1.000
1622759277919077.000,1.953,-26.367,-24.414,0.977,1.000
1622759277922983.250,-18.555,-43.457,-43.945,1.000,1.000
1622759277926889.500,-60.059,-19.531,-49.316,1.000,1.000
1622759277930795.750,-60.547,-22.949,-43.945,1.000,1.000
1622759277934702.000,-15.625,-39.062,-30.273,1.000,1.000
1622759277938608.250,-10.254,-21.484,-12.207,1.000,1.000
1622759277942514.500,-62.988,-9.277,-10.254,1.000,1.000
1622759277946420.750,-69.336,-25.391,-12.207,1.000,1.000
1622759277950327.000,10.742,-37.598,-6.836,1.000,1.000
1622759277954233.250,21.484,-47.363,-29.785,1.000,1.000
1622759277958139.500,-45.410,-42.969,-40.039,1.000,1.000
1622759277962045.750,-65.918,-33.203,-20.996,1.000,1.000
1622759277965952.000,-21.973,-16.602,-27.344,1.000,1.000
1622759277969858.250,14.160,-7.324,-37.109,1.000,1.000
1622759277973764.500,-25.879,-13.184,-38.086,1.000,1.000
1622759277977670.750,-67.871,-12.207,-46.387,1.000,1.000
1622759277981577.000,-23.926,-10.254,-27.344,1.000,1.000
1622759277985483.250,0.977,-32.715,-21.973,1.000,1.000
1622759277989389.500,-24.414,-64.941,-24.414,1.000,1.000
1622759277993295.750,-61.035,-83.496,-15.137,1.000,1.000
1622759277997202.000,-51.270,-77.148,-27.344,1.000,1.000
1622759278001108.250,5.859,-30.273,-33.691,1.000,1.000
1622759278005014.500,2.441,-10.742,-25.879,1.000,1.000
1622759278008920.750,-50.781,-24.414,-31.250,1.000,1.000
1622759278012827.000,-61.523,-4.883,-29.785,1.000,1.000
1622759278016733.250,-4.395,18.555,-10.254,1.000,1.000
1622759278020639.500,22.461,5.371,-29.785,1.000,1.000
1622759278024545.750,-32.227,-21.484,-45.410,1.000,1.000
1622759278028452.000,-53.711,-32.227,-18.555,1.000,1.000
1622759278032358.250,-17.578,-33.203,-16.602,1.000,1.000
1622759278036264.500,6.836,-35.645,-16.602,1.000,1.000
1622759278040170.750,-18.555,-46.387,-17.090,1.000,1.000
1622759278044077.000,-76.660,-60.547,-49.316,1.000,1.000
1622759278047983.250,-66.895,-39.062,-56.641,1.000,1.000
1622759278051889.500,-2.441,-15.625,-30.762,1.000,1.000
1622759278055795.750,-8.789,-13.672,-21.484,1.000,1.000
1622759278059702.000,-62.988,-34.668,-32.227,1.000,1.000
1622759278063608.250,-36.621,-17.090,-42.480,-21.973,1.000
1622759278067514.500,21.484,9.277,-42.480,23.926,1.000
1622759278071420.750,3.906,-20.996,-43.457,1.465,1.000
1622759278075327.000,-67.383,-49.805,-36.133,-62.012,1.000
1622759278079233.250,-88.379,-35.645,-21.484,-80.078,1.000
1622759278083139.500,-21.484,-36.621,-15.625,-21.484,1.000
1622759278087045.750,20.020,-44.922,-23.438,21.973,1.000
1622759278090952.000,-32.227,-34.180,-34.668,-25.879,1.000
1622759278094858.250,-71.777,-36.133,-37.598,-67.383,1.000
1622759278098764.500,-32.227,-18.066,-23.926,-18.066,1.000
1622759278102670.750,3.906,-5.859,-20.020,10.254,1.000
1622759278106577.000,-19.043,-20.508,-33.203,-27.832,1.000
1622759278110483.250,-26.367,-15.137,-33.691,-69.824,1.000
1622759278114389.500,-72.754,-46.387,-33.203,-41.016,1.000
1622759278118295.750,-42.480,-28.320,-13.672,12.695,1.000
1622759278122202.000,7.324,-16.602,-10.254,9.277,1.000
1622759278126108.250,-0.977,-41.504,-16.602,-41.016,1.000
1622759278130014.500,-47.363,-69.336,-33.691,-40.527,1.000
1622759278133920.750,-74.219,-78.613,-53.711,11.230,1.000
1622759278137827.000,-15.137,-36.133,-53.711,6.348,1.000
1622759278141733.250,19.531,0.488,-41.504,-54.199,1.000
1622759278145639.500,-55.664,-15.625,-27.832,-63.965,1.000
1622759278149545.750,-69.336,-16.602,-15.625,-5.859,1.000
1622759278153452.000,-13.184,1.953,-15.137,20.020,1.000
1622759278157358.250,-6.836,-31.738,-26.367,1.000,1.000
1622759278161264.500,-53.223,-61.035,-29.297,1.000,1.000
1622759278165170.750,-72.754,-42.969,-22.461,1.000,1.000
1622759278169077.000,-23.438,-37.109,-25.879,1.000,1.000
1622759278172983.250,36.133,-36.133,-49.316,1.000,1.000
1622759278176889.500,-12.207,-27.344,-53.223,1.000,1.000
1622759278180795.750,-86.914,-21.484,-28.809,1.000,1.000
1622759278184702.000,-45.898,-7.324,-6.836,1.000,1.000
1622759278188608.250,16.602,-16.113,7.812,1.000,1.000
1622759278192514.500,-6.836,-22.461,-0.977,1.000,1.000
1622759278196420.750,-63.477,-7.324,-22.461,1.000,1.000
1622759278200327.000,-63.477,-23.438,-41.016,1.000,1.000
1622759278204233.250,-7.812,-41.992,-9.766,1.465,1.000
1622759278208139.500,1.953,-38.574,-10.742,15.137,1.000
1622759278212045.750,-48.340,-35.156,-37.109,-46.875,1.000
1622759278215952.000,-65.918,-45.898,-31.738,-69.336,1.000
1622759278219858.250,-9.277,-41.016,-27.344,-7.324,1.000
1622759278223764.500,31.738,-18.066,-21.484,23.926,1.000
1622759278227670.750,-18.555,-15.625,-36.133,-40.527,1.000
1622759278231577.000,-68.359,-27.832,-49.316,-68.848,1.000
1622759278235483.250,-34.180,-20.996,-48.828,-19.531,1.000
1622759278239389.500,5.371,-38.086,-40.527,12.207,1.000
1622759278243295.750,-24.902,-43.945,-29.297,-34.668,1.000
1622759278247202.000,-83.008,-23.438,-29.297,-86.914,1.000
1622759278251108.250,-115.723,-26.367,-47.363,-120.605,1.000
1622759278255014.500,-96.680,-30.762,-41.992,-78.613,1.000
1622759278258920.750,-50.781,-37.598,-38.086,-54.688,1.000
1622759278262827.000,-104.980,-36.133,-40.039,-103.027,1.000
1622759278266733.250,-161.133,-35.645,-36.621,-153.320,1.000
1622759278270639.500,-145.996,-38.086,-29.785,-125.488,1.000
1622759278274545.750,-96.680,-36.133,-17.578,-65.918,1.000
1622759278278452.000,-103.516,-34.668,-20.508,-99.609,1.000
1622759278282358.250,-163.086,-46.387,-31.250,-164.551,1.000
1622759278286264.500,-174.316,-43.457,-29.785,-153.320,1.000
1622759278290170.750,-127.930,-29.785,-30.273,-95.215,1.000
1622759278294077.000,-106.445,-52.734,-39.551,-90.820,1.000
1622759278297983.250,-151.367,-51.270,-49.805,1.000,1.000
1622759278301889.500,-175.293,-20.020,-41.016,1.000,1.000
1622759278305795.750,-130.859,-19.043,-29.297,1.000,1.000
1622759278309702.000,-91.797,-19.043,-32.227,1.000,1.000
1622759278313608.250,-118.652,-17.578,-41.504,1.000,1.000
1622759278317514.500,-166.016,-43.457,-42.969,1.000,1.000
1622759278321420.750,-131.836,-53.711,-31.738,1.000,1.000
1622759278325327.000,-70.801,-31.250,-24.902,1.000,1.000
1622759278329233.250,-82.520,-15.137,-33.691,1.000,1.000
1622759278333139.500,-137.695,-29.297,-36.133,1.000,1.000
1622759278337045.750,-118.164,-43.457,-28.809,1.000,1.000
1622759278340952.000,-43.945,-44.922,-27.832,1.000,1.000
1622759278344858.250,-19.043,-40.039,-28.809,1.000,1.000
1622759278348764.500,-54.688,-46.875,-37.598,1.000,1.000
1622759278352670.750,-69.824,-42.969,-36.621,1.000,1.000
1622759278356577.000,-21.973,-3.418,-38.574,1.000,1.000
1622759278360483.250,14.160,1.465,-46.875,1.000,1.000
1622759278364389.500,-23.438,-30.762,-46.387,1.000,1.000
1622759278368295.750,-69.824,-32.227,-41.504,1.000,1.000
1622759278372202.000,-37.598,-34.668,-28.320,1.000,1.000
1622759278376108.250,7.812,-46.387,-28.809,1.000,1.000
1622759278380014.500,-11.719,-32.715,-28.320,1.000,1.000
1622759278383920.750,-46.387,-9.766,-22.949,1.000,1.000
1622759278387827.000,-19.531,-6.348,-23.438,1.000,1.000
1622759278391733.250,37.109,-18.066,-17.090,1.000,1.000
1622759278395639.500,34.180,-25.391,-15.137,1.000,1.000
1622759278399545.750,-22.949,-16.113,-25.391,1.000,1.000
1622759278403452.000,-20.020,-25.391,-29.785,1.000,1.000
1622759278407358.250,37.109,-64.453,-13.184,1.000,1.000
1622759278411264.500,42.969,-63.965,-9.766,1.000,1.000
1622759278415170.750,-11.230,-48.828,-25.879,1.000,1.000
1622759278419077.000,-60.547,-39.551,-34.668,1.000,1.000
1622759278422983.250,-14.648,-22.461,-27.344,1.000,1.000
1622759278426889.500,32.227,-2.441,-33.203,1.000,1.000
1622759278430795.750,-4.883,-12.207,-43.457,1.000,1.000
1622759278434702.000,-46.387,-32.227,-25.391,1.000,1.000
1622759278438608.250,-15.625,-15.625,-20.508,4.883,1.000
1622759278442514.500,29.785,-5.371,-41.504,25.391,1.000
1622759278446420.750,1.465,-46.875,-42.969,-16.602,1.000
1622759278450327.000,-54.199,-74.707,-43.457,-60.059,1.000
1622759278454233.250,-28.320,-47.363,-36.133,-14.648,1.000
1622759278458139.500,38.086,-26.855,-8.301,39.551,1.000
1622759278462045.750,22.949,-16.113,-0.977,15.625,1.000
1622759278465952.000,-30.762,-16.602,-16.113,-34.180,1.000
1622759278469858.250,-22.949,-41.992,-21.973,-20.996,1.000
1622759278473764.500,24.414,-43.457,-20.508,37.598,1.000
1622759278477670.750,27.832,-42.969,-32.715,41.504,1.000
1622759278481577.000,-20.508,-44.922,-49.316,-20.996,1.000
1622759278485483.250,-44.922,-42.969,-66.895,-50.781,1.000
1622759278489389.500,-55.176,-9.766,-32.227,-42.480,1.000
1622759278493295.750,12.695,1.953,-3.906,21.484,1.000
1622759278497202.000,30.273,-26.367,-13.184,17.578,1.000
1622759278501108.250,-44.922,-46.387,-46.387,-40.527,1.000
1622759278505014.500,-75.684,-28.809,-38.574,-55.176,1.000
1622759278508920.750,-19.043,-21.973,-19.043,-13.672,1.000
1622759278512827.000,25.391,-17.090,-26.367,17.578,1.000
1622759278516733.250,-4.883,-28.320,-40.039,-12.695,1.000
1622759278520639.500,-60.059,-42.969,-37.109,-49.805,1.000
1622759278524545.750,-30.762,-30.762,-23.438,-15.625,1.000
1622759278528452.000,31.250,-27.344,-29.297,25.391,1.000
1622759278532358.250,-0.977,-42.969,-36.621,-16.113,1.000
1622759278536264.500,-66.406,-52.246,-18.066,-71.777,1.000
1622759278540170.750,-44.922,-7.324,-7.324,-41.016,1.000
1622759278544077.000,16.113,15.625,-9.766,17.090,1.000
1622759278547983.250,5.371,-17.578,-15.625,-6.836,1.000
1622759278551889.500,-64.941,-36.621,-27.344,-79.102,1.000
1622759278555795.750,-74.707,-51.758,7.812,-96.191,1.000
1622759278559702.000,-1.953,-28.809,-8.301,-19.531,1.000
1622759278563608.250,26.855,-0.977,-46.387,10.742,1.000
1622759278567514.500,-37.109,-9.277,-42.480,-58.594,1.000
1622759278571420.750,-101.074,-25.879,-13.672,-103.027,1.000
1622759278575327.000,-65.918,-32.227,-29.785,-78.125,1.000
1622759278579233.250,-27.832,-34.180,-0.488,1.000,1.000
1622759278583139.500,-45.410,-20.508,-22.461,1.000,1.000
1622759278587045.750,-103.027,-19.043,-66.895,1.000,1.000
1622759278590952.000,-97.168,-28.809,-70.312,1.000,1.000
1622759278594858.250,-43.945,-30.273,-51.270,1.000,1.000
1622759278598764.500,-58.105,-12.207,-49.316,1.000,1.000
1622759278602670.750,-139.648,-20.996,-59.570,1.000,1.000
1622759278606577.000,-141.602,-36.621,-52.246,1.000,1.000
1622759278610483.250,-80.078,-38.086,-47.363,1.000,1.000
1622759278614389.500,-90.820,-46.875,-57.617,1.000,1.000
1622759278618295.750,-139.160,-31.738,-68.359,1.000,1.000
1622759278622202.000,-153.809,-2.441,-44.434,1.000,1.000
1622759278626108.250,-130.859,-9.277,-20.020,1.000,1.000
1622759278630014.500,-87.891,-24.414,-23.438,1.000,1.000
1622759278633920.750,-113.281,-41.016,-36.621,1.000,1.000
1622759278637827.000,-177.246,-66.406,-53.223,1.000,1.000
1622759278641733.250,-152.832,-29.785,-68.848,1.000,1.000
1622759278645639.500,-91.797,19.531,-71.777,1.000,1.000
1622759278649545.750,-117.188,13.184,-50.781,1.000,1.000
1622759278653452.000,-167.480,-7.812,-31.250,1.000,1.000
1622759278657358.250,-131.836,-21.484,-35.156,1.000,1.000
1622759278661264.500,-57.617,-32.715,-25.391,1.000,1.000
1622759278665170.750,-46.875,-43.945,-23.926,1.000,1.000
1622759278669077.000,-95.703,-52.246,-57.617,1.000,1.000
1622759278672983.250,-106.445,-61.523,-59.082,-102.539,1.000
1622759278676889.500,-56.641,-57.617,-31.738,-44.434,1.000
1622759278680795.750,-30.762,-32.227,-36.621,-26.367,1.000
1622759278684702.000,-65.918,-2.930,-49.805,-70.312,1.000
1622759278688608.250,-83.496,-2.441,-40.039,-76.660,1.000
1622759278692514.500,-30.273,-15.137,-28.809,-31.250,1.000
1622759278696420.750,12.695,-8.789,-19.531,-3.418,1.000
1622759278700327.000,-11.230,-4.395,-29.785,-32.715,1.000
1622759278704233.250,-47.363,-16.602,-48.828,-60.059,1.000
1622759278708139.500,-18.555,-34.180,-31.738,-19.043,1.000
1622759278712045.750,32.227,-45.410,-12.207,29.785,1.000
1622759278715952.000,20.996,-44.922,-17.578,9.766,1.000
1622759278719858.250,22.949,-29.785,-12.695,-30.762,1.000
1622759278723764.500,-36.133,-33.691,-39.551,-9.277,1.000
1622759278727670.750,-8.301,-29.297,-37.598,56.641,1.000
1622759278731577.000,49.805,-13.672,-26.855,51.758,1.000
1622759278735483.250,29.297,-10.742,-36.621,-0.488,1.000
1622759278739389.500,-25.879,-29.297,-36.133,-4.395,1.000
1622759278743295.750,-3.906,-36.133,-12.695,44.434,1.000
1622759278747202.000,48.340,-40.527,-20.020,63.965,1.000
1622759278751108.250,33.691,-46.875,-34.180,6.348,1.000
1622759278755014.500,-8.301,-32.227,-18.066,-23.438,1.000
1622759278758920.750,-15.625,-35.645,-15.137,31.250,1.000
1622759278762827.000,31.738,-36.621,-20.508,74.219,1.000
1622759278766733.250,57.129,-27.344,-9.277,1.000,1.000
1622759278770639.500,1.465,-30.273,-16.602,1.000,1.000
1622759278774545.750,-48.828,-39.062,-30.273,1.000,1.000
1622759278778452.000,11.230,-33.691,-15.137,1.000,1.000
1622759278782358.250,75.195,-6.836,-1.953,1.000,1.000
1622759278786264.500,8.301,-6.836,-26.367,1.000,1.000
1622759278790170.750,-59.570,-23.926,-41.992,1.000,1.000
1622759278794077.000,-23.926,-26.367,-29.297,1.000,1.000
1622759278797983.250,44.922,-22.461,-15.625,1.000,1.000
1622759278801889.500,37.109,-38.086,-15.625,1.000,1.000
1622759278805795.750,-35.645,-43.457,-39.551,1.000,1.000
1622759278809702.000,-39.551,-17.090,-42.969,1.000,1.000
1622759278813608.250,27.832,-4.883,-17.578,34.668,1.000
1622759278817514.500,21.484,-34.668,-25.879,35.645,1.000
1622759278821420.750,-35.645,-58.594,-37.598,-26.855,1.000
1622759278825327.000,-49.316,-64.453,-30.273,-34.668,1.000
1622759278829233.250,-1.953,-28.320,-18.066,22.949,1.000
1622759278833139.500,14.648,1.465,-14.160,29.297,1.000
1622759278837045.750,-37.109,-10.742,-31.250,-41.504,1.000
1622759278840952.000,-59.570,-25.391,-42.480,-73.730,1.000
1622759278844858.250,-3.906,-39.062,-29.297,-1.953,1.000
1622759278848764.500,37.598,-39.062,-20.020,47.363,1.000
1622759278852670.750,15.625,-10.742,-17.578,6.348,1.000
1622759278856577.000,-42.480,-1.465,-31.738,-54.688,1.000
1622759278860483.250,-5.859,-21.973,-34.668,-29.297,1.000
1622759278864389.500,-65.918,-25.879,-60.547,-76.660,1.000
1622759278868295.750,-35.645,-39.062,-37.598,-30.762,1.000
1622759278872202.000,6.836,-46.875,-12.207,9.277,1.000
1622759278876108.250,-19.043,-31.738,-15.625,-29.785,1.000
1622759278880014.500,-59.082,-7.812,-34.668,-58.594,1.000
1622759278883920.750,-31.738,-17.090,-37.109,-20.996,1.000
1622759278887827.000,21.484,-27.832,-20.996,20.020,1.000
1622759278891733.250,1.953,-50.293,-15.137,-8.301,1.000
1622759278895639.500,-37.598,-37.109,-14.648,-38.574,1.000
1622759278899545.750,-23.926,1.465,-24.414,-17.090,1.000
1622759278903452.000,15.137,0.488,-19.531,21.484,1.000
1622759278907358.250,16.113,-14.648,-17.090,1.000,1.000
1622759278911264.500,-38.086,-33.203,-30.273,1.000,1.000
1622759278915170.750,-62.988,-30.762,-47.363,1.000,1.000
1622759278919077.000,3.906,-25.879,-43.457,1.000,1.000
1622759278922983.250,26.855,-29.785,-23.438,1.000,1.000
1622759278926889.500,-35.645,-36.133,-25.391,1.000,1.000
1622759278930795.750,-63.965,-45.410,-31.738,1.000,1.000
1622759278934702.000,-22.461,-44.922,-34.180,1.000,1.000
1622759278938608.250,6.836,-42.969,-19.531,1.000,1.000
1622759278942514.500,-24.414,-50.781,-2.441,1.000,1.000
1622759278946420.750,-77.148,-35.645,-26.855,1.000,1.000
1622759278950327.000,-56.152,-12.695,-51.758,1.000,1.000
1622759278954233.250,9.277,-15.137,-26.367,1.000,1.000
1622759278958139.500,-0.977,-43.945,-5.371,1.000,1.000
1622759278962045.750,-65.918,-83.496,-17.578,1.000,1.000
1622759278965952.000,-70.312,-55.664,-27.832,1.000,1.000
1622759278969858.250,10.742,9.277,-37.109,1.000,1.000
1622759278973764.500,24.414,19.043,-30.273,1.000,1.000
1622759278977670.750,-56.641,-5.859,-24.414,1.000,1.000
1622759278981577.000,-91.309,-28.320,-32.715,1.000,1.000
1622759278985483.250,-33.203,-54.688,-33.203,1.000,1.000
1622759278989389.500,14.160,-62.988,-31.250,1.000,1.000
1622759278993295.750,-32.227,-52.246,-36.621,1.000,1.000
1622759278997202.000,-82.520,-20.996,-40.527,1.000,1.000
1622759279001108.250,-47.363,-13.672,-22.461,-44.922,1.000
1622759279005014.500,4.883,-49.805,-11.230,-7.812,1.000
1622759279008920.750,-21.484,-59.082,-31.738,-46.875,1.000
1622759279012827.000,-72.754,-18.066,-39.062,-85.449,1.000
1622759279016733.250,-33.203,-0.488,-31.250,-41.016,1.000
1622759279020639.500,12.695,-20.996,-30.273,-1.953,1.000
