timestamps,TP9,AF7,AF8,TP10,Right AUX
1624332454287992.000,-47.363,-37.109,-30.273,-71.777,1.000
1624332454291898.250,-28.809,-32.715,-45.898,-16.113,1.000
1624332454295804.500,-13.184,-26.855,-25.391,29.785,1.000
1624332454299710.750,-28.809,-31.738,-21.973,-25.391,1.000
1624332454303617.000,-45.410,-14.648,-28.809,-62.988,1.000
1624332454307523.250,-4.395,-4.395,-47.852,2.930,1.000
1624332454311429.500,38.086,-47.363,-68.359,63.477,1.000
1624332454315335.750,20.508,-77.148,-48.828,14.648,1.000
1624332454319242.000,1.465,-58.105,-24.902,-46.875,1.000
1624332454323148.250,-2.441,-15.625,-22.949,-22.949,1.000
1624332454327054.500,21.973,-5.371,-10.742,47.363,1.000
1624332454330960.750,23.926,-23.438,0.977,33.203,1.000
1624332454334867.000,-36.133,-27.344,-20.508,1.000,1.000
1624332454338773.250,-46.387,-24.902,-37.598,1.000,1.000
1624332454342679.500,-5.859,-13.184,-41.016,1.000,1.000
1624332454346585.750,0.977,-15.625,-38.574,1.000,1.000
1624332454350492.000,-19.043,-39.062,-50.293,1.000,1.000
1624332454354398.250,-38.086,-42.969,-58.594,1.000,1.000
1624332454358304.500,-10.254,-15.625,-27.344,1.000,1.000
1624332454362210.750,-0.977,4.883,-24.902,1.000,1.000
1624332454366117.000,-47.852,-16.113,-25.879,1.000,1.000
1624332454370023.250,-50.293,-26.855,-18.066,1.000,1.000
1624332454373929.500,-21.484,-28.809,-35.156,1.000,1.000
1624332454377835.750,9.766,-63.477,-24.902,1.000,1.000
1624332454381742.000,-43.457,-68.848,-20.508,0.488,1.000
1624332454385648.250,-66.406,-55.664,-23.926,-68.848,1.000
1624332454389554.500,-100.586,-41.992,-65.918,-128.418,1.000
1624332454393460.750,-77.148,-46.387,-105.957,-68.848,1.000
1624332454397367.000,-16.602,-22.949,-31.738,22.461,1.000
1624332454401273.250,-10.254,-9.277,37.598,1.953,1.000
1624332454405179.500,-59.570,-28.320,-3.906,-86.426,1.000
1624332454409085.750,-74.219,-37.598,-30.273,-69.336,1.000
1624332454412992.000,-34.668,-38.086,-1.953,19.043,1.000
1624332454416898.250,-17.578,-47.363,17.578,20.508,1.000
1624332454420804.500,-63.965,-38.086,-20.996,-65.430,1.000
1624332454424710.750,-69.336,-3.418,-32.715,-62.988,1.000
1624332454428617.000,-25.879,-39.062,-3.906,1.000,1.000
1624332454432523.250,0.977,-15.625,-20.996,1.000,1.000
1624332454436429.500,-8.789,7.324,-26.855,1.000,1.000
1624332454440335.750,-49.316,-26.367,-34.668,1.000,1.000
1624332454444242.000,-71.289,-61.523,-35.645,1.000,1.000
1624332454448148.250,-42.480,-52.246,-16.113,1.000,1.000
1624332454452054.500,-34.180,-46.387,-21.484,1.000,1.000
1624332454455960.750,-43.457,-41.992,-17.090,1.000,1.000
1624332454459867.000,-45.898,-25.879,-10.742,1.000,1.000
1624332454463773.250,-29.297,-7.324,-42.969,1.000,1.000
1624332454467679.500,-15.625,-20.508,-48.828,1.000,1.000
1624332454471585.750,-43.945,-45.898,-26.367,1.000,1.000
1624332454475492.000,-8.301,-28.809,-7.812,-93.262,1.000
1624332454479398.250,-27.832,4.395,-27.344,-61.035,1.000
1624332454483304.500,-0.977,-8.789,-17.578,20.508,1.000
1624332454487210.750,8.789,-28.320,-26.855,12.695,1.000
1624332454491117.000,-30.762,-49.805,-92.285,-57.617,1.000
1624332454495023.250,-63.965,-66.406,-92.285,-44.922,1.000
1624332454498929.500,-44.922,-59.570,-34.668,23.926,1.000
1624332454502835.750,-28.809,-37.598,-20.508,11.230,1.000
1624332454506742.000,-36.133,-20.020,-14.160,-74.707,1.000
1624332454510648.250,-47.363,-21.484,-8.301,-87.891,1.000
1624332454514554.500,-35.645,-3.906,2.930,-5.371,1.000
1624332454518460.750,2.441,7.324,5.859,39.551,1.000
1624332454522367.000,-16.602,-33.691,-7.812,36.621,1.000
1624332454526273.250,23.926,-25.391,-22.461,69.824,1.000
1624332454530179.500,-54.199,-49.316,-70.312,-77.148,1.000
1624332454534085.750,-86.426,-46.875,-59.082,-118.652,1.000
1624332454537992.000,-40.039,-54.199,-14.648,-10.742,1.000
1624332454541898.250,-32.227,-55.176,-21.973,7.324,1.000
1624332454545804.500,-57.129,-22.949,-36.621,-71.289,1.000
1624332454549710.750,-69.824,-32.227,-28.809,-101.562,1.000
1624332454553617.000,-44.434,-57.617,-45.410,-41.016,1.000
1624332454557523.250,-11.719,-38.086,-43.945,15.625,1.000
1624332454561429.500,-14.160,1.953,-12.207,-15.625,1.000
1624332454565335.750,-34.180,5.859,4.883,-73.242,1.000
1624332454569242.000,-38.086,-55.176,-49.316,-70.801,1.000
1624332454573148.250,-13.672,-30.762,-49.316,-14.160,1.000
1624332454577054.500,-6.348,-15.625,-35.645,16.113,1.000
1624332454580960.750,-32.227,-40.039,-31.738,-34.180,1.000
1624332454584867.000,-50.781,-37.598,-11.719,-92.285,1.000
1624332454588773.250,-14.648,-22.949,-5.859,-42.969,1.000
1624332454592679.500,30.762,-27.344,-19.531,40.527,1.000
1624332454596585.750,-6.836,-12.207,-23.438,-0.977,1.000
1624332454600492.000,-67.871,-6.348,-33.203,-98.633,1.000
1624332454604398.250,-65.918,-32.227,-53.223,-94.238,1.000
1624332454608304.500,-27.832,-47.363,-47.852,-3.906,1.000
1624332454612210.750,-21.484,-40.039,-36.133,-3.418,1.000
1624332454616117.000,-37.598,12.207,-58.105,-73.730,1.000
1624332454620023.250,-27.344,-4.883,-41.992,6.348,1.000
1624332454623929.500,6.836,-40.527,-15.625,24.902,1.000
1624332454627835.750,0.000,-50.781,-9.766,-42.969,1.000
1624332454631742.000,-31.250,-42.969,-20.508,-86.914,1.000
1624332454635648.250,-33.203,-32.715,-20.508,-26.855,1.000
1624332454639554.500,0.977,-20.996,-37.109,35.645,1.000
1624332454643460.750,-5.859,-8.301,-46.387,-25.879,1.000
1624332454647367.000,-49.316,-12.207,-43.945,-99.609,1.000
1624332454651273.250,-57.129,-26.855,-43.945,-40.527,1.000
1624332454655179.500,-17.090,-34.180,-32.227,37.109,1.000
1624332454659085.750,-3.418,-25.879,-37.598,7.324,1.000
1624332454662992.000,-21.973,-40.039,-20.996,4.395,1.000
1624332454666898.250,-72.754,-55.664,-43.945,-101.074,1.000
1624332454670804.500,-69.336,-12.207,-43.945,-92.773,1.000
1624332454674710.750,-10.742,-1.465,-41.992,18.066,1.000
1624332454678617.000,8.301,-5.371,-24.414,42.480,1.000
1624332454682523.250,-36.133,-13.184,-6.836,-51.270,1.000
1624332454686429.500,-56.641,-52.734,-3.906,-86.914,1.000
1624332454690335.750,-8.301,-62.500,6.348,6.348,1.000
1624332454694242.000,21.973,-42.480,-17.090,45.410,1.000
1624332454698148.250,-12.695,-12.207,-21.484,-29.297,1.000
1624332454702054.500,-48.828,-12.207,-20.020,-85.449,1.000
1624332454705960.750,-26.367,-25.391,-51.758,-23.926,1.000
1624332454709867.000,-23.926,-14.160,-10.742,1.000,1.000
1624332454713773.250,21.973,15.625,30.762,1.000,1.000
1624332454717679.500,2.441,8.789,3.418,1.000,1.000
1624332454721585.750,-41.504,-42.480,-46.875,1.000,1.000
1624332454725492.000,-29.297,-63.477,-36.133,1.000,1.000
1624332454729398.250,-30.762,-54.688,-37.598,1.000,1.000
1624332454733304.500,-57.129,-24.902,-40.527,1.000,1.000
1624332454737210.750,-69.824,-1.953,-18.066,1.000,1.000
1624332454741117.000,-62.012,-4.883,-17.090,1.000,1.000
1624332454745023.250,-23.926,-2.441,-19.043,1.000,1.000
1624332454748929.500,2.441,-18.555,-20.020,1.000,1.000
1624332454752835.750,-33.691,-44.434,-35.645,1.000,1.000
1624332454756742.000,-55.176,-68.848,-31.250,-100.098,1.000
1624332454760648.250,-11.230,-41.016,-18.555,-19.531,1.000
1624332454764554.500,22.461,-8.789,-46.875,37.598,1.000
1624332454768460.750,-1.953,-35.156,-57.129,-9.277,1.000
1624332454772367.000,-44.922,-31.738,-22.461,-56.152,1.000
1624332454776273.250,-63.477,-10.254,-11.230,-18.555,1.000
1624332454780179.500,-25.879,-19.531,-8.301,19.043,1.000
1624332454784085.750,-4.883,-34.180,-23.438,-49.316,1.000
1624332454787992.000,-19.043,-45.898,-36.133,-110.840,1.000
1624332454791898.250,-22.461,-22.949,-23.926,-44.922,1.000
1624332454795804.500,6.348,6.348,-21.484,32.227,1.000
1624332454799710.750,17.578,-9.277,-17.578,-25.391,1.000
1624332454803617.000,7.324,-38.086,-16.602,57.617,1.000
1624332454807523.250,-8.789,-0.488,-16.113,0.000,1.000
1624332454811429.500,-29.297,-8.789,-38.574,-64.941,1.000
1624332454815335.750,-4.395,-45.898,-50.781,-3.418,1.000
1624332454819242.000,7.324,-41.016,-20.996,40.039,1.000
1624332454823148.250,-54.688,-11.719,-11.719,-55.176,1.000
1624332454827054.500,-103.027,-22.949,-34.668,-141.602,1.000
1624332454830960.750,-75.195,-28.320,-37.598,-90.332,1.000
1624332454834867.000,-24.902,-25.391,-22.949,4.883,1.000
1624332454838773.250,-11.719,-33.691,-21.973,3.418,1.000
1624332454842679.500,-31.250,-41.504,-24.414,-59.570,1.000
1624332454846585.750,-33.203,-58.105,-12.207,-51.758,1.000
1624332454850492.000,-65.430,-23.438,-32.715,1.000,1.000
1624332454854398.250,-12.207,-20.996,-25.879,1.000,1.000
1624332454858304.500,-1.465,-19.531,-39.062,1.000,1.000
1624332454862210.750,-54.199,-37.109,-59.570,1.000,1.000
1624332454866117.000,-66.406,-64.941,-49.316,1.000,1.000
1624332454870023.250,-11.230,-64.453,-16.602,1.000,1.000
1624332454873929.500,2.930,-47.363,-29.297,1.000,1.000
1624332454877835.750,-36.133,-40.039,-57.617,1.000,1.000
1624332454881742.000,-56.152,-44.434,-46.387,1.000,1.000
1624332454885648.250,-18.555,-28.320,-26.367,1.000,1.000
1624332454889554.500,7.324,-3.906,-12.207,1.000,1.000
1624332454893460.750,-35.645,-15.137,-27.344,1.000,1.000
1624332454897367.000,-36.621,-22.949,-53.711,-45.410,1.000
1624332454901273.250,-69.824,-31.738,-11.230,-97.656,1.000
1624332454905179.500,-38.574,-37.109,-8.789,-19.531,1.000
1624332454909085.750,6.836,-29.785,-21.484,56.152,1.000
1624332454912992.000,-13.184,-25.879,-13.672,0.000,1.000
1624332454916898.250,-75.684,-34.668,-31.250,-96.680,1.000
1624332454920804.500,-70.312,-33.203,-49.805,-68.848,1.000
1624332454924710.750,-31.738,-29.785,-41.016,9.277,1.000
1624332454928617.000,-32.715,-43.945,-41.992,-10.742,1.000
1624332454932523.250,-51.270,-50.781,-47.852,-84.961,1.000
1624332454936429.500,-50.293,-32.227,-45.898,-73.730,1.000
1624332454940335.750,-26.855,-34.180,-48.828,2.441,1.000
1624332454944242.000,1.953,-34.668,-2.930,28.809,1.000
1624332454948148.250,-20.020,-42.969,-6.348,-7.812,1.000
1624332454952054.500,-69.824,-32.715,-20.508,-95.703,1.000
1624332454955960.750,-65.430,-9.766,-28.809,-84.473,1.000
1624332454959867.000,-24.902,-4.395,-40.039,-0.977,1.000
1624332454963773.250,-27.344,-28.809,-52.734,12.207,1.000
1624332454967679.500,-52.734,-57.129,-36.133,-60.059,1.000
1624332454971585.750,-59.570,-62.988,-17.578,-86.426,1.000
1624332454975492.000,-20.020,-19.531,-5.859,2.441,1.000
1624332454979398.250,11.719,7.812,-15.137,57.129,1.000
1624332454983304.500,-25.879,-9.277,-34.668,-19.043,1.000
1624332454987210.750,-68.359,-27.344,-30.762,-92.285,1.000
1624332454991117.000,-101.074,-53.223,-40.527,-46.875,1.000
1624332454995023.250,-71.289,-40.527,-28.809,5.859,1.000
1624332454998929.500,-46.875,-37.598,-32.227,-35.156,1.000
1624332455002835.750,-57.129,-51.758,-44.434,-92.285,1.000
1624332455006742.000,-63.477,-62.012,-29.785,-58.594,1.000
1624332455010648.250,-32.715,-55.176,-11.230,25.391,1.000
1624332455014554.500,-1.465,-23.438,-13.184,8.301,1.000
1624332455018460.750,-33.203,-25.391,-31.250,-63.477,1.000
1624332455022367.000,-74.707,-36.133,-50.293,-56.641,1.000
1624332455026273.250,-79.102,-30.273,-50.781,32.227,1.000
1624332455030179.500,-47.852,-42.969,-59.082,41.016,1.000
1624332455034085.750,-17.090,-53.223,-41.992,-59.570,1.000
1624332455037992.000,-7.812,-26.367,-49.316,-0.977,1.000
1624332455041898.250,-43.457,-6.348,-42.480,-79.590,1.000
1624332455045804.500,-57.129,-16.602,-38.574,-77.637,1.000
1624332455049710.750,-15.137,-8.789,-13.672,5.371,1.000
1624332455053617.000,0.977,2.441,10.254,12.695,1.000
1624332455057523.250,-19.531,10.254,15.137,-54.199,1.000
1624332455061429.500,-28.809,-32.227,9.766,-63.965,1.000
1624332455065335.750,-19.531,-73.730,-13.672,-8.789,1.000
1624332455069242.000,-20.020,-52.734,-48.828,-1.953,1.000
1624332455073148.250,-44.922,-24.414,-50.293,-63.965,1.000
1624332455077054.500,-58.594,-24.414,-29.785,-93.750,1.000
1624332455080960.750,-28.320,-20.508,-35.156,-36.621,1.000
1624332455084867.000,-26.367,-62.012,-51.270,1.000,1.000
1624332455088773.250,-4.395,-45.898,-50.781,1.000,1.000
1624332455092679.500,-33.203,-22.949,-23.438,1.000,1.000
1624332455096585.750,-80.078,-23.926,-19.531,1.000,1.000
1624332455100492.000,-42.480,-20.996,-13.672,1.000,1.000
1624332455104398.250,3.906,-21.973,1.953,1.000,1.000
1624332455108304.500,-10.742,-50.781,-2.441,1.000,1.000
1624332455112210.750,-42.969,-70.312,-34.668,1.000,1.000
1624332455116117.000,-55.176,-53.711,-54.199,1.000,1.000
1624332455120023.250,-22.949,-37.109,-45.410,1.000,1.000
1624332455123929.500,-11.230,-20.996,-37.109,1.000,1.000
1624332455127835.750,-50.293,-17.090,-46.875,1.000,1.000
1624332455131742.000,-57.129,-34.668,-50.781,-96.191,1.000
1624332455135648.250,-62.012,-24.902,-41.992,-69.824,1.000
1624332455139554.500,-33.203,-23.926,-29.297,-0.488,1.000
1624332455143460.750,-35.156,-34.668,-16.113,-15.625,1.000
1624332455147367.000,-51.270,-32.227,-1.953,-82.520,1.000
1624332455151273.250,-44.434,-23.438,-12.207,-79.590,1.000
1624332455155179.500,-20.020,-32.715,-17.090,-10.254,1.000
1624332455159085.750,-7.812,-53.223,-25.879,15.625,1.000
1624332455162992.000,-40.039,-43.945,-53.711,-57.617,1.000
1624332455166898.250,-76.172,-42.969,-44.434,-106.934,1.000
1624332455170804.500,-63.477,-44.434,-30.273,-51.270,1.000
1624332455174710.750,-38.574,-18.555,-43.457,-5.371,1.000
1624332455178617.000,6.348,-24.902,2.930,35.156,1.000
1624332455182523.250,-19.043,-16.113,-26.855,-40.527,1.000
1624332455186429.500,-40.527,-27.344,-38.574,-84.473,1.000
1624332455190335.750,-37.598,-63.477,-57.129,-42.480,1.000
1624332455194242.000,0.977,-56.152,-28.320,22.949,1.000
1624332455198148.250,-7.324,-36.133,-5.859,-17.090,1.000
1624332455202054.500,-65.918,-34.180,-45.410,-116.699,1.000
1624332455205960.750,-57.129,-26.855,-42.969,-76.172,1.000
1624332455209867.000,-14.648,-24.414,-30.273,19.043,1.000
1624332455213773.250,-15.137,-26.367,-37.109,-2.930,1.000
1624332455217679.500,-56.152,-33.203,-38.574,-87.402,1.000
1624332455221585.750,-56.641,-26.367,-30.273,-77.148,1.000
1624332455225492.000,-22.461,-23.926,-18.066,1.000,1.000
1624332455229398.250,25.391,-6.348,-15.625,1.000,1.000
1624332455233304.500,-0.977,-60.059,-26.855,1.000,1.000
1624332455237210.750,-47.363,-92.773,-36.621,1.000,1.000
1624332455241117.000,-33.203,-61.523,-49.805,1.000,1.000
1624332455245023.250,-21.484,-36.621,-73.242,1.000,1.000
1624332455248929.500,-19.531,-13.184,-44.434,1.000,1.000
1624332455252835.750,-47.852,-22.461,-40.527,1.000,1.000
1624332455256742.000,-59.082,-38.086,-40.527,1.000,1.000
1624332455260648.250,-4.883,-11.230,2.441,1.000,1.000
1624332455264554.500,26.855,-2.930,5.371,1.000,1.000
1624332455268460.750,-2.930,-28.320,-16.602,1.000,1.000
1624332455272367.000,-28.320,-55.664,-29.785,-35.645,1.000
1624332455276273.250,-71.777,-30.762,-50.781,-104.492,1.000
1624332455280179.500,-52.734,-13.184,-28.809,-42.480,1.000
1624332455284085.750,-29.785,-10.742,-37.109,11.719,1.000
1624332455287992.000,-43.457,-11.719,-45.898,-41.504,1.000
1624332455291898.250,-73.242,-20.020,-14.648,-98.145,1.000
1624332455295804.500,-45.410,-47.852,-1.465,-41.016,1.000
1624332455299710.750,0.488,-82.520,-6.836,38.574,1.000
1624332455303617.000,-15.625,-50.293,-32.227,-0.977,1.000
1624332455307523.250,-62.012,-23.926,-54.199,-93.262,1.000
1624332455311429.500,-62.988,-41.016,-47.363,-83.008,1.000
1624332455315335.750,-21.973,-40.039,-35.156,0.977,1.000
1624332455319242.000,-64.453,-33.691,-46.387,-18.555,1.000
1624332455323148.250,-49.316,-32.715,-60.547,27.832,1.000
1624332455327054.500,-27.832,-35.156,-56.641,-29.785,1.000
1624332455330960.750,-27.344,-21.973,-28.320,-92.285,1.000
1624332455334867.000,-48.828,-24.902,5.371,-53.711,1.000
1624332455338773.250,-45.410,-49.316,6.836,28.320,1.000
1624332455342679.500,-28.809,-44.434,-11.719,29.297,1.000
1624332455346585.750,-46.387,-43.945,-29.297,-63.965,1.000
1624332455350492.000,-62.012,-61.523,-35.645,-76.660,1.000
1624332455354398.250,-57.129,-48.828,-52.246,10.742,1.000
1624332455358304.500,-29.297,-39.062,-63.477,27.832,1.000
1624332455362210.750,-28.320,-35.645,-38.086,-47.852,1.000
1624332455366117.000,-32.227,-31.738,-16.602,-12.695,1.000
1624332455370023.250,-47.852,-43.945,-24.414,-81.543,1.000
1624332455373929.500,-25.879,-40.527,-26.855,-45.410,1.000
1624332455377835.750,-16.113,-32.715,-46.875,13.672,1.000
1624332455381742.000,-37.598,-33.203,-48.340,-17.090,1.000
1624332455385648.250,-47.852,-42.969,-43.457,-85.449,1.000
1624332455389554.500,-33.691,-58.105,-37.109,-84.961,1.000
1624332455393460.750,-22.461,-35.645,-30.762,-17.578,1.000
1624332455397367.000,-29.785,-24.902,-26.367,-6.836,1.000
1624332455401273.250,-43.945,-34.180,-24.414,-64.453,1.000
1624332455405179.500,-57.617,-31.738,-37.109,-93.750,1.000
1624332455409085.750,-14.648,-7.324,-32.715,-8.789,1.000
1624332455412992.000,-49.805,-50.781,-21.973,1.000,1.000
1624332455416898.250,-0.488,-28.320,-24.902,1.000,1.000
1624332455420804.500,-25.879,-12.207,-41.504,1.000,1.000
1624332455424710.750,-53.711,-35.645,-41.016,1.000,1.000
1624332455428617.000,-33.203,-37.109,-39.551,1.000,1.000
1624332455432523.250,1.953,-20.508,-49.805,1.000,1.000
1624332455436429.500,6.836,-13.184,-34.668,1.000,1.000
1624332455440335.750,-46.875,-30.273,-17.578,1.000,1.000
1624332455444242.000,-55.664,-29.297,-19.043,1.000,1.000
1624332455448148.250,-10.742,-34.180,-23.926,1.000,1.000
1624332455452054.500,-12.207,-53.711,-35.645,1.000,1.000
1624332455455960.750,-50.293,-45.410,-57.617,1.000,1.000
1624332455459867.000,-50.293,-49.316,-30.273,-82.520,1.000
1624332455463773.250,-69.824,-32.715,-57.617,-81.055,1.000
1624332455467679.500,-35.645,-18.555,-51.758,-7.324,1.000
1624332455471585.750,-9.766,-7.324,-17.090,-1.953,1.000
1624332455475492.000,-39.551,-25.391,-9.766,-73.242,1.000
1624332455479398.250,-45.898,-41.504,-21.484,-66.406,1.000
1624332455483304.500,-11.719,-30.273,-18.555,12.207,1.000
1624332455487210.750,-2.441,-15.625,-34.668,20.020,1.000
1624332455491117.000,-39.551,-35.645,-64.941,-59.570,1.000
1624332455495023.250,-63.965,-65.918,-52.734,-95.703,1.000
1624332455498929.500,-25.879,-51.758,-12.695,-20.508,1.000
1624332455502835.750,-3.906,-26.855,4.883,33.691,1.000
1624332455506742.000,-0.488,-40.527,-24.414,46.875,1.000
1624332455510648.250,-31.738,-45.898,-36.621,-40.527,1.000
1624332455514554.500,-62.500,-31.738,-35.156,-89.355,1.000
1624332455518460.750,-39.062,-19.531,-24.414,-10.742,1.000
1624332455522367.000,-12.207,-9.766,-12.207,42.969,1.000
1624332455526273.250,-40.039,-16.602,-12.207,-26.855,1.000
1624332455530179.500,-64.941,-34.668,-35.156,-93.262,1.000
1624332455534085.750,-51.758,-39.062,-42.969,-48.340,1.000
1624332455537992.000,-27.832,-41.016,-34.668,12.207,1.000
1624332455541898.250,-35.645,-43.457,-41.992,-22.949,1.000
1624332455545804.500,-62.988,-42.969,-39.062,-89.355,1.000
1624332455549710.750,-62.012,-43.457,-26.855,-68.359,1.000
1624332455553617.000,-50.293,-14.648,-49.805,13.672,1.000
1624332455557523.250,-4.395,-23.438,-4.883,19.531,1.000
1624332455561429.500,-24.902,-69.336,0.977,-53.223,1.000
1624332455565335.750,-51.758,-52.246,-10.742,-69.336,1.000
1624332455569242.000,-44.434,-15.137,-34.180,15.137,1.000
1624332455573148.250,-15.625,-7.324,-48.340,34.180,1.000
1624332455577054.500,-10.254,-22.949,-42.480,-67.871,1.000
1624332455580960.750,-38.086,-28.320,-30.762,-98.145,1.000
1624332455584867.000,-59.082,-30.273,-54.199,-28.320,1.000
1624332455588773.250,-22.461,-33.203,-34.180,19.531,1.000
1624332455592679.500,16.602,-30.273,13.672,-25.879,1.000
1624332455596585.750,-28.320,-25.391,-0.488,-99.121,1.000
1624332455600492.000,-32.227,-40.527,-61.035,-62.012,1.000
1624332455604398.250,-44.922,-20.996,-22.461,-63.477,1.000
1624332455608304.500,-26.367,-39.551,-18.066,-3.418,1.000
1624332455612210.750,-2.930,-41.016,-19.531,25.879,1.000
1624332455616117.000,-1.465,-41.992,-4.395,-17.090,1.000
1624332455620023.250,-35.645,-47.363,-27.832,-76.172,1.000
1624332455623929.500,-45.410,-31.250,-40.039,-42.480,1.000
1624332455627835.750,-19.531,-6.836,-25.391,26.367,1.000
1624332455631742.000,-23.438,-9.277,-41.504,-11.230,1.000
1624332455635648.250,-53.711,-36.621,-40.527,-82.520,1.000
1624332455639554.500,-38.086,-44.434,-27.344,-49.316,1.000
1624332455643460.750,13.184,-31.738,-16.602,40.039,1.000
1624332455647367.000,0.977,-66.406,-22.949,33.203,1.000
1624332455651273.250,6.348,-58.105,-20.996,9.277,1.000
1624332455655179.500,-31.738,-53.223,-25.879,-69.336,1.000
1624332455659085.750,-41.016,-37.598,-27.832,-63.477,1.000
1624332455662992.000,-1.953,-16.602,-20.020,18.555,1.000
1624332455666898.250,-25.879,-13.672,-50.781,-6.836,1.000
1624332455670804.500,-85.449,-20.996,-83.496,-113.770,1.000
1624332455674710.750,-82.520,-11.230,-43.945,-110.840,1.000
1624332455678617.000,-35.645,-14.160,-18.066,-15.137,1.000
1624332455682523.250,19.531,-34.668,3.418,39.551,1.000
1624332455686429.500,10.742,-40.527,20.508,-11.719,1.000
1624332455690335.750,-55.176,-49.316,-22.461,-88.867,1.000
1624332455694242.000,-61.035,-16.602,-30.273,-93.750,1.000
1624332455698148.250,-24.414,-18.555,-23.438,-17.090,1.000
1624332455702054.500,-12.695,-14.160,-25.391,12.695,1.000
1624332455705960.750,-30.273,-22.949,-35.156,-45.410,1.000
1624332455709867.000,-30.273,-44.922,-45.898,-84.961,1.000
1624332455713773.250,2.441,-45.410,-20.996,-15.137,1.000
1624332455717679.500,12.207,-31.738,-13.184,38.574,1.000
1624332455721585.750,-20.996,-24.414,-26.855,-22.461,1.000
1624332455725492.000,-49.805,-21.973,-20.020,-89.355,1.000
1624332455729398.250,-49.316,-30.273,-27.344,-65.918,1.000
1624332455733304.500,-29.785,-32.227,-35.645,-5.859,1.000
1624332455737210.750,-39.551,-28.320,-33.203,-24.414,1.000
1624332455741117.000,5.371,-57.129,-34.668,-3.418,1.000
1624332455745023.250,-48.828,-65.430,-9.766,-76.660,1.000
1624332455748929.500,-65.430,-40.039,-17.578,-62.012,1.000
1624332455752835.750,-45.898,-33.691,-44.434,-1.953,1.000
1624332455756742.000,-43.945,-32.715,-28.320,-13.672,1.000
1624332455760648.250,-57.617,-26.367,-12.207,-81.543,1.000
1624332455764554.500,-56.152,-28.320,-22.461,-80.078,1.000
1624332455768460.750,-25.879,-17.578,-25.879,-3.906,1.000
1624332455772367.000,-18.555,-33.203,-34.180,4.883,1.000
1624332455776273.250,-39.551,-48.828,-26.367,-64.941,1.000
1624332455780179.500,-36.133,-46.387,-32.715,-79.590,1.000
1624332455784085.750,-5.371,-49.805,-61.035,-2.441,1.000
1624332455787992.000,-30.762,-37.109,-12.695,1.000,1.000
1624332455791898.250,-5.859,-13.184,10.742,1.000,1.000
1624332455795804.500,-30.762,-20.020,-19.043,1.000,1.000
1624332455799710.750,-52.246,-43.457,-40.527,1.000,1.000
1624332455803617.000,-16.113,-35.156,-24.414,1.000,1.000
1624332455807523.250,11.230,-8.301,-17.578,1.000,1.000
1624332455811429.500,-20.996,-26.367,-29.297,1.000,1.000
1624332455815335.750,-37.598,-41.504,-29.785,1.000,1.000
1624332455819242.000,-28.320,-44.922,-34.180,1.000,1.000
1624332455823148.250,-21.973,-41.504,-42.969,1.000,1.000
1624332455827054.500,-30.762,-27.832,-37.598,1.000,1.000
1624332455830960.750,-62.988,-36.621,-44.922,1.000,1.000
1624332455834867.000,-38.086,-13.184,-11.719,-81.055,1.000
1624332455838773.250,-28.320,-44.922,-18.066,-41.504,1.000
1624332455842679.500,-0.977,-54.688,-18.555,27.344,1.000
1624332455846585.750,-7.812,-27.832,-29.297,0.488,1.000
1624332455850492.000,-53.223,-13.672,-31.250,-79.102,1.000
1624332455854398.250,-48.828,-24.414,-21.484,-57.129,1.000
1624332455858304.500,-12.695,-43.945,-40.527,20.020,1.000
1624332455862210.750,-0.977,-63.965,-49.316,21.484,1.000
1624332455866117.000,-30.273,-61.523,-44.434,-47.363,1.000
1624332455870023.250,-42.969,-18.066,-50.293,-66.895,1.000
1624332455873929.500,-9.766,-7.324,-52.734,4.395,1.000
1624332455877835.750,-2.441,-23.926,-53.223,24.414,1.000
1624332455881742.000,-12.207,-37.109,-13.672,3.418,1.000
1624332455885648.250,-33.203,-66.895,-42.480,-60.547,1.000
1624332455889554.500,-66.406,-65.918,-50.781,-89.355,1.000
1624332455893460.750,-53.711,-34.180,-35.645,-39.062,1.000
1624332455897367.000,-34.668,-24.414,-44.434,-4.883,1.000
1624332455901273.250,-52.246,-26.367,-37.109,-61.035,1.000
1624332455905179.500,-68.848,-24.902,-18.555,-107.910,1.000
1624332455909085.750,-53.223,-23.438,-27.344,-61.035,1.000
1624332455912992.000,-8.301,-15.625,-29.297,13.672,1.000
1624332455916898.250,6.836,-21.973,-32.715,-0.977,1.000
1624332455920804.500,-24.902,-38.086,-38.574,-70.801,1.000
1624332455924710.750,-22.949,-19.043,-32.715,-52.246,1.000
1624332455928617.000,-32.715,-22.461,-41.016,1.465,1.000
1624332455932523.250,-4.883,-14.648,-28.809,-9.766,1.000
1624332455936429.500,-6.348,-1.953,-27.344,-78.125,1.000
1624332455940335.750,-31.738,-12.207,-15.137,-82.520,1.000
1624332455944242.000,-15.137,-37.598,5.859,0.000,1.000
1624332455948148.250,19.531,-54.199,-9.766,21.484,1.000
1624332455952054.500,-19.043,-56.641,-46.875,-51.758,1.000
1624332455955960.750,-74.219,-51.270,-52.246,-80.078,1.000
1624332455959867.000,-66.406,-35.645,-38.574,-7.812,1.000
1624332455963773.250,-23.926,-7.324,-30.273,28.809,1.000
1624332455967679.500,-19.531,-16.602,-45.898,-41.016,1.000
1624332455971585.750,-38.086,-31.250,-50.293,-92.773,1.000
1624332455975492.000,-43.457,-3.418,-24.902,-51.758,1.000
1624332455979398.250,-62.500,-27.832,-26.367,-89.355,1.000
1624332455983304.500,-27.832,-35.645,-17.578,-14.648,1.000
1624332455987210.750,-28.809,-39.551,-19.531,15.137,1.000
1624332455991117.000,-39.551,-43.945,-21.973,-43.457,1.000
1624332455995023.250,-38.086,-34.668,-45.898,-75.684,1.000
1624332455998929.500,-36.133,-43.457,-71.777,-31.250,1.000
1624332456002835.750,-15.137,-26.367,-35.156,26.855,1.000
1624332456006742.000,-17.090,-19.043,-17.090,-12.695,1.000
1624332456010648.250,-50.781,-29.785,-48.828,-83.496,1.000
1624332456014554.500,-46.387,-38.086,-40.527,-46.875,1.000
1624332456018460.750,-1.465,-44.434,-11.719,36.133,1.000
1624332456022367.000,-3.906,-40.039,-19.531,1.000,1.000
1624332456026273.250,-10.742,-30.273,2.441,1.000,1.000
1624332456030179.500,-54.199,-22.461,-13.184,1.000,1.000
1624332456034085.750,-56.152,-16.602,-33.203,1.000,1.000
1624332456037992.000,-24.414,-26.367,-28.320,1.000,1.000
1624332456041898.250,-13.184,-56.152,-36.621,1.000,1.000
1624332456045804.500,-34.668,-50.293,-65.430,1.000,1.000
1624332456049710.750,-52.734,-24.414,-62.012,1.000,1.000
1624332456053617.000,-25.391,-31.738,-22.949,1.000,1.000
1624332456057523.250,-14.160,-19.531,-6.836,1.000,1.000
1624332456061429.500,-54.688,-9.766,-34.180,1.000,1.000
1624332456065335.750,-68.848,-44.434,-53.711,1.000,1.000
1624332456069242.000,-69.336,-18.555,-50.293,-27.832,1.000
1624332456073148.250,-44.434,-16.602,-22.949,2.930,1.000
1624332456077054.500,3.418,-16.602,8.301,-54.199,1.000
1624332456080960.750,-4.883,-41.992,18.555,-101.074,1.000
1624332456084867.000,-66.406,-56.152,-41.016,-37.598,1.000
1624332456088773.250,-50.293,-22.461,-66.406,40.527,1.000
1624332456092679.500,-20.508,1.465,-27.344,5.859,1.000
1624332456096585.750,-48.340,-19.531,-32.715,-82.031,1.000
1624332456100492.000,-78.613,-51.758,-62.012,-72.754,1.000
1624332456104398.250,-44.434,-34.668,-44.434,12.207,1.000
1624332456108304.500,5.859,-22.461,-17.578,24.902,1.000
1624332456112210.750,-22.949,-42.480,-10.742,-47.363,1.000
1624332456116117.000,-77.637,-57.129,-31.738,-76.660,1.000
1624332456120023.250,-78.613,-51.758,-7.812,-113.770,1.000
1624332456123929.500,-41.992,-30.762,-32.227,-51.758,1.000
1624332456127835.750,12.695,-28.809,-54.199,33.203,1.000
1624332456131742.000,-31.250,-59.082,-54.199,-28.320,1.000
1624332456135648.250,-111.816,-53.711,-48.828,-138.672,1.000
1624332456139554.500,-111.328,-22.461,-38.574,-129.883,1.000
1624332456143460.750,-55.176,-30.273,-34.180,-32.715,1.000
1624332456147367.000,-31.738,-67.383,-28.809,-6.348,1.000
1624332456151273.250,-48.828,-51.270,-32.715,-70.801,1.000
1624332456155179.500,-49.805,-25.391,-63.965,-81.543,1.000
1624332456159085.750,-26.367,-35.645,-69.336,-9.766,1.000
1624332456162992.000,-22.949,-19.531,-21.973,1.000,1.000
1624332456166898.250,15.137,-25.391,-4.883,1.000,1.000
1624332456170804.500,-7.812,-35.156,-2.441,1.000,1.000
1624332456174710.750,-46.387,-46.387,-42.969,1.000,1.000
1624332456178617.000,-27.344,-45.898,-65.918,1.000,1.000
1624332456182523.250,-14.648,-24.902,-26.855,1.000,1.000
1624332456186429.500,-39.551,-20.996,-10.254,1.000,1.000
1624332456190335.750,-60.547,-23.926,-27.832,1.000,1.000
1624332456194242.000,-34.668,-23.926,-8.789,1.000,1.000
1624332456198148.250,6.836,-41.016,0.488,1.000,1.000
1624332456202054.500,0.000,-49.316,-33.691,1.000,1.000
1624332456205960.750,-43.457,-47.852,-29.297,1.000,1.000
1624332456209867.000,-67.383,-1.465,-15.137,-102.051,1.000
1624332456213773.250,-56.152,-14.160,-25.391,-63.965,1.000
1624332456217679.500,-12.695,-34.180,-40.527,16.113,1.000
1624332456221585.750,0.000,-40.527,-26.367,10.254,1.000
1624332456225492.000,-27.832,-42.480,-16.113,-51.758,1.000
1624332456229398.250,-21.484,-57.617,-23.926,-29.785,1.000
1624332456233304.500,11.719,-37.598,-16.113,40.527,1.000
1624332456237210.750,-14.160,-7.812,-6.348,10.254,1.000
1624332456241117.000,-45.898,-4.883,-17.090,-67.383,1.000
1624332456245023.250,-54.688,-4.883,-62.988,-80.566,1.000
1624332456248929.500,-53.711,-9.766,-61.523,-34.668,1.000
1624332456252835.750,-37.598,-23.438,-14.160,-7.324,1.000
1624332456256742.000,-1.465,-31.250,-32.715,23.438,1.000
1624332456260648.250,-33.203,-15.137,-20.020,-47.852,1.000
1624332456264554.500,-30.273,-3.418,-1.465,-52.246,1.000
1624332456268460.750,18.066,17.578,-4.883,41.992,1.000
1624332456272367.000,6.836,-3.906,-43.457,52.246,1.000
1624332456276273.250,-40.039,-52.734,-59.082,-41.504,1.000
1624332456280179.500,-69.336,-65.918,-56.641,-98.145,1.000
1624332456284085.750,-63.477,-57.617,-46.875,-51.758,1.000
1624332456287992.000,-40.527,-50.293,-28.809,0.488,1.000
1624332456291898.250,-38.574,-28.320,-8.301,-32.715,1.000
1624332456295804.500,-48.828,-11.230,1.465,-74.219,1.000
1624332456299710.750,-37.598,-23.926,-21.973,-39.062,1.000
1624332456303617.000,-75.195,-37.109,-50.781,46.875,1.000
1624332456307523.250,-43.457,-31.738,-48.340,34.180,1.000
1624332456311429.500,-36.133,-29.785,-35.645,-51.758,1.000
1624332456315335.750,-55.664,-58.594,-18.066,-72.754,1.000
1624332456319242.000,-44.434,-70.801,-15.625,-16.602,1.000
1624332456323148.250,-5.859,-20.020,-26.367,-7.324,1.000
1624332456327054.500,10.254,2.930,-20.508,-68.359,1.000
1624332456330960.750,-23.438,-40.527,-15.137,-70.312,1.000
1624332456334867.000,-58.105,-56.152,-38.574,-3.906,1.000
1624332456338773.250,-27.832,-9.277,-41.992,31.250,1.000
1624332456342679.500,-27.832,-0.977,-31.250,-13.184,1.000
1624332456346585.750,-63.477,-20.996,-48.340,-84.473,1.000
1624332456350492.000,-44.922,-29.785,-3.906,-79.590,1.000
1624332456354398.250,-65.918,-33.203,-52.246,-98.145,1.000
1624332456358304.500,-21.484,-31.738,-68.848,-19.531,1.000
1624332456362210.750,3.418,-42.969,-22.949,18.555,1.000
1624332456366117.000,-16.602,-20.996,-2.930,-36.621,1.000
1624332456370023.250,-48.340,-7.324,-32.227,-87.891,1.000
1624332456373929.500,-32.715,-13.672,-27.344,-40.527,1.000
1624332456377835.750,-13.184,-23.438,-9.766,7.324,1.000
1624332456381742.000,-40.039,-36.133,-23.438,-52.734,1.000
1624332456385648.250,-71.777,-38.574,-45.898,-126.953,1.000
1624332456389554.500,-64.941,-41.504,-58.105,-92.285,1.000
1624332456393460.750,-27.344,-35.156,-43.457,2.441,1.000
1624332456397367.000,7.324,-39.551,-46.387,1.000,1.000
1624332456401273.250,-20.996,-14.648,-28.320,1.000,1.000
1624332456405179.500,-73.242,-32.715,-31.250,1.000,1.000
1624332456409085.750,-55.664,-34.668,-35.156,1.000,1.000
1624332456412992.000,-9.766,-19.531,-34.668,1.000,1.000
1624332456416898.250,-21.973,-31.250,-39.062,1.000,1.000
1624332456420804.500,-49.316,-42.480,-38.086,1.000,1.000
1624332456424710.750,-19.043,-8.789,-23.926,1.000,1.000
1624332456428617.000,14.648,-19.043,-16.602,1.000,1.000
1624332456432523.250,-31.250,-79.102,-26.367,1.000,1.000
1624332456436429.500,-80.078,-78.125,-33.203,1.000,1.000
1624332456440335.750,-68.848,-12.207,-12.695,1.000,1.000
1624332456444242.000,-52.246,-16.113,-35.156,-86.914,1.000
1624332456448148.250,-7.812,-20.020,-22.949,2.930,1.000
1624332456452054.500,-2.930,-53.223,-20.508,8.301,1.000
1624332456455960.750,-33.691,-51.758,-27.832,-66.406,1.000
1624332456459867.000,-65.430,-16.113,-42.480,-94.727,1.000
1624332456463773.250,-25.879,-5.371,-38.086,-18.555,1.000
1624332456467679.500,-0.488,-38.574,-32.715,25.391,1.000
1624332456471585.750,-45.410,-35.645,-30.762,-55.664,1.000
1624332456475492.000,-59.570,-16.113,-24.902,-100.586,1.000
1624332456479398.250,-17.578,-2.930,-16.113,-26.367,1.000
1624332456483304.500,-8.789,-28.320,-10.742,23.438,1.000
1624332456487210.750,-31.738,-63.477,-13.184,-23.926,1.000
1624332456491117.000,-89.355,-43.945,-67.871,-82.520,1.000
1624332456495023.250,-100.586,-28.809,-45.898,-126.953,1.000
1624332456498929.500,-67.871,-51.758,-25.879,-69.824,1.000
1624332456502835.750,-5.859,-50.293,-10.742,23.926,1.000
1624332456506742.000,-8.301,-34.668,-23.438,4.883,1.000
1624332456510648.250,-55.664,-31.250,-28.809,-83.008,1.000
1624332456514554.500,-34.180,-16.602,-4.395,-60.059,1.000
1624332456518460.750,-18.555,-32.227,-44.922,4.395,1.000
1624332456522367.000,-42.480,-42.969,-76.660,-18.066,1.000
1624332456526273.250,-64.941,-26.855,-51.270,-86.426,1.000
1624332456530179.500,-79.590,-34.668,-46.875,-104.004,1.000
1624332456534085.750,-45.898,-19.531,-24.902,-32.227,1.000
1624332456537992.000,-26.367,-49.805,-34.180,5.859,1.000
1624332456541898.250,-10.254,-14.648,-25.391,10.742,1.000
1624332456545804.500,-39.062,0.000,-25.879,-61.523,1.000
1624332456549710.750,-34.668,0.000,-7.324,-59.570,1.000
1624332456553617.000,12.695,-19.531,-17.090,24.414,1.000
1624332456557523.250,9.766,-43.945,-57.617,39.062,1.000
1624332456561429.500,-45.410,-43.945,-50.781,-46.875,1.000
1624332456565335.750,-74.707,-57.129,-26.855,-108.398,1.000
1624332456569242.000,-40.527,-71.289,-32.715,-39.062,1.000
1624332456573148.250,-4.395,-35.156,-52.246,38.086,1.000
1624332456577054.500,-32.227,6.348,-35.645,-12.695,1.000
1624332456580960.750,-49.805,10.254,-8.301,-70.312,1.000
1624332456584867.000,-71.289,-6.836,-31.738,-89.355,1.000
1624332456588773.250,-47.852,-9.766,-36.133,-38.574,1.000
1624332456592679.500,-16.113,-26.855,-54.688,26.367,1.000
1624332456596585.750,-40.527,-28.809,-47.852,-13.184,1.000
1624332456600492.000,-53.223,-28.809,-20.020,-80.078,1.000
1624332456604398.250,-12.207,-20.508,-39.551,-35.645,1.000
1624332456608304.500,24.902,-11.719,-34.180,47.363,1.000
1624332456612210.750,10.742,-8.789,3.906,27.832,1.000
1624332456616117.000,-34.180,-33.203,3.418,-69.336,1.000
1624332456620023.250,-29.297,-58.105,-1.953,-66.895,1.000
1624332456623929.500,-16.602,-48.340,-21.484,0.977,1.000
1624332456627835.750,-27.832,-36.133,-41.504,-3.418,1.000
1624332456631742.000,20.996,-14.648,-28.320,41.016,1.000
1624332456635648.250,-37.598,3.906,-63.965,-63.965,1.000
1624332456639554.500,-79.590,-4.883,-80.566,-106.445,1.000
1624332456643460.750,-25.391,-19.043,-50.781,-10.742,1.000
1624332456647367.000,1.953,-40.039,-10.254,21.973,1.000
1624332456651273.250,-36.133,-58.105,-5.859,-60.059,1.000
1624332456655179.500,-66.895,-31.250,-34.180,-112.305,1.000
1624332456659085.750,-40.039,-17.578,-53.711,-50.293,1.000
1624332456662992.000,14.160,-10.742,-23.926,26.855,1.000
1624332456666898.250,-9.766,-8.789,-12.207,-33.203,1.000
1624332456670804.500,-56.152,0.000,-19.531,-110.840,1.000
1624332456674710.750,-42.969,2.930,-41.016,-76.172,1.000
1624332456678617.000,-38.086,-48.828,-33.691,1.953,1.000
1624332456682523.250,-16.602,-26.367,-29.785,12.207,1.000
1624332456686429.500,-38.086,-45.898,-39.551,-32.227,1.000
1624332456690335.750,-70.312,-27.344,-54.688,-35.645,1.000
1624332456694242.000,-66.895,-2.441,-59.570,11.230,1.000
1624332456698148.250,-36.133,-12.695,-29.785,6.836,1.000
1624332456702054.500,-33.691,-23.438,-4.883,-76.660,1.000
1624332456705960.750,-69.824,-33.203,-9.766,-117.188,1.000
1624332456709867.000,-60.059,-38.574,-6.836,-44.434,1.000
1624332456713773.250,-18.555,-30.762,-5.859,20.996,1.000
1624332456717679.500,-17.090,-31.250,-43.457,-12.695,1.000
1624332456721585.750,-52.734,-39.551,-66.406,-64.941,1.000
1624332456725492.000,-42.480,-17.578,-55.176,-80.566,1.000
1624332456729398.250,-41.992,-2.930,-10.742,-68.359,1.000
1624332456733304.500,-20.508,-24.414,16.113,8.789,1.000
1624332456737210.750,10.742,-48.828,-1.465,41.992,1.000
1624332456741117.000,-2.930,-63.477,-26.367,-17.578,1.000
1624332456745023.250,-54.688,-44.922,-27.832,-75.195,1.000
1624332456748929.500,-63.477,-13.184,-50.293,-38.574,1.000
1624332456752835.750,-41.992,-23.438,-62.500,3.906,1.000
1624332456756742.000,-48.828,-40.039,-53.223,-41.992,1.000
1624332456760648.250,-68.848,-10.742,-44.434,-95.215,1.000
1624332456764554.500,-55.664,-2.441,-25.391,-51.758,1.000
1624332456768460.750,-26.367,-54.199,-7.324,8.789,1.000
1624332456772367.000,-16.602,13.184,-24.414,1.000,1.000
1624332456776273.250,-27.344,-13.672,-20.020,1.000,1.000
1624332456780179.500,-39.551,-38.574,-21.484,1.000,1.000
1624332456784085.750,-35.156,-39.551,-34.180,1.000,1.000
1624332456787992.000,-10.742,-61.523,-32.227,1.000,1.000
1624332456791898.250,-0.977,-79.102,-38.574,1.000,1.000
1624332456795804.500,-28.320,-25.391,-50.781,1.000,1.000
1624332456799710.750,-51.270,1.465,-40.039,1.000,1.000
1624332456803617.000,-16.602,-19.043,-24.414,1.000,1.000
1624332456807523.250,-15.625,-22.461,-22.461,1.000,1.000
1624332456811429.500,-51.758,-36.621,-32.227,1.000,1.000
1624332456815335.750,-51.758,-28.320,-41.504,1.000,1.000
1624332456819242.000,-29.785,-81.055,-54.688,-51.270,1.000
1624332456823148.250,15.137,-14.648,-48.340,32.715,1.000
1624332456827054.500,23.926,-2.930,-41.504,38.574,1.000
1624332456830960.750,1.465,-45.898,-20.020,-33.203,1.000
1624332456834867.000,-13.672,-24.414,-1.953,-53.223,1.000
1624332456838773.250,-10.254,4.883,-21.973,-5.371,1.000
1624332456842679.500,-3.906,-0.488,-25.391,17.090,1.000
1624332456846585.750,-24.414,-13.184,-14.160,-42.969,1.000
1624332456850492.000,-18.066,-44.434,3.418,-68.848,1.000
1624332456854398.250,-5.371,-50.781,-17.578,-20.508,1.000
1624332456858304.500,-22.949,-23.926,-50.781,4.883,1.000
1624332456862210.750,-30.762,1.465,-41.992,-31.738,1.000
1624332456866117.000,0.977,-35.156,-62.500,-8.301,1.000
1624332456870023.250,-26.367,-62.988,-32.227,-63.477,1.000
1624332456873929.500,-28.320,-20.996,-3.906,-27.344,1.000
1624332456877835.750,-16.113,-2.441,-5.371,21.973,1.000
1624332456881742.000,-26.367,-3.906,-32.715,-19.043,1.000
1624332456885648.250,-59.082,4.883,-58.594,-92.773,1.000
1624332456889554.500,-49.316,-14.160,-50.781,-61.523,1.000
1624332456893460.750,-0.488,-16.602,-37.109,28.320,1.000
1624332456897367.000,5.371,-14.648,-20.996,28.809,1.000
1624332456901273.250,-28.320,-39.551,-10.742,-50.293,1.000
1624332456905179.500,-35.645,-62.012,-0.977,-65.430,1.000
1624332456909085.750,28.809,-39.062,27.344,53.223,1.000
1624332456912992.000,-3.418,-35.156,-30.273,83.984,1.000
1624332456916898.250,0.977,-36.133,-18.555,-43.945,1.000
1624332456920804.500,-72.754,-66.406,-50.781,-107.422,1.000
1624332456924710.750,-81.055,-55.176,-49.316,-54.688,1.000
1624332456928617.000,-25.391,-11.719,-12.207,-2.930,1.000
1624332456932523.250,-7.324,4.883,-13.672,-55.176,1.000
1624332456936429.500,-33.203,-24.414,-31.250,-97.656,1.000
1624332456940335.750,-50.781,-69.824,-25.879,-28.320,1.000
1624332456944242.000,-20.996,-27.832,-20.996,41.992,1.000
1624332456948148.250,-15.625,21.484,-38.574,18.555,1.000
1624332456952054.500,-43.457,-7.324,-41.992,-44.434,1.000
1624332456955960.750,-68.359,-32.227,-19.531,-41.016,1.000
1624332456959867.000,-57.129,-79.102,-22.461,-87.891,1.000
1624332456963773.250,-23.926,-59.082,-20.020,-21.973,1.000
1624332456967679.500,0.000,-17.578,-48.828,27.344,1.000
1624332456971585.750,-24.902,16.113,-57.129,-20.020,1.000
1624332456975492.000,-58.105,2.441,-53.711,-95.703,1.000
1624332456979398.250,-48.828,-13.184,-35.645,-71.289,1.000
1624332456983304.500,-4.883,-6.836,-11.230,17.578,1.000
1624332456987210.750,-19.043,-21.484,-16.602,-4.883,1.000
1624332456991117.000,-72.754,-47.852,-22.949,-102.539,1.000
1624332456995023.250,-56.152,-45.898,-12.207,-74.219,1.000
1624332456998929.500,1.953,-25.391,-18.066,30.273,1.000
1624332457002835.750,11.719,-28.809,-40.527,39.551,1.000
1624332457006742.000,-10.254,-12.695,-36.133,15.625,1.000
1624332457010648.250,-39.551,-6.836,-20.020,-67.383,1.000
1624332457014554.500,-35.645,-26.367,-16.602,-63.965,1.000
1624332457018460.750,-32.715,-24.414,-42.969,-10.254,1.000
1624332457022367.000,-20.508,-3.906,-23.438,8.301,1.000
1624332457026273.250,-23.438,-8.789,-24.902,-36.133,1.000
1624332457030179.500,-42.480,-22.949,-59.570,-73.242,1.000
1624332457034085.750,-29.785,-59.570,-40.039,-20.020,1.000
1624332457037992.000,3.418,-60.059,9.766,39.062,1.000
1624332457041898.250,-5.371,-18.555,10.254,-10.254,1.000
1624332457045804.500,-56.641,-17.578,-27.344,-87.402,1.000
1624332457049710.750,-43.457,-10.742,-47.852,-42.969,1.000
1624332457053617.000,-62.988,-34.180,-21.973,28.320,1.000
1624332457057523.250,-20.508,-37.109,1.465,-15.137,1.000
1624332457061429.500,-8.301,-33.691,1.465,-99.609,1.000
1624332457065335.750,-30.762,-40.039,-23.926,-81.543,1.000
1624332457069242.000,-21.484,-28.809,-38.086,1.953,1.000
1624332457073148.250,-6.348,-29.785,-47.852,5.859,1.000
1624332457077054.500,-34.180,-40.527,-55.664,-62.988,1.000
1624332457080960.750,-65.918,-41.504,-34.180,-70.312,1.000
1624332457084867.000,-56.641,-34.668,-19.531,16.602,1.000
1624332457088773.250,-33.691,-12.695,-41.504,29.297,1.000
1624332457092679.500,-28.809,-10.254,-52.246,-73.242,1.000
1624332457096585.750,-24.414,-23.438,-18.555,-119.141,1.000
1624332457100492.000,-46.875,-17.090,-2.930,-77.637,1.000
1624332457104398.250,-44.922,-0.977,-5.859,-67.383,1.000
1624332457108304.500,-26.855,-16.602,-29.297,-2.441,1.000
1624332457112210.750,-1.953,-10.742,-23.926,26.367,1.000
1624332457116117.000,-18.555,-9.277,-32.715,-42.969,1.000
1624332457120023.250,-53.711,-20.508,-58.594,-92.285,1.000
1624332457123929.500,-47.363,-40.039,-34.668,-28.809,1.000
1624332457127835.750,-23.926,-46.875,-9.766,20.508,1.000
1624332457131742.000,-40.039,-31.738,-29.785,-32.715,1.000
1624332457135648.250,-60.547,-19.043,-30.762,-82.031,1.000
1624332457139554.500,-35.156,-8.301,-34.668,-28.809,1.000
1624332457143460.750,28.809,-23.438,-7.324,64.941,1.000
1624332457147367.000,3.418,-52.246,-23.926,1.000,1.000
1624332457151273.250,-16.602,-28.320,-31.250,1.000,1.000
1624332457155179.500,-61.523,-2.930,-42.480,1.000,1.000
1624332457159085.750,-69.824,-3.418,-51.270,1.000,1.000
1624332457162992.000,-21.484,-21.973,-26.855,1.000,1.000
1624332457166898.250,-16.113,-59.570,-17.578,1.000,1.000
1624332457170804.500,-33.203,-48.828,-22.461,1.000,1.000
1624332457174710.750,-18.555,-15.137,-25.879,1.000,1.000
1624332457178617.000,-12.207,-8.301,-52.246,1.000,1.000
1624332457182523.250,-21.484,-19.531,-44.434,1.000,1.000
1624332457186429.500,-47.363,-21.973,-15.625,1.000,1.000
1624332457190335.750,-45.410,-9.277,-1.465,1.000,1.000
1624332457194242.000,-35.645,-44.922,-41.016,-56.641,1.000
1624332457198148.250,-6.348,-29.297,-17.090,21.973,1.000
1624332457202054.500,6.836,8.301,11.230,30.273,1.000
1624332457205960.750,-4.395,-20.508,6.836,-27.344,1.000
1624332457209867.000,-33.691,-44.922,-34.668,-57.129,1.000
1624332457213773.250,-37.109,-22.461,-62.500,-11.719,1.000
1624332457217679.500,-21.484,-34.668,-41.504,17.090,1.000
1624332457221585.750,-41.992,-41.992,-31.250,-49.316,1.000
1624332457225492.000,-54.688,-2.930,-22.461,-90.820,1.000
1624332457229398.250,-27.832,-21.973,-31.250,-26.855,1.000
1624332457233304.500,8.789,-66.406,-46.875,42.480,1.000
1624332457237210.750,-1.953,-24.902,-10.742,3.906,1.000
1624332457241117.000,12.695,-32.715,-2.441,-7.324,1.000
1624332457245023.250,-58.594,-54.688,-24.414,-106.934,1.000
1624332457248929.500,-76.172,-38.086,-46.875,-70.801,1.000
1624332457252835.750,-22.949,-9.277,-41.016,26.855,1.000
1624332457256742.000,-17.090,-20.508,-37.598,-2.441,1.000
1624332457260648.250,-52.246,-49.316,-35.156,-85.938,1.000
1624332457264554.500,-48.340,-50.293,-22.461,-57.617,1.000
1624332457268460.750,-1.465,-14.648,-16.602,30.762,1.000
1624332457272367.000,7.812,-5.371,-27.344,22.949,1.000
1624332457276273.250,-37.598,-40.527,-31.250,-63.965,1.000
1624332457280179.500,-61.035,-32.715,-17.090,-88.867,1.000
1624332457284085.750,-30.273,-15.137,-9.277,-17.578,1.000
1624332457287992.000,-14.160,-10.742,-43.457,15.137,1.000
1624332457291898.250,7.324,-42.480,-63.477,-48.340,1.000
1624332457295804.500,-1.953,-65.430,-25.879,-77.148,1.000
1624332457299710.750,-43.457,-39.551,-5.859,-12.207,1.000
1624332457303617.000,-45.898,-5.859,-22.949,41.992,1.000
1624332457307523.250,-14.160,16.602,-25.879,-21.484,1.000
1624332457311429.500,-36.133,5.371,-23.438,-87.891,1.000
1624332457315335.750,-57.617,-19.043,-32.715,-35.645,1.000
1624332457319242.000,-6.348,-18.555,-39.551,13.672,1.000
1624332457323148.250,15.625,-31.738,-30.273,-39.551,1.000
1624332457327054.500,-27.344,-40.039,-5.371,-101.562,1.000
1624332457330960.750,-62.012,-41.992,-20.508,-61.035,1.000
1624332457334867.000,-51.758,-38.574,-4.883,-82.520,1.000
1624332457338773.250,-55.176,-13.184,-8.789,-39.551,1.000
1624332457342679.500,-23.926,0.488,-29.785,10.742,1.000
1624332457346585.750,-25.391,-7.324,-30.762,-23.926,1.000
1624332457350492.000,-63.477,-28.809,-36.621,-87.891,1.000
1624332457354398.250,-60.059,-46.387,-34.180,-63.477,1.000
1624332457358304.500,-9.277,-55.664,-32.227,19.043,1.000
1624332457362210.750,-3.906,-63.965,-32.227,-1.465,1.000
1624332457366117.000,-26.367,-35.645,0.488,-62.500,1.000
1624332457370023.250,-32.715,-19.043,10.742,-55.176,1.000
1624332457373929.500,-16.602,-13.184,-26.855,8.789,1.000
1624332457377835.750,-26.367,-2.930,-50.781,0.000,1.000
1624332457381742.000,-25.391,-28.809,-19.043,-3.418,1.000
1624332457385648.250,-55.176,-45.410,-21.484,-80.078,1.000
1624332457389554.500,-58.594,-45.410,-21.484,-74.707,1.000
1624332457393460.750,-20.996,-31.250,-22.461,13.672,1.000
1624332457397367.000,-3.906,-19.043,-15.625,28.809,1.000
1624332457401273.250,-34.668,-28.320,-24.902,-57.617,1.000
1624332457405179.500,-57.129,-29.785,-40.527,-88.379,1.000
1624332457409085.750,-12.207,-2.441,-36.133,2.930,1.000
1624332457412992.000,8.301,-2.441,-35.645,45.410,1.000
1624332457416898.250,-29.297,-39.062,-44.434,-30.273,1.000
1624332457420804.500,-42.480,-50.781,-32.715,-74.707,1.000
1624332457424710.750,-19.531,-30.762,-28.320,-32.227,1.000
1624332457428617.000,-41.992,-56.152,-41.016,12.207,1.000
1624332457432523.250,-0.977,-30.273,-32.715,-14.160,1.000
1624332457436429.500,-28.809,-9.277,-47.363,-83.496,1.000
1624332457440335.750,-68.359,-22.949,-40.039,-60.059,1.000
1624332457444242.000,-35.156,-19.043,-4.883,23.926,1.000
1624332457448148.250,5.859,-2.441,3.418,5.859,1.000
1624332457452054.500,-19.043,-15.625,-37.109,-49.316,1.000
1624332457455960.750,-62.500,-47.363,-57.617,-46.875,1.000
1624332457459867.000,-48.828,-56.641,-25.879,-1.465,1.000
1624332457463773.250,-11.230,-40.039,-17.578,13.672,1.000
1624332457467679.500,2.441,-31.250,-22.949,-60.547,1.000
1624332457471585.750,-23.438,-44.434,-18.066,-99.609,1.000
1624332457475492.000,-62.988,-14.160,-17.578,-97.168,1.000
1624332457479398.250,-76.660,-42.969,-21.484,-95.703,1.000
1624332457483304.500,-32.715,-39.062,-30.762,-8.789,1.000
1624332457487210.750,1.465,-16.113,-17.578,17.090,1.000
1624332457491117.000,-24.902,-30.273,-8.789,-51.758,1.000
1624332457495023.250,-39.062,-38.574,-36.621,-72.266,1.000
1624332457498929.500,-14.648,-39.551,-49.316,-0.488,1.000
1624332457502835.750,-19.043,-39.551,-44.434,14.160,1.000
1624332457506742.000,-50.293,5.371,-38.086,-59.082,1.000
1624332457510648.250,-67.383,19.531,-17.578,-92.773,1.000
1624332457514554.500,-44.922,-13.184,-18.066,-38.086,1.000
1624332457518460.750,-19.531,-28.809,-26.855,15.625,1.000
1624332457522367.000,-30.762,-8.301,-21.484,1.000,1.000
1624332457526273.250,-37.598,-21.973,-25.879,1.000,1.000
1624332457530179.500,-55.664,-49.316,-35.156,1.000,1.000
1624332457534085.750,-30.273,-54.688,-44.922,1.000,1.000
1624332457537992.000,0.977,-48.828,-37.109,1.000,1.000
1624332457541898.250,-20.508,-33.203,-18.066,1.000,1.000
1624332457545804.500,-57.617,-20.996,-8.301,1.000,1.000
1624332457549710.750,-49.805,-14.160,-9.766,1.000,1.000
1624332457553617.000,-24.414,-11.230,-18.555,1.000,1.000
1624332457557523.250,-45.410,-11.230,-37.598,1.000,1.000
1624332457561429.500,-65.430,-11.719,-56.152,1.000,1.000
1624332457565335.750,-56.152,-43.457,-51.270,1.000,1.000
1624332457569242.000,-23.438,-13.672,0.000,-40.527,1.000
1624332457573148.250,-65.918,-9.766,-9.766,-84.961,1.000
1624332457577054.500,-48.340,-17.578,-21.484,-21.973,1.000
1624332457580960.750,-8.789,-41.016,-11.230,33.691,1.000
1624332457584867.000,-28.320,-46.387,-19.043,-23.926,1.000
1624332457588773.250,-69.336,-28.809,-35.156,-96.680,1.000
1624332457592679.500,-41.992,-19.043,-22.461,-44.922,1.000
1624332457596585.750,9.277,-7.324,-6.348,41.504,1.000
1624332457600492.000,2.930,-32.715,-34.668,18.066,1.000
1624332457604398.250,-39.062,-48.828,-55.664,-55.176,1.000
1624332457608304.500,-42.969,-20.508,-37.109,-51.270,1.000
1624332457612210.750,-9.766,-8.301,-38.574,12.207,1.000
1624332457616117.000,0.977,-16.602,-7.324,6.836,1.000
1624332457620023.250,-18.066,-36.621,-18.066,-59.082,1.000
1624332457623929.500,-62.988,-41.992,-49.316,-71.777,1.000
1624332457627835.750,-54.199,-20.508,-49.316,-6.348,1.000
1624332457631742.000,-6.348,-26.855,-18.555,49.316,1.000
1624332457635648.250,-5.859,-46.875,-20.508,-6.348,1.000
1624332457639554.500,-50.781,-30.273,-31.738,-64.453,1.000
1624332457643460.750,-68.359,-40.527,-26.855,-12.695,1.000
1624332457647367.000,-33.691,-48.340,-23.926,35.645,1.000
1624332457651273.250,-20.508,-9.766,-34.180,-34.668,1.000
1624332457655179.500,-52.734,-7.812,-46.875,-121.094,1.000
1624332457659085.750,-69.824,-25.391,-38.086,-66.895,1.000
1624332457662992.000,-27.832,-18.066,-8.301,-75.195,1.000
1624332457666898.250,-19.531,-21.484,-19.531,-25.879,1.000
1624332457670804.500,-5.371,-6.348,-26.367,19.531,1.000
1624332457674710.750,-36.621,-9.277,-27.832,-43.457,1.000
1624332457678617.000,-62.988,-24.414,-24.902,-103.516,1.000
1624332457682523.250,-30.762,-20.996,-16.602,-46.875,1.000
1624332457686429.500,-11.230,-49.805,-41.992,11.719,1.000
1624332457690335.750,0.000,-46.875,-35.645,-4.883,1.000
1624332457694242.000,-18.066,-14.648,-20.020,-64.453,1.000
1624332457698148.250,-56.152,-29.785,-54.199,-74.219,1.000
1624332457702054.500,-41.016,-33.203,-57.617,-13.184,1.000
1624332457705960.750,-27.832,-5.859,-26.855,-10.254,1.000
1624332457709867.000,-20.996,-31.250,-23.438,1.000,1.000
1624332457713773.250,-32.715,-54.688,-30.273,1.000,1.000
1624332457717679.500,-32.715,-36.621,-37.109,1.000,1.000
1624332457721585.750,-17.090,-20.020,-37.109,1.000,1.000
1624332457725492.000,-15.137,-16.113,-21.973,1.000,1.000
1624332457729398.250,-50.781,-17.578,-22.461,1.000,1.000
1624332457733304.500,-46.875,-20.996,-11.719,1.000,1.000
1624332457737210.750,-21.973,-31.738,-20.020,1.000,1.000
1624332457741117.000,-16.602,-25.879,-31.250,1.000,1.000
1624332457745023.250,-38.574,-20.020,-30.762,1.000,1.000
1624332457748929.500,-61.523,-27.832,-32.715,1.000,1.000
1624332457752835.750,-28.809,-14.648,-32.715,1.000,1.000
1624332457756742.000,-54.688,0.000,-44.922,-51.758,1.000
1624332457760648.250,-45.898,-30.273,-36.133,-13.184,1.000
1624332457764554.500,-54.199,-44.434,-36.621,-54.688,1.000
1624332457768460.750,-73.730,-44.434,-26.855,-99.609,1.000
1624332457772367.000,-46.875,-13.672,-19.043,-38.086,1.000
1624332457776273.250,-8.789,-10.254,-28.320,30.273,1.000
1624332457780179.500,-8.301,-23.438,-26.855,-8.789,1.000
1624332457784085.750,-31.738,-12.207,-22.461,-64.453,1.000
1624332457787992.000,-48.340,-9.277,-15.625,-48.828,1.000
1624332457791898.250,-36.133,-6.836,-11.230,2.441,1.000
1624332457795804.500,-40.039,-11.719,-15.625,-16.113,1.000
1624332457799710.750,-70.312,-32.715,-43.457,-91.797,1.000
1624332457803617.000,-43.457,-38.574,-16.602,-72.266,1.000
1624332457807523.250,-23.438,6.836,-1.465,-42.480,1.000
1624332457811429.500,1.953,11.719,-6.348,35.156,1.000
1624332457815335.750,5.371,-12.695,-4.395,33.691,1.000
1624332457819242.000,-44.434,-36.133,-31.738,-68.359,1.000
1624332457823148.250,-65.918,-40.527,-35.156,-88.379,1.000
1624332457827054.500,-6.348,-13.672,-19.043,14.648,1.000
1624332457830960.750,15.625,-7.324,-27.344,40.527,1.000
1624332457834867.000,-39.551,-57.129,-27.344,-45.410,1.000
1624332457838773.250,-73.242,-79.102,-26.855,-89.355,1.000
1624332457842679.500,-36.621,-47.852,-25.879,-17.090,1.000
1624332457846585.750,-6.836,-28.809,-12.695,34.668,1.000
1624332457850492.000,-26.855,1.953,-42.480,1.000,1.000
1624332457854398.250,-52.246,7.324,-6.348,1.000,1.000
1624332457858304.500,-49.316,-5.859,13.672,1.000,1.000
1624332457862210.750,-41.016,-20.020,-11.230,1.000,1.000
1624332457866117.000,-19.043,-44.922,-28.809,1.000,1.000
1624332457870023.250,-21.484,-46.875,-32.715,1.000,1.000
1624332457873929.500,-42.969,-12.695,-20.996,1.000,1.000
1624332457877835.750,-42.969,-13.184,-29.785,1.000,1.000
1624332457881742.000,-23.926,-28.809,-45.410,1.000,1.000
1624332457885648.250,-28.809,-34.180,-37.109,1.000,1.000
1624332457889554.500,-48.828,-43.945,-30.273,1.000,1.000
1624332457893460.750,-49.805,-30.273,-30.762,1.000,1.000
1624332457897367.000,-56.152,-41.504,-20.508,-75.195,1.000
1624332457901273.250,-4.883,-40.039,-11.230,16.113,1.000
1624332457905179.500,0.488,-30.273,-19.531,2.930,1.000
1624332457909085.750,-28.809,-13.184,-51.758,-79.102,1.000
1624332457912992.000,-60.547,-18.555,-48.828,-86.426,1.000
1624332457916898.250,-33.203,-21.973,-32.227,-1.953,1.000
1624332457920804.500,7.812,-5.371,-31.738,30.762,1.000
1624332457924710.750,-34.668,-11.230,-48.828,-57.617,1.000
1624332457928617.000,-64.453,-9.277,-61.035,-104.004,1.000
1624332457932523.250,-44.922,3.906,-62.012,-42.480,1.000
1624332457936429.500,-41.016,-13.672,-45.410,-7.324,1.000
1624332457940335.750,-63.477,-29.785,-37.598,-72.754,1.000
1624332457944242.000,-37.109,-31.250,-29.297,-47.363,1.000
1624332457948148.250,-65.430,-47.852,-12.207,-89.355,1.000
1624332457952054.500,-24.414,-30.762,-0.488,-4.395,1.000
1624332457955960.750,2.441,-22.461,-6.836,41.992,1.000
1624332457959867.000,-21.973,-28.809,-14.160,-22.461,1.000
1624332457963773.250,-54.199,-0.488,-30.762,-85.938,1.000
1624332457967679.500,-58.105,3.906,-45.898,-56.152,1.000
1624332457971585.750,-17.578,-6.348,-27.832,17.090,1.000
1624332457975492.000,-13.672,-3.418,-17.090,-9.277,1.000
1624332457979398.250,-36.133,-15.137,-6.348,-80.566,1.000
1624332457983304.500,-32.715,-54.199,-11.230,-58.105,1.000
1624332457987210.750,0.488,-26.855,-20.996,31.738,1.000
1624332457991117.000,-22.461,-16.113,-30.273,28.320,1.000
1624332457995023.250,-38.574,-29.785,-31.738,-61.523,1.000
1624332457998929.500,-62.500,-45.410,-33.203,-70.312,1.000
1624332458002835.750,-47.363,-53.223,-25.879,-4.883,1.000
1624332458006742.000,-19.531,-34.668,-37.598,31.250,1.000
1624332458010648.250,-7.324,-27.344,-39.551,-38.574,1.000
1624332458014554.500,-21.484,-20.020,-10.742,-102.539,1.000
1624332458018460.750,-38.574,-20.508,-24.902,-17.578,1.000
1624332458022367.000,-36.621,-37.109,-37.109,60.547,1.000
1624332458026273.250,-28.320,-28.320,-36.133,-15.137,1.000
1624332458030179.500,-57.617,-14.160,-64.941,-108.398,1.000
1624332458034085.750,-79.102,-24.414,-58.105,-67.383,1.000
1624332458037992.000,-59.082,-21.973,-28.809,-92.285,1.000
1624332458041898.250,-34.668,-20.996,-23.926,-32.715,1.000
1624332458045804.500,-11.719,-28.320,-35.156,14.648,1.000
1624332458049710.750,-20.996,-40.039,-39.062,-34.668,1.000
1624332458053617.000,-34.668,-51.758,-21.973,-79.102,1.000
1624332458057523.250,-20.508,-33.203,2.930,-27.832,1.000
1624332458061429.500,12.695,10.742,-1.953,35.645,1.000
1624332458065335.750,-4.395,3.418,-32.227,-9.766,1.000
1624332458069242.000,-46.387,-36.133,-45.410,-77.148,1.000
1624332458073148.250,-21.973,-28.809,-28.320,-31.250,1.000
1624332458077054.500,13.672,1.465,-10.254,42.480,1.000
1624332458080960.750,-18.066,-10.742,-16.113,-0.977,1.000
1624332458084867.000,8.301,-34.668,-13.672,1.000,1.000
1624332458088773.250,-56.641,-33.203,-48.340,1.000,1.000
1624332458092679.500,-83.984,-14.160,-43.945,1.000,1.000
1624332458096585.750,-43.945,-30.762,-35.645,1.000,1.000
1624332458100492.000,-16.602,-43.945,-28.809,1.000,1.000
1624332458104398.250,-36.621,-1.465,-20.996,1.000,1.000
1624332458108304.500,-56.152,-0.977,-30.273,1.000,1.000
1624332458112210.750,-38.086,-30.762,-28.809,1.000,1.000
1624332458116117.000,-25.391,-36.133,-20.996,1.000,1.000
1624332458120023.250,-38.574,-21.973,-11.230,1.000,1.000
1624332458123929.500,-56.152,-29.785,-11.719,1.000,1.000
1624332458127835.750,-29.785,-37.598,-23.438,1.000,1.000
1624332458131742.000,-6.836,-12.207,-38.574,7.324,1.000
1624332458135648.250,-4.883,-20.996,-84.473,9.766,1.000
1624332458139554.500,-24.902,-26.855,-53.223,-56.152,1.000
1624332458143460.750,-58.105,-26.367,-28.320,-93.750,1.000
1624332458147367.000,-30.762,-12.695,-15.625,-30.273,1.000
1624332458151273.250,9.277,-11.230,-4.395,35.645,1.000
1624332458155179.500,-15.137,-40.039,-21.484,-16.113,1.000
1624332458159085.750,-62.988,-66.895,-46.387,-95.215,1.000
1624332458162992.000,-37.598,-44.434,-28.809,-48.340,1.000
1624332458166898.250,10.254,-2.441,-3.906,39.551,1.000
1624332458170804.500,-5.371,-12.207,-15.137,12.695,1.000
1624332458174710.750,-34.180,-29.297,-19.043,-63.965,1.000
1624332458178617.000,-61.035,-6.836,-32.715,-93.262,1.000
1624332458182523.250,-73.730,-22.949,-61.523,-89.355,1.000
1624332458186429.500,-38.086,-27.344,-62.988,-4.883,1.000
1624332458190335.750,-35.645,-38.574,-62.500,-24.902,1.000
1624332458194242.000,-58.594,-29.785,-37.598,-93.750,1.000
1624332458198148.250,-60.547,-32.715,0.000,-76.660,1.000
1624332458202054.500,-18.555,-45.898,1.465,5.371,1.000
1624332458205960.750,6.836,-34.668,-3.906,30.762,1.000
1624332458209867.000,-24.902,-25.391,-6.836,-43.945,1.000
1624332458213773.250,-74.707,-22.461,-45.410,-97.168,1.000
1624332458217679.500,-54.199,-18.555,-53.711,-34.668,1.000
1624332458221585.750,-5.371,-24.902,-30.273,35.156,1.000
1624332458225492.000,-25.391,-68.359,-47.363,1.000,1.000
1624332458229398.250,-46.875,-67.383,-54.199,1.000,1.000
1624332458233304.500,-51.270,-30.762,-30.762,1.000,1.000
1624332458237210.750,-27.832,-1.465,-19.043,1.000,1.000
1624332458241117.000,2.930,-0.977,-23.926,1.000,1.000
1624332458245023.250,-24.902,4.395,-33.203,1.000,1.000
1624332458248929.500,-69.336,-1.465,-44.434,1.000,1.000
1624332458252835.750,-71.289,-38.086,-52.734,1.000,1.000
1624332458256742.000,-44.922,-44.434,-30.273,1.000,1.000
1624332458260648.250,-30.273,-21.484,1.465,1.000,1.000
1624332458264554.500,-34.180,-32.715,2.441,1.000,1.000
1624332458268460.750,-32.715,-63.965,-18.555,1.000,1.000
1624332458272367.000,-71.289,-28.320,-44.922,-83.008,1.000
1624332458276273.250,-34.180,-24.902,-45.410,-14.648,1.000
1624332458280179.500,-39.062,-20.020,-49.805,-31.738,1.000
1624332458284085.750,-78.613,-34.668,-48.340,-104.492,1.000
1624332458287992.000,-62.012,-27.832,-24.902,-75.684,1.000
1624332458291898.250,-11.719,-12.695,-11.230,20.020,1.000
1624332458295804.500,8.789,-28.320,-23.438,29.785,1.000
1624332458299710.750,-15.137,-41.016,-28.320,-40.039,1.000
1624332458303617.000,-30.273,-27.344,-26.855,-62.012,1.000
1624332458307523.250,-13.184,-27.832,-28.320,-9.277,1.000
1624332458311429.500,-13.184,-14.160,-34.180,11.230,1.000
1624332458315335.750,-45.410,-6.836,-34.180,-61.035,1.000
1624332458319242.000,-15.137,-19.531,-33.203,-37.598,1.000
1624332458323148.250,-36.133,-41.992,-30.273,-72.754,1.000
1624332458327054.500,-18.066,-30.762,-17.090,-12.207,1.000
1624332458330960.750,-17.090,-11.230,-27.344,22.949,1.000
1624332458334867.000,-42.969,-23.926,-35.156,-38.574,1.000
1624332458338773.250,-58.105,-37.598,-30.762,-94.727,1.000
1624332458342679.500,-21.973,-44.922,-32.227,-40.039,1.000
1624332458346585.750,-4.883,-45.410,-27.344,20.508,1.000
1624332458350492.000,-48.340,-25.879,-43.945,-29.297,1.000
1624332458354398.250,-74.219,-2.930,-57.617,-106.445,1.000
1624332458358304.500,-17.090,7.812,-31.250,-45.898,1.000
1624332458362210.750,18.555,-30.762,-21.484,40.039,1.000
1624332458366117.000,-33.203,-29.297,-34.668,6.348,1.000
1624332458370023.250,-54.199,-31.250,-52.246,-79.102,1.000
1624332458373929.500,-75.195,-19.043,-50.293,-101.074,1.000
1624332458377835.750,-66.406,-24.414,-48.340,-11.230,1.000
1624332458381742.000,-27.344,-30.273,-35.645,26.367,1.000
1624332458385648.250,-16.113,-38.574,-16.113,-46.387,1.000
1624332458389554.500,-27.832,-48.828,-5.371,-74.707,1.000
1624332458393460.750,-18.066,-31.738,-4.883,-6.348,1.000
1624332458397367.000,6.348,-6.836,-14.160,38.574,1.000
1624332458401273.250,-5.371,-18.555,-24.902,-12.695,1.000
1624332458405179.500,-53.223,-41.016,-46.875,-78.613,1.000
1624332458409085.750,-72.266,-15.625,-42.969,-43.457,1.000
1624332458412992.000,-63.965,-30.273,-59.570,-100.586,1.000
1624332458416898.250,-19.531,-32.227,-21.484,-20.020,1.000
1624332458420804.500,10.254,-14.160,8.789,33.203,1.000
1624332458424710.750,-20.020,-21.973,-10.742,-40.039,1.000
1624332458428617.000,-43.457,-23.926,-32.227,-88.379,1.000
1624332458432523.250,-21.973,-5.371,-44.434,-34.668,1.000
1624332458436429.500,-7.324,-13.672,-41.504,10.742,1.000
1624332458440335.750,-16.113,-8.301,-31.250,-25.391,1.000
1624332458444242.000,-30.762,-22.949,-38.574,-82.520,1.000
1624332458448148.250,-11.719,-41.504,-44.922,-34.180,1.000
1624332458452054.500,12.695,-23.926,-46.387,41.504,1.000
1624332458455960.750,0.488,-22.461,-25.391,17.578,1.000
1624332458459867.000,-41.016,-7.324,-49.316,1.000,1.000
1624332458463773.250,-68.848,-1.465,-30.273,1.000,1.000
1624332458467679.500,-52.246,-5.859,-20.020,1.000,1.000
1624332458471585.750,-18.555,-16.113,-19.043,1.000,1.000
1624332458475492.000,-20.020,-25.391,-30.273,1.000,1.000
1624332458479398.250,-45.410,-34.180,-32.715,1.000,1.000
1624332458483304.500,-32.715,-20.996,-28.809,1.000,1.000
1624332458487210.750,10.742,-24.902,-34.180,1.000,1.000
1624332458491117.000,23.438,-60.547,-0.488,1.000,1.000
1624332458495023.250,-22.461,-51.758,-14.160,1.000,1.000
1624332458498929.500,-50.781,-2.930,-61.035,1.000,1.000
1624332458502835.750,-25.391,1.953,-32.227,1.000,1.000
1624332458506742.000,-25.391,-27.344,-12.207,-11.230,1.000
1624332458510648.250,-10.254,-71.777,-10.254,22.461,1.000
1624332458514554.500,-32.227,-78.125,-25.391,-55.664,1.000
1624332458518460.750,-50.781,-41.016,-30.762,-93.750,1.000
1624332458522367.000,-27.832,2.930,-34.180,-23.438,1.000
1624332458526273.250,-2.930,13.184,-44.434,20.996,1.000
1624332458530179.500,-15.137,-13.672,-56.641,-26.367,1.000
1624332458534085.750,-35.645,-47.363,-50.781,-76.172,1.000
1624332458537992.000,-35.645,-49.316,-34.668,-44.434,1.000
1624332458541898.250,-23.438,-20.020,-16.113,14.648,1.000
1624332458545804.500,-19.531,-15.137,4.395,-7.812,1.000
1624332458549710.750,-54.688,-12.695,-10.742,-88.867,1.000
1624332458553617.000,-45.898,-8.301,-32.715,-79.102,1.000
1624332458557523.250,-31.250,0.488,-8.301,-45.898,1.000
1624332458561429.500,-21.973,-25.391,-30.762,21.484,1.000
1624332458565335.750,-40.527,-58.594,-59.570,-17.090,1.000
1624332458569242.000,-66.406,-47.852,-40.039,-88.867,1.000
1624332458573148.250,-43.945,-30.762,-8.789,-36.133,1.000
1624332458577054.500,-10.742,-18.555,-10.742,24.414,1.000
1624332458580960.750,-32.227,-25.391,-37.598,-30.273,1.000
1624332458584867.000,-53.711,-14.648,-21.973,-96.191,1.000
1624332458588773.250,-45.898,-1.953,-1.465,-66.406,1.000
1624332458592679.500,-33.691,-13.184,-23.926,-7.812,1.000
1624332458596585.750,-48.828,-38.086,-37.109,-33.203,1.000
1624332458600492.000,-26.855,-47.363,-39.062,-20.020,1.000
1624332458604398.250,-48.828,3.418,-7.324,-77.637,1.000
1624332458608304.500,-50.781,0.977,-16.113,-53.223,1.000
1624332458612210.750,-10.742,-27.344,-40.039,20.508,1.000
1624332458616117.000,8.301,-13.184,-21.484,23.438,1.000
1624332458620023.250,-25.879,2.441,-3.906,-52.246,1.000
1624332458623929.500,-49.316,-27.832,-18.066,-74.219,1.000
1624332458627835.750,-12.207,-34.668,-20.020,11.719,1.000
1624332458631742.000,-3.418,-33.691,-20.996,30.762,1.000
1624332458635648.250,-64.941,-44.922,-47.363,-75.195,1.000
1624332458639554.500,-98.633,-40.039,-47.363,-125.977,1.000
1624332458643460.750,-62.500,-34.180,-26.367,-49.316,1.000
1624332458647367.000,-23.438,-19.043,-18.066,-0.977,1.000
1624332458651273.250,-5.371,-17.578,-6.348,30.762,1.000
1624332458655179.500,-10.742,-12.695,-5.371,-23.926,1.000
1624332458659085.750,-43.457,-22.461,-29.297,-76.660,1.000
1624332458662992.000,-24.414,-52.246,-34.180,-15.625,1.000
1624332458666898.250,4.395,-63.477,-36.621,44.434,1.000
1624332458670804.500,-20.508,-27.832,-37.598,-9.766,1.000
1624332458674710.750,-55.176,-6.836,-43.457,-85.938,1.000
1624332458678617.000,-33.691,-20.508,-29.785,-43.945,1.000
1624332458682523.250,8.789,-21.973,-4.395,43.945,1.000
1624332458686429.500,-4.395,-33.203,-9.766,16.602,1.000
1624332458690335.750,-44.434,-53.223,-19.043,-67.383,1.000
1624332458694242.000,-41.992,-46.875,-22.461,-77.637,1.000
1624332458698148.250,-33.203,-8.789,-25.879,-38.086,1.000
1624332458702054.500,-16.602,-4.395,-45.898,29.297,1.000
1624332458705960.750,-23.926,-12.695,-62.012,-3.906,1.000
1624332458709867.000,-57.129,-17.090,-69.824,-85.938,1.000
1624332458713773.250,-52.246,-14.160,-60.547,-73.730,1.000
1624332458717679.500,-14.648,-28.809,-30.762,3.906,1.000
1624332458721585.750,-10.254,-51.758,-7.812,18.066,1.000
1624332458725492.000,-43.945,-33.203,-8.301,-49.805,1.000
1624332458729398.250,-64.453,-39.551,-21.484,-80.078,1.000
1624332458733304.500,-30.762,-72.266,-12.695,-16.113,1.000
1624332458737210.750,5.371,-41.016,2.441,33.203,1.000
1624332458741117.000,-24.902,-47.852,-66.406,-39.062,1.000
1624332458745023.250,-53.711,-18.555,-51.270,-100.586,1.000
1624332458748929.500,-72.266,-10.742,-38.574,-52.734,1.000
1624332458752835.750,-52.246,-38.086,-35.156,2.930,1.000
1624332458756742.000,-7.324,-35.645,-38.086,-40.039,1.000
1624332458760648.250,-15.625,-22.461,-41.016,-112.793,1.000
1624332458764554.500,-68.848,-25.879,-45.410,-71.777,1.000
1624332458768460.750,-62.012,-37.598,-35.156,5.371,1.000
1624332458772367.000,-25.879,-29.785,-12.695,-11.719,1.000
1624332458776273.250,-34.180,-5.859,-13.672,-69.336,1.000
1624332458780179.500,-64.453,-27.344,-36.133,-60.059,1.000
1624332458784085.750,-55.176,-58.594,-46.875,-5.371,1.000
1624332458787992.000,-71.289,8.301,-41.992,-70.312,1.000
1624332458791898.250,-34.180,10.742,-25.879,1.465,1.000
1624332458795804.500,-28.320,-3.418,-16.602,-15.625,1.000
1624332458799710.750,-53.711,-24.902,-31.738,-83.008,1.000
1624332458803617.000,-25.879,-39.062,-22.461,-46.387,1.000
1624332458807523.250,13.672,-19.531,-8.789,38.574,1.000
1624332458811429.500,8.301,-15.137,-55.664,29.785,1.000
1624332458815335.750,-46.875,-46.387,-69.824,-70.801,1.000
1624332458819242.000,-78.125,-21.484,-28.320,-103.027,1.000
1624332458823148.250,-31.250,24.902,-29.297,-19.043,1.000
1624332458827054.500,-14.648,9.766,-50.293,11.230,1.000
1624332458830960.750,-58.594,-21.973,-24.414,-67.871,1.000
1624332458834867.000,-41.504,-26.367,-29.785,1.000,1.000
1624332458838773.250,-48.828,-18.066,-23.438,1.000,1.000
1624332458842679.500,-17.090,-19.043,-10.742,1.000,1.000
1624332458846585.750,-4.395,-25.391,-20.996,1.000,1.000
1624332458850492.000,-48.340,-40.527,-44.922,1.000,1.000
1624332458854398.250,-75.195,-42.969,-47.363,1.000,1.000
1624332458858304.500,-51.270,-23.438,-45.898,1.000,1.000
1624332458862210.750,-23.926,-28.809,-26.855,1.000,1.000
1624332458866117.000,-16.602,-27.832,-5.371,1.000,1.000
1624332458870023.250,-36.133,-31.250,-22.461,1.000,1.000
1624332458873929.500,-40.527,-52.734,-51.270,1.000,1.000
1624332458877835.750,-15.625,-39.062,-68.848,1.000,1.000
1624332458881742.000,-10.742,24.414,-43.457,35.645,1.000
1624332458885648.250,-26.855,9.277,-55.664,-13.184,1.000
1624332458889554.500,-49.316,-5.371,-31.738,-76.172,1.000
1624332458893460.750,-46.875,-38.086,-20.020,-50.293,1.000
1624332458897367.000,-13.184,-57.129,-8.789,21.484,1.000
1624332458901273.250,7.812,-23.926,4.883,26.855,1.000
1624332458905179.500,-24.414,-4.395,-24.414,-51.270,1.000
1624332458909085.750,-46.387,-28.809,-38.086,-66.406,1.000
1624332458912992.000,-27.832,-52.246,-40.039,-3.418,1.000
1624332458916898.250,-9.766,-71.289,-46.875,8.301,1.000
1624332458920804.500,-42.480,-67.871,-47.363,-54.199,1.000
1624332458924710.750,-58.105,-0.488,-35.156,-77.148,1.000
1624332458928617.000,-58.594,10.742,-64.453,-82.520,1.000
1624332458932523.250,-26.367,-7.324,-46.387,-7.812,1.000
1624332458936429.500,-18.555,-48.340,-28.320,16.113,1.000
1624332458940335.750,-48.828,-30.762,-9.766,-59.082,1.000
1624332458944242.000,-50.293,-15.625,-1.465,-89.844,1.000
1624332458948148.250,-24.902,-58.105,-16.602,-30.273,1.000
1624332458952054.500,1.953,-48.828,-10.742,33.691,1.000
1624332458955960.750,-3.418,-9.277,-9.277,0.000,1.000
1624332458959867.000,-37.109,-18.066,-41.016,-65.918,1.000
1624332458963773.250,-32.715,-25.391,-48.828,-47.363,1.000
1624332458967679.500,-13.184,-28.320,-42.480,9.766,1.000
1624332458971585.750,-25.879,-38.086,-28.809,-8.301,1.000
1624332458975492.000,-17.578,-3.906,-44.434,-80.566,1.000
1624332458979398.250,-49.316,-7.812,-18.066,-84.473,1.000
1624332458983304.500,-37.598,-41.992,-17.578,3.418,1.000
1624332458987210.750,5.859,-69.824,-44.434,30.762,1.000
1624332458991117.000,3.906,-48.340,-50.293,-36.621,1.000
1624332458995023.250,-32.227,-15.137,-31.250,-67.871,1.000
1624332458998929.500,-49.316,-7.324,-28.320,-15.625,1.000
1624332459002835.750,-32.227,-12.695,-31.738,12.207,1.000
1624332459006742.000,-32.227,-4.395,-34.668,-63.965,1.000
1624332459010648.250,-52.246,-16.113,-35.645,-94.238,1.000
1624332459014554.500,-64.941,-36.621,-32.227,-23.926,1.000
1624332459018460.750,-52.734,-29.297,-38.086,13.672,1.000
1624332459022367.000,-20.996,-69.824,-44.922,10.254,1.000
1624332459026273.250,1.953,-20.996,-23.438,38.574,1.000
1624332459030179.500,-50.293,-9.277,-18.555,-57.129,1.000
1624332459034085.750,-73.730,-22.949,-28.320,-100.586,1.000
1624332459037992.000,-23.926,-15.625,-7.324,-17.578,1.000
1624332459041898.250,17.578,-43.945,5.859,41.016,1.000
1624332459045804.500,-16.602,-59.570,-25.391,-26.855,1.000
1624332459049710.750,-73.730,-50.293,-49.805,-112.305,1.000
1624332459053617.000,-69.336,-37.109,-65.430,-70.801,1.000
1624332459057523.250,-13.672,-19.531,-63.477,17.090,1.000
1624332459061429.500,-1.465,-20.996,-0.488,5.371,1.000
1624332459065335.750,-46.875,-34.668,6.348,-73.730,1.000
1624332459069242.000,-55.664,-46.875,-17.090,-88.379,1.000
1624332459073148.250,-29.785,-8.789,-26.367,-38.574,1.000
1624332459077054.500,12.695,-2.930,-34.180,34.668,1.000
1624332459080960.750,-22.461,-20.020,-46.875,-20.508,1.000
1624332459084867.000,-67.383,-20.996,-45.898,-106.934,1.000
1624332459088773.250,-63.965,-26.855,-47.852,-95.215,1.000
1624332459092679.500,-19.043,-50.781,-38.574,-6.836,1.000
1624332459096585.750,13.672,-40.527,-9.277,20.996,1.000
1624332459100492.000,-20.508,-10.742,-24.414,-61.523,1.000
1624332459104398.250,-63.965,-9.766,-71.777,-99.609,1.000
1624332459108304.500,-34.668,-15.625,-54.199,-18.555,1.000
1624332459112210.750,14.648,-9.766,4.395,38.574,1.000
1624332459116117.000,28.320,-26.855,0.488,-25.879,1.000
1624332459120023.250,-36.133,-34.668,-8.301,-92.773,1.000
1624332459123929.500,-66.406,-21.973,-8.789,-44.922,1.000
1624332459127835.750,-34.180,-12.695,-40.039,11.719,1.000
1624332459131742.000,-23.438,-14.648,-47.852,-26.855,1.000
1624332459135648.250,-44.434,-16.602,-31.250,-80.566,1.000
1624332459139554.500,-70.312,-18.066,-38.574,-39.551,1.000
1624332459143460.750,-47.363,-41.504,-44.922,16.602,1.000
1624332459147367.000,-5.371,-34.668,-39.551,-15.625,1.000
1624332459151273.250,-20.996,-20.020,-43.945,-89.844,1.000
1624332459155179.500,-49.316,-34.668,-40.527,-74.219,1.000
1624332459159085.750,-27.344,-18.066,-18.066,31.738,1.000
1624332459162992.000,-37.598,-55.664,-39.551,-24.414,1.000
1624332459166898.250,-5.859,-50.781,-47.852,46.875,1.000
1624332459170804.500,-41.504,-16.113,-41.016,-21.973,1.000
1624332459174710.750,-82.031,-12.695,-34.668,-107.422,1.000
1624332459178617.000,-56.641,-10.254,-18.066,-62.988,1.000
1624332459182523.250,-9.277,-34.180,11.719,35.156,1.000
1624332459186429.500,-11.230,-78.125,-4.883,23.438,1.000
1624332459190335.750,-39.062,-53.223,-29.297,-58.594,1.000
1624332459194242.000,-45.898,-5.859,-27.832,-57.129,1.000
1624332459198148.250,-28.320,6.348,-46.387,0.488,1.000
1624332459202054.500,-34.180,-16.602,-40.039,1.465,1.000
1624332459205960.750,-66.406,-48.340,-33.691,-76.660,1.000
1624332459209867.000,-43.945,-28.809,-4.395,1.000,1.000
1624332459213773.250,-55.176,-21.973,-13.672,1.000,1.000
1624332459217679.500,-25.879,-8.301,-22.461,1.000,1.000
1624332459221585.750,-10.254,-8.789,-25.879,1.000,1.000
1624332459225492.000,-40.039,-22.949,-30.762,1.000,1.000
1624332459229398.250,-33.203,-43.945,-35.156,1.000,1.000
1624332459233304.500,-1.465,-59.570,-31.738,1.000,1.000
1624332459237210.750,7.324,-48.340,-43.945,1.000,1.000
1624332459241117.000,-3.418,-31.250,-54.688,1.000,1.000
1624332459245023.250,-39.062,-46.875,-41.504,1.000,1.000
1624332459248929.500,-36.133,-20.020,-17.578,1.000,1.000
1624332459252835.750,-12.695,7.324,3.906,1.000,1.000
1624332459256742.000,2.441,-9.766,-32.227,44.434,1.000
1624332459260648.250,-13.672,-28.320,-28.809,-8.301,1.000
1624332459264554.500,-43.945,-46.387,-16.602,-90.332,1.000
1624332459268460.750,-36.621,-56.641,-27.832,-55.664,1.000
1624332459272367.000,10.254,-36.133,-5.371,50.781,1.000
1624332459276273.250,17.578,-20.996,0.488,44.434,1.000
1624332459280179.500,-41.992,-39.551,-28.320,-61.523,1.000
1624332459284085.750,-50.781,-28.809,-53.223,-66.406,1.000
1624332459287992.000,-29.297,-28.320,-58.105,-2.441,1.000
1624332459291898.250,-30.762,-43.457,-42.480,-1.953,1.000
1624332459295804.500,-41.016,-27.832,-24.902,-53.223,1.000
1624332459299710.750,-58.105,-12.207,-33.691,-82.520,1.000
1624332459303617.000,-61.523,-22.461,-28.320,-78.125,1.000
1624332459307523.250,-43.945,-7.812,-17.578,-21.484,1.000
1624332459311429.500,-22.949,-7.812,-13.672,3.906,1.000
1624332459315335.750,-29.297,-29.297,-11.719,-44.922,1.000
1624332459319242.000,-22.461,-28.809,-7.812,-50.781,1.000
1624332459323148.250,-0.977,2.441,-6.348,12.695,1.000
1624332459327054.500,2.930,1.953,-27.344,39.062,1.000
1624332459330960.750,-38.574,-33.203,-36.621,-37.598,1.000
1624332459334867.000,-85.938,-25.879,-35.156,-119.141,1.000
1624332459338773.250,-49.805,-1.465,-50.781,-69.336,1.000
1624332459342679.500,-3.418,-22.949,-49.805,21.484,1.000
1624332459346585.750,-16.113,-47.852,-29.785,-2.441,1.000
1624332459350492.000,-21.484,-36.621,-24.414,-83.984,1.000
1624332459354398.250,-37.109,-34.180,-3.418,-71.777,1.000
1624332459358304.500,-28.320,-25.879,-3.418,32.227,1.000
1624332459362210.750,-0.488,-49.805,-26.367,41.016,1.000
1624332459366117.000,-10.742,-36.621,-41.504,-68.359,1.000
1624332459370023.250,-65.918,-11.719,-50.293,-84.961,1.000
1624332459373929.500,-61.035,-14.648,-38.574,12.207,1.000
1624332459377835.750,-2.930,-19.531,-20.996,36.133,1.000
1624332459381742.000,-0.977,-29.297,-33.203,-46.387,1.000
1624332459385648.250,-42.969,-31.250,-36.133,-90.332,1.000
1624332459389554.500,-38.086,-39.551,-14.160,-9.277,1.000
1624332459393460.750,-4.883,-54.688,-15.625,42.480,1.000
1624332459397367.000,-43.945,-13.672,-45.898,-5.859,1.000
1624332459401273.250,-21.484,-22.949,-41.504,20.996,1.000
1624332459405179.500,-47.852,-49.805,-30.762,-58.594,1.000
1624332459409085.750,-58.594,-35.645,-26.367,-92.285,1.000
1624332459412992.000,-21.973,-44.434,-40.039,-12.695,1.000
1624332459416898.250,29.297,-41.016,-34.668,52.246,1.000
1624332459420804.500,-0.977,-1.953,-21.973,-16.113,1.000
1624332459424710.750,-59.082,2.441,-39.551,-89.844,1.000
1624332459428617.000,-26.855,-19.043,-25.879,-17.578,1.000
1624332459432523.250,3.906,-27.832,-18.066,45.410,1.000
1624332459436429.500,-15.625,-21.484,-31.738,-8.301,1.000
1624332459440335.750,-51.758,-32.227,-33.691,-86.914,1.000
1624332459444242.000,-46.875,-30.762,-10.254,-90.820,1.000
1624332459448148.250,-40.527,-41.016,-15.137,-46.387,1.000
1624332459452054.500,-13.672,-40.039,-13.672,19.531,1.000
1624332459455960.750,-20.020,-63.965,-12.207,-11.719,1.000
1624332459459867.000,-50.781,-62.500,-26.367,-88.867,1.000
1624332459463773.250,-40.527,-9.766,-24.902,-62.500,1.000
1624332459467679.500,-12.695,11.719,-23.438,11.230,1.000
1624332459471585.750,-25.391,-1.465,-36.621,-2.930,1.000
1624332459475492.000,-59.082,-12.207,-22.949,-81.055,1.000
1624332459479398.250,-48.828,-20.508,-16.602,-82.031,1.000
1624332459483304.500,-19.043,-28.809,-44.434,3.906,1.000
1624332459487210.750,-18.555,-33.691,-51.758,27.832,1.000
1624332459491117.000,-25.391,-35.156,-46.387,2.441,1.000
1624332459495023.250,-53.223,-35.156,-44.434,-78.125,1.000
1624332459498929.500,-58.594,-30.762,-39.551,-87.402,1.000
1624332459502835.750,-4.395,-10.742,-16.113,6.348,1.000
1624332459506742.000,16.602,-2.441,-19.043,42.969,1.000
1624332459510648.250,-35.156,-22.461,-34.668,-43.457,1.000
1624332459514554.500,-57.129,-30.762,-28.809,-95.215,1.000
1624332459518460.750,-31.738,-29.785,-34.668,-38.574,1.000
1624332459522367.000,10.742,-11.719,-20.020,39.551,1.000
1624332459526273.250,6.836,-3.906,0.977,5.859,1.000
1624332459530179.500,-43.945,-26.855,-22.949,-81.055,1.000
1624332459534085.750,-33.691,-23.438,-41.992,-47.363,1.000
1624332459537992.000,-35.156,-1.953,-54.199,-44.434,1.000
1624332459541898.250,-18.066,-20.508,-33.203,18.555,1.000
1624332459545804.500,-17.090,-43.457,-37.109,-14.648,1.000
1624332459549710.750,-52.734,-25.879,-36.133,-87.891,1.000
1624332459553617.000,-55.176,-7.812,-15.137,-63.477,1.000
1624332459557523.250,-32.715,-31.738,-17.090,0.977,1.000
1624332459561429.500,-35.645,-52.734,-22.949,-12.695,1.000
1624332459565335.750,-59.570,-39.062,-25.879,-82.031,1.000
1624332459569242.000,-57.129,-38.086,-35.645,-78.125,1.000
1624332459573148.250,-13.184,-40.039,-28.809,14.648,1.000
1624332459577054.500,5.371,-9.277,-21.973,40.527,1.000
1624332459580960.750,-32.715,-15.625,-50.293,-50.293,1.000
1624332459584867.000,-61.523,-7.812,-40.039,1.000,1.000
1624332459588773.250,-65.430,13.672,-30.273,1.000,1.000
1624332459592679.500,-13.184,5.371,-9.277,1.000,1.000
1624332459596585.750,5.371,-40.527,-20.996,1.000,1.000
1624332459600492.000,-31.738,-49.805,-24.902,1.000,1.000
1624332459604398.250,-65.918,-29.785,-24.414,1.000,1.000
1624332459608304.500,-31.250,-2.930,-26.855,1.000,1.000
1624332459612210.750,-7.324,-12.695,-36.133,1.000,1.000
1624332459616117.000,-33.691,-51.758,-44.434,1.000,1.000
1624332459620023.250,-57.617,-50.781,-46.875,1.000,1.000
1624332459623929.500,-42.480,-24.902,-45.898,1.000,1.000
1624332459627835.750,-10.742,-24.902,-22.461,1.000,1.000
1624332459631742.000,1.953,-54.688,-8.789,35.645,1.000
1624332459635648.250,-24.414,-43.457,-12.207,-13.672,1.000
1624332459639554.500,-58.594,-12.695,-26.855,-78.125,1.000
1624332459643460.750,-41.016,-11.719,-45.898,-38.574,1.000
1624332459647367.000,-0.488,-8.301,-38.574,41.504,1.000
1624332459651273.250,-0.488,-3.906,-27.832,19.531,1.000
1624332459655179.500,-56.152,-30.762,-52.246,-86.426,1.000
1624332459659085.750,-48.828,-29.297,-42.480,-73.730,1.000
1624332459662992.000,-16.113,-27.344,-20.508,15.137,1.000
1624332459666898.250,-20.996,-46.875,-13.184,6.348,1.000
1624332459670804.500,-29.785,-48.828,-6.348,-65.430,1.000
1624332459674710.750,-41.992,-61.035,-22.949,-79.590,1.000
1624332459678617.000,-65.918,-31.250,-38.086,-90.332,1.000
1624332459682523.250,-25.391,-22.461,-36.621,-2.930,1.000
1624332459686429.500,-6.348,-12.695,-22.949,26.855,1.000
1624332459690335.750,-29.785,-13.184,-28.809,-45.410,1.000
1624332459694242.000,-53.711,-39.062,-25.391,-77.637,1.000
1624332459698148.250,-22.461,-42.969,-0.977,-9.277,1.000
1624332459702054.500,2.930,-20.508,-8.301,33.203,1.000
1624332459705960.750,-35.156,-26.367,-46.387,-38.086,1.000
1624332459709867.000,-57.617,-30.762,-63.965,-89.355,1.000
1624332459713773.250,-18.066,-29.785,-23.926,-21.484,1.000
1624332459717679.500,-7.812,-52.734,-5.371,25.391,1.000
1624332459721585.750,-14.648,-34.668,-18.066,-7.324,1.000
1624332459725492.000,-21.484,-35.156,-32.227,-74.707,1.000
1624332459729398.250,-61.523,-20.996,-39.551,-83.496,1.000
1624332459733304.500,-49.805,8.301,-51.270,-12.695,1.000
1624332459737210.750,-6.348,3.906,-36.133,-2.930,1.000
1624332459741117.000,-6.348,-17.578,-7.812,-53.711,1.000
1624332459745023.250,-55.176,-34.668,-18.066,-61.523,1.000
1624332459748929.500,-50.293,-61.523,-18.066,-6.348,1.000
1624332459752835.750,3.418,-53.711,-8.789,9.766,1.000
1624332459756742.000,-5.859,-30.273,-29.297,-65.918,1.000
1624332459760648.250,-50.293,-47.852,-43.457,-95.215,1.000
1624332459764554.500,-53.711,-33.691,-32.715,-16.602,1.000
1624332459768460.750,-23.926,-13.184,-31.250,41.992,1.000
1624332459772367.000,-68.359,-57.129,-47.852,-41.992,1.000
1624332459776273.250,-32.227,-52.246,-27.344,-13.184,1.000
1624332459780179.500,-44.922,-26.367,-23.438,-64.453,1.000
1624332459784085.750,-56.641,-10.742,-38.086,-88.867,1.000
1624332459787992.000,-29.297,-12.207,-35.645,-20.996,1.000
1624332459791898.250,-4.395,-25.391,-16.113,21.973,1.000
1624332459795804.500,-40.527,-37.598,-17.578,-54.688,1.000
1624332459799710.750,-69.824,-38.574,-21.484,-110.352,1.000
1624332459803617.000,-39.062,-26.367,-12.695,-42.480,1.000
1624332459807523.250,1.953,7.812,2.930,34.668,1.000
1624332459811429.500,-10.742,6.836,-17.578,-9.277,1.000
1624332459815335.750,-53.711,-34.180,-34.180,-87.891,1.000
1624332459819242.000,-47.363,-21.973,-39.062,1.000,1.000
1624332459823148.250,-21.973,-1.953,-49.316,1.000,1.000
1624332459827054.500,8.301,4.395,-53.711,1.000,1.000
1624332459830960.750,-19.531,3.906,-48.340,1.000,1.000
1624332459834867.000,-72.266,-12.695,-66.406,1.000,1.000
1624332459838773.250,-64.941,-37.109,-58.594,1.000,1.000
1624332459842679.500,1.465,-52.734,2.441,1.000,1.000
1624332459846585.750,5.859,-59.570,6.836,1.000,1.000
1624332459850492.000,-44.922,-44.434,-35.645,1.000,1.000
1624332459854398.250,-59.570,-12.695,-33.203,1.000,1.000
1624332459858304.500,-25.391,-4.883,-18.066,1.000,1.000
1624332459862210.750,12.207,-10.742,12.207,1.000,1.000
1624332459866117.000,-0.977,-42.480,-46.875,27.344,1.000
1624332459870023.250,-64.453,-47.852,-72.266,-83.984,1.000
1624332459873929.500,-60.059,-17.090,-46.387,-85.938,1.000
1624332459877835.750,-24.414,-11.719,-21.973,-5.859,1.000
1624332459881742.000,-18.555,-31.250,-23.926,14.648,1.000
1624332459885648.250,-41.016,-38.574,-12.695,-44.922,1.000
1624332459889554.500,-59.082,-29.785,-3.418,-83.008,1.000
1624332459893460.750,-28.320,-8.301,-15.625,-23.438,1.000
1624332459897367.000,-3.418,-18.066,-20.508,28.320,1.000
1624332459901273.250,-19.043,-49.316,-23.438,-28.320,1.000
1624332459905179.500,-23.438,-28.809,-24.902,-67.871,1.000
1624332459909085.750,-12.207,-29.297,-42.969,-3.906,1.000
1624332459912992.000,-17.090,-12.695,-43.457,-19.531,1.000
1624332459916898.250,0.977,-9.766,-40.039,36.133,1.000
1624332459920804.500,-20.508,-17.578,-17.090,-18.555,1.000
1624332459924710.750,-54.688,-52.246,-19.531,-86.426,1.000
1624332459928617.000,-53.223,-53.223,-37.109,-46.387,1.000
1624332459932523.250,-16.602,-22.949,-39.551,23.926,1.000
1624332459936429.500,-15.137,-2.930,-16.113,2.930,1.000
1624332459940335.750,-63.477,-26.855,-28.320,-84.961,1.000
1624332459944242.000,-56.152,-58.594,-49.805,-72.266,1.000
1624332459948148.250,-12.207,-57.129,-24.902,20.020,1.000
1624332459952054.500,-13.672,-30.273,-0.977,21.973,1.000
1624332459955960.750,-50.781,-19.043,-16.113,-68.848,1.000
1624332459959867.000,-51.758,-38.574,-63.477,1.000,1.000
1624332459963773.250,-57.617,-36.621,-51.758,1.000,1.000
1624332459967679.500,-1.465,-4.883,-9.766,1.000,1.000
1624332459971585.750,-3.906,-25.879,-14.648,1.000,1.000
1624332459975492.000,-67.383,-42.480,-29.785,1.000,1.000
1624332459979398.250,-83.496,-31.250,-36.133,1.000,1.000
1624332459983304.500,-25.391,-38.086,-27.344,1.000,1.000
1624332459987210.750,4.883,-60.059,-13.184,1.000,1.000
1624332459991117.000,-25.879,-67.871,-25.391,1.000,1.000
1624332459995023.250,-46.875,-19.043,-38.086,1.000,1.000
1624332459998929.500,-40.039,-6.348,-48.340,1.000,1.000
1624332460002835.750,-18.066,-44.922,-41.016,1.000,1.000
1624332460006742.000,1.465,-21.484,-28.320,47.852,1.000
1624332460010648.250,-17.578,-21.973,-27.832,-9.277,1.000
1624332460014554.500,-51.270,-34.668,-24.902,-77.148,1.000
1624332460018460.750,-38.574,-30.273,-34.668,-34.668,1.000
1624332460022367.000,2.930,-13.184,-31.250,49.805,1.000
1624332460026273.250,12.695,-19.531,-11.230,35.645,1.000
1624332460030179.500,-14.648,-17.090,-12.207,-39.062,1.000
1624332460034085.750,-24.414,-10.254,-12.695,-35.156,1.000
1624332460037992.000,3.906,-14.648,-5.859,36.621,1.000
1624332460041898.250,-3.906,-31.738,-21.484,15.625,1.000
1624332460045804.500,-33.691,-42.480,-38.086,-72.754,1.000
1624332460049710.750,-47.363,-53.223,-47.852,-74.707,1.000
1624332460053617.000,-58.105,-16.113,-35.156,-70.801,1.000
1624332460057523.250,-26.855,-20.508,-25.879,1.953,1.000
1624332460061429.500,-14.648,-24.414,-24.414,11.230,1.000
1624332460065335.750,-52.246,-16.602,-20.508,-73.730,1.000
1624332460069242.000,-74.707,-20.996,-7.812,-100.586,1.000
1624332460073148.250,-40.527,-23.926,-16.602,-25.879,1.000
1624332460077054.500,-20.020,-9.277,-27.344,15.137,1.000
1624332460080960.750,-67.871,-22.461,-33.691,-67.383,1.000
1624332460084867.000,-101.562,-46.875,-31.250,-128.418,1.000
1624332460088773.250,-58.105,-21.973,-2.930,-52.246,1.000
1624332460092679.500,-28.809,-3.418,-8.789,10.742,1.000
1624332460096585.750,-67.871,-21.973,-46.875,-55.664,1.000
1624332460100492.000,-18.066,-29.785,-28.809,-141.113,1.000
1624332460104398.250,-40.039,-20.020,-28.809,-123.047,1.000
1624332460108304.500,-0.977,-26.855,-25.391,-41.992,1.000
1624332460112210.750,18.066,-20.020,-29.297,-34.180,1.000
1624332460116117.000,-40.527,-13.672,-36.621,-105.957,1.000
1624332460120023.250,-84.473,-25.391,-34.180,-101.562,1.000
1624332460123929.500,-60.547,-30.273,-27.344,-18.555,1.000
1624332460127835.750,-11.719,-46.875,-27.832,-16.113,1.000
1624332460131742.000,-15.137,-47.852,-28.809,-95.703,1.000
1624332460135648.250,-46.387,-21.973,-49.805,-106.934,1.000
1624332460139554.500,-39.551,-23.926,-58.594,-42.480,1.000
1624332460143460.750,8.301,-20.020,-11.719,-6.836,1.000
1624332460147367.000,0.488,-13.184,-32.227,29.785,1.000
1624332460151273.250,12.695,-37.109,-31.738,32.227,1.000
1624332460155179.500,-42.969,-47.852,-38.574,-70.312,1.000
1624332460159085.750,-44.922,-37.598,-33.691,-81.543,1.000
1624332460162992.000,-7.324,-17.578,-33.691,3.418,1.000
1624332460166898.250,-3.418,-11.719,-33.691,24.902,1.000
1624332460170804.500,-30.273,-30.273,-45.410,-44.434,1.000
1624332460174710.750,-46.875,-26.367,-56.152,-88.379,1.000
1624332460178617.000,-21.484,-27.344,-37.598,-29.297,1.000
1624332460182523.250,-6.348,-35.156,-22.461,21.973,1.000
1624332460186429.500,-15.137,-23.438,-23.926,-24.414,1.000
1624332460190335.750,-23.926,-24.414,-17.090,-71.289,1.000
1624332460194242.000,-62.012,-12.207,-30.762,1.000,1.000
1624332460198148.250,-36.133,-22.949,-19.043,1.000,1.000
1624332460202054.500,-21.484,-75.684,-32.715,1.000,1.000
1624332460205960.750,-35.645,-91.797,-57.617,1.000,1.000
1624332460209867.000,-57.129,-29.785,-39.062,1.000,1.000
1624332460213773.250,-56.641,-13.184,-31.738,1.000,1.000
1624332460217679.500,-27.344,-26.367,-51.758,1.000,1.000
1624332460221585.750,-15.137,-26.367,-47.363,1.000,1.000
1624332460225492.000,-45.410,-23.926,-25.391,1.000,1.000
1624332460229398.250,-35.645,-26.855,-12.695,1.000,1.000
1624332460233304.500,8.789,-19.043,-11.230,1.000,1.000
1624332460237210.750,8.789,-15.137,-11.230,1.000,1.000
1624332460241117.000,0.488,-63.965,-10.254,26.855,1.000
1624332460245023.250,-40.527,-20.020,-15.625,-66.406,1.000
1624332460248929.500,-54.688,-7.324,-42.969,-79.102,1.000
1624332460252835.750,-36.133,-6.836,-55.664,-15.625,1.000
1624332460256742.000,-15.625,-7.812,-34.668,6.836,1.000
1624332460260648.250,-50.781,-33.203,-24.414,-60.059,1.000
1624332460264554.500,-67.871,-31.250,-21.973,-93.750,1.000
1624332460268460.750,-22.461,-9.277,-6.348,-9.277,1.000
1624332460272367.000,7.812,-23.438,-11.719,51.758,1.000
1624332460276273.250,-18.555,-52.734,-29.785,-15.137,1.000
1624332460280179.500,-32.715,-45.898,-21.484,-66.895,1.000
1624332460284085.750,-8.789,-43.457,-18.066,-10.742,1.000
1624332460287992.000,-15.625,-16.602,-15.625,-0.977,1.000
1624332460291898.250,16.113,-7.812,-12.207,62.500,1.000
1624332460295804.500,-1.953,-14.160,-26.367,4.395,1.000
1624332460299710.750,-48.340,-41.504,-43.457,-76.172,1.000
1624332460303617.000,-39.551,-44.434,-36.133,-41.016,1.000
1624332460307523.250,-4.883,-20.996,-30.762,26.855,1.000
1624332460311429.500,-12.207,-8.789,-31.250,-1.465,1.000
1624332460315335.750,-36.133,-23.438,-29.297,-65.430,1.000
1624332460319242.000,-27.344,-59.570,-30.762,-39.551,1.000
1624332460323148.250,9.277,-41.016,-21.484,43.457,1.000
1624332460327054.500,-0.977,-10.742,-30.762,23.438,1.000
1624332460330960.750,-44.922,-17.578,-46.387,-61.523,1.000
1624332460334867.000,-20.996,-29.297,-12.207,-70.312,1.000
1624332460338773.250,-29.297,-41.016,-38.574,2.930,1.000
1624332460342679.500,-10.254,-37.109,-35.645,19.043,1.000
1624332460346585.750,-6.348,-19.043,-8.301,-61.523,1.000
1624332460350492.000,-52.246,-35.156,-13.184,-101.074,1.000
1624332460354398.250,-74.707,-69.336,-32.715,-27.832,1.000
1624332460358304.500,-29.297,-42.480,-26.855,35.156,1.000
1624332460362210.750,-8.301,-20.508,-29.297,-11.719,1.000
1624332460366117.000,-44.434,-24.414,-65.918,-86.426,1.000
1624332460370023.250,-57.129,-21.484,-71.289,-48.828,1.000
1624332460373929.500,-28.320,-39.062,-28.809,31.250,1.000
1624332460377835.750,-1.465,-51.758,4.395,11.719,1.000
1624332460381742.000,21.484,-19.531,-22.949,52.734,1.000
1624332460385648.250,-2.441,-37.109,-36.621,-3.906,1.000
1624332460389554.500,-29.297,-27.832,-34.180,-63.965,1.000
1624332460393460.750,-39.551,-40.527,-35.645,-48.828,1.000
1624332460397367.000,-4.883,-32.715,-15.625,13.672,1.000
1624332460401273.250,-39.551,-36.621,-13.184,-52.734,1.000
1624332460405179.500,-76.172,-36.133,-17.090,-111.328,1.000
1624332460409085.750,-46.387,-19.043,-19.043,-38.086,1.000
1624332460412992.000,-25.391,-15.625,-39.551,8.789,1.000
1624332460416898.250,-43.457,-17.578,-46.387,-48.828,1.000
1624332460420804.500,-54.688,-13.672,-22.949,-88.379,1.000
1624332460424710.750,-33.691,-26.855,-14.160,-41.504,1.000
1624332460428617.000,-9.277,-56.152,-24.902,0.488,1.000
1624332460432523.250,5.371,-41.016,-35.645,44.922,1.000
1624332460436429.500,-49.805,7.812,-32.715,-39.062,1.000
1624332460440335.750,-82.031,5.859,-16.602,-107.422,1.000
1624332460444242.000,-65.430,-20.996,-21.973,-64.453,1.000
1624332460448148.250,-33.203,-38.574,-24.902,5.371,1.000
1624332460452054.500,-31.250,-40.039,-13.672,-16.602,1.000
1624332460455960.750,-58.105,-45.410,-13.184,-80.566,1.000
1624332460459867.000,-48.828,-46.875,-23.438,-55.176,1.000
1624332460463773.250,-14.648,-50.293,-33.203,19.043,1.000
1624332460467679.500,0.000,-35.645,-23.926,39.551,1.000
1624332460471585.750,-38.574,-21.973,-23.926,-41.016,1.000
1624332460475492.000,-42.969,-6.836,-34.180,-92.773,1.000
1624332460479398.250,-33.203,-13.184,-20.020,-15.625,1.000
1624332460483304.500,-21.973,-24.414,-23.438,14.648,1.000
1624332460487210.750,-21.973,-15.625,-25.879,-57.129,1.000
1624332460491117.000,-45.898,-9.277,-26.367,-86.914,1.000
1624332460495023.250,-69.336,-25.879,-58.105,-19.043,1.000
1624332460498929.500,-28.809,-56.152,-66.406,21.973,1.000
1624332460502835.750,1.953,-50.781,-30.273,-29.297,1.000
1624332460506742.000,-42.969,-31.250,-5.859,-81.543,1.000
1624332460510648.250,-59.082,-12.207,9.766,-58.594,1.000
1624332460514554.500,-33.691,-7.812,1.953,3.418,1.000
1624332460518460.750,-27.832,-23.438,-32.715,-8.789,1.000
1624332460522367.000,-12.695,-7.324,-27.344,13.672,1.000
1624332460526273.250,-30.762,-8.789,-25.879,-44.434,1.000
1624332460530179.500,-72.266,-36.621,-29.297,-109.375,1.000
1624332460534085.750,-70.312,-47.852,-34.180,-66.406,1.000
1624332460537992.000,-35.156,-42.480,-32.227,0.000,1.000
1624332460541898.250,-37.109,-51.758,-21.973,-25.391,1.000
1624332460545804.500,-54.688,-48.828,-20.020,-80.078,1.000
1624332460549710.750,-17.090,-28.320,-15.137,-31.738,1.000
1624332460553617.000,11.719,-19.043,-22.949,48.340,1.000
1624332460557523.250,-10.742,-21.973,-46.387,23.926,1.000
1624332460561429.500,-47.852,-13.184,-55.176,-69.336,1.000
1624332460565335.750,-54.688,-14.160,-41.504,-87.402,1.000
1624332460569242.000,-64.453,-40.527,-50.781,1.000,1.000
1624332460573148.250,-32.715,-37.109,-34.180,1.000,1.000
1624332460577054.500,-16.113,-9.766,-41.992,1.000,1.000
1624332460580960.750,-30.273,-10.254,-56.641,1.000,1.000
1624332460584867.000,-20.996,-20.996,-27.832,1.000,1.000
1624332460588773.250,-24.414,-26.367,-20.508,1.000,1.000
1624332460592679.500,-28.809,-32.227,-24.902,1.000,1.000
1624332460596585.750,-30.273,-18.555,-22.949,1.000,1.000
1624332460600492.000,-40.527,-15.625,4.395,1.000,1.000
1624332460604398.250,-36.133,-25.391,2.930,1.000,1.000
1624332460608304.500,-26.855,-26.855,-19.531,1.000,1.000
1624332460612210.750,-42.969,-41.016,-34.668,1.000,1.000
1624332460616117.000,-25.391,-55.176,-25.879,-40.039,1.000
1624332460620023.250,-49.805,-38.086,-22.949,-79.102,1.000
1624332460623929.500,-28.809,-28.809,-38.574,-27.832,1.000
1624332460627835.750,-9.277,-12.207,-51.270,16.602,1.000
1624332460631742.000,-3.418,3.906,-38.086,-9.766,1.000
1624332460635648.250,-22.949,-23.438,-23.926,-65.430,1.000
1624332460639554.500,-35.645,-45.410,-34.180,-57.129,1.000
1624332460643460.750,-8.789,-20.996,-41.016,7.324,1.000
1624332460647367.000,-5.371,-8.301,-23.438,-7.812,1.000
1624332460651273.250,-42.969,-25.391,-16.602,-86.426,1.000
1624332460655179.500,-58.594,-39.551,-35.156,-91.797,1.000
1624332460659085.750,-16.602,-32.715,-34.180,-6.348,1.000
1624332460662992.000,16.113,-47.852,-45.898,31.738,1.000
1624332460666898.250,-6.348,-11.230,-53.223,8.301,1.000
1624332460670804.500,-52.246,-6.836,-31.250,-81.055,1.000
1624332460674710.750,-63.965,-25.391,-28.809,-87.402,1.000
1624332460678617.000,-8.789,-18.555,-8.301,8.789,1.000
1624332460682523.250,7.812,-33.691,-5.859,37.109,1.000
1624332460686429.500,-29.297,-33.203,-31.250,-46.875,1.000
1624332460690335.750,-29.785,-5.859,-33.691,-71.289,1.000
1624332460694242.000,2.930,-27.344,-36.621,4.395,1.000
1624332460698148.250,11.719,-47.363,-22.949,44.922,1.000
1624332460702054.500,-33.691,-23.438,-37.109,-35.645,1.000
1624332460705960.750,-59.570,4.395,-55.176,-99.121,1.000
1624332460709867.000,-33.203,-32.715,-23.926,-80.078,1.000
1624332460713773.250,-7.324,-27.832,-17.090,-18.066,1.000
1624332460717679.500,10.254,-25.391,-16.113,32.227,1.000
1624332460721585.750,-14.648,-22.949,-24.414,-22.461,1.000
1624332460725492.000,-25.391,-30.273,-20.996,-71.289,1.000
1624332460729398.250,10.742,-29.785,-4.395,-7.812,1.000
1624332460733304.500,12.207,-15.137,-39.551,36.621,1.000
1624332460737210.750,-41.504,-8.789,-79.590,-34.180,1.000
1624332460741117.000,-74.219,-19.043,-50.293,-112.305,1.000
1624332460745023.250,-60.547,-35.156,-18.555,-93.262,1.000
1624332460748929.500,-17.578,-39.551,-5.371,-6.348,1.000
1624332460752835.750,-3.906,-30.762,-13.672,14.648,1.000
1624332460756742.000,-21.484,-93.262,-28.320,-0.488,1.000
1624332460760648.250,-61.523,-29.785,-32.227,-72.266,1.000
1624332460764554.500,-60.059,17.578,-42.480,-74.707,1.000
1624332460768460.750,-24.414,11.719,-31.738,6.836,1.000
1624332460772367.000,-8.789,2.930,-22.949,22.949,1.000
1624332460776273.250,-52.734,-28.320,-35.645,-73.242,1.000
1624332460780179.500,-76.172,-46.387,-33.203,-109.375,1.000
1624332460784085.750,-34.180,-26.855,-10.742,-21.973,1.000
1624332460787992.000,-13.184,-12.695,1.953,19.043,1.000
1624332460791898.250,-34.180,-24.902,-14.648,-44.922,1.000
1624332460795804.500,-64.453,-71.289,-33.203,-97.656,1.000
1624332460799710.750,-54.199,-73.730,-48.828,-50.781,1.000
1624332460803617.000,-33.691,-29.297,-19.531,-8.789,1.000
1624332460807523.250,-7.324,-45.410,-55.176,31.250,1.000
1624332460811429.500,-22.461,-46.875,-74.219,-23.926,1.000
1624332460815335.750,-47.852,-35.156,-26.367,-81.055,1.000
1624332460819242.000,-31.250,-31.738,-2.441,-37.598,1.000
1624332460823148.250,-2.930,-33.691,-2.441,25.879,1.000
1624332460827054.500,-24.414,-35.156,-22.461,-13.184,1.000
1624332460830960.750,-64.453,-35.156,-60.547,-88.867,1.000
1624332460834867.000,-65.430,-31.738,-62.988,-77.148,1.000
1624332460838773.250,-22.461,-22.949,-32.715,1.465,1.000
1624332460842679.500,-3.906,-22.949,-24.414,-3.418,1.000
1624332460846585.750,-41.992,-38.574,-23.926,-78.125,1.000
1624332460850492.000,-46.875,-15.137,-46.875,-76.660,1.000
1624332460854398.250,-52.246,-19.531,-60.547,14.648,1.000
1624332460858304.500,-41.504,-40.527,-41.016,48.340,1.000
1624332460862210.750,-34.668,-27.832,-27.832,-43.457,1.000
1624332460866117.000,-42.480,11.719,-17.090,-103.027,1.000
1624332460870023.250,-27.832,-0.488,-13.672,-36.621,1.000
1624332460873929.500,15.625,-55.664,-9.766,18.555,1.000
1624332460877835.750,23.438,-55.176,-26.367,-24.902,1.000
1624332460881742.000,-3.906,-3.418,-45.410,-77.637,1.000
1624332460885648.250,-50.293,-3.418,-31.250,-39.551,1.000
1624332460889554.500,-50.781,-20.020,-24.902,32.715,1.000
1624332460893460.750,-21.973,-31.738,-22.461,4.883,1.000
1624332460897367.000,-23.438,-41.504,-46.875,-0.977,1.000
1624332460901273.250,-37.598,-48.340,-26.367,-45.898,1.000
1624332460905179.500,-32.715,-52.246,-2.441,-70.801,1.000
1624332460909085.750,-21.973,-62.500,-23.438,-27.832,1.000
1624332460912992.000,-12.207,-33.691,-41.016,17.090,1.000
1624332460916898.250,-25.391,3.906,-22.461,-26.367,1.000
1624332460920804.500,-61.035,-6.836,-25.879,-98.633,1.000
1624332460924710.750,-36.133,-20.508,-17.090,-51.270,1.000
1624332460928617.000,16.602,-11.230,-14.160,48.340,1.000
1624332460932523.250,16.113,-7.324,-37.598,29.785,1.000
1624332460936429.500,-33.203,-1.465,-41.992,-58.105,1.000
1624332460940335.750,-64.941,-12.695,-52.734,-71.777,1.000
1624332460944242.000,-60.059,-38.086,-32.715,1.000,1.000
1624332460948148.250,0.000,-40.039,-18.555,1.000,1.000
1624332460952054.500,2.441,-53.223,-29.785,1.000,1.000
1624332460955960.750,-49.316,-56.641,-70.801,1.000,1.000
1624332460959867.000,-47.363,-31.250,-49.805,1.000,1.000
1624332460963773.250,-17.578,-20.996,-10.742,1.000,1.000
1624332460967679.500,-1.465,-23.926,-0.488,1.000,1.000
1624332460971585.750,-17.090,-14.160,12.695,1.000,1.000
1624332460975492.000,-50.293,-7.812,-5.371,1.000,1.000
1624332460979398.250,-38.574,-9.766,-22.949,1.000,1.000
1624332460983304.500,-16.602,-23.926,-29.297,1.000,1.000
1624332460987210.750,-23.438,-44.434,-37.598,1.000,1.000
1624332460991117.000,-26.367,-3.418,-12.695,-62.012,1.000
1624332460995023.250,-57.129,-17.090,-20.996,-118.652,1.000
1624332460998929.500,-21.973,-14.648,-22.461,-37.598,1.000
1624332461002835.750,14.648,-35.156,-36.133,31.250,1.000
1624332461006742.000,-20.508,-53.223,-56.152,-38.574,1.000
1624332461010648.250,-51.270,-28.809,-43.945,-104.004,1.000
1624332461014554.500,-36.621,-6.348,-26.367,-52.734,1.000
1624332461018460.750,4.395,-8.301,-27.344,20.996,1.000
1624332461022367.000,9.766,-10.742,-20.508,12.207,1.000
1624332461026273.250,-41.504,-16.602,-42.480,-72.754,1.000
1624332461030179.500,-61.523,-21.973,-75.195,-94.727,1.000
1624332461034085.750,-33.691,-28.320,-55.664,-28.809,1.000
1624332461037992.000,-17.578,-20.020,-1.465,21.973,1.000
1624332461041898.250,-20.508,-20.508,-1.953,5.859,1.000
1624332461045804.500,-74.707,-58.594,-24.902,-96.191,1.000
1624332461049710.750,-72.754,-56.641,-45.410,-89.844,1.000
1624332461053617.000,-24.414,-23.438,-30.273,0.977,1.000
1624332461057523.250,-28.320,-23.438,-20.508,5.371,1.000
1624332461061429.500,-68.848,-27.344,-34.668,-74.707,1.000
1624332461065335.750,-71.777,-19.043,-31.250,-89.355,1.000
1624332461069242.000,-34.668,-41.992,-41.016,-7.812,1.000
1624332461073148.250,-9.766,-70.801,-53.711,35.645,1.000
1624332461077054.500,-11.719,-48.340,-27.832,-20.508,1.000
1624332461080960.750,-32.715,-24.902,-10.742,-67.871,1.000
1624332461084867.000,-62.012,-35.645,-74.219,-20.020,1.000
1624332461088773.250,-38.086,-42.969,-54.199,15.625,1.000
1624332461092679.500,-19.531,-39.062,-13.184,-28.809,1.000
1624332461096585.750,-40.039,-59.082,-17.578,-85.449,1.000
1624332461100492.000,-55.176,-66.406,-26.855,-57.617,1.000
1624332461104398.250,-43.945,-46.875,-33.203,21.973,1.000
1624332461108304.500,-22.949,-16.602,-37.598,16.113,1.000
1624332461112210.750,-12.695,7.324,-28.809,-67.871,1.000
1624332461116117.000,-21.484,-12.695,-41.016,-71.289,1.000
1624332461120023.250,-33.691,-36.133,-55.664,2.930,1.000
1624332461123929.500,-21.973,-25.391,-40.527,20.996,1.000
1624332461127835.750,-21.484,-27.832,-34.180,-53.223,1.000
1624332461131742.000,-25.879,-25.879,-32.715,-6.348,1.000
1624332461135648.250,-57.129,-48.340,-35.156,-84.961,1.000
1624332461139554.500,-62.988,-70.312,-38.086,-83.984,1.000
1624332461143460.750,-20.020,-51.758,-26.855,3.906,1.000
1624332461147367.000,-16.113,-35.156,-22.461,6.836,1.000
1624332461151273.250,-47.363,-39.551,-7.812,-67.383,1.000
1624332461155179.500,-50.293,-45.898,-10.254,-72.266,1.000
1624332461159085.750,-13.672,-26.367,-41.504,-3.418,1.000
1624332461162992.000,-6.836,-5.371,-53.223,19.531,1.000
1624332461166898.250,-54.688,-13.184,-56.152,-55.664,1.000
1624332461170804.500,-68.848,-24.414,-58.594,-103.027,1.000
1624332461174710.750,-23.926,-14.648,-19.531,-20.020,1.000
1624332461178617.000,-34.668,-10.742,-33.203,1.000,1.000
1624332461182523.250,0.488,-10.742,-17.578,1.000,1.000
1624332461186429.500,-33.203,-40.039,-21.973,1.000,1.000
1624332461190335.750,-67.871,-45.898,-42.480,1.000,1.000
1624332461194242.000,-47.363,-26.367,-44.922,1.000,1.000
1624332461198148.250,-16.113,-18.555,-32.227,1.000,1.000
1624332461202054.500,-14.160,-30.273,-22.949,1.000,1.000
1624332461205960.750,-36.621,-55.176,-38.574,1.000,1.000
1624332461209867.000,-35.645,-56.152,-49.805,1.000,1.000
1624332461213773.250,11.230,-27.832,-28.809,1.000,1.000
1624332461217679.500,23.926,-6.836,-3.418,1.000,1.000
1624332461221585.750,-28.809,-5.371,-20.508,1.000,1.000
1624332461225492.000,-68.848,-41.016,-24.414,-90.820,1.000
1624332461229398.250,-66.406,-23.438,-38.574,-73.730,1.000
1624332461233304.500,-26.367,-29.297,-42.480,13.184,1.000
1624332461237210.750,-25.391,-29.297,-42.480,0.000,1.000
1624332461241117.000,-57.129,-9.277,-35.156,-79.590,1.000
1624332461245023.250,-80.566,-9.766,-43.945,-87.402,1.000
1624332461248929.500,-42.969,-37.109,-40.039,-4.883,1.000
1624332461252835.750,3.418,-38.086,-11.230,44.434,1.000
1624332461256742.000,-25.879,-17.090,-38.086,-25.879,1.000
1624332461260648.250,-65.918,-21.484,-53.711,-88.379,1.000
1624332461264554.500,-33.203,-39.551,-21.973,-23.926,1.000
1624332461268460.750,7.324,-40.039,-12.695,38.086,1.000
1624332461272367.000,18.066,-14.648,-16.602,63.477,1.000
1624332461276273.250,7.324,6.348,4.883,9.277,1.000
1624332461280179.500,-46.875,-7.324,-15.625,-65.430,1.000
1624332461284085.750,-28.809,-14.160,-24.414,-16.113,1.000
1624332461287992.000,22.949,-39.551,-1.465,62.500,1.000
1624332461291898.250,-0.488,-70.801,-36.133,10.742,1.000
1624332461295804.500,-46.387,-54.688,-77.148,-79.590,1.000
1624332461299710.750,-39.551,-24.902,-39.551,-47.363,1.000
1624332461303617.000,10.742,0.488,1.953,39.062,1.000
1624332461307523.250,16.113,-5.859,9.277,25.879,1.000
1624332461311429.500,-31.250,-22.949,-11.230,-59.570,1.000
1624332461315335.750,-38.086,-36.133,-31.250,-58.105,1.000
1624332461319242.000,-36.133,14.648,-45.410,1.000,1.000
1624332461323148.250,-14.648,20.020,-7.324,1.000,1.000
1624332461327054.500,-47.363,-13.184,-17.578,1.000,1.000
1624332461330960.750,-73.730,-45.410,-19.531,1.000,1.000
1624332461334867.000,-50.781,-48.828,-11.719,1.000,1.000
1624332461338773.250,-18.555,-37.109,-9.766,1.000,1.000
1624332461342679.500,-5.859,-30.273,-9.766,1.000,1.000
1624332461346585.750,-34.668,-41.016,-28.320,1.000,1.000
1624332461350492.000,-44.922,-23.926,-27.344,1.000,1.000
1624332461354398.250,-25.879,-3.906,-24.414,1.000,1.000
1624332461358304.500,-30.273,-16.602,-46.387,1.000,1.000
1624332461362210.750,-51.758,-16.602,-51.270,1.000,1.000
1624332461366117.000,-52.246,-0.488,-60.059,-68.848,1.000
1624332461370023.250,-76.172,-0.488,-40.039,-116.211,1.000
1624332461373929.500,-58.105,-23.438,-37.109,-54.688,1.000
1624332461377835.750,-31.250,-40.527,-45.410,5.371,1.000
1624332461381742.000,-47.852,-32.227,-38.574,-44.922,1.000
1624332461385648.250,-63.965,-40.527,-23.926,-96.191,1.000
1624332461389554.500,-32.227,-64.941,-19.531,-43.457,1.000
1624332461393460.750,-6.836,-23.926,-25.391,20.020,1.000
1624332461397367.000,-15.625,0.000,-27.344,-8.301,1.000
1624332461401273.250,-41.016,-36.621,-25.879,-74.707,1.000
1624332461405179.500,-53.223,-45.410,-33.691,-78.613,1.000
1624332461409085.750,-31.250,-26.367,-36.621,-6.836,1.000
1624332461412992.000,0.000,-10.254,-39.551,15.137,1.000
1624332461416898.250,-7.324,-20.508,-30.273,-4.883,1.000
1624332461420804.500,-49.805,-17.090,-46.875,-78.613,1.000
1624332461424710.750,-39.551,-14.648,-59.082,-63.477,1.000
1624332461428617.000,-12.207,-5.859,-23.926,15.625,1.000
1624332461432523.250,-27.344,-22.949,-19.531,6.348,1.000
1624332461436429.500,-57.129,-54.688,-29.297,-68.848,1.000
1624332461440335.750,-57.617,-48.340,-16.113,-79.102,1.000
1624332461444242.000,-43.457,-16.602,-24.414,-23.438,1.000
1624332461448148.250,-33.203,-11.230,-45.898,-0.977,1.000
1624332461452054.500,-44.434,-25.879,-37.598,-57.129,1.000
1624332461455960.750,-41.016,-22.461,-26.367,-85.938,1.000
1624332461459867.000,-58.105,-52.734,-57.617,-24.414,1.000
1624332461463773.250,-33.691,-91.797,-48.828,29.297,1.000
1624332461467679.500,13.184,-46.875,2.930,-20.508,1.000
1624332461471585.750,-10.742,4.883,-3.906,-89.355,1.000
1624332461475492.000,-73.730,-20.020,-59.570,-69.824,1.000
1624332461479398.250,-46.387,-20.508,-65.430,-6.836,1.000
1624332461483304.500,-3.418,-9.766,-39.062,-18.555,1.000
1624332461487210.750,-38.574,-29.785,-33.691,-72.754,1.000
1624332461491117.000,-63.477,-21.973,-29.785,-58.594,1.000
1624332461495023.250,-38.086,-17.090,-8.789,-4.883,1.000
1624332461498929.500,-12.695,-36.133,-11.230,2.441,1.000
1624332461502835.750,-15.137,-40.039,-8.789,-61.035,1.000
1624332461506742.000,-6.348,-38.086,-6.836,3.418,1.000
1624332461510648.250,-38.086,-37.598,-6.836,-66.406,1.000
1624332461514554.500,-43.945,-23.926,-20.020,-64.941,1.000
1624332461518460.750,-22.949,-40.039,-27.344,0.977,1.000
1624332461522367.000,-22.949,-43.945,-41.016,-5.859,1.000
1624332461526273.250,-53.711,-53.223,-61.523,-84.473,1.000
1624332461530179.500,-43.945,-40.527,-62.500,-80.078,1.000
1624332461534085.750,-11.230,-14.648,-56.641,-9.277,1.000
1624332461537992.000,-7.324,-22.461,-37.109,12.695,1.000
1624332461541898.250,-18.555,-16.602,-7.812,-39.551,1.000
1624332461545804.500,-47.363,-9.766,-6.348,-88.867,1.000
1624332461549710.750,-47.363,-18.066,-19.531,-41.504,1.000
1624332461553617.000,-21.973,-35.645,-30.762,-8.789,1.000
1624332461557523.250,2.930,-29.785,-18.066,34.180,1.000
1624332461561429.500,-2.441,-13.672,-9.277,-12.207,1.000
1624332461565335.750,-32.227,-28.320,-30.273,-65.430,1.000
1624332461569242.000,-21.973,-13.672,-27.344,-14.648,1.000
1624332461573148.250,0.488,-12.695,-11.719,38.574,1.000
1624332461577054.500,-18.555,-23.926,-18.066,-15.137,1.000
1624332461580960.750,-54.688,-21.484,-27.832,-92.773,1.000
1624332461584867.000,-41.992,-20.996,-30.273,-53.223,1.000
1624332461588773.250,0.977,-19.043,-41.504,25.391,1.000
1624332461592679.500,-13.184,-19.531,-54.199,-0.488,1.000
1624332461596585.750,-57.617,-29.297,-64.453,-80.078,1.000
1624332461600492.000,-52.246,-27.832,-44.922,-84.473,1.000
1624332461604398.250,-35.645,-15.625,-41.016,-58.105,1.000
1624332461608304.500,10.742,-14.160,-22.461,31.250,1.000
1624332461612210.750,8.789,-25.391,-29.785,21.484,1.000
1624332461616117.000,-38.086,-62.012,-62.012,-72.266,1.000
1624332461620023.250,-50.781,-48.340,-58.105,-83.984,1.000
1624332461623929.500,-22.949,-2.930,-32.227,2.930,1.000
1624332461627835.750,-19.531,-4.395,-21.973,25.391,1.000
1624332461631742.000,-37.598,-31.250,-15.137,-42.969,1.000
1624332461635648.250,-41.504,-26.367,-0.977,-61.523,1.000
1624332461639554.500,-20.020,-28.809,-11.719,-3.906,1.000
1624332461643460.750,-16.113,-48.828,-29.785,18.066,1.000
1624332461647367.000,-19.531,-30.273,-34.668,5.371,1.000
1624332461651273.250,-25.879,-18.555,-14.160,-48.340,1.000
1624332461655179.500,-41.016,-19.043,-19.531,-67.383,1.000
1624332461659085.750,-18.066,-18.066,-26.855,4.883,1.000
1624332461662992.000,6.836,-29.785,-19.043,46.875,1.000
1624332461666898.250,-11.719,-41.992,-29.785,-13.672,1.000
1624332461670804.500,-39.551,-20.996,-41.992,-83.496,1.000
1624332461674710.750,-44.434,-17.090,-32.715,-58.105,1.000
1624332461678617.000,-26.367,-23.438,-31.738,6.836,1.000
1624332461682523.250,-17.578,-19.531,-32.227,-4.395,1.000
1624332461686429.500,-33.691,-11.230,-16.113,-61.035,1.000
1624332461690335.750,-41.504,-14.648,-2.441,-49.316,1.000
1624332461694242.000,-63.965,-26.367,-49.316,1.000,1.000
1624332461698148.250,-26.855,-27.344,-31.250,1.000,1.000
1624332461702054.500,-9.766,-36.133,-25.879,1.000,1.000
1624332461705960.750,-36.621,-46.387,-35.645,1.000,1.000
1624332461709867.000,-52.734,-39.551,-38.086,1.000,1.000
1624332461713773.250,-23.926,-21.973,-27.832,1.000,1.000
1624332461717679.500,-26.367,-20.508,-24.902,1.000,1.000
1624332461721585.750,-47.852,-42.969,-18.066,1.000,1.000
1624332461725492.000,-40.039,-49.316,-9.766,1.000,1.000
1624332461729398.250,-16.113,-23.926,-19.043,1.000,1.000
1624332461733304.500,-3.418,-7.812,-21.484,1.000,1.000
1624332461737210.750,-50.781,-28.809,-31.738,1.000,1.000
1624332461741117.000,-44.922,-35.156,-37.109,-75.195,1.000
1624332461745023.250,-62.500,-26.855,-40.039,-104.492,1.000
1624332461748929.500,-28.809,-30.273,-32.715,-25.879,1.000
1624332461752835.750,-1.465,-50.781,-24.902,26.367,1.000
1624332461756742.000,-13.672,-53.711,-23.926,-23.438,1.000
1624332461760648.250,-45.410,-38.086,-23.926,-81.543,1.000
1624332461764554.500,-44.922,-9.277,-43.457,-47.363,1.000
1624332461768460.750,-15.625,22.949,-65.430,17.090,1.000
1624332461772367.000,-18.066,19.531,-31.250,-11.719,1.000
1624332461776273.250,-60.059,-29.297,-3.906,-92.773,1.000
1624332461780179.500,-67.871,-55.176,-21.973,-78.613,1.000
1624332461784085.750,-18.066,-37.598,-37.598,1.465,1.000
1624332461787992.000,-9.277,-4.883,-28.809,35.156,1.000
1624332461791898.250,-27.832,-14.160,-47.363,-12.695,1.000
1624332461795804.500,-57.129,-41.504,-21.973,-88.379,1.000
1624332461799710.750,-55.176,-28.320,-11.230,-65.430,1.000
1624332461803617.000,-20.020,-6.348,-24.414,18.066,1.000
1624332461807523.250,-7.324,-25.879,-29.297,16.602,1.000
1624332461811429.500,-32.227,-38.086,-28.809,-59.082,1.000
1624332461815335.750,-45.410,-41.016,-19.043,-69.336,1.000
1624332461819242.000,-27.344,-36.133,-20.996,-1.953,1.000
1624332461823148.250,-22.461,-32.715,-42.969,17.090,1.000
1624332461827054.500,-47.363,-25.391,-41.016,-49.805,1.000
1624332461830960.750,-50.781,-16.113,-17.578,-73.242,1.000
1624332461834867.000,-81.055,-21.484,-60.547,-19.043,1.000
1624332461838773.250,-39.062,-41.016,-19.043,20.020,1.000
1624332461842679.500,-12.207,-47.363,-5.859,-24.414,1.000
1624332461846585.750,-52.734,-19.531,-29.785,-90.820,1.000
1624332461850492.000,-68.848,-16.113,-27.344,-36.621,1.000
1624332461854398.250,-48.828,-35.645,-14.160,61.523,1.000
1624332461858304.500,-14.160,-39.062,-29.785,13.184,1.000
1624332461862210.750,-5.859,-29.785,-31.738,-98.633,1.000
1624332461866117.000,-39.551,-29.297,-26.855,-92.285,1.000
1624332461870023.250,-57.129,-21.484,-49.316,-13.184,1.000
1624332461873929.500,-27.344,0.488,-33.203,7.812,1.000
1624332461877835.750,-10.254,-19.531,-14.160,-64.941,1.000
1624332461881742.000,-35.645,-29.785,-37.598,-31.250,1.000
1624332461885648.250,-48.828,-33.691,-33.203,-92.285,1.000
1624332461889554.500,-32.227,-28.320,-19.043,-48.340,1.000
1624332461893460.750,8.789,-35.645,-21.973,33.691,1.000
1624332461897367.000,0.977,-56.152,-38.086,7.812,1.000
1624332461901273.250,-52.734,-43.945,-59.570,-83.984,1.000
1624332461905179.500,-48.340,-4.395,-64.453,-78.613,1.000
1624332461909085.750,-9.766,18.066,-34.180,1.953,1.000
1624332461912992.000,-7.324,-7.812,-10.742,11.230,1.000
1624332461916898.250,-31.738,-40.039,-15.137,-64.941,1.000
1624332461920804.500,-54.688,-43.945,-23.438,-100.586,1.000
1624332461924710.750,-46.387,-27.832,-28.809,-43.457,1.000
1624332461928617.000,-9.277,-33.203,-43.945,1.000,1.000
1624332461932523.250,-1.465,-51.270,-53.223,1.000,1.000
1624332461936429.500,-44.434,-34.668,-51.758,1.000,1.000
1624332461940335.750,-67.383,-21.973,-30.762,1.000,1.000
1624332461944242.000,-36.133,-44.434,-20.996,1.000,1.000
1624332461948148.250,-7.812,-30.273,-19.043,1.000,1.000
1624332461952054.500,-17.090,-17.578,-33.691,1.000,1.000
1624332461955960.750,-47.363,-21.973,-45.898,1.000,1.000
1624332461959867.000,-39.551,-3.906,-32.715,1.000,1.000
1624332461963773.250,-10.742,-2.930,-37.598,1.000,1.000
1624332461967679.500,-14.160,-23.438,-49.805,1.000,1.000
1624332461971585.750,-39.551,-34.180,-54.688,1.000,1.000
1624332461975492.000,-56.152,-29.785,-25.879,-84.961,1.000
1624332461979398.250,-37.598,-25.879,-20.020,-39.062,1.000
1624332461983304.500,16.113,-31.250,-2.930,47.363,1.000
1624332461987210.750,-4.395,-45.898,-30.762,12.207,1.000
1624332461991117.000,-62.988,-58.105,-51.270,-80.566,1.000
1624332461995023.250,-59.570,-60.059,-51.758,-86.914,1.000
1624332461998929.500,-28.809,-39.062,-55.176,-12.695,1.000
1624332462002835.750,-20.996,-23.926,-51.758,11.719,1.000
1624332462006742.000,-40.039,-14.160,-24.902,-61.035,1.000
1624332462010648.250,-58.105,-8.301,-7.812,-85.938,1.000
1624332462014554.500,-5.371,-7.324,-8.789,6.836,1.000
1624332462018460.750,17.578,-39.062,-18.066,47.852,1.000
1624332462022367.000,2.441,-18.555,-34.668,29.785,1.000
1624332462026273.250,-49.316,-45.898,-52.734,-69.336,1.000
1624332462030179.500,-65.918,-45.898,-49.316,-102.539,1.000
1624332462034085.750,-21.484,-24.414,-51.758,-19.531,1.000
1624332462037992.000,5.859,-7.812,-46.875,21.484,1.000
1624332462041898.250,-29.297,-22.461,-29.297,-48.340,1.000
1624332462045804.500,-47.852,-4.883,-8.789,-91.309,1.000
1624332462049710.750,-36.621,6.836,-13.184,-46.875,1.000
1624332462053617.000,-30.273,-5.371,-33.203,-1.953,1.000
1624332462057523.250,-45.898,-41.504,-35.156,-40.527,1.000
1624332462061429.500,-58.594,-72.754,-8.301,-94.727,1.000
1624332462065335.750,-29.785,-55.664,-7.324,-57.129,1.000
1624332462069242.000,-52.734,-24.414,-36.133,21.973,1.000
1624332462073148.250,-14.160,5.371,-20.996,2.930,1.000
1624332462077054.500,-12.207,2.441,-8.301,-85.449,1.000
1624332462080960.750,-49.316,-41.016,-34.180,-81.055,1.000
1624332462084867.000,-42.480,-69.824,-61.523,7.812,1.000
1624332462088773.250,-8.301,-37.598,-35.645,8.789,1.000
1624332462092679.500,-16.602,-20.996,-14.648,-66.406,1.000
1624332462096585.750,-58.594,-41.992,-25.879,-103.027,1.000
1624332462100492.000,-65.918,-17.578,-40.039,-43.945,1.000
1624332462104398.250,-17.090,4.395,-33.203,30.762,1.000
1624332462108304.500,-0.488,-33.691,-46.387,-25.391,1.000
1624332462112210.750,-24.902,-41.504,-64.941,-110.352,1.000
1624332462116117.000,-48.340,-26.855,-58.594,-67.383,1.000
1624332462120023.250,-57.129,-19.043,-44.434,-94.727,1.000
1624332462123929.500,-8.301,0.977,-5.371,4.395,1.000
1624332462127835.750,16.602,-10.254,6.348,49.805,1.000
1624332462131742.000,-25.391,-37.109,-5.371,-30.762,1.000
1624332462135648.250,-56.152,-30.273,-20.020,-86.426,1.000
1624332462139554.500,-35.645,-30.762,-33.691,-27.344,1.000
1624332462143460.750,0.488,-23.926,-38.574,41.992,1.000
1624332462147367.000,-2.930,-20.508,-39.551,-2.441,1.000
1624332462151273.250,-34.180,-38.086,-30.273,-73.242,1.000
1624332462155179.500,-12.695,-35.156,-19.531,-31.250,1.000
1624332462159085.750,14.648,-18.066,-10.254,44.922,1.000
1624332462162992.000,14.648,-17.090,-20.996,41.504,1.000
1624332462166898.250,-9.766,-24.414,-30.762,-17.578,1.000
1624332462170804.500,-59.082,-27.832,-39.062,-99.609,1.000
1624332462174710.750,-40.527,-6.348,-24.414,-58.594,1.000
1624332462178617.000,-0.977,-14.160,-24.414,22.949,1.000
1624332462182523.250,-10.254,-29.297,-22.461,10.742,1.000
1624332462186429.500,-44.922,-21.484,-26.367,-71.289,1.000
1624332462190335.750,-58.594,-36.133,-31.250,-85.938,1.000
1624332462194242.000,-31.250,-44.922,-28.320,-11.719,1.000
1624332462198148.250,-15.137,-38.574,-38.574,14.160,1.000
1624332462202054.500,-44.434,-45.898,-34.180,-62.012,1.000
1624332462205960.750,-56.152,-43.945,-16.602,-89.355,1.000
1624332462209867.000,-46.875,-47.363,-26.855,-3.418,1.000
1624332462213773.250,-27.832,-52.246,-11.230,52.734,1.000
1624332462217679.500,-7.812,-15.625,-3.418,-4.883,1.000
1624332462221585.750,-41.992,-15.625,-26.855,-76.172,1.000
1624332462225492.000,-49.316,-22.949,-35.156,-33.203,1.000
1624332462229398.250,-39.551,-17.578,-28.320,20.508,1.000
1624332462233304.500,-19.531,-4.883,-11.719,-24.414,1.000
1624332462237210.750,-17.090,-5.859,-10.742,-76.660,1.000
1624332462241117.000,-70.312,-25.391,-28.809,-54.199,1.000
1624332462245023.250,-81.055,-48.340,-25.879,7.324,1.000
1624332462248929.500,-27.832,-50.781,-11.719,4.395,1.000
1624332462252835.750,-26.367,-38.574,-10.254,-50.293,1.000
1624332462256742.000,9.277,-56.152,2.930,-40.527,1.000
1624332462260648.250,24.414,-14.160,9.277,-99.121,1.000
1624332462264554.500,-47.852,-11.719,-16.113,-53.223,1.000
1624332462268460.750,-76.172,-25.391,-27.832,32.227,1.000
