timestamps,TP9,AF7,AF8,TP10,Right AUX
1624333163506742.000,-27.344,-55.664,-9.277,-66.895,1.000
1624333163510648.250,-34.668,-36.621,-23.926,-36.133,1.000
1624333163514554.500,-34.668,-24.902,-41.504,-3.418,1.000
1624333163518460.750,-45.410,-15.625,-41.992,-41.504,1.000
1624333163522367.000,-42.480,6.348,7.324,-63.477,1.000
1624333163526273.250,-36.621,9.766,10.742,-30.273,1.000
1624333163530179.500,-18.555,-13.184,-20.996,22.949,1.000
1624333163534085.750,-6.348,-26.855,-8.789,15.625,1.000
1624333163537992.000,-34.668,-16.602,-14.160,-53.711,1.000
1624333163541898.250,-49.805,-2.441,-50.781,-60.547,1.000
1624333163545804.500,-38.574,-7.324,-43.945,-0.488,1.000
1624333163549710.750,-25.391,-8.789,-14.648,9.766,1.000
1624333163553617.000,-20.996,-17.090,-9.766,1.000,1.000
1624333163557523.250,-33.203,-48.828,-30.273,1.000,1.000
1624333163561429.500,-15.625,-35.156,-20.996,1.000,1.000
1624333163565335.750,6.348,-1.953,-10.254,1.000,1.000
1624333163569242.000,-29.297,-16.113,-20.996,1.000,1.000
1624333163573148.250,-64.941,-32.715,-33.203,1.000,1.000
1624333163577054.500,-47.852,-18.555,-43.457,1.000,1.000
1624333163580960.750,-22.461,-4.395,-40.527,1.000,1.000
1624333163584867.000,-4.395,-11.719,-26.855,1.000,1.000
1624333163588773.250,-9.766,-50.781,-15.625,1.000,1.000
1624333163592679.500,-36.621,-51.270,-23.926,1.000,1.000
1624333163596585.750,-35.645,-8.789,-13.672,1.000,1.000
1624333163600492.000,-23.438,-18.555,3.418,39.551,1.000
1624333163604398.250,-1.953,-26.367,0.000,-3.906,1.000
1624333163608304.500,-20.020,-19.043,-14.648,-64.453,1.000
1624333163612210.750,-35.645,1.465,-32.227,-32.715,1.000
1624333163616117.000,-45.898,2.441,-57.617,20.020,1.000
1624333163620023.250,-51.758,-14.160,-47.363,7.324,1.000
1624333163623929.500,-40.039,-20.020,-38.574,-53.223,1.000
1624333163627835.750,-66.406,-11.719,-41.992,-73.242,1.000
1624333163631742.000,-72.754,-19.043,-24.902,-23.926,1.000
1624333163635648.250,-36.133,-29.297,1.953,9.766,1.000
1624333163639554.500,-31.250,-24.414,-2.441,-28.809,1.000
1624333163643460.750,-63.477,-13.184,-31.250,-54.199,1.000
1624333163647367.000,-70.801,-23.438,-52.246,-109.863,1.000
1624333163651273.250,-25.879,-16.113,-42.969,-20.020,1.000
1624333163655179.500,-17.090,25.879,-35.156,22.949,1.000
1624333163659085.750,-68.848,-12.695,-27.344,-64.941,1.000
1624333163662992.000,-55.176,-35.645,-3.906,-72.754,1.000
1624333163666898.250,-29.785,-18.555,-15.625,-22.461,1.000
1624333163670804.500,-75.684,-27.344,-21.484,-44.434,1.000
1624333163674710.750,-129.883,-44.434,-32.715,-117.188,1.000
1624333163678617.000,-138.672,-69.824,-72.754,-172.363,1.000
1624333163682523.250,-115.723,-36.621,-60.059,-131.836,1.000
1624333163686429.500,-112.305,9.277,-10.254,-83.984,1.000
1624333163690335.750,-138.184,29.785,-31.250,-141.113,1.000
1624333163694242.000,-246.094,3.906,-114.746,1.000,1.000
1624333163698148.250,-270.020,-21.484,-105.469,1.000,1.000
1624333163702054.500,-206.055,-11.230,-55.664,1.000,1.000
1624333163705960.750,-217.773,-22.461,-89.844,1.000,1.000
1624333163709867.000,-223.145,-10.254,-99.609,1.000,1.000
1624333163713773.250,-172.852,28.809,-57.617,1.000,1.000
1624333163717679.500,-140.625,60.059,-70.801,1.000,1.000
1624333163721585.750,-198.242,34.180,-150.879,1.000,1.000
1624333163725492.000,-243.652,6.836,-185.059,1.000,1.000
1624333163729398.250,-235.352,-6.348,-170.410,1.000,1.000
1624333163733304.500,-207.031,11.719,-157.715,1.000,1.000
1624333163737210.750,-132.324,52.246,-111.816,1.000,1.000
1624333163741117.000,-93.262,69.824,-96.191,-168.457,1.000
1624333163745023.250,-142.578,63.477,-139.648,-246.582,1.000
1624333163748929.500,-140.625,55.176,-116.211,-235.840,1.000
1624333163752835.750,-90.332,74.219,-98.145,-149.902,1.000
1624333163756742.000,-112.305,59.570,-139.648,-170.898,1.000
1624333163760648.250,-105.469,39.062,-126.465,-212.402,1.000
1624333163764554.500,-76.660,43.945,-104.004,-200.195,1.000
1624333163768460.750,-59.082,49.805,-120.605,-135.742,1.000
1624333163772367.000,-52.734,28.320,-117.676,-104.492,1.000
1624333163776273.250,-76.660,-2.441,-103.027,-164.062,1.000
1624333163780179.500,-82.031,-1.465,-92.773,-184.082,1.000
1624333163784085.750,-17.578,30.273,-57.129,-87.402,1.000
1624333163787992.000,-29.785,11.230,-32.715,-3.418,1.000
1624333163791898.250,-45.898,25.879,-62.500,-18.555,1.000
1624333163795804.500,-62.988,-23.438,-99.609,-85.449,1.000
1624333163799710.750,-53.711,-84.473,-64.941,-82.520,1.000
1624333163803617.000,-18.555,-73.242,-30.273,-16.113,1.000
1624333163807523.250,-23.926,-16.113,-59.570,1.953,1.000
1624333163811429.500,-46.387,-3.906,-83.008,-50.293,1.000
1624333163815335.750,-44.434,-4.395,-63.965,-84.961,1.000
1624333163819242.000,-28.809,-6.836,-45.410,-45.898,1.000
1624333163823148.250,4.883,-34.668,-17.578,23.926,1.000
1624333163827054.500,14.160,-42.480,5.859,17.578,1.000
1624333163830960.750,-26.367,-38.086,-34.668,-67.871,1.000
1624333163834867.000,-35.156,-50.781,-72.754,1.000,1.000
1624333163838773.250,-15.137,-33.203,-41.992,1.000,1.000
1624333163842679.500,-16.602,21.484,-48.340,1.000,1.000
1624333163846585.750,-42.480,24.414,-91.309,1.000,1.000
1624333163850492.000,-54.199,-25.391,-66.406,1.000,1.000
1624333163854398.250,-24.902,-48.828,-9.766,1.000,1.000
1624333163858304.500,-24.414,-39.062,-11.230,1.000,1.000
1624333163862210.750,-63.477,-36.133,-51.270,1.000,1.000
1624333163866117.000,-51.270,-35.645,-40.527,1.000,1.000
1624333163870023.250,6.348,-6.836,1.465,1.000,1.000
1624333163873929.500,30.273,10.254,-7.812,1.000,1.000
1624333163877835.750,8.789,3.418,-71.289,1.000,1.000
1624333163881742.000,-27.832,-12.207,-58.594,1.000,1.000
1624333163885648.250,-66.895,-23.926,-29.785,1.000,1.000
1624333163889554.500,-52.246,-14.160,-33.203,1.000,1.000
1624333163893460.750,-10.742,-18.555,1.465,1.000,1.000
1624333163897367.000,-1.465,-27.832,21.973,1.000,1.000
1624333163901273.250,-15.137,-30.762,0.000,1.000,1.000
1624333163905179.500,-19.043,-32.715,-41.992,1.000,1.000
1624333163909085.750,-24.902,-40.527,-49.805,1.000,1.000
1624333163912992.000,-42.969,-44.434,-39.062,1.000,1.000
1624333163916898.250,-31.250,-26.855,-34.668,1.000,1.000
1624333163920804.500,-17.578,-38.086,-55.176,1.000,1.000
1624333163924710.750,-14.160,-27.832,-34.180,1.000,1.000
1624333163928617.000,-40.527,-19.043,-6.348,-2.930,1.000
1624333163932523.250,-61.523,-31.250,-22.461,-41.504,1.000
1624333163936429.500,-57.617,-45.898,-32.715,-21.973,1.000
1624333163940335.750,-35.645,-49.316,-36.133,34.180,1.000
1624333163944242.000,-34.668,-42.480,-15.137,4.883,1.000
1624333163948148.250,-55.664,-21.484,-20.996,-56.152,1.000
1624333163952054.500,-78.613,-29.785,-18.555,-38.086,1.000
1624333163955960.750,-93.262,-51.758,-20.508,20.996,1.000
1624333163959867.000,-85.938,-56.641,-40.039,-8.301,1.000
1624333163963773.250,-59.570,-29.297,-41.992,-88.379,1.000
1624333163967679.500,-71.289,-20.020,-58.105,-83.496,1.000
1624333163971585.750,-100.098,-26.855,-68.359,14.648,1.000
1624333163975492.000,-85.449,-19.043,-54.199,-125.488,1.000
1624333163979398.250,-53.711,-35.156,-28.320,-61.035,1.000
1624333163983304.500,-45.898,-53.223,-33.691,-56.641,1.000
1624333163987210.750,-48.828,-48.828,-35.156,-83.984,1.000
1624333163991117.000,-46.387,-36.133,0.977,-71.289,1.000
1624333163995023.250,-54.688,-34.180,-3.418,-32.715,1.000
1624333163998929.500,-35.645,-24.414,-25.879,-20.996,1.000
1624333164002835.750,-28.809,2.441,-38.574,-65.918,1.000
1624333164006742.000,-61.035,-6.348,-34.668,-86.426,1.000
1624333164010648.250,-41.504,-17.090,-42.969,-31.738,1.000
1624333164014554.500,-18.066,-0.488,-44.434,8.301,1.000
1624333164018460.750,-11.719,6.348,-10.254,-20.508,1.000
1624333164022367.000,-37.598,-30.273,-31.738,1.000,1.000
1624333164026273.250,-41.992,-32.227,-59.082,1.000,1.000
1624333164030179.500,-9.766,-8.301,-32.715,1.000,1.000
1624333164034085.750,-26.855,-30.762,1.465,1.000,1.000
1624333164037992.000,-63.965,-58.105,22.461,1.000,1.000
1624333164041898.250,-64.453,-36.621,4.395,1.000,1.000
1624333164045804.500,-45.410,-18.555,-24.414,1.000,1.000
1624333164049710.750,-30.273,-8.789,-12.207,1.000,1.000
1624333164053617.000,-70.312,-6.836,-5.371,1.000,1.000
1624333164057523.250,-119.141,-18.066,-24.902,1.000,1.000
1624333164061429.500,-109.863,-48.340,-27.832,1.000,1.000
1624333164065335.750,-92.285,-52.734,-3.906,1.000,1.000
1624333164069242.000,-141.113,-42.969,-32.715,1.000,1.000
1624333164073148.250,-195.801,-57.617,-58.594,1.000,1.000
1624333164077054.500,-181.152,-61.035,-12.207,1.000,1.000
1624333164080960.750,-206.055,-55.664,-9.277,1.000,1.000
1624333164084867.000,-244.629,-35.156,-35.645,1.000,1.000
1624333164088773.250,-254.395,-30.273,-23.926,1.000,1.000
1624333164092679.500,-247.559,-15.625,-12.207,1.000,1.000
1624333164096585.750,-221.191,-3.418,-39.062,1.000,1.000
1624333164100492.000,-207.031,-31.738,-62.012,1.000,1.000
1624333164104398.250,-160.645,-32.715,-17.090,1.000,1.000
1624333164108304.500,-134.766,-13.672,20.508,1.000,1.000
1624333164112210.750,-115.234,12.207,-10.742,1.000,1.000
1624333164116117.000,-149.902,-30.273,-71.289,-153.320,1.000
1624333164120023.250,-181.152,-27.832,-43.945,-236.328,1.000
1624333164123929.500,-141.602,-76.172,-20.996,-202.637,1.000
1624333164127835.750,-124.023,-127.930,-78.613,-130.371,1.000
1624333164131742.000,-101.074,-61.035,-94.238,-75.195,1.000
1624333164135648.250,-108.398,-24.902,-82.031,-120.605,1.000
1624333164139554.500,-46.387,-69.336,-44.922,-90.820,1.000
1624333164143460.750,8.789,-85.938,-41.504,-2.930,1.000
1624333164147367.000,-42.480,-66.406,-120.605,-42.969,1.000
1624333164151273.250,-57.617,-42.480,-132.812,-107.910,1.000
1624333164155179.500,-61.035,-61.523,-70.312,-113.770,1.000
1624333164159085.750,-33.203,-75.195,-47.363,-46.387,1.000
1624333164162992.000,14.160,-72.754,-51.758,14.160,1.000
1624333164166898.250,42.480,-108.398,-71.289,58.105,1.000
1624333164170804.500,4.883,-121.582,-93.262,-11.719,1.000
1624333164174710.750,-64.941,-69.824,-112.793,-97.168,1.000
1624333164178617.000,-58.105,-45.898,-145.996,-69.824,1.000
1624333164182523.250,-4.395,-62.012,-143.066,16.113,1.000
1624333164186429.500,23.926,-73.242,-72.754,28.809,1.000
1624333164190335.750,15.137,-69.824,-25.879,-20.996,1.000
1624333164194242.000,3.906,-74.707,-60.059,-18.555,1.000
1624333164198148.250,43.457,-92.285,-60.547,57.617,1.000
1624333164202054.500,29.297,-107.422,-29.785,39.062,1.000
1624333164205960.750,-39.551,-93.262,-47.363,-65.918,1.000
1624333164209867.000,-41.504,-53.711,-72.266,1.000,1.000
1624333164213773.250,-35.156,-55.664,-92.285,1.000,1.000
1624333164217679.500,-22.949,-63.477,-89.355,1.000,1.000
1624333164221585.750,11.719,-65.430,-34.180,1.000,1.000
1624333164225492.000,12.207,-81.055,-28.809,1.000,1.000
1624333164229398.250,-16.602,-83.496,-75.684,1.000,1.000
1624333164233304.500,-33.691,-87.402,-76.660,1.000,1.000
1624333164237210.750,-50.293,-99.609,-65.430,1.000,1.000
1624333164241117.000,-72.754,-76.172,-78.125,1.000,1.000
1624333164245023.250,-15.137,-8.789,-50.293,1.000,1.000
1624333164248929.500,51.758,-12.207,2.930,1.000,1.000
1624333164252835.750,-17.578,-85.449,-43.945,1.000,1.000
1624333164256742.000,-20.508,-39.062,-36.621,-1.465,1.000
1624333164260648.250,-42.969,-82.520,-34.668,-47.852,1.000
1624333164264554.500,-53.223,-91.797,-62.500,-88.867,1.000
1624333164268460.750,-58.594,-76.172,-99.609,-74.219,1.000
1624333164272367.000,-64.941,-48.340,-89.844,-48.828,1.000
1624333164276273.250,-78.125,-41.016,-61.035,-72.266,1.000
1624333164280179.500,-59.570,-62.012,-42.969,-97.656,1.000
1624333164284085.750,-24.414,-62.988,-33.691,-53.223,1.000
1624333164287992.000,-43.945,-66.895,-43.945,-13.184,1.000
1624333164291898.250,-28.320,-74.707,-31.250,-10.254,1.000
1624333164295804.500,-14.160,-86.426,1.465,-36.621,1.000
1624333164299710.750,-74.219,-104.980,-34.180,-90.820,1.000
1624333164303617.000,-53.711,-58.594,-52.734,1.000,1.000
1624333164307523.250,-8.301,-5.859,-49.805,1.000,1.000
1624333164311429.500,-40.527,-25.391,-75.195,1.000,1.000
1624333164315335.750,-43.457,-77.148,-52.734,1.000,1.000
1624333164319242.000,-25.391,-113.281,-27.832,1.000,1.000
1624333164323148.250,-35.156,-93.262,-35.645,1.000,1.000
1624333164327054.500,-74.219,-47.363,-56.152,1.000,1.000
1624333164330960.750,-82.031,-23.438,-38.574,1.000,1.000
1624333164334867.000,-30.762,2.930,14.648,1.000,1.000
1624333164338773.250,-21.484,-33.203,-15.137,1.000,1.000
1624333164342679.500,-67.383,-93.750,-60.547,1.000,1.000
1624333164346585.750,-90.820,-80.078,-48.340,1.000,1.000
1624333164350492.000,-58.594,-106.934,-46.387,1.000,1.000
1624333164354398.250,-29.297,-147.461,-52.734,1.000,1.000
1624333164358304.500,-29.785,-91.797,-22.461,1.000,1.000
1624333164362210.750,-54.688,-53.711,-13.672,1.000,1.000
1624333164366117.000,-66.895,-71.777,-35.645,1.000,1.000
1624333164370023.250,-20.020,-72.266,-19.531,1.000,1.000
1624333164373929.500,0.488,-70.312,-9.277,1.000,1.000
1624333164377835.750,-48.828,-83.984,-41.992,1.000,1.000
1624333164381742.000,-81.543,-99.609,-68.848,1.000,1.000
1624333164385648.250,-66.895,-78.125,-67.871,1.000,1.000
1624333164389554.500,-28.320,-58.594,-46.875,1.000,1.000
1624333164393460.750,-2.930,-62.988,-29.297,1.000,1.000
1624333164397367.000,-48.828,-78.613,-31.738,1.000,1.000
1624333164401273.250,-55.176,-60.547,-2.930,1.000,1.000
1624333164405179.500,-37.109,-45.898,-4.395,1.000,1.000
1624333164409085.750,-62.012,-69.824,-37.109,1.000,1.000
1624333164412992.000,-83.008,-76.660,-32.715,1.000,1.000
1624333164416898.250,-68.359,-70.801,-27.344,1.000,1.000
1624333164420804.500,-35.156,-97.656,-30.762,1.000,1.000
1624333164424710.750,1.465,-92.773,-12.207,1.000,1.000
1624333164428617.000,-4.883,-73.730,-7.324,1.000,1.000
1624333164432523.250,-43.945,-81.543,-37.109,1.000,1.000
1624333164436429.500,-21.973,-65.430,-34.180,1.000,1.000
1624333164440335.750,12.695,-28.809,-11.230,1.000,1.000
1624333164444242.000,9.766,-42.969,-1.465,37.598,1.000
1624333164448148.250,-1.953,-13.672,20.508,19.043,1.000
1624333164452054.500,-49.805,-19.531,8.789,-73.242,1.000
1624333164455960.750,-53.711,-39.551,5.371,-84.961,1.000
1624333164459867.000,-7.812,-28.809,-2.441,3.906,1.000
1624333164463773.250,-19.043,-27.832,-40.527,11.230,1.000
1624333164467679.500,-61.523,-17.090,-35.156,-62.012,1.000
1624333164471585.750,-62.500,-31.250,-25.879,-83.496,1.000
1624333164475492.000,-16.113,-73.730,-20.508,-9.277,1.000
1624333164479398.250,21.484,-64.453,-9.766,47.363,1.000
1624333164483304.500,-22.949,-25.391,-15.625,-26.367,1.000
1624333164487210.750,-89.844,-9.766,-7.324,-117.188,1.000
1624333164491117.000,-57.617,20.508,5.859,1.000,1.000
1624333164495023.250,-6.348,18.066,-2.441,1.000,1.000
1624333164498929.500,-0.977,4.395,0.000,1.000,1.000
1624333164502835.750,-36.621,1.953,-20.020,1.000,1.000
1624333164506742.000,-61.523,-27.832,-43.945,1.000,1.000
1624333164510648.250,-28.320,-50.293,-22.949,1.000,1.000
1624333164514554.500,-7.324,-62.500,3.906,1.000,1.000
1624333164518460.750,-39.551,-35.645,1.953,1.000,1.000
1624333164522367.000,-60.059,12.695,-10.742,1.000,1.000
1624333164526273.250,-25.879,24.414,-21.973,1.000,1.000
1624333164530179.500,1.953,-0.977,-32.227,1.000,1.000
1624333164534085.750,-29.785,-5.859,-20.020,1.000,1.000
1624333164537992.000,-71.289,-7.324,-23.926,1.000,1.000
1624333164541898.250,-57.617,-26.367,-30.762,1.000,1.000
1624333164545804.500,-28.809,-38.574,-13.184,1.000,1.000
1624333164549710.750,-10.742,-15.137,4.883,1.000,1.000
1624333164553617.000,-37.598,-12.695,-17.090,1.000,1.000
1624333164557523.250,-39.551,-47.852,-20.996,1.000,1.000
1624333164561429.500,-6.348,-57.129,1.465,1.000,1.000
1624333164565335.750,-27.344,-27.832,-14.648,1.000,1.000
1624333164569242.000,-72.266,-17.578,-41.016,1.000,1.000
1624333164573148.250,-69.824,-25.391,-35.156,1.000,1.000
1624333164577054.500,-33.203,-11.230,-17.578,1.000,1.000
1624333164580960.750,-21.484,7.324,-27.344,1.000,1.000
1624333164584867.000,-50.293,0.977,-46.875,-20.508,1.000
1624333164588773.250,-58.105,2.930,-26.367,-71.777,1.000
1624333164592679.500,-35.645,-19.531,19.043,-55.176,1.000
1624333164596585.750,-42.480,-56.641,-15.137,-19.531,1.000
1624333164600492.000,-35.645,-24.414,-18.066,-0.977,1.000
1624333164604398.250,-31.250,9.766,-15.625,-38.086,1.000
1624333164608304.500,-48.340,5.371,-39.062,-72.266,1.000
1624333164612210.750,-31.738,6.348,-8.301,-18.555,1.000
1624333164616117.000,-20.508,-14.160,-3.418,7.812,1.000
1624333164620023.250,-43.945,-23.926,-26.855,-49.316,1.000
1624333164623929.500,-38.574,-11.719,-7.812,-62.012,1.000
1624333164627835.750,-13.672,-28.320,1.465,-15.625,1.000
1624333164631742.000,-24.902,-22.461,-12.207,1.000,1.000
1624333164635648.250,-35.156,5.859,-10.254,1.000,1.000
1624333164639554.500,-64.941,-17.090,-20.020,1.000,1.000
1624333164643460.750,-72.266,-34.180,-38.086,1.000,1.000
1624333164647367.000,-12.695,-8.789,-25.879,1.000,1.000
1624333164651273.250,0.000,-7.812,7.812,1.000,1.000
1624333164655179.500,-14.648,-29.297,28.809,1.000,1.000
1624333164659085.750,-3.418,-49.316,11.719,1.000,1.000
1624333164662992.000,-29.297,-41.992,-40.527,1.000,1.000
1624333164666898.250,-55.664,-1.953,-56.152,1.000,1.000
1624333164670804.500,-57.617,17.578,-29.785,1.000,1.000
1624333164674710.750,-51.758,7.812,-14.160,1.000,1.000
1624333164678617.000,-16.602,-20.020,-25.879,1.000,1.000
1624333164682523.250,1.465,-25.391,-28.809,1.000,1.000
1624333164686429.500,-16.602,-7.324,-11.230,1.000,1.000
1624333164690335.750,-44.434,-2.441,5.371,1.000,1.000
1624333164694242.000,-42.969,-18.555,11.719,1.000,1.000
1624333164698148.250,-0.977,-56.152,13.184,1.000,1.000
1624333164702054.500,-9.766,-51.758,-5.859,1.000,1.000
1624333164705960.750,-59.570,-8.789,-39.062,1.000,1.000
1624333164709867.000,-63.477,-4.883,-44.922,1.000,1.000
1624333164713773.250,-52.734,-12.695,-55.664,1.000,1.000
1624333164717679.500,-29.297,-4.395,-23.438,1.000,1.000
1624333164721585.750,-26.367,-40.527,15.625,1.000,1.000
1624333164725492.000,-51.758,-60.059,0.000,1.000,1.000
1624333164729398.250,-42.969,-22.461,-8.789,1.000,1.000
1624333164733304.500,-33.203,-13.184,-1.465,1.000,1.000
1624333164737210.750,-40.527,-23.926,-16.113,1.000,1.000
1624333164741117.000,-44.922,0.000,-9.277,1.000,1.000
1624333164745023.250,-41.016,17.090,-6.348,1.000,1.000
1624333164748929.500,-25.391,15.625,-39.551,1.000,1.000
1624333164752835.750,-14.648,-14.160,-27.832,1.000,1.000
1624333164756742.000,-26.855,-42.969,10.254,1.000,1.000
1624333164760648.250,-19.531,-35.645,28.320,1.000,1.000
1624333164764554.500,-1.465,-33.691,7.324,1.000,1.000
1624333164768460.750,-30.273,-21.973,-19.531,1.000,1.000
1624333164772367.000,-1.953,4.883,20.996,31.250,1.000
1624333164776273.250,-52.246,-32.715,-18.066,-52.246,1.000
1624333164780179.500,-73.730,-14.648,-27.832,-96.191,1.000
1624333164784085.750,-37.598,4.883,1.953,-39.551,1.000
1624333164787992.000,-22.461,-31.250,10.254,4.883,1.000
1624333164791898.250,-21.973,-31.738,7.324,-14.160,1.000
1624333164795804.500,-10.742,-16.602,-4.395,-47.363,1.000
1624333164799710.750,4.395,-14.160,-17.090,-18.555,1.000
1624333164803617.000,-11.719,-3.906,-45.898,9.277,1.000
1624333164807523.250,-22.461,2.930,-47.852,-10.254,1.000
1624333164811429.500,-43.945,-21.484,-26.367,-70.312,1.000
1624333164815335.750,-41.504,-41.504,-0.977,-72.754,1.000
1624333164819242.000,-25.879,17.578,-14.160,-44.434,1.000
1624333164823148.250,18.066,8.301,7.324,34.180,1.000
1624333164827054.500,10.254,-49.805,-20.996,19.043,1.000
1624333164830960.750,-18.066,-32.715,-26.367,-42.969,1.000
1624333164834867.000,-55.176,-15.137,-44.434,-86.914,1.000
1624333164838773.250,-57.617,-10.742,-42.480,-53.223,1.000
1624333164842679.500,-36.133,15.137,-3.418,-12.695,1.000
1624333164846585.750,-42.969,-8.301,10.742,-54.688,1.000
1624333164850492.000,-40.527,-19.531,-1.953,-74.707,1.000
1624333164854398.250,10.254,0.488,-4.395,9.766,1.000
1624333164858304.500,27.832,-13.184,-12.695,50.293,1.000
1624333164862210.750,-35.645,-53.223,-42.480,-37.598,1.000
1624333164866117.000,-82.520,-53.223,-47.363,1.000,1.000
1624333164870023.250,-75.684,-34.668,-55.176,1.000,1.000
1624333164873929.500,-36.621,-23.926,-22.461,1.000,1.000
1624333164877835.750,-22.461,-11.230,13.672,1.000,1.000
1624333164881742.000,-53.223,-8.301,13.672,1.000,1.000
1624333164885648.250,-41.504,4.395,27.832,1.000,1.000
1624333164889554.500,-4.395,-13.184,16.113,1.000,1.000
1624333164893460.750,-16.113,-52.734,0.000,1.000,1.000
1624333164897367.000,-64.453,-40.527,-23.926,1.000,1.000
1624333164901273.250,-85.938,-5.859,-50.293,1.000,1.000
1624333164905179.500,-47.363,0.000,-41.016,1.000,1.000
1624333164909085.750,-23.438,-12.207,-37.598,1.000,1.000
1624333164912992.000,-44.434,-29.785,-37.598,-49.805,1.000
1624333164916898.250,-43.457,-15.625,-22.461,-79.590,1.000
1624333164920804.500,-38.574,-17.090,-20.020,-4.395,1.000
1624333164924710.750,-15.625,-30.762,-25.879,38.086,1.000
1624333164928617.000,-10.254,-33.203,-1.465,-45.410,1.000
1624333164932523.250,-24.414,-9.277,10.254,-116.699,1.000
1624333164936429.500,-42.480,12.207,3.418,-79.590,1.000
1624333164940335.750,-64.941,-30.273,-7.812,-6.348,1.000
1624333164944242.000,-54.199,-35.156,-13.672,-7.324,1.000
1624333164948148.250,-24.902,1.953,-35.645,-70.801,1.000
1624333164952054.500,-29.297,-13.672,-50.293,-75.684,1.000
1624333164955960.750,-37.109,-22.949,-17.578,-20.996,1.000
1624333164959867.000,-39.062,-37.109,-19.531,-59.570,1.000
1624333164963773.250,-63.477,-51.270,-31.738,-83.984,1.000
1624333164967679.500,-44.922,-25.879,-22.461,-23.438,1.000
1624333164971585.750,-26.367,-13.184,-21.484,5.371,1.000
1624333164975492.000,-43.945,1.465,-28.809,-50.293,1.000
1624333164979398.250,-62.012,1.953,-39.062,-88.379,1.000
1624333164983304.500,-12.207,-23.438,-11.230,-12.695,1.000
1624333164987210.750,31.738,-18.555,25.391,68.359,1.000
1624333164991117.000,-13.184,-8.301,3.906,2.441,1.000
1624333164995023.250,-64.453,-44.922,-44.922,-88.867,1.000
1624333164998929.500,-58.594,-71.777,-45.898,-64.453,1.000
1624333165002835.750,-20.020,-25.391,-16.113,8.301,1.000
1624333165006742.000,-13.672,-28.809,8.301,-7.812,1.000
1624333165010648.250,3.906,-8.789,-3.418,27.832,1.000
1624333165014554.500,-21.484,9.766,-49.805,-26.367,1.000
1624333165018460.750,-67.871,3.906,-81.543,-102.051,1.000
1624333165022367.000,-58.594,-25.879,-60.547,-65.918,1.000
1624333165026273.250,-16.113,-32.227,-32.715,12.207,1.000
1624333165030179.500,-18.066,-18.066,-15.137,-4.883,1.000
1624333165034085.750,-28.809,-13.672,16.113,-55.176,1.000
1624333165037992.000,-37.109,-44.434,15.137,-47.852,1.000
1624333165041898.250,-18.555,-38.574,-13.184,11.719,1.000
1624333165045804.500,-17.090,5.371,-23.438,-0.488,1.000
1624333165049710.750,-47.852,3.906,-24.902,-81.543,1.000
1624333165053617.000,-60.059,3.418,-27.832,1.000,1.000
1624333165057523.250,-34.180,1.953,-19.531,1.000,1.000
1624333165061429.500,0.977,-38.086,-4.395,1.000,1.000
1624333165065335.750,4.883,-40.527,5.371,1.000,1.000
1624333165069242.000,-18.555,-4.395,5.371,1.000,1.000
1624333165073148.250,-30.273,-7.324,-23.926,1.000,1.000
1624333165077054.500,-3.906,-9.766,-38.086,1.000,1.000
1624333165080960.750,-15.137,-14.160,-32.227,1.000,1.000
1624333165084867.000,-34.180,-4.883,-24.902,1.000,1.000
1624333165088773.250,-26.367,4.395,-21.484,1.000,1.000
1624333165092679.500,-21.973,-16.602,-21.484,1.000,1.000
1624333165096585.750,-20.020,-24.414,-5.371,1.000,1.000
1624333165100492.000,16.602,13.184,-31.250,48.828,1.000
1624333165104398.250,3.418,8.301,-41.504,9.277,1.000
1624333165108304.500,-44.922,-9.277,-17.578,-62.500,1.000
1624333165112210.750,-21.484,8.789,-2.930,-19.531,1.000
1624333165116117.000,-7.324,-1.953,-8.789,31.250,1.000
1624333165120023.250,-26.367,-20.020,-4.395,-21.484,1.000
1624333165123929.500,-52.246,-28.320,-11.719,-92.773,1.000
1624333165127835.750,-54.199,-38.574,-15.625,-72.754,1.000
1624333165131742.000,-12.695,-32.227,9.277,7.324,1.000
1624333165135648.250,0.977,-6.348,16.113,16.113,1.000
1624333165139554.500,-29.297,16.602,-14.648,-45.410,1.000
1624333165143460.750,-32.227,5.371,-18.555,-57.129,1.000
1624333165147367.000,-20.020,-32.227,-5.371,1.000,1.000
1624333165151273.250,-16.602,-40.527,-10.742,1.000,1.000
1624333165155179.500,-38.086,-36.621,-15.137,1.000,1.000
1624333165159085.750,-71.777,-68.848,-36.133,1.000,1.000
1624333165162992.000,-52.734,-62.500,-32.715,1.000,1.000
1624333165166898.250,-3.906,-17.090,13.184,1.000,1.000
1624333165170804.500,-21.973,13.184,2.930,1.000,1.000
1624333165174710.750,-66.895,3.906,-29.297,1.000,1.000
1624333165178617.000,-71.289,-28.809,-28.809,1.000,1.000
1624333165182523.250,-35.645,-38.574,-17.578,1.000,1.000
1624333165186429.500,-34.180,-21.484,1.953,1.000,1.000
1624333165190335.750,-81.055,-25.391,-18.555,1.000,1.000
1624333165194242.000,-65.918,-28.320,-41.504,1.000,1.000
1624333165198148.250,-31.250,-29.785,-24.414,1.000,1.000
1624333165202054.500,-46.875,-28.320,-20.020,1.000,1.000
1624333165205960.750,-48.340,-23.438,-20.508,1.000,1.000
1624333165209867.000,-35.156,-27.832,-16.113,1.000,1.000
1624333165213773.250,-11.230,-5.371,20.020,1.000,1.000
1624333165217679.500,-6.348,-6.348,39.062,1.000,1.000
1624333165221585.750,-40.039,-25.879,-0.488,1.000,1.000
1624333165225492.000,-80.566,-33.691,-52.734,1.000,1.000
1624333165229398.250,-66.895,-19.531,-39.551,1.000,1.000
1624333165233304.500,-36.621,-7.812,-31.250,1.000,1.000
1624333165237210.750,-24.902,-32.227,-19.043,1.000,1.000
1624333165241117.000,-7.812,-29.297,20.996,1.000,1.000
1624333165245023.250,-8.789,13.184,-4.883,1.000,1.000
1624333165248929.500,-7.324,11.719,-48.340,1.000,1.000
1624333165252835.750,-13.672,-14.160,-43.945,1.000,1.000
1624333165256742.000,-42.969,5.859,-20.508,1.000,1.000
1624333165260648.250,-47.852,-5.859,-5.371,1.000,1.000
1624333165264554.500,-20.020,-36.621,14.160,1.000,1.000
1624333165268460.750,-14.648,-26.367,8.301,1.000,1.000
1624333165272367.000,-38.086,-15.137,-1.465,1.000,1.000
1624333165276273.250,-46.875,-2.930,-10.742,1.000,1.000
1624333165280179.500,-33.203,-0.977,-25.391,1.000,1.000
1624333165284085.750,-35.156,-27.832,-37.109,1.000,1.000
1624333165287992.000,2.441,-21.484,6.348,24.414,1.000
1624333165291898.250,-8.301,0.977,-20.508,11.719,1.000
1624333165295804.500,-32.715,17.090,-12.695,-50.781,1.000
1624333165299710.750,-12.207,3.906,12.207,-37.109,1.000
1624333165303617.000,-4.883,-3.418,-14.160,-1.953,1.000
1624333165307523.250,6.348,-17.090,-13.184,13.672,1.000
1624333165311429.500,-12.207,-32.715,-4.395,-31.738,1.000
1624333165315335.750,-43.945,-29.297,-26.367,-86.426,1.000
1624333165319242.000,-26.855,-28.320,-31.738,-43.457,1.000
1624333165323148.250,-5.371,-18.066,-7.812,20.996,1.000
1624333165327054.500,-22.461,-13.672,-23.438,-20.020,1.000
1624333165330960.750,-59.570,3.418,-77.148,-93.750,1.000
1624333165334867.000,-15.137,45.898,-32.715,1.000,1.000
1624333165338773.250,10.254,6.836,5.371,1.000,1.000
1624333165342679.500,-14.160,-28.320,18.066,1.000,1.000
1624333165346585.750,-20.020,-24.902,39.551,1.000,1.000
1624333165350492.000,-30.273,-38.574,-9.277,1.000,1.000
1624333165354398.250,-30.273,-26.855,-34.668,1.000,1.000
1624333165358304.500,-32.227,2.441,-19.043,1.000,1.000
1624333165362210.750,-62.500,-11.719,-19.531,1.000,1.000
1624333165366117.000,-68.359,-30.273,-19.531,1.000,1.000
1624333165370023.250,-37.109,-25.879,-20.996,1.000,1.000
1624333165373929.500,-15.137,-5.859,-17.578,1.000,1.000
1624333165377835.750,-26.367,-6.348,-15.137,1.000,1.000
1624333165381742.000,-49.805,-18.066,-17.090,1.000,1.000
1624333165385648.250,-30.273,-16.113,1.465,1.000,1.000
1624333165389554.500,-7.324,-26.855,1.953,1.000,1.000
1624333165393460.750,-41.992,-40.039,-10.742,1.000,1.000
1624333165397367.000,-95.703,-33.203,-30.273,1.000,1.000
1624333165401273.250,-80.078,-11.230,-33.691,1.000,1.000
1624333165405179.500,-29.785,-20.508,-5.371,1.000,1.000
1624333165409085.750,3.906,-49.805,24.902,1.000,1.000
1624333165412992.000,-17.090,-34.180,1.465,1.000,1.000
1624333165416898.250,-29.297,8.789,-16.113,1.000,1.000
1624333165420804.500,-11.230,18.066,-11.719,1.000,1.000
1624333165424710.750,-37.109,-1.953,-41.504,1.000,1.000
1624333165428617.000,-65.918,-22.461,-55.664,1.000,1.000
1624333165432523.250,-53.711,-41.016,-18.555,1.000,1.000
1624333165436429.500,-11.719,-38.086,-0.977,1.000,1.000
1624333165440335.750,-0.977,-46.387,-1.953,1.000,1.000
1624333165444242.000,-29.297,-39.551,-3.906,1.000,1.000
1624333165448148.250,-35.645,0.977,-2.441,1.000,1.000
1624333165452054.500,-1.953,16.113,15.137,1.000,1.000
1624333165455960.750,4.395,-3.906,10.254,1.000,1.000
1624333165459867.000,-27.344,-48.340,-21.973,1.000,1.000
1624333165463773.250,-50.781,-35.156,-34.668,1.000,1.000
1624333165467679.500,-33.203,20.020,-30.273,1.000,1.000
1624333165471585.750,22.461,8.789,-4.883,1.000,1.000
1624333165475492.000,-42.969,-16.113,3.418,-51.758,1.000
1624333165479398.250,-22.949,0.977,19.531,-16.602,1.000
1624333165483304.500,-9.766,31.250,27.344,-40.039,1.000
1624333165487210.750,-56.152,11.230,-5.371,-60.059,1.000
1624333165491117.000,-82.031,-0.977,-32.227,-26.367,1.000
1624333165495023.250,-74.707,-2.930,-37.109,15.625,1.000
1624333165498929.500,-68.848,-11.230,-38.086,3.906,1.000
1624333165502835.750,-70.312,-7.812,-26.367,-56.641,1.000
1624333165506742.000,-132.324,-14.648,-34.180,-53.223,1.000
1624333165510648.250,-163.086,5.859,-35.156,0.000,1.000
1624333165514554.500,-141.113,0.488,-4.883,-6.348,1.000
1624333165518460.750,-149.902,-39.551,-22.949,-48.340,1.000
1624333165522367.000,42.969,-8.789,-16.602,-244.629,1.000
1624333165526273.250,59.082,-39.551,20.508,-256.836,1.000
1624333165530179.500,91.797,-30.273,44.922,-208.496,1.000
1624333165534085.750,89.844,-23.438,24.414,-222.656,1.000
1624333165537992.000,39.551,-47.852,-20.508,-291.992,1.000
1624333165541898.250,30.273,-40.039,-26.855,-286.621,1.000
1624333165545804.500,24.902,-24.902,-30.273,-205.078,1.000
1624333165549710.750,33.691,-19.043,-35.156,-174.316,1.000
1624333165553617.000,80.566,-17.090,-42.480,-226.074,1.000
1624333165557523.250,101.562,-24.902,-31.250,-261.719,1.000
1624333165561429.500,91.797,0.488,9.277,-206.055,1.000
1624333165565335.750,46.387,11.719,5.859,-105.957,1.000
1624333165569242.000,-7.324,-42.969,-22.461,-24.414,1.000
1624333165573148.250,5.859,-29.297,-26.855,21.973,1.000
1624333165577054.500,17.090,-8.301,-13.672,36.133,1.000
1624333165580960.750,27.832,-19.531,-9.766,13.184,1.000
1624333165584867.000,30.273,-24.414,-41.992,6.348,1.000
1624333165588773.250,17.578,6.836,-37.598,34.180,1.000
1624333165592679.500,0.977,5.859,-21.973,37.598,1.000
1624333165596585.750,0.000,-13.184,-30.273,0.977,1.000
1624333165600492.000,16.602,-50.781,-9.766,-7.324,1.000
1624333165604398.250,8.301,-93.750,-8.789,6.348,1.000
1624333165608304.500,19.531,-73.730,-8.301,35.645,1.000
1624333165612210.750,-1.465,-23.926,-0.488,-9.766,1.000
1624333165616117.000,-37.598,-1.465,-8.789,1.000,1.000
1624333165620023.250,-48.828,-0.977,-37.109,1.000,1.000
1624333165623929.500,-37.109,-15.625,-46.875,1.000,1.000
1624333165627835.750,1.953,-27.344,-4.395,1.000,1.000
1624333165631742.000,32.715,-25.879,39.551,1.000,1.000
1624333165635648.250,-7.324,-36.133,12.207,1.000,1.000
1624333165639554.500,-29.785,-22.949,-22.949,1.000,1.000
1624333165643460.750,-18.555,-13.184,-46.875,1.000,1.000
1624333165647367.000,-35.645,-39.062,-38.086,1.000,1.000
1624333165651273.250,-42.969,-41.016,-32.715,1.000,1.000
1624333165655179.500,-3.906,-2.930,-18.555,1.000,1.000
1624333165659085.750,31.738,-18.555,31.250,1.000,1.000
1624333165662992.000,13.184,7.324,40.527,18.066,1.000
1624333165666898.250,-34.668,-4.395,-7.324,-53.223,1.000
1624333165670804.500,-25.391,0.977,-29.297,-20.508,1.000
1624333165674710.750,24.414,8.301,0.000,58.594,1.000
1624333165678617.000,11.719,-21.484,-22.461,14.648,1.000
1624333165682523.250,-18.066,-62.500,-40.527,-48.340,1.000
1624333165686429.500,15.137,-65.918,-14.648,5.371,1.000
1624333165690335.750,31.738,-50.781,-13.184,55.664,1.000
1624333165694242.000,-21.484,-61.035,-16.113,-9.766,1.000
1624333165698148.250,-31.738,-30.762,8.301,-70.312,1.000
1624333165702054.500,-6.836,16.602,16.602,-51.758,1.000
1624333165705960.750,-8.301,10.254,-14.160,5.371,1.000
1624333165709867.000,-25.879,-31.738,-11.719,1.953,1.000
1624333165713773.250,-12.695,-60.547,-59.570,9.766,1.000
1624333165717679.500,-55.176,-56.641,-50.293,-67.383,1.000
1624333165721585.750,-74.219,-27.832,-24.414,-94.727,1.000
1624333165725492.000,-30.762,-10.254,-2.930,-24.414,1.000
1624333165729398.250,10.254,11.230,22.949,24.414,1.000
1624333165733304.500,-27.344,-6.348,0.977,-43.945,1.000
1624333165737210.750,-65.430,-27.344,-11.230,-92.285,1.000
1624333165741117.000,-36.621,-11.719,-12.207,-29.297,1.000
1624333165745023.250,1.953,-36.621,-29.785,32.227,1.000
1624333165748929.500,7.812,-33.691,-24.414,11.230,1.000
1624333165752835.750,-28.320,-24.902,-16.113,-50.293,1.000
1624333165756742.000,-19.531,-9.277,-15.137,-28.320,1.000
1624333165760648.250,-37.109,-27.344,-3.418,62.500,1.000
1624333165764554.500,-17.578,-22.949,-14.160,31.738,1.000
1624333165768460.750,-22.949,-1.465,-22.949,-72.754,1.000
1624333165772367.000,-57.617,-7.324,-10.254,-57.129,1.000
1624333165776273.250,-36.133,-16.113,4.395,8.301,1.000
1624333165780179.500,-12.695,-3.906,-16.113,11.719,1.000
1624333165784085.750,-25.391,-36.133,-55.176,-34.668,1.000
1624333165787992.000,-52.734,-51.758,-56.641,-49.316,1.000
1624333165791898.250,-56.641,-8.789,-12.207,-18.066,1.000
1624333165795804.500,-30.762,-10.742,12.207,8.301,1.000
1624333165799710.750,-19.043,-26.367,2.441,-17.578,1.000
1624333165803617.000,-0.488,-27.832,-44.434,15.137,1.000
1624333165807523.250,-38.574,-20.996,2.441,-60.547,1.000
1624333165811429.500,-54.688,-0.977,21.484,-72.266,1.000
1624333165815335.750,-37.598,-16.602,3.906,-3.906,1.000
1624333165819242.000,-45.410,-40.039,-28.320,-2.930,1.000
1624333165823148.250,-66.406,-63.477,-34.668,-65.918,1.000
1624333165827054.500,-39.062,-31.738,-2.441,-56.152,1.000
1624333165830960.750,-28.809,-11.230,9.766,-10.254,1.000
1624333165834867.000,-40.527,-62.012,-16.602,-5.371,1.000
1624333165838773.250,-51.270,-68.848,-20.508,-46.875,1.000
1624333165842679.500,-48.340,-14.648,-7.812,-59.570,1.000
1624333165846585.750,-26.855,1.953,-17.090,-8.789,1.000
1624333165850492.000,-34.668,-18.555,-45.410,1.000,1.000
1624333165854398.250,-25.879,-20.996,-41.992,1.000,1.000
1624333165858304.500,-44.922,-30.762,-5.859,1.000,1.000
1624333165862210.750,-63.477,-39.062,27.832,1.000,1.000
1624333165866117.000,-22.461,-2.441,29.297,1.000,1.000
1624333165870023.250,-9.766,10.254,-2.930,1.000,1.000
1624333165873929.500,-24.902,-12.695,-22.461,1.000,1.000
1624333165877835.750,-22.461,-7.812,-26.855,1.000,1.000
1624333165881742.000,-3.418,-2.441,18.555,1.000,1.000
1624333165885648.250,15.625,-25.391,22.949,1.000,1.000
1624333165889554.500,-28.320,-43.457,-54.688,1.000,1.000
1624333165893460.750,-57.129,12.695,-36.133,1.000,1.000
1624333165897367.000,-59.082,-47.852,13.184,-49.805,1.000
1624333165901273.250,-64.453,-20.996,-15.137,-10.254,1.000
1624333165905179.500,-30.273,-9.277,-40.039,-19.043,1.000
1624333165909085.750,-26.367,-37.109,-60.547,-62.988,1.000
1624333165912992.000,-64.453,-58.594,-41.016,-45.898,1.000
1624333165916898.250,-41.504,-15.625,-21.973,8.789,1.000
1624333165920804.500,19.531,2.930,-31.738,-18.555,1.000
1624333165924710.750,-17.090,-41.504,-50.781,-96.191,1.000
1624333165928617.000,-95.703,-32.715,-25.391,-80.078,1.000
1624333165932523.250,-66.895,6.348,22.949,12.207,1.000
1624333165936429.500,2.930,13.184,24.902,18.555,1.000
1624333165940335.750,-31.250,-16.113,-18.066,-51.270,1.000
1624333165944242.000,-15.137,-56.152,20.996,43.945,1.000
1624333165948148.250,-27.832,-78.613,13.672,16.113,1.000
1624333165952054.500,-43.457,-42.480,5.859,-20.996,1.000
1624333165955960.750,-38.574,-24.902,0.488,2.441,1.000
1624333165959867.000,-32.227,-21.973,5.371,42.480,1.000
1624333165963773.250,-45.410,-19.043,11.719,5.859,1.000
1624333165967679.500,-62.012,-15.625,30.762,-50.781,1.000
1624333165971585.750,-68.848,-17.578,21.973,-41.016,1.000
1624333165975492.000,-45.898,-47.852,-2.930,11.719,1.000
1624333165979398.250,-42.969,-60.547,-5.859,5.371,1.000
1624333165983304.500,-52.246,-46.387,-6.348,-48.340,1.000
1624333165987210.750,-45.898,-41.016,0.977,-46.387,1.000
1624333165991117.000,-45.898,-8.301,5.371,-50.781,1.000
1624333165995023.250,-27.344,7.324,2.441,12.695,1.000
1624333165998929.500,-32.227,-5.371,-22.461,0.977,1.000
1624333166002835.750,-31.250,4.883,-31.738,-42.969,1.000
1624333166006742.000,-31.250,-18.066,-44.434,-53.223,1.000
1624333166010648.250,-15.625,-50.293,-32.715,-1.953,1.000
1624333166014554.500,22.949,-8.789,13.672,52.246,1.000
1624333166018460.750,2.441,-14.648,6.836,-7.324,1.000
1624333166022367.000,-29.785,-29.785,-12.695,-60.059,1.000
1624333166026273.250,-22.461,-0.977,-14.648,-18.066,1.000
1624333166030179.500,-7.812,-7.812,-16.602,19.531,1.000
1624333166034085.750,-16.113,16.602,-11.230,-10.254,1.000
1624333166037992.000,-49.805,22.461,-6.348,1.000,1.000
1624333166041898.250,-32.715,-6.348,-1.953,1.000,1.000
1624333166045804.500,-11.719,-20.996,0.488,1.000,1.000
1624333166049710.750,-10.254,-20.020,5.859,1.000,1.000
1624333166053617.000,-19.043,-1.953,-12.695,1.000,1.000
1624333166057523.250,-15.625,-8.789,-12.207,1.000,1.000
1624333166061429.500,17.578,-7.324,19.531,1.000,1.000
1624333166065335.750,9.766,-11.719,10.254,1.000,1.000
1624333166069242.000,-30.273,-25.879,-20.508,1.000,1.000
1624333166073148.250,-62.012,-20.996,-39.551,1.000,1.000
1624333166077054.500,-51.270,-19.531,-38.086,1.000,1.000
1624333166080960.750,-8.789,-5.859,-41.992,1.000,1.000
1624333166084867.000,1.953,-36.621,4.395,-7.324,1.000
1624333166088773.250,-44.434,-35.156,-14.160,-61.523,1.000
1624333166092679.500,-78.125,-54.199,-10.254,-20.996,1.000
1624333166096585.750,-51.270,-54.199,-5.371,38.086,1.000
1624333166100492.000,-17.578,-37.598,-19.043,-18.555,1.000
1624333166104398.250,-25.391,-23.438,9.766,-81.543,1.000
1624333166108304.500,-55.664,-20.508,14.648,-49.316,1.000
1624333166112210.750,-47.852,-23.926,-32.227,25.391,1.000
1624333166116117.000,-1.953,-18.066,-10.742,39.551,1.000
1624333166120023.250,-23.926,-22.949,2.441,-27.344,1.000
1624333166123929.500,-64.453,-45.410,-7.324,-46.875,1.000
1624333166127835.750,-36.621,-21.484,22.949,10.742,1.000
1624333166131742.000,-10.254,0.977,13.672,1.000,1.000
1624333166135648.250,-17.090,-20.020,-10.742,1.000,1.000
1624333166139554.500,-42.969,-49.805,-15.137,1.000,1.000
1624333166143460.750,-48.828,-13.184,-3.906,1.000,1.000
1624333166147367.000,-3.906,32.227,15.625,1.000,1.000
1624333166151273.250,-3.418,-16.602,-1.465,1.000,1.000
1624333166155179.500,-36.133,-52.246,-4.395,1.000,1.000
1624333166159085.750,-48.828,-26.855,0.000,1.000,1.000
1624333166162992.000,-54.688,-18.066,-31.250,1.000,1.000
1624333166166898.250,-44.922,-13.184,-34.668,1.000,1.000
1624333166170804.500,-29.785,2.441,3.906,1.000,1.000
1624333166174710.750,-40.039,0.977,-9.277,1.000,1.000
1624333166178617.000,-40.527,-14.160,-41.992,1.000,1.000
1624333166182523.250,-17.578,-31.738,-32.227,1.000,1.000
1624333166186429.500,-7.812,-31.738,-2.930,1.000,1.000
1624333166190335.750,-30.762,-30.762,3.906,1.000,1.000
1624333166194242.000,-34.668,-39.062,-15.625,1.000,1.000
1624333166198148.250,2.441,-38.086,-14.160,1.000,1.000
1624333166202054.500,-9.277,-38.574,-19.531,1.000,1.000
1624333166205960.750,-59.570,-21.973,-56.641,1.000,1.000
1624333166209867.000,-75.684,-2.930,-45.898,1.000,1.000
1624333166213773.250,-44.434,9.766,3.418,1.000,1.000
1624333166217679.500,-30.762,-16.113,-3.418,1.000,1.000
1624333166221585.750,-62.012,-35.156,-36.621,1.000,1.000
1624333166225492.000,-45.410,-25.879,-38.574,-27.344,1.000
1624333166229398.250,-51.270,-29.297,-21.973,-73.730,1.000
1624333166233304.500,-43.945,-32.715,-11.230,-69.824,1.000
1624333166237210.750,-19.043,-28.320,5.371,-0.977,1.000
1624333166241117.000,-19.043,-11.719,13.184,11.230,1.000
1624333166245023.250,-30.762,-17.090,2.441,-52.246,1.000
1624333166248929.500,-37.598,-13.184,-5.371,-77.148,1.000
1624333166252835.750,-29.785,-24.414,-27.344,-29.785,1.000
1624333166256742.000,-22.949,-28.809,-38.574,3.906,1.000
1624333166260648.250,-37.598,0.488,-16.602,-43.457,1.000
1624333166264554.500,-57.617,-8.301,-10.742,-100.586,1.000
1624333166268460.750,-47.852,-21.484,-10.742,-56.641,1.000
1624333166272367.000,-36.133,-16.113,-1.465,-34.668,1.000
1624333166276273.250,-16.602,-13.184,2.930,11.230,1.000
1624333166280179.500,-28.809,0.000,-7.812,-33.691,1.000
1624333166284085.750,-22.461,4.883,-29.297,-56.152,1.000
1624333166287992.000,-3.906,-11.719,-24.902,-11.719,1.000
1624333166291898.250,5.859,-31.738,-16.602,25.391,1.000
1624333166295804.500,10.742,-20.020,-23.926,20.996,1.000
1624333166299710.750,-31.738,-19.043,-18.066,-44.434,1.000
1624333166303617.000,-62.012,-21.484,-4.883,-69.824,1.000
1624333166307523.250,-52.734,-22.461,-17.578,-20.508,1.000
1624333166311429.500,-42.969,-13.184,-36.621,-6.348,1.000
1624333166315335.750,-55.176,-12.207,-26.855,-68.848,1.000
1624333166319242.000,-43.945,-20.996,29.785,1.000,1.000
1624333166323148.250,-8.789,5.859,73.730,1.000,1.000
1624333166327054.500,-25.879,-29.297,44.434,1.000,1.000
1624333166330960.750,-83.496,-51.758,-26.367,1.000,1.000
1624333166334867.000,-110.840,-51.270,-18.555,1.000,1.000
1624333166338773.250,-102.539,-105.469,26.367,1.000,1.000
1624333166342679.500,-75.684,-82.520,17.090,1.000,1.000
1624333166346585.750,-69.824,-40.039,12.207,1.000,1.000
1624333166350492.000,-100.586,-54.199,16.113,1.000,1.000
1624333166354398.250,-98.633,-60.547,16.113,1.000,1.000
1624333166358304.500,-41.016,-42.969,16.602,1.000,1.000
1624333166362210.750,-36.621,-31.738,-12.207,1.000,1.000
1624333166366117.000,-3.906,-16.113,-37.598,-96.680,1.000
1624333166370023.250,-6.348,2.441,5.371,-94.238,1.000
1624333166373929.500,-36.621,-11.719,21.484,-7.812,1.000
1624333166377835.750,-42.969,-33.203,10.742,17.578,1.000
1624333166381742.000,-22.461,-52.246,-38.574,-58.105,1.000
1624333166385648.250,-29.785,-30.273,-59.570,-89.844,1.000
1624333166389554.500,-50.293,2.441,-42.480,-5.859,1.000
1624333166393460.750,-51.758,-7.812,-41.504,36.133,1.000
1624333166397367.000,-24.414,-9.277,-18.555,-22.949,1.000
1624333166401273.250,11.719,-2.441,5.371,-47.363,1.000
1624333166405179.500,9.277,-9.766,-8.789,-34.668,1.000
1624333166409085.750,-11.719,9.766,-17.578,-0.488,1.000
1624333166412992.000,-44.922,-35.645,-34.180,-62.012,1.000
1624333166416898.250,-18.066,-32.227,-47.363,9.766,1.000
1624333166420804.500,-12.207,-17.090,-11.230,19.043,1.000
1624333166424710.750,-64.941,-37.109,3.418,-79.590,1.000
1624333166428617.000,-65.918,-24.414,8.301,-96.191,1.000
1624333166432523.250,0.000,19.531,3.418,2.930,1.000
1624333166436429.500,12.695,23.438,-4.395,37.109,1.000
1624333166440335.750,-21.973,-7.324,-5.371,-28.809,1.000
1624333166444242.000,-50.781,-17.090,-41.016,-85.938,1.000
1624333166448148.250,-38.086,-2.930,-63.477,-47.852,1.000
1624333166452054.500,-22.949,-0.488,-39.062,3.418,1.000
1624333166455960.750,-38.574,-5.859,-1.465,-34.180,1.000
1624333166459867.000,-25.391,-36.621,-25.391,-27.344,1.000
1624333166463773.250,-57.617,-13.184,-26.367,-83.984,1.000
1624333166467679.500,-61.035,-25.879,-34.180,-59.082,1.000
1624333166471585.750,-34.180,-37.109,-10.254,-12.695,1.000
1624333166475492.000,-38.086,0.977,-9.277,-42.969,1.000
1624333166479398.250,-65.430,6.836,-22.949,-102.539,1.000
1624333166483304.500,-62.012,-16.113,-40.039,-82.520,1.000
1624333166487210.750,-16.602,-8.789,-10.742,2.930,1.000
1624333166491117.000,1.953,4.395,20.996,17.090,1.000
1624333166495023.250,-22.461,-9.277,-0.488,-54.688,1.000
1624333166498929.500,-19.043,-14.160,-2.441,-48.828,1.000
1624333166502835.750,6.348,6.836,-8.301,25.391,1.000
1624333166506742.000,8.789,-39.062,-16.602,23.438,1.000
1624333166510648.250,11.230,-58.105,2.930,18.066,1.000
1624333166514554.500,-22.949,-22.949,-20.996,-52.246,1.000
1624333166518460.750,-54.688,-9.766,-68.359,-87.402,1.000
1624333166522367.000,-45.410,18.066,-45.898,-37.109,1.000
1624333166526273.250,-28.320,41.992,7.324,-5.859,1.000
1624333166530179.500,-54.688,-12.695,-17.090,-77.637,1.000
1624333166534085.750,-47.852,-53.711,-34.180,-85.938,1.000
1624333166537992.000,-31.738,-25.391,-5.371,-25.879,1.000
1624333166541898.250,-47.852,-3.418,-5.371,-15.625,1.000
1624333166545804.500,-52.734,-10.254,-7.324,-53.223,1.000
1624333166549710.750,-79.102,-24.414,-16.113,-107.910,1.000
1624333166553617.000,-60.547,-14.160,-25.879,1.000,1.000
1624333166557523.250,11.230,20.508,-30.762,1.000,1.000
1624333166561429.500,2.441,15.625,-20.996,1.000,1.000
1624333166565335.750,-58.105,-32.227,-22.461,1.000,1.000
1624333166569242.000,-47.363,-30.273,-18.555,1.000,1.000
1624333166573148.250,-22.461,-21.973,-21.973,1.000,1.000
1624333166577054.500,-24.902,-29.785,-31.738,1.000,1.000
1624333166580960.750,-41.992,-25.879,-16.113,1.000,1.000
1624333166584867.000,-62.988,-24.414,-2.441,1.000,1.000
1624333166588773.250,-40.039,-11.230,-0.488,1.000,1.000
1624333166592679.500,-22.949,-5.371,-6.836,1.000,1.000
1624333166596585.750,-32.715,-6.836,-0.977,1.000,1.000
1624333166600492.000,11.230,11.719,-34.180,1.465,1.000
1624333166604398.250,-0.977,19.043,-34.180,-51.758,1.000
1624333166608304.500,4.883,12.207,-32.715,-51.270,1.000
1624333166612210.750,16.113,-8.301,-45.898,-1.465,1.000
1624333166616117.000,23.926,7.812,-41.016,19.043,1.000
1624333166620023.250,7.812,11.719,-44.434,-34.180,1.000
1624333166623929.500,-21.484,-12.207,-79.590,-83.984,1.000
1624333166627835.750,-0.488,-0.977,-62.500,-20.020,1.000
1624333166631742.000,28.320,37.109,-24.414,35.156,1.000
1624333166635648.250,-7.812,28.809,-43.457,-37.109,1.000
1624333166639554.500,-21.484,22.461,-52.246,-73.242,1.000
1624333166643460.750,8.301,35.645,-54.199,-16.602,1.000
1624333166647367.000,14.648,24.414,-72.266,1.000,1.000
1624333166651273.250,6.348,6.348,-60.547,1.000,1.000
1624333166655179.500,-8.789,7.324,-31.250,1.000,1.000
1624333166659085.750,-18.066,25.879,-28.320,1.000,1.000
1624333166662992.000,2.930,17.578,-27.832,1.000,1.000
1624333166666898.250,-5.859,-3.418,-23.438,1.000,1.000
1624333166670804.500,-45.410,0.488,-22.461,1.000,1.000
1624333166674710.750,-46.387,-6.348,-19.531,1.000,1.000
1624333166678617.000,-19.043,-5.371,-26.855,1.000,1.000
1624333166682523.250,-26.367,11.230,-32.227,1.000,1.000
1624333166686429.500,-66.406,6.836,-28.809,1.000,1.000
1624333166690335.750,-97.168,11.230,-22.461,1.000,1.000
1624333166694242.000,-91.309,14.648,-18.555,1.000,1.000
1624333166698148.250,-93.750,8.301,-20.508,1.000,1.000
1624333166702054.500,-132.812,0.977,-24.902,1.000,1.000
1624333166705960.750,-171.387,-4.883,-20.508,1.000,1.000
1624333166709867.000,-172.363,1.465,-14.160,1.000,1.000
1624333166713773.250,-153.320,2.930,-8.789,1.000,1.000
1624333166717679.500,-166.504,-3.418,5.371,1.000,1.000
1624333166721585.750,-210.449,-23.926,-15.137,1.000,1.000
1624333166725492.000,-196.777,-14.160,-25.879,1.000,1.000
1624333166729398.250,-166.992,8.789,-13.184,1.000,1.000
1624333166733304.500,-186.035,-8.789,-15.625,1.000,1.000
1624333166737210.750,-224.609,-42.969,-35.645,1.000,1.000
1624333166741117.000,-239.258,-54.199,-65.918,1.000,1.000
1624333166745023.250,-224.609,-27.344,-81.543,1.000,1.000
1624333166748929.500,-204.102,11.230,-75.684,1.000,1.000
1624333166752835.750,-179.199,11.230,-66.406,1.000,1.000
1624333166756742.000,-124.512,-32.227,-46.387,1.000,1.000
1624333166760648.250,-63.477,-22.461,-34.668,1.000,1.000
1624333166764554.500,-56.641,14.160,-30.762,1.000,1.000
1624333166768460.750,-101.074,19.043,-60.059,1.000,1.000
1624333166772367.000,-88.867,25.391,-68.848,1.000,1.000
1624333166776273.250,-40.527,-4.395,-28.320,1.000,1.000
1624333166780179.500,-31.738,-16.602,-23.926,1.000,1.000
1624333166784085.750,-27.832,0.000,-40.039,1.000,1.000
1624333166787992.000,91.309,25.391,6.836,100.098,1.000
1624333166791898.250,49.805,18.555,-23.926,14.648,1.000
1624333166795804.500,-1.953,5.859,-23.438,-42.480,1.000
1624333166799710.750,36.133,21.484,0.000,27.344,1.000
1624333166803617.000,70.801,2.930,-13.672,73.730,1.000
1624333166807523.250,59.570,-14.160,-32.227,46.875,1.000
1624333166811429.500,36.133,11.230,-65.430,-18.066,1.000
1624333166815335.750,44.922,19.531,-92.285,-8.301,1.000
1624333166819242.000,92.773,36.133,-50.781,84.961,1.000
1624333166823148.250,110.840,67.383,-12.207,95.215,1.000
1624333166827054.500,86.914,62.012,-29.785,14.160,1.000
1624333166830960.750,74.219,53.223,-55.664,-2.441,1.000
1624333166834867.000,110.840,56.641,-50.781,1.000,1.000
1624333166838773.250,148.438,61.523,-41.504,1.000,1.000
1624333166842679.500,128.906,66.895,-45.898,1.000,1.000
1624333166846585.750,105.957,47.363,-58.105,1.000,1.000
1624333166850492.000,142.578,40.039,-38.574,1.000,1.000
1624333166854398.250,163.086,49.316,-12.207,1.000,1.000
1624333166858304.500,140.137,57.129,2.930,1.000,1.000
1624333166862210.750,111.816,47.363,-15.625,1.000,1.000
1624333166866117.000,94.727,20.508,-69.824,1.000,1.000
1624333166870023.250,95.703,19.531,-63.965,1.000,1.000
1624333166873929.500,82.031,34.180,-37.109,1.000,1.000
1624333166877835.750,54.688,55.664,-38.086,1.000,1.000
1624333166881742.000,46.875,41.016,-27.832,1.000,1.000
1624333166885648.250,67.871,7.324,-4.395,1.000,1.000
1624333166889554.500,76.172,22.461,13.672,1.000,1.000
1624333166893460.750,58.105,41.016,-0.488,1.000,1.000
1624333166897367.000,72.754,35.156,-36.621,1.000,1.000
1624333166901273.250,81.543,22.949,-55.664,1.000,1.000
1624333166905179.500,70.312,-0.977,-18.555,1.000,1.000
1624333166909085.750,29.297,-9.277,-21.973,1.000,1.000
1624333166912992.000,-17.578,10.254,-42.969,1.000,1.000
1624333166916898.250,-5.859,23.926,-30.273,1.000,1.000
1624333166920804.500,33.203,6.836,-33.691,1.000,1.000
1624333166924710.750,53.711,-5.859,-18.555,1.000,1.000
1624333166928617.000,-87.891,-51.758,-28.320,-84.961,1.000
1624333166932523.250,-111.328,-48.828,-30.762,-118.652,1.000
1624333166936429.500,-77.148,-65.430,-18.066,-49.316,1.000
1624333166940335.750,-26.367,-63.965,6.348,29.785,1.000
1624333166944242.000,-96.191,-49.805,13.184,-59.570,1.000
1624333166948148.250,-186.035,-55.176,9.277,-177.246,1.000
1624333166952054.500,-159.668,-52.734,23.926,-128.906,1.000
1624333166955960.750,-128.418,-64.453,-5.371,-56.641,1.000
1624333166959867.000,-157.715,-105.469,-30.762,-89.355,1.000
1624333166963773.250,-239.258,-137.207,-42.969,-206.543,1.000
1624333166967679.500,-233.887,-130.371,-16.602,-209.473,1.000
1624333166971585.750,-181.641,-126.953,26.367,-113.770,1.000
1624333166975492.000,-190.430,-138.184,19.531,1.000,1.000
1624333166979398.250,-233.887,-132.324,23.438,1.000,1.000
1624333166983304.500,-245.117,-117.188,41.016,1.000,1.000
1624333166987210.750,-196.777,-102.539,32.227,1.000,1.000
1624333166991117.000,-179.199,-105.957,-5.859,1.000,1.000
1624333166995023.250,-158.691,-119.629,-36.621,1.000,1.000
1624333166998929.500,-166.992,-151.855,-55.664,1.000,1.000
1624333167002835.750,-153.320,-148.438,-6.836,1.000,1.000
1624333167006742.000,-113.281,-92.773,60.059,1.000,1.000
1624333167010648.250,-124.512,-75.195,40.527,1.000,1.000
1624333167014554.500,-144.531,-83.008,7.812,1.000,1.000
1624333167018460.750,-110.840,-58.594,0.488,1.000,1.000
1624333167022367.000,-55.176,-35.645,4.395,1.000,1.000
1624333167026273.250,-63.477,-58.594,-15.137,1.000,1.000
1624333167030179.500,-92.773,-53.223,-36.621,1.000,1.000
1624333167034085.750,-68.359,-14.160,14.648,1.000,1.000
1624333167037992.000,-50.293,-50.781,34.180,1.000,1.000
1624333167041898.250,-72.754,-102.539,11.230,1.000,1.000
1624333167045804.500,-84.473,-96.191,5.371,1.000,1.000
1624333167049710.750,-79.590,-55.176,-30.762,1.000,1.000
1624333167053617.000,-53.223,-27.832,-36.133,1.000,1.000
1624333167057523.250,-38.086,-21.973,-11.230,1.000,1.000
1624333167061429.500,-68.359,-5.371,-19.531,1.000,1.000
1624333167065335.750,-100.098,-7.324,-0.977,1.000,1.000
1624333167069242.000,-68.359,-39.062,25.879,1.000,1.000
1624333167073148.250,-14.160,-57.129,8.301,1.000,1.000
1624333167077054.500,-29.785,-39.062,-20.020,1.000,1.000
1624333167080960.750,-86.914,-28.809,-17.578,1.000,1.000
1624333167084867.000,-93.750,-38.086,-14.648,1.000,1.000
1624333167088773.250,-25.391,-60.547,-29.297,1.000,1.000
1624333167092679.500,20.020,-52.734,-52.246,1.000,1.000
1624333167096585.750,-22.461,6.836,-27.344,1.000,1.000
1624333167100492.000,-103.516,-3.906,-6.348,1.000,1.000
1624333167104398.250,-78.613,-28.320,7.324,1.000,1.000
1624333167108304.500,-22.461,-28.809,4.883,1.000,1.000
1624333167112210.750,-51.758,-34.668,-15.625,1.000,1.000
1624333167116117.000,-71.777,-106.445,1.465,-57.617,1.000
1624333167120023.250,-117.676,-88.379,-3.906,-72.754,1.000
1624333167123929.500,-134.766,-63.477,14.160,-24.414,1.000
1624333167127835.750,-86.914,-58.594,25.391,22.461,1.000
1624333167131742.000,-74.707,-60.547,-1.953,9.766,1.000
1624333167135648.250,-104.980,-65.430,-19.531,-65.430,1.000
1624333167139554.500,-82.031,-52.246,7.812,-51.758,1.000
1624333167143460.750,-44.434,-55.176,23.926,39.062,1.000
1624333167147367.000,-46.387,-91.309,4.883,17.578,1.000
1624333167151273.250,-83.008,-89.355,-4.883,-83.008,1.000
1624333167155179.500,-107.422,-62.012,-27.832,-117.188,1.000
1624333167159085.750,-78.613,-30.762,-5.859,-48.340,1.000
1624333167162992.000,-29.297,-4.395,-6.836,-12.207,1.000
1624333167166898.250,-8.301,-13.184,8.301,42.969,1.000
1624333167170804.500,-33.203,-19.531,3.906,-9.277,1.000
1624333167174710.750,-65.430,-4.883,-12.207,-74.707,1.000
1624333167178617.000,-56.152,-14.648,-13.672,-46.387,1.000
1624333167182523.250,-32.715,-41.992,-8.301,8.789,1.000
1624333167186429.500,-35.156,-51.270,-18.555,-8.789,1.000
1624333167190335.750,-43.945,-43.457,-59.082,-52.734,1.000
1624333167194242.000,-42.969,-29.785,-27.832,-44.434,1.000
1624333167198148.250,-21.484,-32.227,21.484,17.090,1.000
1624333167202054.500,-17.578,-28.320,8.789,20.996,1.000
1624333167205960.750,-43.945,-20.020,-32.715,-51.758,1.000
1624333167209867.000,-38.574,-13.672,-46.875,1.000,1.000
1624333167213773.250,-8.301,0.488,0.977,1.000,1.000
1624333167217679.500,-20.996,-12.695,13.672,1.000,1.000
1624333167221585.750,-58.105,-23.926,-7.812,1.000,1.000
1624333167225492.000,-70.801,-12.207,-25.879,1.000,1.000
1624333167229398.250,-43.457,-26.855,-30.273,1.000,1.000
1624333167233304.500,-2.930,-41.992,-0.488,1.000,1.000
1624333167237210.750,0.000,-37.598,-28.320,1.000,1.000
1624333167241117.000,-41.992,-14.160,-44.434,1.000,1.000
1624333167245023.250,-32.715,25.391,23.926,1.000,1.000
1624333167248929.500,-17.578,10.254,23.926,1.000,1.000
1624333167252835.750,-61.523,-34.180,-24.414,1.000,1.000
1624333167256742.000,-29.785,-16.113,-39.062,14.160,1.000
1624333167260648.250,15.625,8.789,8.789,16.113,1.000
1624333167264554.500,-9.277,3.906,3.906,-45.410,1.000
1624333167268460.750,-48.828,-15.137,-29.297,-67.871,1.000
1624333167272367.000,-33.203,-13.672,-18.555,-20.020,1.000
1624333167276273.250,-24.414,-6.348,-11.230,-27.344,1.000
1624333167280179.500,-32.715,2.930,-15.625,-85.449,1.000
1624333167284085.750,-21.484,6.348,-49.316,-70.801,1.000
1624333167287992.000,-6.836,-3.418,-65.430,-13.184,1.000
1624333167291898.250,-7.324,9.277,-61.035,-20.508,1.000
1624333167295804.500,-7.812,33.691,-61.523,-71.289,1.000
1624333167299710.750,8.789,40.039,-55.664,-62.012,1.000
1624333167303617.000,39.551,38.086,-52.246,1.000,1.000
1624333167307523.250,80.078,15.137,-40.527,1.000,1.000
1624333167311429.500,85.449,8.301,-39.551,1.000,1.000
1624333167315335.750,62.500,46.875,-67.383,1.000,1.000
1624333167319242.000,69.824,86.426,-88.867,1.000,1.000
1624333167323148.250,86.914,97.656,-80.566,1.000,1.000
1624333167327054.500,84.473,89.355,-58.105,1.000,1.000
1624333167330960.750,83.984,74.707,-63.477,1.000,1.000
1624333167334867.000,106.445,70.312,-70.312,1.000,1.000
1624333167338773.250,114.746,79.590,-63.477,1.000,1.000
1624333167342679.500,103.516,74.219,-72.754,1.000,1.000
1624333167346585.750,70.312,73.242,-78.125,1.000,1.000
1624333167350492.000,57.129,80.566,-77.637,-16.602,1.000
1624333167354398.250,95.215,96.680,-73.242,53.223,1.000
1624333167358304.500,109.375,98.633,-59.570,65.918,1.000
1624333167362210.750,82.520,76.172,-42.969,9.277,1.000
1624333167366117.000,71.777,50.781,-42.969,2.930,1.000
1624333167370023.250,86.426,49.805,-47.363,58.105,1.000
1624333167373929.500,90.332,57.617,-50.293,71.289,1.000
1624333167377835.750,83.008,56.152,-45.898,23.926,1.000
1624333167381742.000,78.613,60.059,-48.828,5.371,1.000
1624333167385648.250,80.566,45.898,-57.617,47.363,1.000
1624333167389554.500,91.309,52.734,-50.293,86.426,1.000
1624333167393460.750,54.688,46.875,-62.988,28.320,1.000
1624333167397367.000,1.465,41.992,-73.730,1.000,1.000
1624333167401273.250,-9.766,43.457,-52.246,1.000,1.000
1624333167405179.500,-2.441,23.438,-36.621,1.000,1.000
1624333167409085.750,9.766,-1.465,-34.180,1.000,1.000
1624333167412992.000,17.090,13.184,-38.086,1.000,1.000
1624333167416898.250,16.113,47.363,-35.156,1.000,1.000
1624333167420804.500,19.043,49.316,-39.551,1.000,1.000
1624333167424710.750,7.324,37.598,-72.266,1.000,1.000
1624333167428617.000,-19.531,14.648,-79.102,1.000,1.000
1624333167432523.250,0.488,15.137,-36.621,1.000,1.000
1624333167436429.500,42.480,12.695,-37.109,1.000,1.000
1624333167440335.750,46.875,-14.648,-58.105,1.000,1.000
1624333167444242.000,-17.090,-11.230,-28.320,-3.418,1.000
1624333167448148.250,-8.789,-16.113,-17.090,-4.395,1.000
1624333167452054.500,-21.973,-22.949,-29.785,-59.082,1.000
1624333167455960.750,-6.836,-23.926,-20.996,-42.969,1.000
1624333167459867.000,18.555,0.488,-19.043,20.996,1.000
1624333167463773.250,6.348,30.273,-12.207,26.367,1.000
1624333167467679.500,-40.527,2.930,-14.648,-56.152,1.000
1624333167471585.750,-92.285,-28.809,-59.570,-127.930,1.000
1624333167475492.000,-77.637,-19.043,-57.129,-84.961,1.000
1624333167479398.250,-34.180,-24.414,-46.875,-12.695,1.000
1624333167483304.500,-27.832,-58.594,-41.992,-17.090,1.000
1624333167487210.750,-31.250,-48.828,0.000,-45.898,1.000
1624333167491117.000,-37.109,-13.672,-28.320,-63.965,1.000
1624333167495023.250,-44.434,6.836,-36.621,-31.250,1.000
1624333167498929.500,-29.297,11.230,-28.809,4.883,1.000
1624333167502835.750,-53.711,6.836,-12.695,-36.133,1.000
1624333167506742.000,-83.496,-19.531,-20.020,-96.191,1.000
1624333167510648.250,-53.711,-38.574,-43.457,-59.082,1.000
1624333167514554.500,-0.977,-22.461,-31.738,25.391,1.000
1624333167518460.750,-25.391,-30.762,-37.598,-6.348,1.000
1624333167522367.000,-77.637,-23.438,-44.922,-96.191,1.000
1624333167526273.250,-68.359,4.395,-8.789,-89.355,1.000
1624333167530179.500,-25.391,-10.254,1.465,-16.602,1.000
1624333167534085.750,-30.762,-35.156,-41.016,-16.113,1.000
1624333167537992.000,-26.367,-26.855,-20.020,1.000,1.000
1624333167541898.250,-52.734,-56.641,-19.043,1.000,1.000
1624333167545804.500,-64.453,-33.203,-19.531,1.000,1.000
1624333167549710.750,-33.691,-7.812,-41.504,1.000,1.000
1624333167553617.000,-17.578,-30.273,-35.645,1.000,1.000
1624333167557523.250,-41.504,-36.133,-23.926,1.000,1.000
1624333167561429.500,-38.574,-23.926,-31.738,1.000,1.000
1624333167565335.750,2.930,12.695,-12.207,1.000,1.000
1624333167569242.000,-1.953,25.879,-21.484,1.000,1.000
1624333167573148.250,-83.984,-18.555,-52.246,1.000,1.000
1624333167577054.500,-123.047,-19.531,-5.371,1.000,1.000
1624333167580960.750,-101.562,-36.133,31.738,1.000,1.000
1624333167584867.000,-213.867,-138.672,20.020,-123.047,1.000
1624333167588773.250,-174.316,-136.230,70.801,-65.918,1.000
1624333167592679.500,-142.090,-131.348,72.754,-58.594,1.000
1624333167596585.750,-155.762,-112.793,27.832,-98.633,1.000
1624333167600492.000,-148.926,-105.469,48.340,-80.078,1.000
1624333167604398.250,-129.395,-106.934,78.613,-37.109,1.000
1624333167608304.500,-135.742,-94.727,59.082,-57.129,1.000
1624333167612210.750,-153.809,-113.770,39.062,-109.375,1.000
1624333167616117.000,-149.414,-140.137,14.160,-105.957,1.000
1624333167620023.250,-111.328,-124.023,-8.301,-31.738,1.000
1624333167623929.500,-83.008,-109.375,19.531,-6.348,1.000
1624333167627835.750,-85.449,-82.031,28.809,-50.781,1.000
1624333167631742.000,-24.414,-28.320,46.875,-35.156,1.000
1624333167635648.250,-72.754,-53.711,2.930,-83.496,1.000
1624333167639554.500,-74.219,-49.316,-39.551,-43.945,1.000
1624333167643460.750,-27.344,-32.715,-29.297,11.230,1.000
1624333167647367.000,-51.758,-48.340,-13.672,-47.852,1.000
1624333167651273.250,-62.500,-45.410,3.418,-74.219,1.000
1624333167655179.500,-18.555,-32.715,8.789,3.906,1.000
1624333167659085.750,-18.555,-42.969,-32.227,19.531,1.000
1624333167662992.000,-32.227,-15.137,-49.805,-29.297,1.000
1624333167666898.250,-46.387,-20.996,-12.695,-58.105,1.000
1624333167670804.500,-33.203,-29.785,-25.879,-21.484,1.000
1624333167674710.750,-12.207,-11.719,-27.832,26.367,1.000
1624333167678617.000,-32.227,-29.785,20.508,1.000,1.000
1624333167682523.250,-48.340,-35.645,13.672,1.000,1.000
1624333167686429.500,-39.062,-27.832,-14.648,1.000,1.000
1624333167690335.750,-38.086,-17.090,-31.738,1.000,1.000
1624333167694242.000,-44.922,-6.836,-1.953,1.000,1.000
1624333167698148.250,-44.434,-2.930,19.043,1.000,1.000
1624333167702054.500,-39.551,-19.531,-1.465,1.000,1.000
1624333167705960.750,-46.387,-39.551,-23.926,1.000,1.000
1624333167709867.000,-39.551,-52.734,-33.691,1.000,1.000
1624333167713773.250,-49.805,-78.125,-30.273,1.000,1.000
1624333167717679.500,-89.355,-70.312,-33.691,1.000,1.000
1624333167721585.750,-85.449,-53.711,-26.855,1.000,1.000
1624333167725492.000,-54.199,-61.035,-0.488,1.000,1.000
1624333167729398.250,-72.266,-64.941,16.602,1.000,1.000
1624333167733304.500,-66.895,-23.926,36.133,1.000,1.000
1624333167737210.750,-35.645,-6.348,17.090,1.000,1.000
1624333167741117.000,-63.477,-29.297,-36.621,1.000,1.000
1624333167745023.250,-81.543,-23.438,-77.148,1.000,1.000
1624333167748929.500,-80.078,-16.602,-77.637,1.000,1.000
1624333167752835.750,-77.637,-34.180,-38.574,1.000,1.000
1624333167756742.000,-32.227,-31.250,6.836,1.000,1.000
1624333167760648.250,-8.301,-2.930,25.879,1.000,1.000
1624333167764554.500,-33.691,-8.789,4.883,1.000,1.000
1624333167768460.750,-35.156,-14.648,-7.812,1.000,1.000
1624333167772367.000,-96.680,-28.320,-32.227,-106.934,1.000
1624333167776273.250,-25.391,9.277,-11.230,0.000,1.000
1624333167780179.500,-3.906,0.000,-16.113,22.949,1.000
1624333167784085.750,-21.973,-6.348,-44.434,-30.762,1.000
1624333167787992.000,-11.230,16.602,-25.879,-26.855,1.000
1624333167791898.250,-22.461,-1.953,-17.578,2.441,1.000
1624333167795804.500,-38.086,-26.855,-37.109,1.465,1.000
1624333167799710.750,-46.875,-25.391,-34.180,-50.781,1.000
1624333167803617.000,-71.777,-41.992,-27.832,-107.422,1.000
1624333167807523.250,-41.016,-53.711,-4.395,-48.828,1.000
1624333167811429.500,-2.441,-57.129,8.789,20.508,1.000
1624333167815335.750,-17.090,-31.738,-46.387,-17.578,1.000
1624333167819242.000,-36.621,-18.066,-33.691,-45.410,1.000
1624333167823148.250,-29.297,5.371,-61.035,-67.383,1.000
1624333167827054.500,-37.109,8.789,-53.223,-44.922,1.000
1624333167830960.750,-37.598,7.324,-18.066,-7.324,1.000
1624333167834867.000,-51.270,-26.367,-6.836,-52.734,1.000
1624333167838773.250,-86.426,-41.016,-29.785,-117.188,1.000
1624333167842679.500,-60.059,-10.742,-33.203,-68.359,1.000
1624333167846585.750,-20.020,-16.113,-34.180,3.906,1.000
1624333167850492.000,-33.691,-56.152,-45.410,-17.578,1.000
1624333167854398.250,-29.297,-15.137,-13.672,-55.176,1.000
1624333167858304.500,-16.113,4.883,1.465,-45.410,1.000
1624333167862210.750,-37.109,-33.691,-26.855,-31.250,1.000
1624333167866117.000,-41.504,-27.344,-22.461,1.000,1.000
1624333167870023.250,-80.566,-37.109,-31.250,1.000,1.000
1624333167873929.500,-96.191,-46.387,-39.551,1.000,1.000
1624333167877835.750,-58.105,-43.945,-55.176,1.000,1.000
1624333167881742.000,-22.949,-20.996,-43.945,1.000,1.000
1624333167885648.250,-21.484,1.465,-30.762,1.000,1.000
1624333167889554.500,-45.410,9.766,-32.227,1.000,1.000
1624333167893460.750,-20.020,-2.930,-6.348,1.000,1.000
1624333167897367.000,-8.301,-61.035,-5.859,1.000,1.000
1624333167901273.250,-45.898,-57.617,-38.574,1.000,1.000
1624333167905179.500,-64.941,-7.324,-41.504,1.000,1.000
1624333167909085.750,-46.875,0.977,-29.297,1.000,1.000
1624333167912992.000,-25.879,-4.395,-35.645,1.000,1.000
1624333167916898.250,-18.555,-24.414,-28.320,1.000,1.000
1624333167920804.500,-21.973,-45.898,18.066,1.000,1.000
1624333167924710.750,-47.363,-46.875,9.277,1.000,1.000
1624333167928617.000,-52.246,-18.555,-45.898,1.000,1.000
1624333167932523.250,-52.734,-1.465,-45.898,1.000,1.000
1624333167936429.500,-72.266,-22.461,-34.668,1.000,1.000
1624333167940335.750,-78.613,-20.020,-33.691,1.000,1.000
1624333167944242.000,-50.781,-15.625,-5.859,1.000,1.000
1624333167948148.250,-34.668,-53.223,-4.395,1.000,1.000
1624333167952054.500,-42.480,-20.508,-6.348,1.000,1.000
1624333167955960.750,-65.918,8.301,16.113,1.000,1.000
1624333167959867.000,-69.824,-16.602,-6.348,1.000,1.000
1624333167963773.250,-46.387,-12.207,-47.852,1.000,1.000
1624333167967679.500,-38.086,-2.441,-26.367,1.000,1.000
1624333167971585.750,-63.965,-33.691,-22.461,1.000,1.000
1624333167975492.000,-83.496,-59.570,-48.828,1.000,1.000
1624333167979398.250,-36.133,-58.594,-25.391,1.000,1.000
1624333167983304.500,-16.602,-22.949,-17.578,1.000,1.000
1624333167987210.750,-70.801,1.465,-29.785,1.000,1.000
1624333167991117.000,-87.402,-5.859,-26.367,1.000,1.000
1624333167995023.250,-66.406,-5.371,-28.320,1.000,1.000
1624333167998929.500,-53.223,-4.395,-6.348,1.000,1.000
1624333168002835.750,-35.645,-4.883,13.184,1.000,1.000
1624333168006742.000,-53.223,-30.273,-55.176,-28.320,1.000
1624333168010648.250,-55.664,-8.789,-18.555,-81.543,1.000
1624333168014554.500,-52.246,-38.086,-24.902,-77.637,1.000
1624333168018460.750,-19.531,-36.621,-51.758,-16.602,1.000
1624333168022367.000,3.418,-4.883,-23.926,15.625,1.000
1624333168026273.250,-32.715,-4.883,4.395,-42.480,1.000
1624333168030179.500,-51.270,5.859,1.953,-79.102,1.000
1624333168034085.750,-26.367,10.254,-11.230,-20.020,1.000
1624333168037992.000,-34.180,-38.086,-27.832,-4.395,1.000
1624333168041898.250,-59.570,-56.152,-50.293,-62.988,1.000
1624333168045804.500,-68.359,-18.555,-52.246,-96.191,1.000
1624333168049710.750,-64.453,-7.324,-43.457,-72.266,1.000
1624333168053617.000,-43.945,10.254,-13.672,-40.527,1.000
1624333168057523.250,-11.230,-25.879,3.418,17.090,1.000
1624333168061429.500,-32.715,-37.109,-14.160,-28.320,1.000
1624333168065335.750,-55.664,-22.461,2.441,-81.543,1.000
1624333168069242.000,-40.527,-29.297,2.441,-46.875,1.000
1624333168073148.250,-19.043,-27.832,-35.645,17.578,1.000
1624333168077054.500,4.883,-25.391,-35.156,17.090,1.000
1624333168080960.750,-21.484,-20.020,-40.527,-47.852,1.000
1624333168084867.000,-57.617,-4.395,-31.738,-60.547,1.000
1624333168088773.250,-34.668,10.742,3.906,-6.348,1.000
1624333168092679.500,-26.855,-5.859,-13.672,-4.883,1.000
1624333168096585.750,-69.824,-40.039,-26.367,-72.266,1.000
1624333168100492.000,-74.219,-41.016,-15.625,1.000,1.000
1624333168104398.250,-27.344,-21.973,-22.949,1.000,1.000
1624333168108304.500,-19.043,-26.367,-34.180,1.000,1.000
1624333168112210.750,-43.457,-30.762,-26.855,1.000,1.000
1624333168116117.000,-40.039,-17.090,-4.883,1.000,1.000
1624333168120023.250,-17.090,-14.160,-12.695,1.000,1.000
1624333168123929.500,-41.016,-52.734,-47.852,1.000,1.000
1624333168127835.750,-70.801,-50.293,-37.598,1.000,1.000
1624333168131742.000,-77.148,-16.113,-28.809,1.000,1.000
1624333168135648.250,-49.316,13.184,-32.715,1.000,1.000
1624333168139554.500,-11.719,22.461,-13.184,1.000,1.000
1624333168143460.750,3.418,-12.207,11.719,1.000,1.000
1624333168147367.000,-14.160,-7.324,-19.531,22.461,1.000
1624333168151273.250,-47.852,-43.945,-11.719,-49.316,1.000
1624333168155179.500,-64.941,-32.227,1.953,-93.750,1.000
1624333168159085.750,-59.082,-32.227,-16.113,-65.918,1.000
1624333168162992.000,-41.992,-39.062,-54.688,-14.160,1.000
1624333168166898.250,-25.879,-39.551,-71.777,-17.578,1.000
1624333168170804.500,-24.414,-27.344,-23.438,-57.129,1.000
1624333168174710.750,1.953,-5.859,23.438,-25.391,1.000
1624333168178617.000,14.160,-14.648,0.977,27.344,1.000
1624333168182523.250,-19.043,-24.414,-43.457,-9.766,1.000
1624333168186429.500,-63.477,-24.414,-20.508,-90.332,1.000
1624333168190335.750,-67.871,-25.391,0.000,-99.121,1.000
1624333168194242.000,-22.949,-28.320,-11.719,-43.945,1.000
1624333168198148.250,-18.555,-81.055,1.465,8.301,1.000
1624333168202054.500,-29.297,-54.199,-19.043,-3.418,1.000
1624333168205960.750,-27.832,6.348,-35.156,-47.363,1.000
1624333168209867.000,-51.270,16.602,-34.180,-82.520,1.000
1624333168213773.250,-65.430,-13.672,-8.301,-56.152,1.000
1624333168217679.500,-43.945,-39.062,-6.348,-17.578,1.000
1624333168221585.750,-32.715,-27.344,-20.996,-41.016,1.000
1624333168225492.000,-32.227,-22.461,-5.859,-62.012,1.000
1624333168229398.250,-31.738,-24.902,-29.297,-33.691,1.000
1624333168233304.500,-21.973,-18.555,-66.406,5.859,1.000
1624333168237210.750,-9.766,-54.199,-16.602,0.488,1.000
1624333168241117.000,-36.621,-2.441,-9.277,-39.062,1.000
1624333168245023.250,-46.875,-14.160,-19.531,-73.730,1.000
1624333168248929.500,-48.340,-18.555,-9.277,-41.504,1.000
1624333168252835.750,-33.203,-31.738,16.113,-6.348,1.000
1624333168256742.000,-29.785,-36.133,11.230,-20.508,1.000
1624333168260648.250,-34.180,-19.531,-12.695,-48.340,1.000
1624333168264554.500,-38.086,-22.461,-61.523,-40.039,1.000
1624333168268460.750,-33.203,-18.555,-64.453,3.906,1.000
1624333168272367.000,-18.066,-28.320,-6.836,10.254,1.000
1624333168276273.250,-26.855,-47.852,1.953,-48.340,1.000
1624333168280179.500,-25.391,-38.086,-11.719,-45.410,1.000
1624333168284085.750,-14.648,-37.598,-4.395,6.348,1.000
1624333168287992.000,-22.461,2.441,-38.086,2.441,1.000
1624333168291898.250,-37.598,-17.090,-27.344,-22.949,1.000
1624333168295804.500,-48.340,-18.555,-25.879,-83.984,1.000
1624333168299710.750,-41.504,-13.184,2.441,-68.848,1.000
1624333168303617.000,-18.066,-63.965,19.531,-0.488,1.000
1624333168307523.250,-14.648,-81.055,-9.277,6.836,1.000
1624333168311429.500,-29.297,-16.602,-27.344,-51.758,1.000
1624333168315335.750,-18.555,17.578,0.977,-71.777,1.000
1624333168319242.000,-3.906,-12.207,-0.977,-19.531,1.000
1624333168323148.250,-5.859,-19.531,-70.801,11.230,1.000
1624333168327054.500,-28.320,-12.695,-79.102,-42.480,1.000
1624333168330960.750,-60.547,-41.992,-8.301,-100.586,1.000
1624333168334867.000,-41.016,-11.719,-2.930,-76.172,1.000
1624333168338773.250,-38.574,-38.574,-10.254,-44.922,1.000
1624333168342679.500,-17.090,-48.340,-11.230,5.371,1.000
1624333168346585.750,-13.672,-40.527,-27.344,-16.602,1.000
1624333168350492.000,-30.762,-51.270,-42.480,-75.684,1.000
1624333168354398.250,-39.551,-55.176,-25.879,-61.523,1.000
1624333168358304.500,-29.785,-6.348,-20.020,-11.230,1.000
1624333168362210.750,-47.852,2.930,-17.578,-32.715,1.000
1624333168366117.000,-69.336,-15.137,-12.207,-87.402,1.000
1624333168370023.250,-49.316,-14.648,-21.973,-75.195,1.000
1624333168373929.500,-5.371,4.395,-15.137,17.090,1.000
1624333168377835.750,-13.672,-19.531,-22.461,24.414,1.000
1624333168381742.000,-26.367,-15.625,10.742,1.000,1.000
1624333168385648.250,-62.988,-4.883,-40.039,1.000,1.000
1624333168389554.500,-60.059,-24.902,-61.523,1.000,1.000
1624333168393460.750,-4.883,1.953,16.113,1.000,1.000
1624333168397367.000,14.160,8.789,23.438,1.000,1.000
1624333168401273.250,-28.809,-46.387,-22.949,1.000,1.000
1624333168405179.500,-52.246,-69.336,-8.789,1.000,1.000
1624333168409085.750,-26.855,-47.852,-10.254,1.000,1.000
1624333168412992.000,-21.484,-25.879,-55.176,1.000,1.000
1624333168416898.250,-40.039,-20.996,-42.969,1.000,1.000
1624333168420804.500,-60.059,-10.254,-14.160,1.000,1.000
1624333168424710.750,-52.246,2.441,-37.598,1.000,1.000
1624333168428617.000,-40.527,-1.465,-4.883,-50.781,1.000
1624333168432523.250,-32.715,-50.781,-12.207,-14.160,1.000
1624333168436429.500,-14.648,-36.133,0.488,-27.344,1.000
1624333168440335.750,-1.465,-53.711,-18.066,-47.363,1.000
1624333168444242.000,-11.230,-79.590,-55.176,-20.996,1.000
1624333168448148.250,-12.207,-20.020,-22.461,17.090,1.000
1624333168452054.500,-41.504,17.090,3.418,-23.926,1.000
1624333168455960.750,-95.215,-10.742,-19.043,-114.746,1.000
1624333168459867.000,-78.613,-23.438,-17.578,-91.797,1.000
1624333168463773.250,-27.832,-23.438,-1.953,7.324,1.000
1624333168467679.500,-30.273,-39.062,-18.555,-0.488,1.000
1624333168471585.750,-56.152,-49.316,-28.809,-74.707,1.000
1624333168475492.000,-92.773,-31.738,-104.492,-148.926,1.000
1624333168479398.250,-93.262,31.250,-59.082,-147.461,1.000
1624333168483304.500,-75.684,38.086,-22.949,-85.938,1.000
1624333168487210.750,-57.129,6.836,-10.742,-63.477,1.000
1624333168491117.000,-66.895,-40.039,-15.625,-109.375,1.000
1624333168495023.250,-87.402,-44.434,-41.992,-137.695,1.000
1624333168498929.500,-51.758,-17.578,-49.805,-61.035,1.000
1624333168502835.750,-32.715,-35.156,-54.688,-14.648,1.000
1624333168506742.000,-60.059,-18.066,-59.570,-77.637,1.000
1624333168510648.250,-77.637,17.090,-36.621,-120.117,1.000
1624333168514554.500,-52.734,10.742,-0.488,-61.035,1.000
1624333168518460.750,-26.855,3.418,13.184,-2.930,1.000
1624333168522367.000,-44.434,4.883,-37.598,1.000,1.000
1624333168526273.250,-52.734,-10.742,-53.223,1.000,1.000
1624333168530179.500,-52.246,-42.480,-34.668,1.000,1.000
1624333168534085.750,-57.617,-74.707,-61.035,1.000,1.000
1624333168537992.000,-62.012,-44.434,-57.617,1.000,1.000
1624333168541898.250,-69.336,-11.719,-30.273,1.000,1.000
1624333168545804.500,-54.688,7.324,-18.555,1.000,1.000
1624333168549710.750,-18.555,38.086,-14.160,1.000,1.000
1624333168553617.000,7.324,33.691,-0.977,1.000,1.000
1624333168557523.250,-18.555,-0.977,-14.160,1.000,1.000
1624333168561429.500,-64.453,-35.156,-72.754,1.000,1.000
1624333168565335.750,-30.273,-9.766,-58.594,1.000,1.000
1624333168569242.000,8.301,18.555,-11.230,1.000,1.000
1624333168573148.250,-27.344,-4.883,-28.809,1.000,1.000
1624333168577054.500,-63.965,-18.555,-20.996,1.000,1.000
1624333168580960.750,-53.223,-6.836,-3.906,1.000,1.000
1624333168584867.000,-34.180,-5.859,-3.418,1.000,1.000
1624333168588773.250,-45.898,-18.066,-3.418,1.000,1.000
1624333168592679.500,-85.449,-22.949,-21.484,1.000,1.000
1624333168596585.750,-99.609,-24.414,-57.129,1.000,1.000
1624333168600492.000,-49.805,-41.504,-37.109,1.000,1.000
1624333168604398.250,-70.801,-50.293,-30.762,1.000,1.000
1624333168608304.500,-167.969,-28.320,-35.645,1.000,1.000
1624333168612210.750,-187.500,-16.113,5.859,1.000,1.000
1624333168616117.000,-161.621,-38.574,-16.602,1.000,1.000
1624333168620023.250,-132.812,-27.344,-8.789,1.000,1.000
1624333168623929.500,-140.137,-18.066,17.090,1.000,1.000
1624333168627835.750,-184.082,-87.891,4.395,1.000,1.000
1624333168631742.000,-177.246,-129.883,20.996,1.000,1.000
1624333168635648.250,-136.719,-25.879,9.766,1.000,1.000
1624333168639554.500,-155.762,7.812,6.836,1.000,1.000
1624333168643460.750,-156.250,-56.641,-27.344,1.000,1.000
1624333168647367.000,-120.117,-78.125,-1.953,1.000,1.000
1624333168651273.250,-151.855,-120.117,24.414,1.000,1.000
1624333168655179.500,-136.719,-90.332,-24.414,1.000,1.000
1624333168659085.750,-89.844,-27.344,-16.602,1.000,1.000
1624333168662992.000,12.207,-22.461,-23.438,17.578,1.000
1624333168666898.250,0.000,-21.484,-37.598,-20.996,1.000
1624333168670804.500,-13.672,-51.270,-66.895,-6.836,1.000
1624333168674710.750,16.602,-44.922,-45.410,60.059,1.000
1624333168678617.000,35.156,6.348,-20.020,52.246,1.000
1624333168682523.250,14.160,22.949,-32.715,-16.602,1.000
1624333168686429.500,-3.418,-22.461,-36.133,-19.043,1.000
1624333168690335.750,-10.742,-48.340,-29.297,21.484,1.000
1624333168694242.000,-18.066,-24.902,-20.020,5.371,1.000
1624333168698148.250,-56.641,-35.645,-46.387,-81.055,1.000
1624333168702054.500,-53.223,-60.547,-76.660,-73.730,1.000
1624333168705960.750,11.719,-50.293,-62.012,33.203,1.000
1624333168709867.000,8.301,14.160,39.551,27.832,1.000
1624333168713773.250,27.832,-0.977,17.578,40.527,1.000
1624333168717679.500,-13.672,-26.367,-33.691,-35.156,1.000
1624333168721585.750,-38.086,-57.129,-41.016,-65.918,1.000
1624333168725492.000,-36.133,-57.617,-51.270,-23.438,1.000
1624333168729398.250,-9.766,-19.043,-54.199,18.066,1.000
1624333168733304.500,-38.086,-28.320,-39.551,-51.758,1.000
1624333168737210.750,-63.477,-25.391,-24.902,-101.562,1.000
1624333168741117.000,-12.695,-3.418,-26.367,-17.090,1.000
1624333168745023.250,22.461,8.301,-47.363,46.875,1.000
1624333168748929.500,9.277,-1.953,-46.875,0.488,1.000
1624333168752835.750,-12.207,-18.066,-14.160,-54.688,1.000
1624333168756742.000,-23.438,-36.133,1.953,1.000,1.000
1624333168760648.250,5.371,-30.273,-6.348,1.000,1.000
1624333168764554.500,32.715,-10.742,-4.883,1.000,1.000
1624333168768460.750,-28.809,-33.203,-19.531,1.000,1.000
1624333168772367.000,-64.453,-29.297,-36.621,1.000,1.000
1624333168776273.250,-42.969,-16.113,-39.062,1.000,1.000
1624333168780179.500,-4.395,-5.859,-16.602,1.000,1.000
1624333168784085.750,6.348,-10.742,-13.672,1.000,1.000
1624333168787992.000,-41.016,-63.477,-56.641,1.000,1.000
1624333168791898.250,-49.316,-34.668,-25.879,1.000,1.000
1624333168795804.500,-21.484,16.602,20.996,1.000,1.000
1624333168799710.750,-34.668,11.719,-14.648,1.000,1.000
1624333168803617.000,-25.391,-21.484,-51.758,-92.773,1.000
1624333168807523.250,-76.172,-25.391,-61.035,-58.594,1.000
1624333168811429.500,-63.477,-1.465,-43.945,9.277,1.000
1624333168815335.750,-31.250,-21.484,-41.016,-7.812,1.000
1624333168819242.000,-26.855,-36.133,-31.738,-41.992,1.000
1624333168823148.250,-52.734,-33.203,-12.695,3.906,1.000
1624333168827054.500,-58.105,-33.691,5.371,15.137,1.000
1624333168830960.750,-14.648,-12.695,18.066,-62.012,1.000
1624333168834867.000,3.906,-3.906,14.160,-109.863,1.000
1624333168838773.250,-20.020,-25.391,-20.508,-75.195,1.000
1624333168842679.500,-44.922,-39.062,-30.273,11.230,1.000
1624333168846585.750,-24.414,-34.180,-12.207,18.555,1.000
1624333168850492.000,-43.457,6.836,4.883,-20.996,1.000
1624333168854398.250,-9.277,-5.371,-26.855,43.457,1.000
1624333168858304.500,-11.230,-15.625,-31.738,-0.488,1.000
1624333168862210.750,-6.836,0.488,-4.395,-28.809,1.000
1624333168866117.000,-24.414,-13.184,-5.859,-26.855,1.000
1624333168870023.250,-41.992,-34.180,-42.969,-14.648,1.000
1624333168873929.500,-51.758,-34.668,-49.805,-40.527,1.000
1624333168877835.750,-71.777,-12.695,-28.809,-107.910,1.000
1624333168881742.000,-51.270,-8.789,-20.996,-83.008,1.000
1624333168885648.250,-1.465,-21.973,-25.391,20.508,1.000
1624333168889554.500,25.391,-21.484,-4.395,51.758,1.000
1624333168893460.750,9.277,-21.484,5.371,-19.531,1.000
1624333168897367.000,-22.461,-20.996,-8.301,1.000,1.000
1624333168901273.250,-4.883,-12.207,-33.691,1.000,1.000
1624333168905179.500,1.465,-21.973,-72.754,1.000,1.000
1624333168909085.750,-28.809,-22.949,-49.316,1.000,1.000
1624333168912992.000,-69.336,-27.832,0.977,1.000,1.000
1624333168916898.250,-66.895,-41.992,-8.789,1.000,1.000
1624333168920804.500,-31.250,-36.133,-20.020,1.000,1.000
1624333168924710.750,-28.320,-23.926,-7.324,1.000,1.000
1624333168928617.000,-34.180,-4.883,-1.953,1.000,1.000
1624333168932523.250,-38.086,-4.395,-51.270,1.000,1.000
1624333168936429.500,-28.320,-21.973,-73.730,1.000,1.000
1624333168940335.750,-29.297,-11.230,-23.926,1.000,1.000
1624333168944242.000,-18.066,-25.879,-20.996,15.137,1.000
1624333168948148.250,-29.785,-30.273,-7.324,-29.785,1.000
1624333168952054.500,-77.637,-49.316,-34.180,-114.746,1.000
1624333168955960.750,-75.195,-39.062,-31.738,-87.891,1.000
1624333168959867.000,-32.227,-16.602,-19.531,-8.789,1.000
1624333168963773.250,-5.859,-15.625,-41.016,0.000,1.000
1624333168967679.500,4.395,-9.277,-31.250,-38.574,1.000
1624333168971585.750,7.324,1.465,0.977,-39.062,1.000
1624333168975492.000,-31.738,-7.812,-15.625,-17.578,1.000
1624333168979398.250,-39.062,-3.906,-26.367,-23.438,1.000
1624333168983304.500,-36.621,-20.020,-44.922,-71.289,1.000
1624333168987210.750,-51.758,-25.879,-43.457,-86.914,1.000
1624333168991117.000,-84.473,-37.598,5.371,-99.609,1.000
1624333168995023.250,-35.156,-4.395,10.742,-6.836,1.000
1624333168998929.500,3.906,2.930,13.672,34.668,1.000
1624333169002835.750,-32.715,-5.371,-15.625,-39.551,1.000
1624333169006742.000,-68.359,-14.160,-66.406,-84.961,1.000
1624333169010648.250,-56.641,-46.387,-47.363,-41.992,1.000
1624333169014554.500,-24.902,-35.156,-4.395,12.695,1.000
1624333169018460.750,-9.277,-12.207,-10.742,-2.930,1.000
1624333169022367.000,-18.555,-17.090,-0.977,-45.410,1.000
1624333169026273.250,-24.414,-18.066,19.531,-24.902,1.000
1624333169030179.500,-31.738,-28.809,6.836,6.836,1.000
1624333169034085.750,-49.316,-35.156,-16.113,-29.785,1.000
1624333169037992.000,-27.832,-34.668,1.465,1.000,1.000
1624333169041898.250,-44.922,-33.203,-0.977,1.000,1.000
1624333169045804.500,-24.902,-14.160,-3.418,1.000,1.000
1624333169049710.750,-10.254,-20.508,-48.828,1.000,1.000
1624333169053617.000,-25.391,-21.973,-65.918,1.000,1.000
1624333169057523.250,-42.969,-21.484,-49.805,1.000,1.000
1624333169061429.500,-49.316,-42.969,-44.922,1.000,1.000
1624333169065335.750,-38.574,-45.898,-21.484,1.000,1.000
1624333169069242.000,-12.207,-25.391,26.855,1.000,1.000
1624333169073148.250,-1.953,2.441,57.129,1.000,1.000
1624333169077054.500,-20.508,7.812,33.691,1.000,1.000
1624333169080960.750,-30.762,-24.902,-10.742,1.000,1.000
1624333169084867.000,-14.160,-44.434,-35.156,14.160,1.000
1624333169088773.250,1.465,2.441,-31.250,24.902,1.000
1624333169092679.500,-40.527,-7.812,-17.578,-60.547,1.000
1624333169096585.750,-73.730,-34.668,-31.738,-97.168,1.000
1624333169100492.000,-45.410,-24.902,-45.898,-23.438,1.000
1624333169104398.250,-15.625,-9.277,-28.809,16.113,1.000
1624333169108304.500,-21.484,-17.578,-16.113,-38.574,1.000
1624333169112210.750,-46.387,-44.434,-38.086,-90.332,1.000
1624333169116117.000,-38.086,-49.316,-20.996,-50.293,1.000
1624333169120023.250,-8.789,-46.875,-2.441,9.277,1.000
1624333169123929.500,-7.324,-34.668,-18.066,-17.090,1.000
1624333169127835.750,-23.926,-11.719,-29.785,-62.012,1.000
1624333169131742.000,-7.812,-4.395,-58.105,1.000,1.000
1624333169135648.250,3.906,-3.906,-53.711,1.000,1.000
1624333169139554.500,-26.367,-17.578,-15.625,1.000,1.000
1624333169143460.750,-47.363,-27.344,-7.324,1.000,1.000
1624333169147367.000,-39.062,-20.996,-8.301,1.000,1.000
1624333169151273.250,-14.648,-18.066,3.418,1.000,1.000
1624333169155179.500,-29.297,-35.645,-37.109,1.000,1.000
1624333169159085.750,-68.359,-48.340,-90.332,1.000,1.000
1624333169162992.000,-54.199,-56.641,-53.711,1.000,1.000
1624333169166898.250,-20.996,-46.875,-35.645,1.000,1.000
1624333169170804.500,-2.930,-31.250,-19.531,1.000,1.000
1624333169174710.750,8.789,-32.715,30.273,1.000,1.000
1624333169178617.000,-25.391,-32.227,26.855,-64.941,1.000
1624333169182523.250,-38.086,-57.129,8.301,-41.016,1.000
1624333169186429.500,-26.855,-37.109,-11.719,4.883,1.000
1624333169190335.750,-36.621,-8.301,-40.527,-38.086,1.000
1624333169194242.000,-41.992,-18.555,-51.758,-81.055,1.000
1624333169198148.250,-41.016,-16.113,-39.062,-55.664,1.000
1624333169202054.500,-28.809,-10.254,-28.320,-2.930,1.000
1624333169205960.750,-15.625,-20.508,-55.176,5.371,1.000
1624333169209867.000,-29.785,-28.320,-74.707,-55.664,1.000
1624333169213773.250,-44.434,-25.879,-18.066,-75.195,1.000
1624333169217679.500,-35.156,-27.832,-4.395,-21.973,1.000
1624333169221585.750,-20.508,-54.199,9.277,3.418,1.000
1624333169225492.000,4.395,-48.340,-16.602,19.531,1.000
1624333169229398.250,-12.695,-25.879,5.859,-39.062,1.000
1624333169233304.500,-38.574,-30.273,-32.227,-69.824,1.000
1624333169237210.750,-16.602,-41.992,-37.109,-13.672,1.000
1624333169241117.000,0.488,-36.621,-27.344,5.859,1.000
1624333169245023.250,-40.527,-21.484,-46.387,-64.453,1.000
1624333169248929.500,-57.617,-19.531,-76.660,-93.262,1.000
1624333169252835.750,-20.508,-24.414,-57.129,-22.949,1.000
1624333169256742.000,4.395,-14.160,-14.648,27.832,1.000
1624333169260648.250,-6.348,-23.438,4.883,-22.949,1.000
1624333169264554.500,-51.758,-48.828,-16.113,-99.609,1.000
1624333169268460.750,-44.922,-48.340,-33.203,-59.082,1.000
1624333169272367.000,-22.461,-69.824,-36.621,-16.113,1.000
1624333169276273.250,-7.324,-60.059,-33.691,21.484,1.000
1624333169280179.500,-25.391,-17.090,-53.711,-36.133,1.000
1624333169284085.750,-63.477,-16.602,-79.590,-98.145,1.000
1624333169287992.000,-51.758,-28.809,-79.102,-62.500,1.000
1624333169291898.250,-10.254,-21.484,-26.855,19.043,1.000
1624333169295804.500,-38.086,-27.832,0.488,-13.184,1.000
1624333169299710.750,-59.570,-21.484,1.465,-83.984,1.000
1624333169303617.000,-31.250,-22.949,1.465,-52.734,1.000
1624333169307523.250,-10.742,-40.527,-23.926,12.695,1.000
1624333169311429.500,6.348,-19.043,-35.645,31.250,1.000
1624333169315335.750,-23.438,-20.020,-58.105,-41.504,1.000
1624333169319242.000,-60.059,-34.180,-62.988,-95.215,1.000
1624333169323148.250,-43.945,-29.297,-31.250,-70.801,1.000
1624333169327054.500,-34.668,-45.898,-61.035,-4.883,1.000
1624333169330960.750,-43.945,-48.828,-77.637,-5.371,1.000
1624333169334867.000,-47.852,-41.504,-51.270,-65.430,1.000
1624333169338773.250,-48.340,-53.223,-56.641,-89.844,1.000
1624333169342679.500,-10.254,-26.855,-36.133,-6.836,1.000
1624333169346585.750,16.113,-7.812,8.789,46.875,1.000
1624333169350492.000,-21.973,-35.645,5.371,-22.949,1.000
1624333169354398.250,-60.059,-49.805,-10.254,-87.402,1.000
1624333169358304.500,-46.875,-32.715,-48.340,-40.527,1.000
1624333169362210.750,-17.578,-38.086,-51.758,25.879,1.000
1624333169366117.000,-10.742,-30.762,-6.836,10.742,1.000
1624333169370023.250,-22.949,-32.715,-22.461,-19.043,1.000
1624333169373929.500,-32.227,-17.578,-11.719,-54.199,1.000
1624333169377835.750,-38.574,-33.691,-34.180,-34.180,1.000
1624333169381742.000,-36.133,-45.898,-41.992,6.836,1.000
1624333169385648.250,-40.039,-31.250,-30.762,-13.184,1.000
1624333169389554.500,-58.105,-46.875,-58.594,-80.566,1.000
1624333169393460.750,-46.387,-21.973,-66.406,-74.219,1.000
1624333169397367.000,-17.090,14.648,-35.156,6.348,1.000
1624333169401273.250,-25.391,-10.254,-24.414,2.930,1.000
1624333169405179.500,-45.410,-26.855,-26.855,-65.430,1.000
1624333169409085.750,-43.945,-18.066,-29.297,-72.754,1.000
1624333169412992.000,-7.324,-22.949,-11.719,1.000,1.000
1624333169416898.250,7.324,-42.969,-0.977,1.000,1.000
1624333169420804.500,-44.434,-35.645,-33.691,1.000,1.000
1624333169424710.750,-82.031,-19.043,-47.852,1.000,1.000
1624333169428617.000,-60.547,-20.020,-42.969,1.000,1.000
1624333169432523.250,-16.602,-20.508,-54.199,1.000,1.000
1624333169436429.500,-3.906,-7.812,-39.551,1.000,1.000
1624333169440335.750,-23.926,-3.906,-23.926,1.000,1.000
1624333169444242.000,-29.297,-19.531,-43.457,1.000,1.000
1624333169448148.250,-1.465,-18.555,-47.363,1.000,1.000
1624333169452054.500,2.441,-26.367,-38.086,1.000,1.000
1624333169455960.750,-35.156,-60.547,-28.320,1.000,1.000
1624333169459867.000,-31.738,-32.715,-27.344,-83.008,1.000
1624333169463773.250,-45.410,-45.410,-10.254,-45.898,1.000
1624333169467679.500,-20.020,-51.270,-33.691,15.625,1.000
1624333169471585.750,10.254,-18.066,-29.297,-0.977,1.000
1624333169475492.000,-8.789,-22.949,-12.695,-44.922,1.000
1624333169479398.250,-45.898,-76.172,-84.473,-64.941,1.000
1624333169483304.500,-30.762,-38.086,-79.590,-11.719,1.000
1624333169487210.750,-12.695,6.348,-7.324,17.578,1.000
1624333169491117.000,-41.504,-30.273,-16.113,-31.250,1.000
1624333169495023.250,-69.824,-44.922,-42.480,-66.406,1.000
1624333169498929.500,-78.613,-38.086,-47.852,-22.461,1.000
1624333169502835.750,-31.250,-19.043,-17.578,4.883,1.000
1624333169506742.000,-7.324,-19.043,-64.453,8.789,1.000
1624333169510648.250,-25.391,-37.109,-77.637,-4.883,1.000
1624333169514554.500,-61.523,-42.480,-63.965,-88.379,1.000
1624333169518460.750,-55.664,-20.508,-50.781,-87.891,1.000
1624333169522367.000,-27.344,0.977,-26.855,-18.555,1.000
1624333169526273.250,-21.484,-17.090,-23.438,3.418,1.000
1624333169530179.500,-37.598,-46.875,-14.160,-45.898,1.000
1624333169534085.750,-41.992,-40.527,-13.184,-69.336,1.000
1624333169537992.000,-30.762,-28.809,-35.156,-25.879,1.000
1624333169541898.250,6.836,-18.066,-41.016,41.992,1.000
1624333169545804.500,17.578,-8.301,-35.156,25.391,1.000
1624333169549710.750,-25.391,-19.531,-28.320,-51.758,1.000
1624333169553617.000,-53.223,-36.621,-46.387,1.000,1.000
1624333169557523.250,-42.969,-34.668,-59.082,1.000,1.000
1624333169561429.500,-26.367,-25.879,-31.250,1.000,1.000
1624333169565335.750,-35.645,-42.480,-26.855,1.000,1.000
1624333169569242.000,-66.406,-64.941,-56.641,1.000,1.000
1624333169573148.250,-31.250,-20.020,-50.293,1.000,1.000
1624333169577054.500,-2.441,14.648,-37.598,1.000,1.000
1624333169580960.750,-41.992,-3.906,-47.852,1.000,1.000
1624333169584867.000,-41.504,-7.812,-29.297,1.000,1.000
1624333169588773.250,-9.277,-4.883,-32.227,1.000,1.000
1624333169592679.500,-2.930,-11.719,-70.801,1.000,1.000
1624333169596585.750,-27.832,-21.973,-69.824,1.000,1.000
1624333169600492.000,-24.414,-27.832,-26.855,-1.465,1.000
1624333169604398.250,-48.340,-25.879,-23.926,-69.824,1.000
1624333169608304.500,-51.758,-6.348,-32.715,-75.195,1.000
1624333169612210.750,-29.297,-18.555,-34.180,-8.789,1.000
1624333169616117.000,-19.043,-42.480,-43.945,9.277,1.000
1624333169620023.250,-36.621,-49.805,-65.430,-48.340,1.000
1624333169623929.500,-60.059,-38.086,-57.617,-90.332,1.000
1624333169627835.750,-41.504,-26.367,-46.875,-42.969,1.000
1624333169631742.000,-2.441,-18.555,-43.945,16.602,1.000
1624333169635648.250,14.648,6.348,-28.320,2.930,1.000
1624333169639554.500,-50.293,-50.293,-61.523,-82.520,1.000
1624333169643460.750,-81.543,-91.797,-76.660,-84.473,1.000
1624333169647367.000,-37.109,-65.918,-33.203,-3.418,1.000
1624333169651273.250,-23.438,-46.875,-19.043,-6.348,1.000
1624333169655179.500,-44.922,-44.922,-28.320,-69.336,1.000
1624333169659085.750,-53.223,-59.082,-41.992,-67.871,1.000
1624333169662992.000,-10.254,-35.156,-39.062,14.648,1.000
1624333169666898.250,19.531,0.977,-24.414,37.598,1.000
1624333169670804.500,-16.602,-8.301,-31.250,-45.410,1.000
1624333169674710.750,-57.129,-34.180,-56.152,-85.938,1.000
1624333169678617.000,-37.598,-53.711,-60.547,-18.555,1.000
1624333169682523.250,0.000,-36.621,-30.762,34.180,1.000
1624333169686429.500,-27.344,-13.184,-29.785,-33.203,1.000
1624333169690335.750,-78.613,-44.922,-54.688,-110.840,1.000
1624333169694242.000,-43.457,-32.227,-25.879,-66.895,1.000
1624333169698148.250,-58.105,-29.785,-55.176,-83.984,1.000
1624333169702054.500,-39.551,-65.918,-91.309,-24.902,1.000
1624333169705960.750,-15.625,-54.199,-107.910,7.324,1.000
1624333169709867.000,0.488,-5.859,-73.242,-14.648,1.000
1624333169713773.250,-18.066,-21.484,-34.180,-45.410,1.000
1624333169717679.500,-32.227,-57.129,-23.926,-20.020,1.000
1624333169721585.750,-26.367,-41.992,-17.090,9.277,1.000
1624333169725492.000,-33.691,-34.668,-30.273,-36.621,1.000
1624333169729398.250,-55.664,-65.918,-45.410,-88.867,1.000
1624333169733304.500,-56.152,-76.660,-58.105,-57.617,1.000
1624333169737210.750,-29.785,-48.828,-66.895,6.348,1.000
1624333169741117.000,-34.180,-66.406,-76.660,-6.348,1.000
1624333169745023.250,-36.133,-76.172,-59.570,-35.156,1.000
1624333169748929.500,-58.594,-48.828,-71.289,-103.516,1.000
1624333169752835.750,-72.266,-65.918,-80.566,-88.379,1.000
1624333169756742.000,-38.574,-62.500,-62.988,-11.719,1.000
1624333169760648.250,-14.648,-27.832,-53.711,-11.719,1.000
1624333169764554.500,-26.855,-32.227,-58.105,-66.406,1.000
1624333169768460.750,-39.551,-73.730,-63.965,-67.383,1.000
1624333169772367.000,-16.602,-70.312,-48.828,8.301,1.000
1624333169776273.250,1.953,-16.602,-22.461,29.297,1.000
1624333169780179.500,-24.414,-19.531,-58.105,-43.945,1.000
1624333169784085.750,-59.570,-59.570,-103.027,-85.449,1.000
1624333169787992.000,-27.832,-59.570,-63.477,1.000,1.000
1624333169791898.250,5.859,-33.691,-53.223,1.000,1.000
1624333169795804.500,-26.367,-27.344,-87.891,1.000,1.000
1624333169799710.750,-50.781,-50.293,-72.266,1.000,1.000
1624333169803617.000,-29.785,-52.246,-57.129,1.000,1.000
1624333169807523.250,7.324,-23.926,-39.551,1.000,1.000
1624333169811429.500,-18.066,-35.645,-40.527,1.000,1.000
1624333169815335.750,-72.266,-64.453,-84.473,1.000,1.000
1624333169819242.000,-74.707,-68.848,-96.680,1.000,1.000
1624333169823148.250,-33.691,-65.918,-87.402,1.000,1.000
1624333169827054.500,-3.906,-73.242,-78.613,1.000,1.000
1624333169830960.750,-32.715,-78.125,-72.266,1.000,1.000
1624333169834867.000,-33.691,-74.219,-99.121,-49.316,1.000
1624333169838773.250,-46.387,-64.941,-66.406,36.621,1.000
1624333169842679.500,-29.785,-62.012,-37.598,55.664,1.000
1624333169846585.750,1.465,-52.246,-25.879,-8.301,1.000
1624333169850492.000,2.930,-44.434,-59.570,-52.246,1.000
1624333169854398.250,-20.508,-54.688,-84.473,-12.207,1.000
1624333169858304.500,-45.410,-60.059,-84.473,24.414,1.000
1624333169862210.750,-20.020,-40.527,-99.121,-33.691,1.000
1624333169866117.000,-20.020,-51.758,-107.422,-89.355,1.000
1624333169870023.250,-49.316,-79.102,-98.145,-41.992,1.000
1624333169873929.500,-23.926,-63.965,-83.984,29.297,1.000
1624333169877835.750,6.348,-54.688,-73.242,7.324,1.000
1624333169881742.000,-15.625,-70.801,-91.797,8.301,1.000
1624333169885648.250,-10.254,-111.816,-104.004,13.672,1.000
1624333169889554.500,-37.598,-114.258,-87.891,-63.477,1.000
1624333169893460.750,-43.945,-49.805,-75.195,-75.195,1.000
1624333169897367.000,-10.742,-21.484,-58.594,-3.418,1.000
1624333169901273.250,2.441,-49.316,-45.410,25.391,1.000
1624333169905179.500,-27.832,-69.824,-81.543,-37.109,1.000
1624333169909085.750,-34.180,-44.434,-101.562,-72.754,1.000
1624333169912992.000,-15.137,-43.945,-92.773,-25.879,1.000
1624333169916898.250,-6.836,-64.941,-90.332,18.555,1.000
1624333169920804.500,-8.789,-83.008,-109.375,-13.184,1.000
1624333169924710.750,-30.762,-99.609,-126.465,-76.172,1.000
1624333169928617.000,-19.531,-79.102,-90.820,1.000,1.000
1624333169932523.250,-2.441,-75.684,-58.105,1.000,1.000
1624333169936429.500,-42.480,-99.121,-81.543,1.000,1.000
1624333169940335.750,-67.871,-93.750,-83.496,1.000,1.000
1624333169944242.000,-67.871,-57.617,-70.801,1.000,1.000
1624333169948148.250,-34.668,-38.574,-69.336,1.000,1.000
1624333169952054.500,-2.441,-57.617,-83.984,1.000,1.000
1624333169955960.750,-23.438,-78.613,-105.957,1.000,1.000
1624333169959867.000,-47.852,-95.703,-128.906,1.000,1.000
1624333169963773.250,-20.020,-92.773,-96.680,1.000,1.000
1624333169967679.500,-1.953,-68.359,-65.430,1.000,1.000
1624333169971585.750,-39.062,-63.477,-86.914,1.000,1.000
1624333169975492.000,31.250,-58.594,-117.676,35.645,1.000
1624333169979398.250,3.906,-65.918,-141.113,-39.551,1.000
1624333169983304.500,17.578,-53.223,-108.887,-30.273,1.000
1624333169987210.750,45.410,-40.039,-84.473,41.992,1.000
1624333169991117.000,37.598,-48.340,-101.562,47.852,1.000
1624333169995023.250,10.742,-60.059,-127.930,-15.625,1.000
1624333169998929.500,4.395,-87.402,-139.160,-48.828,1.000
1624333170002835.750,-7.324,-80.078,-131.836,-26.855,1.000
1624333170006742.000,-22.461,-39.551,-112.793,-9.277,1.000
1624333170010648.250,-39.551,-35.645,-102.539,-54.688,1.000
1624333170014554.500,-41.016,-37.598,-116.211,-95.703,1.000
1624333170018460.750,-27.344,-35.156,-118.652,-52.246,1.000
1624333170022367.000,-19.043,-63.965,-111.328,1.000,1.000
1624333170026273.250,-8.301,-85.938,-102.051,1.000,1.000
1624333170030179.500,-4.395,-49.805,-82.031,1.000,1.000
1624333170034085.750,-14.648,-51.270,-90.332,1.000,1.000
1624333170037992.000,-3.906,-94.238,-116.211,1.000,1.000
1624333170041898.250,5.371,-91.309,-122.070,1.000,1.000
1624333170045804.500,-19.531,-66.895,-101.562,1.000,1.000
1624333170049710.750,-17.090,-40.527,-82.031,1.000,1.000
1624333170053617.000,-5.859,-49.316,-94.727,1.000,1.000
1624333170057523.250,-20.020,-60.059,-122.559,1.000,1.000
1624333170061429.500,-48.828,-60.547,-125.488,1.000,1.000
1624333170065335.750,-58.105,-72.266,-114.746,1.000,1.000
1624333170069242.000,-106.445,-145.508,-52.734,-125.488,1.000
1624333170073148.250,-121.582,-144.531,-69.336,-133.301,1.000
1624333170077054.500,-92.285,-109.375,-92.773,-50.781,1.000
1624333170080960.750,-78.125,-104.004,-90.820,-28.320,1.000
1624333170084867.000,-78.613,-116.699,-82.031,-74.707,1.000
1624333170088773.250,-80.078,-131.348,-73.730,-89.355,1.000
1624333170092679.500,-51.270,-113.770,-61.523,-24.414,1.000
1624333170096585.750,-47.852,-105.469,-82.031,-0.488,1.000
1624333170100492.000,-91.797,-105.957,-118.164,-88.867,1.000
1624333170104398.250,-114.258,-106.934,-125.000,-127.930,1.000
1624333170108304.500,-92.285,-139.160,-113.770,-62.988,1.000
1624333170112210.750,-54.688,-147.461,-124.023,2.441,1.000
1624333170116117.000,-18.066,-102.539,-98.633,16.602,1.000
1624333170120023.250,-11.230,-93.750,-64.941,0.488,1.000
1624333170123929.500,-24.414,-85.938,-71.289,-46.875,1.000
1624333170127835.750,-33.691,-106.934,-89.355,-22.949,1.000
1624333170131742.000,-20.508,-105.957,-102.051,31.738,1.000
1624333170135648.250,-42.480,-82.520,-113.281,-10.254,1.000
1624333170139554.500,-51.270,-78.613,-83.984,-61.035,1.000
1624333170143460.750,-21.484,-64.453,-66.406,-27.344,1.000
1624333170147367.000,-17.578,-74.707,-104.004,16.113,1.000
1624333170151273.250,-24.414,-110.352,-107.910,11.230,1.000
1624333170155179.500,-29.297,-98.633,-96.191,-33.691,1.000
1624333170159085.750,-33.691,-71.777,-104.004,-44.434,1.000
1624333170162992.000,-71.777,-66.406,-84.961,-72.754,1.000
1624333170166898.250,-50.781,-77.637,-91.309,-10.742,1.000
1624333170170804.500,-28.809,-63.477,-96.191,14.160,1.000
1624333170174710.750,-22.461,-48.340,-95.703,-33.203,1.000
1624333170178617.000,-20.508,-58.594,-82.520,-50.293,1.000
1624333170182523.250,-7.324,-90.820,-88.867,5.859,1.000
1624333170186429.500,-17.090,-114.746,-119.629,14.648,1.000
1624333170190335.750,-47.852,-94.727,-114.258,-43.945,1.000
1624333170194242.000,-48.828,-71.777,-81.543,-71.289,1.000
1624333170198148.250,-23.926,-93.262,-75.684,-17.578,1.000
1624333170202054.500,17.578,-76.172,-63.965,53.223,1.000
1624333170205960.750,11.230,-61.523,-84.961,12.207,1.000
1624333170209867.000,-19.043,-59.082,-137.207,1.000,1.000
1624333170213773.250,-41.016,-86.914,-116.699,1.000,1.000
1624333170217679.500,-17.090,-96.191,-62.012,1.000,1.000
1624333170221585.750,0.000,-88.379,-50.781,1.000,1.000
1624333170225492.000,-36.621,-102.539,-85.938,1.000,1.000
1624333170229398.250,-62.012,-87.402,-94.727,1.000,1.000
1624333170233304.500,-51.270,-54.199,-71.289,1.000,1.000
1624333170237210.750,-27.344,-54.688,-69.336,1.000,1.000
1624333170241117.000,-18.066,-85.938,-65.918,1.000,1.000
1624333170245023.250,-15.625,-72.754,-72.754,1.000,1.000
1624333170248929.500,-26.855,-75.684,-109.863,1.000,1.000
1624333170252835.750,-30.762,-98.633,-114.258,1.000,1.000
1624333170256742.000,-157.715,-68.359,-57.617,-110.840,1.000
1624333170260648.250,-187.012,-74.219,-84.961,-153.809,1.000
1624333170264554.500,-231.934,-76.172,-83.496,-250.977,1.000
1624333170268460.750,-228.516,-72.266,-63.477,-260.254,1.000
1624333170272367.000,-213.867,-85.449,-80.078,-211.426,1.000
1624333170276273.250,-191.895,-63.965,-91.797,-176.758,1.000
1624333170280179.500,-208.496,-72.754,-114.746,-245.605,1.000
1624333170284085.750,-221.680,-84.473,-121.094,-294.434,1.000
1624333170287992.000,-167.480,-45.898,-107.910,-208.008,1.000
1624333170291898.250,-136.230,-19.043,-137.207,-150.391,1.000
1624333170295804.500,-150.391,-20.020,-154.785,-199.707,1.000
1624333170299710.750,-148.438,-38.086,-149.902,-238.770,1.000
1624333170303617.000,-110.352,-40.039,-153.320,1.000,1.000
1624333170307523.250,-71.289,-20.996,-146.973,1.000,1.000
1624333170311429.500,-60.547,-32.227,-135.742,1.000,1.000
1624333170315335.750,-55.664,-37.598,-127.441,1.000,1.000
1624333170319242.000,-33.691,-24.902,-117.676,1.000,1.000
1624333170323148.250,-11.230,-33.691,-125.000,1.000,1.000
1624333170327054.500,5.371,-45.410,-127.930,1.000,1.000
1624333170330960.750,8.301,-59.570,-131.348,1.000,1.000
1624333170334867.000,13.184,-56.641,-112.305,1.000,1.000
1624333170338773.250,41.016,-39.062,-78.613,1.000,1.000
1624333170342679.500,64.941,-41.504,-92.285,1.000,1.000
1624333170346585.750,68.848,-56.152,-98.145,1.000,1.000
1624333170350492.000,45.898,-40.039,-63.965,54.688,1.000
1624333170354398.250,19.043,-25.879,-70.312,-13.184,1.000
1624333170358304.500,12.695,-24.414,-78.125,-17.090,1.000
1624333170362210.750,22.949,-62.988,-67.871,26.855,1.000
1624333170366117.000,27.832,-84.961,-78.125,40.039,1.000
1624333170370023.250,10.742,-74.219,-73.242,-0.488,1.000
1624333170373929.500,6.348,-54.688,-46.875,-23.438,1.000
1624333170377835.750,27.344,-59.082,-46.875,24.414,1.000
1624333170381742.000,28.809,-81.543,-81.055,56.641,1.000
1624333170385648.250,1.465,-62.500,-83.008,2.930,1.000
1624333170389554.500,-33.203,-48.340,-62.500,-64.453,1.000
1624333170393460.750,-31.738,-57.617,-66.895,-42.969,1.000
1624333170397367.000,7.324,-49.316,-48.340,1.000,1.000
1624333170401273.250,15.625,-60.059,-40.039,1.000,1.000
1624333170405179.500,-5.859,-64.941,-69.824,1.000,1.000
1624333170409085.750,1.465,-30.273,-93.262,1.000,1.000
1624333170412992.000,29.785,-38.574,-95.215,1.000,1.000
1624333170416898.250,33.691,-56.641,-78.613,1.000,1.000
1624333170420804.500,9.766,-44.922,-59.570,1.000,1.000
1624333170424710.750,-12.207,-46.875,-62.500,1.000,1.000
1624333170428617.000,7.324,-69.824,-72.754,1.000,1.000
1624333170432523.250,5.371,-89.844,-76.172,1.000,1.000
1624333170436429.500,-16.602,-81.055,-52.246,1.000,1.000
1624333170440335.750,-25.391,-62.500,-31.738,1.000,1.000
1624333170444242.000,-41.992,-45.898,-78.613,6.348,1.000
1624333170448148.250,-24.902,-61.035,-93.262,56.641,1.000
1624333170452054.500,-25.391,-85.938,-68.359,10.254,1.000
1624333170455960.750,-34.180,-86.426,-43.457,-38.086,1.000
1624333170459867.000,-32.715,-66.406,-25.879,-29.297,1.000
1624333170463773.250,-67.871,-85.938,-48.340,27.832,1.000
1624333170467679.500,-36.133,-75.684,-58.105,36.621,1.000
1624333170471585.750,15.137,-61.523,-43.457,-28.809,1.000
1624333170475492.000,-30.273,-105.957,-73.730,-60.547,1.000
1624333170479398.250,-69.336,-96.680,-66.895,-22.949,1.000
1624333170483304.500,-38.086,-50.781,-38.574,0.977,1.000
1624333170487210.750,-2.441,-46.387,-48.340,-37.598,1.000
1624333170491117.000,-24.414,-44.922,-49.316,5.371,1.000
1624333170495023.250,-41.992,-61.035,-44.434,-48.828,1.000
1624333170498929.500,-61.035,-46.387,-44.434,-93.750,1.000
1624333170502835.750,-72.266,-55.176,-41.016,-66.895,1.000
1624333170506742.000,-68.848,-65.430,-42.480,-34.180,1.000
1624333170510648.250,-85.938,-62.988,-57.617,-65.430,1.000
1624333170514554.500,-130.371,-51.270,-57.129,-140.137,1.000
1624333170518460.750,-153.809,-44.922,-43.945,-161.621,1.000
1624333170522367.000,-151.367,-48.828,-46.387,-113.770,1.000
1624333170526273.250,-167.969,-52.246,-52.734,-125.977,1.000
1624333170530179.500,-215.332,-50.293,-46.387,-219.727,1.000
1624333170534085.750,-236.816,-50.293,-26.367,-250.000,1.000
1624333170537992.000,-216.797,-73.242,-18.066,1.000,1.000
1624333170541898.250,-191.895,-65.918,-24.414,1.000,1.000
1624333170545804.500,-200.684,-62.500,-42.969,1.000,1.000
1624333170549710.750,-215.820,-83.984,-56.641,1.000,1.000
1624333170553617.000,-205.078,-109.863,-78.125,1.000,1.000
1624333170557523.250,-183.105,-93.750,-83.008,1.000,1.000
1624333170561429.500,-175.781,-34.180,-69.336,1.000,1.000
1624333170565335.750,-229.492,-39.551,-84.961,1.000,1.000
1624333170569242.000,-226.562,-38.086,-70.312,1.000,1.000
1624333170573148.250,-166.016,-28.809,-59.082,1.000,1.000
1624333170577054.500,-138.184,-34.668,-59.570,1.000,1.000
1624333170580960.750,-130.371,-48.340,-56.641,1.000,1.000
1624333170584867.000,57.617,-41.016,-42.969,54.688,1.000
1624333170588773.250,33.203,-40.039,-54.688,0.977,1.000
1624333170592679.500,31.250,-59.082,-61.523,24.902,1.000
1624333170596585.750,85.449,-50.293,-57.617,104.980,1.000
1624333170600492.000,81.055,-56.152,-61.035,77.637,1.000
1624333170604398.250,35.156,-87.891,-55.176,-0.488,1.000
1624333170608304.500,51.270,-74.219,-48.828,25.879,1.000
1624333170612210.750,62.988,-51.758,-64.453,68.848,1.000
1624333170616117.000,24.902,-32.227,-69.336,27.344,1.000
1624333170620023.250,-17.578,-24.414,-69.336,-41.504,1.000
1624333170623929.500,-22.461,-39.062,-76.172,-44.922,1.000
1624333170627835.750,9.766,-39.062,-48.828,27.344,1.000
1624333170631742.000,34.668,-30.273,-20.020,1.000,1.000
1624333170635648.250,23.926,-52.734,-26.855,1.000,1.000
1624333170639554.500,19.043,-48.340,-15.137,1.000,1.000
1624333170643460.750,19.531,-33.203,-25.879,1.000,1.000
1624333170647367.000,6.348,-41.992,-59.082,1.000,1.000
1624333170651273.250,0.000,-22.949,-51.758,1.000,1.000
1624333170655179.500,3.906,-15.625,-74.707,1.000,1.000
1624333170659085.750,25.879,-43.457,-81.543,1.000,1.000
1624333170662992.000,37.598,-46.875,-47.363,1.000,1.000
1624333170666898.250,31.738,-43.457,-27.832,1.000,1.000
1624333170670804.500,16.602,-57.129,-14.160,1.000,1.000
1624333170674710.750,10.254,-45.410,-2.930,1.000,1.000
1624333170678617.000,20.996,-26.367,-6.836,1.000,1.000
1624333170682523.250,1.465,-33.203,-41.016,1.000,1.000
1624333170686429.500,-35.645,-47.363,-60.547,1.000,1.000
1624333170690335.750,-38.086,-53.223,-58.594,1.000,1.000
1624333170694242.000,-7.812,-46.875,-58.594,1.000,1.000
1624333170698148.250,18.066,-37.598,-41.992,1.000,1.000
1624333170702054.500,5.371,-34.668,-37.598,1.000,1.000
1624333170705960.750,-8.301,-19.043,-42.969,1.000,1.000
1624333170709867.000,7.324,-5.859,-41.992,1.000,1.000
1624333170713773.250,22.461,-1.465,-21.973,1.000,1.000
1624333170717679.500,18.066,-27.832,0.488,1.000,1.000
1624333170721585.750,-10.254,-50.781,-12.695,1.000,1.000
1624333170725492.000,6.348,-27.344,-37.598,1.000,1.000
1624333170729398.250,14.648,-54.199,-54.199,1.000,1.000
1624333170733304.500,-12.695,-75.684,-52.246,1.000,1.000
1624333170737210.750,-20.508,-52.246,-29.785,1.000,1.000
1624333170741117.000,-12.207,-31.738,-33.691,1.000,1.000
1624333170745023.250,-3.418,-15.625,-72.266,1.000,1.000
1624333170748929.500,-17.090,-28.809,-89.844,1.000,1.000
1624333170752835.750,-30.762,-60.059,-55.176,1.000,1.000
1624333170756742.000,-18.555,-53.711,-41.504,1.000,1.000
1624333170760648.250,13.184,-34.180,-82.520,1.000,1.000
1624333170764554.500,16.602,-43.945,-81.055,1.000,1.000
1624333170768460.750,-15.625,-50.781,-26.855,1.000,1.000
1624333170772367.000,-32.227,-43.945,-61.523,-77.637,1.000
1624333170776273.250,-38.086,-45.898,-80.566,-39.062,1.000
1624333170780179.500,2.930,-47.852,-64.453,32.227,1.000
1624333170784085.750,27.832,-46.875,-49.805,-0.488,1.000
1624333170787992.000,2.441,-32.715,-30.273,-63.477,1.000
1624333170791898.250,-10.742,-15.137,6.348,-32.227,1.000
1624333170795804.500,9.277,-9.277,2.441,25.879,1.000
1624333170799710.750,-4.395,-36.133,-40.039,-6.348,1.000
1624333170803617.000,-37.109,-49.316,-50.781,-76.172,1.000
1624333170807523.250,-48.340,-22.461,-31.250,-81.055,1.000
1624333170811429.500,-45.898,-22.949,-37.598,-25.391,1.000
1624333170815335.750,-27.344,-46.875,-61.035,0.000,1.000
1624333170819242.000,-12.207,-48.828,-76.660,1.000,1.000
1624333170823148.250,-18.555,-54.688,-67.871,1.000,1.000
1624333170827054.500,-44.434,-53.223,-41.504,1.000,1.000
1624333170830960.750,-34.180,-39.062,-14.160,1.000,1.000
1624333170834867.000,-3.418,-16.602,8.789,1.000,1.000
1624333170838773.250,-18.555,-4.883,-5.371,1.000,1.000
1624333170842679.500,-33.691,-28.320,-14.160,1.000,1.000
1624333170846585.750,-23.438,-42.969,-30.273,1.000,1.000
1624333170850492.000,-14.160,-45.410,-61.035,1.000,1.000
1624333170854398.250,-23.438,-33.203,-77.148,1.000,1.000
1624333170858304.500,-45.898,-17.090,-68.848,1.000,1.000
1624333170862210.750,-35.156,-29.785,-26.855,1.000,1.000
1624333170866117.000,-27.832,-69.336,-43.945,-27.832,1.000
1624333170870023.250,-8.789,-51.270,-60.547,20.020,1.000
1624333170873929.500,-22.461,-41.016,-72.266,-20.508,1.000
1624333170877835.750,-47.852,-31.738,-78.613,-83.008,1.000
1624333170881742.000,-35.645,-13.672,-55.664,-59.570,1.000
1624333170885648.250,-20.508,-35.156,-27.344,0.488,1.000
1624333170889554.500,-22.949,-35.645,-23.438,-11.230,1.000
1624333170893460.750,-32.227,-23.926,-30.273,-65.430,1.000
1624333170897367.000,-23.926,-39.062,-39.062,-53.711,1.000
1624333170901273.250,7.324,-36.621,-33.691,11.719,1.000
1624333170905179.500,15.625,-31.738,-56.152,20.020,1.000
1624333170909085.750,-15.137,-43.945,-68.848,-45.410,1.000
1624333170912992.000,-1.465,-32.227,-59.570,-15.137,1.000
1624333170916898.250,-17.090,-62.012,-72.754,-33.691,1.000
1624333170920804.500,3.418,-60.059,-57.617,28.809,1.000
1624333170924710.750,22.461,-23.926,-10.254,53.223,1.000
1624333170928617.000,-5.859,-14.648,-6.836,-16.602,1.000
1624333170932523.250,-25.879,-27.832,-43.457,-60.059,1.000
1624333170936429.500,-12.695,-47.852,-32.227,-11.719,1.000
1624333170940335.750,8.789,-54.688,-6.348,41.504,1.000
1624333170944242.000,-6.836,-41.016,-42.969,-6.348,1.000
1624333170948148.250,-29.785,-26.855,-73.730,-60.059,1.000
1624333170952054.500,-8.301,-23.926,-46.387,-10.254,1.000
1624333170955960.750,30.273,-33.691,-13.184,54.199,1.000
1624333170959867.000,5.371,-38.574,-37.109,1.000,1.000
1624333170963773.250,-55.176,-51.758,-49.805,1.000,1.000
1624333170967679.500,-48.828,-51.758,-27.832,1.000,1.000
1624333170971585.750,-7.324,-22.949,-37.598,1.000,1.000
1624333170975492.000,-0.977,-4.395,-36.621,1.000,1.000
1624333170979398.250,-34.180,-9.277,-42.480,1.000,1.000
1624333170983304.500,-39.551,-21.973,-42.969,1.000,1.000
1624333170987210.750,-23.438,-56.152,-22.461,1.000,1.000
1624333170991117.000,-10.254,-66.406,-17.090,1.000,1.000
1624333170995023.250,-30.273,-55.664,-29.785,1.000,1.000
1624333170998929.500,-47.852,-46.875,-39.551,1.000,1.000
1624333171002835.750,-28.809,-29.785,-54.688,1.000,1.000
1624333171006742.000,-10.254,-21.484,-32.227,1.000,1.000
1624333171010648.250,-15.137,-33.691,-17.578,1.000,1.000
1624333171014554.500,-17.090,-28.320,-50.293,1.000,1.000
1624333171018460.750,-1.953,-7.812,-37.598,1.000,1.000
1624333171022367.000,-4.395,-45.898,-1.953,1.000,1.000
1624333171026273.250,-29.785,-89.355,-12.207,1.000,1.000
1624333171030179.500,-50.781,-58.105,-31.250,1.000,1.000
1624333171034085.750,-35.645,-32.227,-27.344,1.000,1.000
1624333171037992.000,-12.695,-38.086,-35.156,1.000,1.000
1624333171041898.250,-6.836,-33.203,-35.156,1.000,1.000
1624333171045804.500,-24.902,-29.785,-31.738,1.000,1.000
1624333171049710.750,-38.574,-35.645,-53.223,1.000,1.000
1624333171053617.000,-31.738,-59.570,-39.551,-64.453,1.000
1624333171057523.250,-14.648,-49.316,-58.594,-10.742,1.000
1624333171061429.500,-28.320,-35.156,-67.871,-18.066,1.000
1624333171065335.750,-54.688,-48.340,-61.035,-83.984,1.000
1624333171069242.000,-52.734,-37.598,-45.410,-93.750,1.000
1624333171073148.250,-17.578,-21.973,-21.973,-14.160,1.000
1624333171077054.500,-0.488,-35.645,-45.898,30.273,1.000
1624333171080960.750,-11.230,-23.926,-69.824,-16.602,1.000
1624333171084867.000,-39.551,-28.809,-56.641,-69.824,1.000
1624333171088773.250,-34.668,-44.434,-39.062,-38.574,1.000
1624333171092679.500,-3.418,-28.320,-15.137,22.461,1.000
1624333171096585.750,-6.836,-16.602,-16.602,-4.883,1.000
1624333171100492.000,-40.039,-12.695,-56.152,1.000,1.000
1624333171104398.250,-43.945,-26.367,-75.684,1.000,1.000
1624333171108304.500,-17.090,-29.785,-48.340,1.000,1.000
1624333171112210.750,-23.926,-28.809,-39.062,1.000,1.000
1624333171116117.000,-39.551,-48.828,-39.551,1.000,1.000
1624333171120023.250,-30.273,-50.293,-27.832,1.000,1.000
1624333171123929.500,-21.973,-52.734,-40.527,1.000,1.000
1624333171127835.750,-7.812,-44.922,-50.293,1.000,1.000
1624333171131742.000,-3.418,-20.508,-34.180,1.000,1.000
1624333171135648.250,-26.855,-19.043,-40.039,1.000,1.000
1624333171139554.500,-17.578,-29.297,-40.039,1.000,1.000
1624333171143460.750,6.348,-41.992,-24.902,1.000,1.000
1624333171147367.000,-19.531,-65.430,-22.461,1.000,1.000
1624333171151273.250,-45.410,-57.617,-21.973,1.000,1.000
1624333171155179.500,-17.578,-8.789,-18.066,1.000,1.000
1624333171159085.750,-7.812,-19.043,-24.414,1.000,1.000
1624333171162992.000,-23.438,-50.293,-21.484,1.000,1.000
1624333171166898.250,-41.016,-41.992,-14.648,1.000,1.000
1624333171170804.500,-54.688,-37.109,-35.645,1.000,1.000
1624333171174710.750,-42.480,-34.668,-55.176,1.000,1.000
1624333171178617.000,-22.461,-18.066,-45.410,1.000,1.000
1624333171182523.250,-30.273,-19.043,-36.133,1.000,1.000
1624333171186429.500,-40.039,-44.434,-23.438,1.000,1.000
1624333171190335.750,-40.527,-62.012,-33.691,1.000,1.000
1624333171194242.000,-12.207,-48.828,-56.641,13.184,1.000
1624333171198148.250,-5.371,-59.082,-38.086,22.461,1.000
1624333171202054.500,-39.062,-54.199,-40.039,-61.035,1.000
1624333171205960.750,-75.684,-46.387,-37.109,-99.121,1.000
1624333171209867.000,-51.270,-54.199,-25.879,-26.855,1.000
1624333171213773.250,-28.809,-42.969,-35.645,7.324,1.000
1624333171217679.500,-45.898,-27.344,-28.320,-53.711,1.000
1624333171221585.750,-58.594,-32.715,-17.090,-94.238,1.000
1624333171225492.000,-52.734,-42.969,-29.297,-57.129,1.000
1624333171229398.250,-23.438,-33.203,-27.832,4.395,1.000
1624333171233304.500,-14.648,-9.766,-20.996,-9.277,1.000
1624333171237210.750,-17.578,7.324,-17.578,-48.340,1.000
1624333171241117.000,-48.828,-21.973,-43.457,-79.590,1.000
1624333171245023.250,-41.992,-29.297,-37.109,-42.969,1.000
1624333171248929.500,1.465,-37.109,-19.043,29.785,1.000
1624333171252835.750,1.953,-43.457,-8.301,5.859,1.000
1624333171256742.000,-41.992,-51.758,-27.832,-70.801,1.000
1624333171260648.250,-52.246,-42.480,-56.641,-57.617,1.000
1624333171264554.500,-36.621,-38.086,-63.477,-2.441,1.000
1624333171268460.750,-23.438,-33.691,-55.176,0.977,1.000
1624333171272367.000,-51.270,-36.133,-37.109,-62.988,1.000
1624333171276273.250,-66.406,-40.527,-12.207,-80.566,1.000
1624333171280179.500,-20.020,-33.691,-10.742,-6.348,1.000
1624333171284085.750,-1.465,-26.855,-14.160,33.691,1.000
1624333171287992.000,-19.531,-17.578,-46.875,3.418,1.000
1624333171291898.250,-44.922,-31.738,-55.176,-68.359,1.000
1624333171295804.500,-52.734,-40.527,-44.922,-76.660,1.000
1624333171299710.750,-15.137,-10.254,-29.785,17.578,1.000
1624333171303617.000,-0.488,-29.297,-20.996,37.109,1.000
1624333171307523.250,-29.785,-51.270,-25.391,-46.875,1.000
1624333171311429.500,-56.641,-33.691,-35.645,-88.867,1.000
1624333171315335.750,-37.109,-41.992,-48.828,-34.180,1.000
1624333171319242.000,-9.766,-53.711,-47.363,13.672,1.000
1624333171323148.250,-23.926,-52.246,-63.477,-21.973,1.000
1624333171327054.500,-46.875,-29.297,-69.824,-67.871,1.000
1624333171330960.750,-48.828,-21.973,-28.320,-50.781,1.000
1624333171334867.000,-30.273,-19.043,2.441,1.000,1.000
1624333171338773.250,-33.691,-18.555,-2.930,1.000,1.000
1624333171342679.500,-66.895,-28.320,-6.348,1.000,1.000
1624333171346585.750,-64.453,-25.879,-10.254,1.000,1.000
1624333171350492.000,-44.434,-35.645,-35.645,1.000,1.000
1624333171354398.250,-19.531,-27.344,-14.648,1.000,1.000
1624333171358304.500,-12.695,-16.602,-7.324,1.000,1.000
1624333171362210.750,-42.969,-45.410,-73.730,1.000,1.000
1624333171366117.000,-37.598,-76.172,-89.844,1.000,1.000
1624333171370023.250,-0.488,-61.523,-49.805,1.000,1.000
1624333171373929.500,-17.578,-41.016,-54.688,1.000,1.000
1624333171377835.750,-48.340,-35.156,-69.336,1.000,1.000
1624333171381742.000,-41.504,-22.461,-21.973,-70.312,1.000
1624333171385648.250,-19.531,-8.301,-14.160,-21.973,1.000
1624333171389554.500,3.418,-20.996,-17.090,30.273,1.000
1624333171393460.750,-1.465,-49.805,-30.273,1.465,1.000
1624333171397367.000,-17.090,-27.832,-12.207,-40.527,1.000
1624333171401273.250,-33.691,-33.203,-37.598,-40.039,1.000
1624333171405179.500,-22.461,-68.359,-115.723,-0.488,1.000
1624333171409085.750,-18.555,-67.871,-83.984,3.418,1.000
1624333171412992.000,-44.434,-52.246,-2.441,-62.988,1.000
1624333171416898.250,-41.016,-17.090,20.508,-74.219,1.000
1624333171420804.500,-25.879,-0.977,-6.836,-15.137,1.000
1624333171424710.750,-15.625,-18.555,-24.902,9.277,1.000
1624333171428617.000,-31.738,-35.156,-24.414,1.000,1.000
1624333171432523.250,-57.129,-51.270,-21.484,1.000,1.000
1624333171436429.500,-33.203,-34.668,-12.207,1.000,1.000
1624333171440335.750,1.953,4.883,-5.371,1.000,1.000
1624333171444242.000,-29.785,-2.930,-31.738,1.000,1.000
1624333171448148.250,-59.082,-28.320,-49.316,1.000,1.000
1624333171452054.500,-39.062,-26.855,-27.344,1.000,1.000
1624333171455960.750,-27.344,-36.133,-31.738,1.000,1.000
1624333171459867.000,-40.039,-47.852,-45.410,1.000,1.000
1624333171463773.250,-57.617,-50.293,-48.340,1.000,1.000
1624333171467679.500,-40.527,-53.711,-53.223,1.000,1.000
1624333171471585.750,3.418,-55.664,-38.574,1.000,1.000
1624333171475492.000,17.090,-37.598,-14.648,1.000,1.000
1624333171479398.250,-19.043,-21.973,-20.508,1.000,1.000
1624333171483304.500,-52.246,-35.645,-33.691,1.000,1.000
1624333171487210.750,-30.762,-46.387,-21.484,1.000,1.000
1624333171491117.000,-5.859,-49.316,-11.719,1.000,1.000
1624333171495023.250,-14.648,-27.344,-2.930,1.000,1.000
1624333171498929.500,-17.090,0.000,8.301,1.000,1.000
1624333171502835.750,0.000,-19.531,-18.555,1.000,1.000
1624333171506742.000,0.488,-52.246,-40.527,1.000,1.000
1624333171510648.250,-36.133,-60.547,-52.734,1.000,1.000
1624333171514554.500,-71.777,-62.500,-59.082,1.000,1.000
1624333171518460.750,-64.941,-43.945,-26.855,1.000,1.000
1624333171522367.000,-28.320,-30.762,-17.578,1.000,1.000
1624333171526273.250,-14.648,-33.691,-16.602,1.000,1.000
1624333171530179.500,-12.695,-32.715,4.395,1.000,1.000
1624333171534085.750,-1.465,-32.715,10.742,1.000,1.000
1624333171537992.000,0.488,-36.133,-24.902,1.000,1.000
1624333171541898.250,2.930,-39.551,-49.316,1.000,1.000
1624333171545804.500,0.977,-22.949,-20.996,1.000,1.000
1624333171549710.750,-30.762,-26.367,-16.113,1.000,1.000
1624333171553617.000,-42.969,-32.227,-33.203,1.000,1.000
1624333171557523.250,-26.855,-14.160,-26.367,1.000,1.000
1624333171561429.500,-26.855,-7.324,-10.254,1.000,1.000
1624333171565335.750,-41.504,-16.602,-4.883,1.000,1.000
