timestamps,TP9,AF7,AF8,TP10
1628105811.474,-1000.000,-75.684,-75.684,-851.074
1628105811.478,-451.172,-64.941,-76.660,-389.160
1628105811.482,-975.586,-3.906,13.184,672.363
1628105811.486,604.492,-2.441,-3.418,390.137
1628105811.490,-874.512,-15.137,-30.273,-618.652
1628105811.494,-780.762,1.465,-40.039,-533.691
1628105811.498,649.902,-1.465,-24.902,464.844
1628105811.501,895.020,-21.973,-18.555,577.637
1628105811.505,-446.289,-46.875,-12.695,-404.785
1628105811.509,-1000.000,-48.828,-29.785,-732.910
1628105811.513,155.273,-19.043,-61.035,166.504
1628105811.517,-880.371,-18.066,-15.625,718.262
1628105811.518,-204.590,14.648,-26.367,-111.816
1628105811.522,-854.004,35.156,-36.621,647.949
1628105811.526,332.031,-26.855,-14.648,130.859
1628105811.530,-1000.000,-34.180,-13.672,-714.844
1628105811.534,-578.613,-63.477,-29.297,-359.863
1628105811.537,887.695,26.855,-14.648,569.336
1628105811.541,691.406,64.453,-1.953,436.523
1628105811.545,-773.438,-80.566,-27.344,-570.312
1628105811.549,-883.789,-70.801,-14.648,-590.820
1628105811.553,488.770,-58.594,-20.996,378.906
1628105811.602,-998.535,20.020,-17.578,631.348
1628105811.606,-295.898,10.254,-32.715,-329.590
1628105811.610,-1000.000,-79.102,-58.594,-770.020
1628105811.614,64.941,-68.359,-39.551,112.793
1628105811.618,-854.980,-61.523,-31.738,693.359
1628105811.622,142.090,65.430,8.301,3.906
1628105811.626,-1000.000,18.066,8.301,-746.582
1628105811.629,-384.277,-89.844,-34.180,-210.449
1628105811.633,-914.062,-43.457,-33.203,662.109
1628105811.637,417.480,-62.012,-27.832,225.098
1628105811.641,-1000.000,-97.656,-45.898,-725.098
1628105811.645,-646.484,-69.336,-44.434,-439.941
1628105811.621,817.383,-25.391,-19.043,559.082
1628105811.625,775.879,-54.199,-32.227,488.281
1628105811.629,-657.715,-25.391,-22.949,-483.398
1628105811.633,-922.363,15.625,-7.812,-574.219
1628105811.637,422.363,-31.250,-23.926,373.047
1628105811.641,-948.242,-33.203,-16.113,697.754
1628105811.645,-215.332,-85.449,-35.645,-257.324
1628105811.648,-1000.000,16.602,-8.789,-727.539
1628105811.652,102.051,83.984,13.672,137.695
1628105811.656,-844.727,-61.523,-29.785,717.285
1628105811.660,139.648,-83.008,-37.109,9.766
1628105811.664,-1000.000,-61.523,-41.992,-768.555
1628105811.661,-390.625,-26.855,-35.645,-226.074
1628105811.665,-940.918,-25.879,-20.020,651.367
1628105811.669,516.113,-53.223,-26.367,289.062
1628105811.673,-962.891,-67.383,-43.457,-674.805
1628105811.677,-740.723,-53.711,-46.875,-504.883
1628105811.681,710.938,36.133,-31.738,501.465
1628105811.685,836.426,19.043,-31.738,541.016
1628105811.688,-546.875,-53.711,-44.434,-466.309
1628105811.692,-1000.000,-60.059,-36.133,-701.660
1628105811.696,263.672,-46.875,-31.738,234.863
1628105811.700,-925.781,-1.465,-33.203,660.645
1628105811.704,-133.789,-50.781,-34.180,-214.844
1628105811.698,-1000.000,-83.496,-37.598,-806.152
1628105811.702,-126.465,-58.105,-31.738,-24.902
1628105811.706,-838.379,0.000,-36.621,696.289
1628105811.710,235.352,-2.930,-56.641,54.199
1628105811.714,-1000.000,-73.730,-58.105,-792.480
1628105811.718,-456.055,-47.852,-31.738,-300.293
1628105811.722,-985.352,-59.570,-20.020,633.789
1628105811.725,591.309,-9.766,-54.199,335.938
1628105811.729,-890.137,2.441,-84.473,-689.941
1628105811.733,-812.988,-70.801,-49.316,-594.238
1628105811.737,604.004,-34.668,-34.668,433.594
1628105811.741,906.250,-54.199,-48.340,560.547
1628105811.755,-428.223,19.531,-48.828,-419.922
1628105811.759,-1000.000,15.625,-47.363,-754.395
1628105811.763,161.621,-77.148,-37.109,175.293
1628105811.767,-877.441,-71.289,-40.527,698.242
1628105811.771,-18.066,-79.590,-40.527,-127.930
1628105811.775,-1000.000,-17.090,-38.086,-774.414
1628105811.779,-213.379,-16.602,-30.273,-84.961
1628105811.782,-853.516,-40.527,0.000,696.289
1628105811.786,347.168,-73.242,-21.973,158.203
1628105811.790,-1000.000,-43.457,-38.086,-737.305
1628105811.794,-573.730,49.805,-38.574,-371.582
1628105811.798,884.277,-19.531,-54.688,579.590
1628105811.792,724.121,-66.895,-29.785,455.078
1628105811.796,-713.379,-71.777,-18.066,-531.738
1628105811.800,-917.969,-2.441,-19.531,-607.910
1628105811.804,449.219,34.668,-23.438,355.957
1628105811.808,973.633,-54.199,-26.855,614.258
1628105811.812,-324.707,-78.125,-29.297,-326.172
1628105811.816,-1000.000,-89.844,-31.738,-750.977
1628105811.819,86.914,54.688,-4.395,159.668
1628105811.823,-854.004,107.422,-4.883,763.672
1628105811.827,56.641,-79.102,-38.574,-64.941
1628105811.831,-1000.000,-104.492,-34.668,-808.594
1628105811.835,-332.520,-94.727,-31.250,-184.570
1628105811.850,-905.273,9.766,0.488,712.891
1628105811.854,453.613,6.348,-8.301,296.387
1628105811.858,-1000.000,-107.422,-67.383,-713.379
1628105811.862,-677.246,-91.797,-53.711,-465.332
1628105811.866,786.621,-58.105,-35.156,525.391
1628105811.870,795.410,-31.250,-29.785,497.559
1628105811.874,-613.770,-72.266,-29.297,-503.418
1628105811.877,-994.141,-90.332,-38.086,-688.477
1628105811.881,330.078,-33.691,-30.762,290.527
1628105811.885,-964.844,-31.738,-27.344,661.621
1628105811.889,-208.496,-74.219,-43.457,-269.043
1628105811.893,-1000.000,-83.984,-54.199,-810.059
1628105811.884,-71.777,-64.453,-41.992,15.137
1628105811.888,-845.703,-86.914,-31.738,699.219
1628105811.892,197.754,0.000,-34.668,41.016
1628105811.896,-1000.000,74.219,-37.109,-734.375
1628105811.900,-475.586,-41.992,-41.504,-268.066
1628105811.904,988.281,-51.758,-37.109,605.957
1628105811.908,581.055,-64.941,-21.484,339.844
1628105811.911,-898.926,24.902,-28.809,-637.207
1628105811.915,-791.016,79.102,-38.086,-558.105
1628105811.919,647.949,-35.156,-14.160,464.355
1628105811.923,872.070,-59.570,-19.043,564.941
1628105811.927,-524.902,-109.375,-28.320,-444.824
1628105811.943,-977.051,40.527,-20.020,-675.781
1628105811.947,327.148,88.867,-15.625,278.809
1628105811.951,-922.363,-56.641,-21.973,692.383
1628105811.955,-115.234,-65.918,-34.668,-179.199
1628105811.959,-1000.000,-72.754,-41.504,-781.738
1628105811.963,-98.145,29.297,-23.438,16.113
1628105811.967,-831.543,17.090,-18.066,749.023
1628105811.970,226.074,-77.637,-32.715,71.289
1628105811.974,-1000.000,-103.027,-39.062,-796.875
1628105811.978,-498.535,-52.246,-31.250,-320.801
1628105811.982,969.727,48.828,-16.113,625.977
1628105811.986,634.766,-26.855,-24.414,379.395
1628105811.981,-826.660,-81.055,-31.738,-609.375
1628105811.985,-853.027,-68.848,-32.715,-582.520
1628105811.989,524.902,-69.336,-31.738,401.367
1628105811.993,964.355,-54.199,-40.039,606.445
1628105811.997,-349.121,-58.594,-60.059,-363.281
1628105812.001,-1000.000,-51.758,-49.316,-732.422
1628105812.005,139.648,-85.449,-36.133,159.668
1628105812.008,-830.566,54.199,-11.719,729.980
1628105812.012,105.469,114.258,-6.836,-54.688
1628105812.016,-1000.000,-64.941,-38.574,-799.805
1628105812.020,-266.113,-69.824,-30.762,-135.254
1628105812.024,-870.117,-65.430,-26.367,685.059
1628105812.052,404.785,-34.668,-34.180,209.473
1628105812.056,-1000.000,-56.641,-45.898,-729.004
1628105812.060,-614.258,-69.824,-31.250,-416.504
1628105812.064,863.281,-46.875,-21.484,566.406
1628105812.068,722.168,-70.312,-46.387,437.988
1628105812.072,-682.617,76.172,-6.348,-459.473
1628105812.076,-973.145,62.500,2.930,-569.336
1628105812.079,355.957,-63.965,-28.320,290.527
1628105812.083,983.887,-76.172,-31.738,580.566
1628105812.087,-304.688,-73.730,-35.156,-326.172
1628105812.091,-1000.000,-20.996,-5.859,-722.656
1628105812.095,14.160,-46.875,-24.902,95.703
1628105812.091,-848.145,-63.477,-41.992,694.336
1628105812.095,103.516,-71.289,-35.645,-40.527
1628105812.099,-1000.000,-12.207,-15.625,-754.883
1628105812.103,-320.801,15.137,-21.484,-156.738
1628105812.107,-922.363,-53.223,-58.105,639.648
1628105812.111,479.004,-51.758,-55.664,258.301
1628105812.115,-1000.000,-96.680,-61.035,-692.383
1628105812.118,-655.273,60.547,-21.484,-454.102
1628105812.122,840.332,152.344,20.020,572.754
1628105812.126,786.621,-52.246,-26.367,515.137
1628105812.130,-625.488,-80.566,-41.992,-515.625
1628105812.134,-984.863,-80.566,-41.016,-707.520
1628105812.146,330.566,17.578,-7.812,324.219
1628105812.150,-953.613,31.250,-4.395,719.727
1628105812.154,-184.570,-63.477,-48.340,-249.023
1628105812.158,-1000.000,-67.383,-52.246,-807.617
1628105812.162,-83.008,-44.434,-39.062,10.742
1628105812.166,-831.543,-18.066,-13.672,753.418
1628105812.170,256.348,-57.129,-21.973,100.098
1628105812.173,-1000.000,-78.613,-31.738,-771.484
1628105812.177,-483.887,-86.426,-36.133,-310.059
1628105812.181,995.117,-11.719,-33.691,616.699
1628105812.185,580.078,19.531,-30.762,333.496
1628105812.189,-905.273,-74.707,-51.270,-659.180
1628105812.169,-786.621,-32.715,-55.176,-550.781
1628105812.173,591.797,-66.406,-75.684,416.992
1628105812.177,969.727,67.383,-20.508,600.098
1628105812.181,-280.762,222.656,36.133,-283.691
1628105812.185,-1000.000,-23.926,-38.574,-715.332
1628105812.189,141.602,-78.125,-47.852,156.738
1628105812.193,-893.066,-55.176,-30.273,682.129
1628105812.196,-75.684,12.695,-63.965,-201.172
1628105812.200,-1000.000,39.551,-76.172,-846.680
1628105812.204,-205.078,-70.801,-45.410,-97.168
1628105812.208,-854.492,-57.129,-25.391,685.059
1628105812.212,324.707,-83.008,-27.344,128.418
1628105812.224,-1000.000,52.734,-53.711,-759.766
1628105812.228,-563.477,93.262,-52.246,-377.930
1628105812.232,906.738,-63.965,-50.781,570.801
1628105812.236,684.570,-86.914,-44.434,409.668
1628105812.240,-746.582,-115.234,-19.043,-553.223
1628105812.244,-851.562,1.465,-46.875,-581.543
1628105812.248,491.211,2.441,-58.105,361.816
1628105812.251,966.309,-68.848,-31.250,601.562
1628105812.255,-328.613,-69.336,-41.504,-349.121
1628105812.259,-1000.000,-59.570,-57.129,-768.066
1628105812.263,74.707,5.371,-53.223,101.562
1628105812.267,-858.887,-26.367,-32.715,689.453
1628105812.262,43.457,-67.383,-32.715,-89.355
1628105812.266,-1000.000,-106.934,-44.922,-826.172
1628105812.270,-272.949,11.230,-21.973,-134.277
1628105812.274,-864.258,77.148,-21.973,729.004
1628105812.278,400.879,-68.848,-39.062,209.473
1628105812.282,-1000.000,-96.191,-26.855,-722.656
1628105812.286,-663.574,-89.844,-27.832,-431.641
1628105812.289,809.570,13.184,-17.578,551.758
1628105812.293,737.793,52.246,-34.180,476.562
1628105812.297,-710.938,-85.938,-54.688,-566.895
1628105812.301,-954.102,-100.586,-39.062,-683.105
1628105812.305,391.602,-82.520,-38.086,324.219
1628105812.334,-977.051,6.348,-55.176,640.625
1628105812.338,-236.816,14.648,-57.617,-274.414
1628105812.342,-1000.000,-59.082,-48.340,-747.070
1628105812.346,-12.207,-57.129,-34.180,70.312
1628105812.350,-838.867,-68.848,-22.949,720.703
1628105812.354,200.684,39.062,-35.156,45.410
1628105812.358,-1000.000,16.113,-51.758,-770.508
1628105812.361,-438.477,-76.660,-41.992,-275.391
1628105812.365,-963.867,-58.594,-34.180,619.141
1628105812.369,522.949,-62.500,-35.645,273.926
1628105812.373,-960.938,-82.520,-41.016,-681.152
1628105812.377,-742.188,-98.145,-42.969,-507.812
1628105812.354,699.219,-63.477,-35.645,493.652
1628105812.358,854.492,-48.340,-26.855,547.363
1628105812.362,-530.762,-65.430,-36.133,-474.609
1628105812.366,-1000.000,-73.730,-48.828,-722.168
1628105812.370,284.180,-68.848,-41.016,250.488
1628105812.374,-922.852,-52.734,-42.969,666.504
1628105812.378,-125.000,-70.801,-40.527,-205.566
1628105812.381,-1000.000,-15.137,-21.973,-768.555
1628105812.385,-105.957,12.207,-24.902,-19.531
1628105812.389,-841.309,-51.758,-47.852,674.805
1628105812.393,257.812,-65.430,-47.363,67.871
1628105812.397,-1000.000,-85.449,-41.016,-750.488
1628105812.412,-497.070,-43.457,-53.711,-315.918
1628105812.416,971.191,-28.320,-57.129,591.797
1628105812.420,626.953,-63.965,-42.480,357.422
1628105812.424,-854.980,-75.684,-44.922,-630.859
1628105812.428,-810.547,-53.711,-41.992,-571.289
1628105812.432,620.117,-1.465,-13.184,465.820
1628105812.436,928.223,-17.090,-2.441,622.559
1628105812.439,-411.133,-82.520,-36.133,-406.738
1628105812.443,-1000.000,-95.215,-42.969,-740.234
1628105812.447,166.504,-55.664,-69.336,153.320
1628105812.451,-906.250,-17.578,-150.879,555.664
1628105812.455,-60.059,-41.504,-71.777,-193.848
1628105812.447,-1000.000,-72.754,-7.324,-769.531
1628105812.451,-190.430,-36.133,-16.113,-79.590
1628105812.455,-851.074,-4.883,-32.227,700.195
1628105812.459,385.254,-23.438,-23.926,187.012
1628105812.463,-1000.000,-53.223,-6.348,-687.988
1628105812.467,-619.629,-49.805,-36.621,-384.766
1628105812.471,885.254,-55.176,-14.160,574.219
1628105812.474,646.973,-11.230,-26.855,400.391
1628105812.478,-836.426,-28.809,-60.547,-632.812
1628105812.482,-892.090,-105.469,-11.719,-605.469
1628105812.486,486.816,-83.496,2.441,416.504
1628105812.490,949.707,-114.258,8.301,659.180
1628105812.505,-362.793,-88.867,-55.664,-374.023
1628105812.509,-1000.000,-71.289,-66.406,-795.410
1628105812.513,94.727,-106.445,14.160,166.992
1628105812.517,-841.309,-101.562,16.602,766.602
1628105812.521,111.328,-116.699,12.695,7.812
1628105812.525,-1000.000,-56.152,-16.113,-747.559
1628105812.529,-291.016,-45.898,-5.859,-138.184
1628105812.532,-889.648,-93.750,5.371,695.312
1628105812.536,437.012,-112.793,-14.160,263.184
1628105812.540,-1000.000,-85.938,-22.461,-655.273
1628105812.544,-696.777,-51.758,-26.367,-433.105
1628105812.548,756.348,-90.820,-4.395,541.504
1628105812.541,807.129,-85.449,3.418,533.203
1628105812.545,-604.980,-94.727,-5.859,-469.238
1628105812.549,-966.309,-57.129,-11.230,-639.648
1628105812.553,370.605,-12.695,-9.277,336.914
1628105812.557,-974.609,-50.293,-2.441,674.805
1628105812.561,-221.680,-69.336,-9.766,-248.535
1628105812.565,-1000.000,-111.816,0.000,-741.699
1628105812.568,-76.172,-76.172,-56.152,-8.789
1628105812.572,-850.098,-28.809,-87.402,637.207
1628105812.576,217.285,-66.406,-15.137,65.918
1628105812.580,-1000.000,-65.430,4.395,-720.215
1628105812.584,-443.848,-61.523,-18.555,-241.699
1628105812.616,-976.074,49.316,-13.184,692.871
1628105812.620,558.105,28.809,-1.465,392.090
1628105812.624,-926.758,-95.703,-19.043,-627.441
1628105812.628,-777.832,-74.707,-20.020,-503.906
1628105812.632,670.898,-45.898,-4.395,491.211
1628105812.636,817.383,-7.324,-35.156,546.875
1628105812.640,-568.848,-45.410,-43.945,-463.379
1628105812.643,-1000.000,-70.801,-9.277,-687.988
1628105812.647,248.535,-52.734,-20.996,261.719
1628105812.651,-895.508,-6.836,-18.555,715.332
1628105812.655,-48.828,0.000,-12.207,-146.973
1628105812.659,-1000.000,-72.266,-30.762,-791.016
1628105812.652,-169.434,-64.453,-37.598,-55.176
1628105812.656,-841.797,-37.598,-30.273,707.520
1628105812.660,300.781,-32.715,-17.090,132.324
1628105812.664,-1000.000,-52.734,-26.855,-727.539
1628105812.668,-536.621,-64.941,-30.762,-331.543
1628105812.672,935.059,-40.039,-4.883,617.188
1628105812.676,666.992,-40.527,-0.488,441.406
1628105812.679,-801.270,-73.242,-41.504,-610.352
1628105812.683,-871.094,-63.965,-45.898,-623.535
1628105812.687,524.902,-45.898,-18.066,410.156
1628105812.691,944.824,-50.293,-14.160,615.234
1628105812.695,-385.254,-82.031,-30.273,-360.352
1628105812.693,-1000.000,-52.734,-43.457,-734.863
1628105812.697,159.180,-6.836,-29.785,172.852
1628105812.701,-868.652,-28.809,-20.508,718.750
1628105812.705,29.297,-32.227,-13.672,-85.938
1628105812.709,-1000.000,-36.621,-9.766,-765.625
1628105812.713,-329.102,-32.715,-60.547,-167.969
1628105812.717,-915.527,-37.109,-53.223,645.508
1628105812.720,400.879,-53.711,-23.438,203.125
1628105812.724,-1000.000,-59.570,-13.672,-702.637
1628105812.728,-600.098,-50.293,-14.648,-370.605
1628105812.732,864.258,-12.207,-44.922,554.688
1628105812.736,727.539,-12.695,-43.457,444.824
1628105812.746,-707.031,-55.176,-61.523,-541.992
1628105812.750,-929.688,-69.824,-41.016,-626.465
1628105812.754,411.621,-36.133,-48.340,312.988
1628105812.758,-975.586,-13.672,-52.734,602.051
1628105812.762,-235.352,-53.223,-15.137,-276.855
1628105812.766,-1000.000,-66.895,-22.949,-745.117
1628105812.770,56.152,-53.711,-10.254,118.652
1628105812.773,-903.809,2.930,-78.613,655.762
1628105812.777,-5.371,41.992,-116.211,-121.582
1628105812.781,-1000.000,-20.996,-46.387,-772.949
1628105812.785,-357.422,-25.391,-33.203,-198.242
1628105812.789,-926.758,-30.273,-17.578,661.621
1628105812.821,476.074,31.250,-47.852,268.066
1628105812.825,-1000.000,21.484,-53.711,-680.176
1628105812.829,-694.824,-75.195,-5.371,-432.617
1628105812.833,759.766,-66.895,-15.625,535.156
1628105812.837,814.453,-60.547,-25.391,520.996
1628105812.841,-583.984,-47.363,-38.574,-478.516
1628105812.845,-1000.000,-42.480,-35.645,-673.828
1628105812.848,294.922,-30.762,-27.344,266.602
1628105812.852,-948.730,-24.414,-25.879,666.504
1628105812.856,-183.594,-46.875,-43.457,-246.582
1628105812.860,-1000.000,-22.949,-83.984,-845.703
1628105812.864,-68.359,-22.949,-42.480,-4.883
1628105812.840,-831.055,-29.297,-18.555,750.488
1628105812.844,277.344,-56.641,-4.883,128.906
1628105812.848,-1000.000,-93.262,-40.039,-759.766
1628105812.852,-485.840,-78.125,-84.961,-332.031
1628105812.856,999.023,-44.434,-30.273,643.555
1628105812.860,600.586,-14.648,-11.719,371.094
1628105812.864,-862.305,-40.039,-14.160,-611.816
1628105812.867,-847.168,18.066,-52.246,-583.008
1628105812.871,549.316,67.871,-61.035,389.648
1628105812.875,898.926,-21.973,-16.602,580.078
1628105812.879,-458.008,-57.129,-26.855,-400.391
1628105812.883,-1000.000,-57.129,-30.273,-705.566
1628105812.880,230.957,-43.945,-28.320,221.191
1628105812.884,-896.973,-47.363,-46.875,700.195
1628105812.888,-68.359,-80.078,-51.270,-147.949
1628105812.892,-1000.000,-86.426,-44.922,-772.949
1628105812.896,-158.203,-37.109,-36.133,-40.039
1628105812.900,-837.891,78.613,10.742,769.043
1628105812.904,316.895,16.113,-1.953,181.152
1628105812.907,-1000.000,-75.195,-33.203,-762.207
1628105812.911,-554.688,-42.969,-29.785,-366.211
1628105812.915,912.598,-33.691,-19.043,590.820
1628105812.919,708.008,5.371,0.488,448.242
1628105812.923,-749.512,-26.367,-31.250,-581.543
1628105812.916,-910.645,-44.434,-49.805,-650.391
1628105812.920,458.008,-48.340,-44.922,356.934
1628105812.924,991.699,-31.738,-20.996,623.535
1628105812.928,-289.062,-16.113,-5.859,-302.734
1628105812.932,-1000.000,-46.387,-32.227,-739.258
1628105812.936,85.449,-28.809,-23.926,126.953
1628105812.940,-862.793,-42.480,-21.973,688.477
1628105812.943,60.059,27.344,19.043,-40.527
1628105812.947,-1000.000,48.828,21.484,-723.145
1628105812.951,-349.609,-60.059,-54.688,-188.965
1628105812.955,-912.109,-49.316,-49.316,632.812
1628105812.959,405.762,-89.844,-45.410,183.594
1628105812.991,-1000.000,50.781,-7.812,-676.270
1628105812.995,-639.160,96.191,8.301,-362.793
1628105812.999,829.102,-68.359,-35.156,541.016
1628105813.003,733.398,-76.172,-41.992,436.035
1628105813.007,-719.727,-62.500,-41.992,-562.988
1628105813.011,-872.559,44.434,-19.531,-600.098
1628105813.015,479.004,10.742,-15.625,371.582
1628105813.018,-988.281,-68.848,-23.438,634.277
1628105813.022,-246.582,-99.121,-31.738,-290.527
1628105813.026,-1000.000,-50.781,-40.039,-770.020
1628105813.030,66.895,87.891,-17.090,110.352
1628105813.034,-838.867,-0.977,-31.738,715.820
1628105813.013,104.980,-81.055,-32.227,-32.227
1628105813.017,-1000.000,-85.938,-36.621,-805.664
1628105813.021,-381.348,-85.449,-48.340,-243.164
1628105813.025,-939.453,-62.500,-36.621,639.160
1628105813.029,514.648,-57.129,-45.410,275.879
1628105813.033,-960.938,-38.086,-34.180,-656.250
1628105813.037,-742.676,-82.031,-33.691,-495.605
1628105813.040,707.520,75.195,20.508,550.781
1628105813.044,820.801,166.504,50.293,630.371
1628105813.048,-584.961,-54.688,-39.062,-485.352
1628105813.052,-1000.000,-82.031,-54.688,-708.496
1628105813.056,244.629,-103.027,-57.617,240.234
1628105813.068,-857.422,100.586,4.395,755.859
1628105813.072,8.301,128.906,17.090,-94.727
1628105813.076,-1000.000,-93.750,-60.059,-800.293
1628105813.080,-158.203,-66.895,-54.199,-39.062
1628105813.084,-857.422,-62.988,-35.645,665.527
1628105813.088,354.492,66.895,3.418,136.230
1628105813.092,-1000.000,37.109,-12.695,-695.801
1628105813.095,-562.500,-74.219,-52.734,-357.422
1628105813.099,947.754,-41.504,-48.340,567.871
1628105813.103,588.379,-44.922,-45.898,323.242
1628105813.107,-893.066,-13.184,-34.668,-634.277
1628105813.111,-828.613,-56.152,-54.199,-570.312
1628105813.103,574.219,-73.730,-55.664,408.691
1628105813.107,903.809,-69.824,-44.922,567.383
1628105813.111,-443.848,-77.148,-46.387,-415.039
1628105813.115,-1000.000,-73.242,-52.734,-733.887
1628105813.119,177.734,-72.754,-58.594,187.012
1628105813.123,-875.488,-50.293,-52.246,689.941
1628105813.127,-29.785,-104.492,-47.363,-134.277
1628105813.130,-1000.000,21.973,-19.531,-748.047
1628105813.134,-131.348,120.117,-18.066,-42.969
1628105813.138,-852.051,-52.246,-47.363,670.898
1628105813.142,336.914,-77.637,-34.180,147.461
1628105813.146,-1000.000,-90.820,-30.762,-733.887
1628105813.162,-564.941,51.758,-30.762,-373.047
1628105813.166,910.156,63.965,-32.715,565.430
1628105813.170,689.453,-97.168,-44.922,407.715
1628105813.174,-769.043,-107.910,-58.105,-589.355
1628105813.178,-893.066,-102.539,-61.035,-628.906
1628105813.182,525.391,33.691,-30.762,422.852
1628105813.186,905.762,2.930,-22.461,595.215
1628105813.189,-415.527,-93.750,-42.969,-413.086
1628105813.193,-1000.000,-97.656,-60.059,-786.133
1628105813.197,20.996,-40.527,-47.363,83.496
1628105813.201,-859.863,86.426,-1.953,753.418
1628105813.205,65.918,-27.832,-28.809,-30.762
1628105813.197,-1000.000,-117.188,-55.176,-808.594
1628105813.201,-339.844,-99.609,-40.527,-191.406
1628105813.205,-917.480,-77.148,-23.438,649.414
1628105813.209,476.074,-51.758,-17.578,252.441
1628105813.213,-1000.000,-70.801,-35.645,-694.336
1628105813.217,-676.758,-47.852,-40.527,-458.984
1628105813.221,766.602,-77.637,-47.363,504.395
1628105813.224,845.703,41.992,-11.230,510.254
1628105813.228,-528.809,113.281,10.742,-439.453
1628105813.232,-976.074,-61.035,-37.598,-647.949
1628105813.236,366.211,-52.246,-39.551,321.777
1628105813.240,-991.211,-82.031,-45.410,630.371
1628105813.272,-250.977,48.828,-14.648,-257.324
1628105813.276,-1000.000,70.801,-6.348,-730.957
1628105813.280,-83.008,-106.445,-42.480,14.160
1628105813.284,-848.633,-88.379,-44.434,674.316
1628105813.288,176.758,-78.125,-54.199,0.977
1628105813.292,-1000.000,48.828,1.953,-693.848
1628105813.296,-457.520,24.902,-6.836,-200.195
1628105813.299,995.605,-67.871,-42.969,593.262
1628105813.303,552.734,-90.820,-34.180,304.199
1628105813.307,-928.223,-59.082,-28.320,-655.762
1628105813.311,-768.066,31.250,-22.461,-529.785
1628105813.315,656.250,-37.598,-44.922,429.688
1628105813.293,852.539,-77.637,-45.410,503.906
1628105813.297,-520.020,-92.285,-57.129,-464.355
1628105813.301,-1000.000,-82.520,-54.199,-712.891
1628105813.305,269.043,-52.734,-43.945,234.375
1628105813.309,-917.480,-55.176,-59.082,660.156
1628105813.313,-104.980,-59.570,-53.223,-190.918
1628105813.317,-1000.000,-111.328,-57.617,-804.199
1628105813.320,-142.090,42.480,6.348,-8.301
1628105813.324,-839.355,140.137,40.039,780.762
1628105813.328,232.910,-54.688,-44.922,84.961
1628105813.332,-1000.000,-98.145,-63.965,-799.316
1628105813.336,-557.617,-107.422,-63.477,-398.926
1628105813.365,919.922,88.867,25.391,653.809
1628105813.369,625.000,117.188,40.039,481.934
1628105813.373,-851.562,-98.633,-52.734,-633.301
1628105813.377,-866.699,-111.816,-60.547,-613.281
1628105813.381,499.512,-92.285,-58.105,390.137
1628105813.385,995.117,62.012,-22.461,638.672
1628105813.389,-309.570,29.297,-34.668,-348.145
1628105813.392,-1000.000,-100.098,-58.105,-782.227
1628105813.396,101.074,-76.660,-47.363,116.699
1628105813.400,-856.934,-53.711,-32.715,673.340
1628105813.404,53.711,-54.199,-21.973,-95.703
1628105813.408,-1000.000,-99.121,-48.340,-819.336
1628105813.387,-278.809,-75.195,-46.387,-162.109
1628105813.391,-881.348,-75.195,-50.293,658.691
1628105813.395,389.160,-4.395,-44.922,180.176
1628105813.399,-1000.000,33.691,-30.273,-691.406
1628105813.403,-653.809,-65.918,-48.828,-418.457
1628105813.407,810.059,-47.852,-55.176,524.902
1628105813.411,742.676,-92.773,-65.918,438.477
1628105813.414,-690.430,15.137,-11.719,-484.375
1628105813.418,-960.938,84.961,-1.465,-577.637
1628105813.422,380.371,-43.457,-49.316,305.176
1628105813.426,-995.605,-39.062,-27.832,618.164
1628105813.430,-320.801,-96.680,-45.410,-347.168
1628105813.442,-1000.000,79.102,5.859,-713.379
1628105813.446,215.820,132.812,25.879,191.895
1628105813.450,-862.305,-61.035,-39.062,689.453
1628105813.454,81.055,-71.777,-43.945,-54.199
1628105813.458,-1000.000,-112.305,-46.387,-806.641
1628105813.462,-314.941,66.895,-38.086,-189.453
1628105813.466,-894.043,68.848,-46.387,644.531
1628105813.469,452.148,-93.750,-39.551,221.680
1628105813.473,-1000.000,-121.094,-50.293,-701.172
1628105813.477,-669.922,-35.645,-40.039,-460.449
1628105813.481,836.914,213.867,57.617,646.973
1628105813.485,738.770,66.406,15.137,547.852
1628105813.480,-697.266,-122.070,-55.664,-575.684
1628105813.484,-984.863,-99.121,-56.641,-716.309
1628105813.488,316.406,-29.297,-28.809,295.410
1628105813.492,-942.383,-20.508,-10.254,696.777
1628105813.496,-158.691,-92.285,-29.297,-228.027
1628105813.500,-1000.000,-88.867,-36.133,-769.043
1628105813.504,-101.074,-126.953,-63.477,-5.371
1628105813.507,-825.684,99.609,34.668,794.922
1628105813.511,312.500,197.266,83.008,219.238
1628105813.515,-1000.000,-83.008,-37.109,-776.855
1628105813.519,-498.535,-105.957,-39.551,-316.895
1628105813.523,955.566,-124.023,-44.434,586.914
1628105813.553,707.031,-5.859,-9.766,392.578
1628105813.557,-742.188,43.457,6.836,-545.898
1628105813.561,-858.887,-71.289,-31.250,-564.941
1628105813.565,563.965,-83.984,-53.711,394.043
1628105813.569,871.094,-93.750,-72.754,501.465
1628105813.573,-456.055,65.430,-18.066,-379.395
1628105813.577,-1000.000,30.273,-20.996,-686.035
1628105813.580,135.254,-94.727,-67.871,155.273
1628105813.584,-905.273,-109.375,-61.035,653.809
1628105813.588,-78.613,-71.777,-41.504,-170.898
1628105813.592,-1000.000,64.941,-19.531,-765.625
1628105813.596,-211.426,-34.668,-37.598,-76.172
1628105813.573,-860.840,-111.328,-53.223,655.273
1628105813.577,279.785,-123.047,-43.945,93.262
1628105813.581,-1000.000,-116.699,-41.504,-777.832
1628105813.585,-544.922,-69.336,-47.852,-367.188
1628105813.589,923.340,-55.176,-42.969,597.168
1628105813.593,684.570,-49.316,-41.992,419.922
1628105813.597,-809.082,-134.766,-69.824,-616.211
1628105813.600,-809.082,38.574,-27.832,-581.055
1628105813.604,644.531,181.641,17.578,457.520
1628105813.608,917.969,-49.316,-24.902,575.684
1628105813.612,-409.180,-110.840,-43.945,-405.762
1628105813.616,-1000.000,-126.465,-66.406,-782.227
1628105813.630,118.652,46.875,-25.879,172.852
1628105813.634,-874.023,77.637,-1.953,749.023
1628105813.638,2.930,-89.355,-41.016,-111.328
1628105813.642,-1000.000,-91.797,-66.406,-819.824
1628105813.646,-309.570,-73.242,-56.641,-170.898
1628105813.650,-897.461,1.465,-7.324,704.590
1628105813.654,399.902,-32.715,-24.902,229.980
1628105813.657,-1000.000,-95.215,-59.570,-756.348
1628105813.661,-670.898,-120.605,-70.801,-489.746
1628105813.665,773.438,-44.434,-47.852,503.418
1628105813.669,840.820,151.855,16.602,536.621
1628105813.673,-590.332,-3.418,-25.391,-498.535
1628105813.667,-981.445,-132.324,-66.406,-687.988
1628105813.671,354.004,-100.586,-48.340,293.945
1628105813.675,-952.637,-6.836,-24.902,641.602
1628105813.679,-192.383,18.555,-29.297,-268.555
1628105813.683,-1000.000,-93.262,-54.688,-798.828
1628105813.687,-15.137,-69.824,-39.551,58.594
1628105813.691,-857.422,-121.094,-59.570,681.641
1628105813.694,161.621,17.090,-8.301,32.715
1628105813.698,-1000.000,145.996,37.598,-670.410
1628105813.702,-430.664,-48.340,-38.086,-242.676
1628105813.706,-968.262,-68.359,-51.270,592.773
1628105813.710,510.742,-101.562,-59.082,243.652
1628105813.725,-958.008,65.430,-20.508,-618.652
1628105813.729,-773.926,113.281,-14.160,-438.477
1628105813.733,657.715,-72.754,-56.152,454.102
1628105813.737,822.266,-84.961,-49.316,497.559
1628105813.741,-597.656,-109.863,-55.664,-488.281
1628105813.745,-911.621,22.461,-13.184,-609.863
1628105813.749,403.809,0.000,-21.484,303.223
1628105813.752,-965.820,-100.586,-51.758,604.980
1628105813.756,-196.777,-131.836,-62.500,-257.812
1628105813.760,-1000.000,-69.336,-49.316,-779.785
1628105813.764,17.578,73.730,8.301,72.754
1628105813.768,-827.148,-36.621,-22.461,714.844
1628105813.760,216.309,-80.566,-43.945,52.246
1628105813.764,-1000.000,-113.770,-53.711,-769.531
1628105813.768,-473.633,6.348,-14.648,-289.062
1628105813.772,-976.074,108.398,14.648,664.062
1628105813.776,558.594,-57.129,-40.039,335.938
1628105813.780,-909.668,-89.844,-68.848,-666.992
1628105813.784,-845.703,-130.859,-77.637,-591.309
1628105813.787,536.133,17.578,-56.152,398.926
1628105813.791,907.715,122.070,-39.551,570.312
1628105813.795,-437.500,-71.777,-47.363,-416.992
1628105813.799,-1000.000,-105.957,-51.758,-750.977
1628105813.803,164.551,-92.285,-50.293,161.133
1628105813.834,-869.141,46.387,-27.344,696.289
1628105813.838,-2.930,44.922,-19.043,-122.070
1628105813.842,-1000.000,-97.168,-32.715,-808.594
1628105813.846,-235.840,-77.148,-30.273,-114.258
1628105813.850,-870.605,-92.773,-40.039,663.574
1628105813.854,430.176,59.082,-29.785,187.988
1628105813.858,-1000.000,40.527,-32.227,-712.402
1628105813.861,-635.742,-93.750,-46.875,-429.688
1628105813.865,854.004,-67.871,-38.086,517.090
1628105813.869,692.871,-47.363,-34.180,388.672
1628105813.873,-742.188,-5.859,-26.855,-583.984
1628105813.877,-930.176,-69.824,-44.922,-662.598
1628105813.854,417.480,-93.262,-49.805,306.152
1628105813.858,972.656,-90.820,-38.086,576.660
1628105813.862,-309.570,-83.984,-34.180,-372.559
1628105813.866,-1000.000,-71.777,-41.016,-813.477
1628105813.870,25.391,-64.941,-31.250,45.410
1628105813.874,-885.254,-41.504,-31.738,616.211
1628105813.878,2.441,-103.516,-53.223,-158.691
1628105813.881,-1000.000,45.898,-35.156,-855.957
1628105813.885,-359.375,125.977,-8.789,-255.371
1628105813.889,-940.430,-57.129,-10.254,534.180
1628105813.893,353.027,-68.848,-20.996,88.379
1628105813.897,-1000.000,-143.555,-46.875,-891.602
1628105813.911,-633.789,45.410,16.602,-564.453
1628105813.915,857.910,139.648,30.273,442.871
1628105813.919,617.676,-93.750,-41.504,256.348
1628105813.923,-807.617,-138.184,-46.875,-746.582
1628105813.927,-1000.000,-138.672,-33.203,-854.004
1628105813.931,236.328,-69.824,-72.266,56.641
1628105813.935,951.660,-64.941,-70.312,401.855
1628105813.938,-306.641,-110.352,-36.621,-457.031
1628105813.942,-1000.000,-115.234,-35.156,-945.312
1628105813.946,-106.934,-67.871,-2.441,-113.281
1628105813.950,-881.348,54.199,14.160,569.336
1628105813.954,77.148,-36.621,-19.043,-148.926
1628105813.947,-1000.000,-120.117,-39.551,-951.660
1628105813.951,-492.188,-91.797,-20.508,-404.785
1628105813.955,964.355,-66.895,1.953,495.117
1628105813.959,512.207,-66.406,-9.277,194.336
1628105813.963,-986.816,-110.352,-26.367,-752.930
1628105813.967,-729.004,-81.543,-10.742,-557.617
1628105813.971,685.547,-94.238,-24.902,430.176
1628105813.974,899.414,30.762,-14.648,521.484
1628105813.978,-436.035,99.121,-15.625,-439.453
1628105813.982,-1000.000,-73.242,-55.664,-760.254
1628105813.986,207.031,-86.426,-51.270,184.570
1628105813.990,-884.277,-78.613,-35.156,682.617
1628105814.005,-61.035,19.531,-39.551,-163.086
1628105814.009,-1000.000,39.062,-38.086,-764.160
1628105814.013,-117.188,-58.105,-26.855,4.883
1628105814.017,-837.402,-57.617,-37.109,726.562
1628105814.021,285.156,-91.797,-40.039,130.859
1628105814.025,-1000.000,-5.371,-25.391,-664.551
1628105814.029,-515.137,-5.859,-30.762,-262.695
1628105814.032,947.266,-71.777,-55.664,621.582
1628105814.036,668.457,-73.242,-55.664,427.734
1628105814.040,-807.129,-72.754,-50.781,-556.152
1628105814.044,-801.270,-24.414,-49.805,-513.672
1628105814.048,603.027,-52.734,-46.387,470.703
1628105814.059,964.355,-60.059,-31.250,639.648
1628105814.063,-344.238,-77.637,-29.297,-305.664
1628105814.067,-1000.000,-18.555,-49.316,-664.551
1628105814.071,185.059,37.598,-43.457,228.027
1628105814.075,-857.422,-35.645,-26.367,746.582
1628105814.079,45.410,-42.480,-23.926,-44.434
1628105814.083,-1000.000,-83.984,-48.340,-738.770
1628105814.086,-232.422,32.227,-46.875,-66.895
1628105814.090,-850.098,105.957,-23.438,756.836
1628105814.094,390.625,-64.453,-43.945,227.051
1628105814.098,-1000.000,-105.957,-61.523,-688.477
1628105814.102,-592.285,-97.656,-40.039,-351.074
1628105814.100,870.605,-11.719,-82.520,554.688
1628105814.104,764.160,-5.859,-95.703,437.988
1628105814.108,-662.598,-77.637,-41.992,-469.727
1628105814.112,-890.625,-72.266,-46.387,-551.270
1628105814.116,469.238,-54.688,-55.176,404.785
1628105814.120,-978.516,-31.250,-64.941,664.551
1628105814.124,-242.188,-48.340,-45.898,-255.371
1628105814.127,-1000.000,-57.129,-37.598,-702.637
1628105814.131,49.805,-61.035,-49.316,129.883
1628105814.135,-829.102,-29.297,-43.945,754.395
1628105814.139,178.711,68.359,-46.387,46.387
1628105814.143,-1000.000,-6.348,-38.086,-708.008
1628105814.136,-315.918,-81.055,-16.602,-123.535
1628105814.140,-886.719,-50.293,-24.414,736.816
1628105814.144,471.191,-26.855,-70.801,296.875
1628105814.148,-1000.000,-35.156,-71.777,-649.902
1628105814.152,-656.250,-51.270,-26.367,-381.836
1628105814.156,803.223,-35.645,-33.691,578.125
1628105814.160,817.871,-62.500,-20.508,577.148
1628105814.163,-581.543,-21.484,-104.004,-502.930
1628105814.167,-965.820,25.391,-148.438,-745.117
1628105814.171,355.469,-36.133,-40.039,330.078
1628105814.175,-933.594,-52.734,-29.297,724.609
1628105814.179,-125.977,-82.031,-24.902,-157.227
1628105814.209,-1000.000,-32.227,-103.516,-801.270
1628105814.213,-156.250,-0.977,-122.070,-48.340
1628105814.217,-833.984,-65.430,-35.645,773.926
1628105814.221,251.953,-56.641,-32.715,126.953
1628105814.225,-1000.000,-49.805,-31.250,-687.500
1628105814.229,-443.359,-34.180,-40.527,-214.844
1628105814.233,-977.539,-26.855,-23.438,687.500
1628105814.236,597.168,-41.016,-14.648,395.508
1628105814.240,-873.047,-45.898,-18.555,-578.125
1628105814.244,-785.156,-22.461,-27.832,-472.168
1628105814.248,609.375,21.973,-93.750,410.645
1628105814.252,901.367,-41.992,-71.777,539.551
1628105814.229,-437.500,-104.492,-17.090,-353.027
1628105814.233,-1000.000,-75.684,-11.719,-647.461
1628105814.237,242.676,-14.160,-23.926,262.207
1628105814.241,-877.930,3.906,-38.574,738.281
1628105814.245,-34.180,-40.527,-19.043,-104.980
1628105814.249,-1000.000,-42.480,-13.672,-734.863
1628105814.253,-133.789,-52.246,-12.695,-3.418
1628105814.256,-841.797,12.207,-39.551,703.613
1628105814.260,331.055,67.871,-51.270,145.020
1628105814.264,-1000.000,-43.945,-33.203,-691.895
1628105814.268,-542.480,-69.336,-41.016,-312.500
1628105814.272,937.500,-69.336,-24.902,623.047
1628105814.303,664.062,22.461,-44.434,411.133
1628105814.307,-797.363,44.922,-59.082,-572.754
1628105814.311,-868.164,-57.129,-37.598,-554.199
1628105814.315,504.883,-53.223,-41.504,415.039
1628105814.319,979.492,-52.734,-12.695,650.391
1628105814.323,-303.711,33.691,-36.621,-345.215
1628105814.327,-1000.000,11.719,-59.082,-765.625
1628105814.330,103.516,-73.242,-21.973,155.762
1628105814.334,-865.234,-57.617,-25.879,703.125
1628105814.338,35.156,-49.805,-41.992,-72.266
1628105814.342,-1000.000,-34.668,-51.270,-776.855
1628105814.346,-275.391,-39.551,-29.785,-130.859
1628105814.322,-870.117,-39.062,-9.766,725.098
1628105814.326,419.434,-51.758,-14.648,238.281
1628105814.330,-1000.000,-62.012,-30.762,-685.547
1628105814.334,-573.242,-41.992,-39.062,-378.418
1628105814.338,838.867,-28.809,-24.414,574.219
1628105814.342,764.648,-34.180,-17.090,502.441
1628105814.346,-650.391,-86.914,-22.949,-505.371
1628105814.349,-962.891,34.180,-51.270,-659.180
1628105814.353,372.070,110.840,-62.500,290.039
1628105814.357,-986.328,-51.758,-22.949,636.719
1628105814.361,-254.883,-74.219,-23.926,-278.809
1628105814.365,-1000.000,-74.707,-27.344,-738.770
1628105814.380,9.766,-35.156,-52.734,64.941
1628105814.384,-845.215,-15.137,-52.734,681.152
1628105814.388,166.016,-65.918,-20.996,23.438
1628105814.392,-1000.000,-70.801,-29.785,-765.137
1628105814.396,-402.832,-50.781,-39.551,-230.469
1628105814.400,-953.125,3.906,-43.945,651.367
1628105814.404,550.293,-14.648,-23.438,322.266
1628105814.407,-932.129,-75.195,-15.137,-623.047
1628105814.411,-738.281,-57.617,-19.043,-467.285
1628105814.415,715.332,-27.344,-34.668,486.816
1628105814.419,828.125,-2.441,-58.594,493.652
1628105814.423,-558.594,-38.086,-36.133,-455.566
1628105814.416,-996.094,-75.684,-22.461,-657.227
1628105814.420,308.594,-64.941,-17.090,284.180
1628105814.424,-937.012,-39.551,-20.996,678.223
1628105814.428,-142.090,-39.551,-29.785,-211.914
1628105814.432,-1000.000,-69.824,-29.785,-791.016
1628105814.436,-134.766,-21.973,-26.367,-16.113
1628105814.440,-850.586,-54.199,-29.297,696.777
1628105814.443,252.930,61.035,-19.531,83.984
1628105814.447,-1000.000,146.484,-20.508,-709.961
1628105814.451,-485.840,-41.992,-49.316,-287.109
1628105814.455,983.398,-61.035,-43.457,608.887
1628105814.459,610.352,-90.820,-32.715,343.750
1628105814.490,-859.375,7.812,-12.695,-606.934
1628105814.494,-812.012,73.242,-8.301,-520.996
1628105814.498,596.680,-44.922,-28.809,443.848
1628105814.502,908.203,-64.941,-38.574,574.219
1628105814.506,-436.523,-87.891,-50.293,-394.531
1628105814.510,-1000.000,-9.277,-43.457,-701.172
1628105814.514,221.680,8.301,-24.902,205.566
1628105814.517,-898.438,-52.246,-25.879,661.621
1628105814.521,-54.688,-80.078,-37.109,-153.809
1628105814.525,-1000.000,-58.105,-34.180,-772.949
1628105814.529,-182.617,26.855,-23.438,-72.754
1628105814.533,-855.469,-34.668,-28.809,682.129
1628105814.512,349.121,-69.824,-34.668,157.227
1628105814.516,-1000.000,-83.008,-41.504,-714.844
1628105814.520,-572.754,2.930,-32.715,-367.188
1628105814.524,910.156,73.730,-21.484,597.656
1628105814.528,697.266,-58.594,-38.086,440.918
1628105814.532,-754.883,-91.309,-48.340,-548.340
1628105814.536,-883.301,-105.469,-35.156,-579.590
1628105814.539,482.422,-30.762,-7.324,396.973
1628105814.543,976.562,17.578,-1.465,642.578
1628105814.547,-313.477,-68.359,-15.625,-319.336
1628105814.551,-1000.000,-61.523,-23.438,-738.770
1628105814.555,88.867,-64.941,-22.949,135.742
1628105814.568,-863.770,74.219,-52.246,694.824
1628105814.572,46.387,93.750,-62.500,-81.543
1628105814.576,-1000.000,-72.754,-43.457,-786.621
1628105814.580,-291.016,-63.965,-32.227,-154.785
1628105814.584,-915.527,-77.148,-21.484,663.086
1628105814.588,616.699,87.402,27.344,341.797
1628105814.592,-855.957,69.336,4.395,-593.750
1628105814.595,-736.816,-91.309,-31.738,-466.797
1628105814.599,758.789,-84.961,-13.184,510.742
1628105814.603,768.555,-60.059,-20.996,466.797
1628105814.607,-641.602,-29.297,-21.973,-498.047
1628105814.611,-967.285,-72.754,-48.340,-646.973
1628105814.622,350.586,-61.035,-55.176,312.988
1628105814.626,-958.008,-59.082,-55.176,670.410
1628105814.630,-203.613,-44.922,-74.707,-265.137
1628105814.634,-1000.000,-33.203,-57.617,-772.461
1628105814.638,-25.879,-62.012,-24.902,47.363
1628105814.642,-838.379,-40.527,-15.625,707.520
1628105814.646,218.262,-87.891,-20.996,66.895
1628105814.649,-1000.000,-9.766,-32.227,-736.816
1628105814.653,-431.641,71.289,-34.180,-246.094
1628105814.657,-969.238,-37.109,-39.551,625.488
1628105814.661,522.949,-64.453,-57.129,290.527
1628105814.665,-949.707,-74.707,-57.129,-663.086
1628105814.662,-775.391,-75.195,-47.363,-523.926
1628105814.666,648.926,-51.758,-38.574,447.266
1628105814.670,852.051,-44.434,-26.367,524.414
1628105814.674,-525.879,-64.453,-28.809,-456.543
1628105814.678,-1000.000,-96.191,-35.156,-713.379
1628105814.682,265.625,47.852,-9.277,276.855
1628105814.686,-918.457,70.312,-4.395,712.402
1628105814.689,-114.746,-51.270,-27.832,-182.129
1628105814.693,-1000.000,-74.707,-38.574,-758.789
1628105814.697,-146.484,-63.477,-36.133,-29.297
1628105814.701,-846.191,67.871,-8.789,728.027
1628105814.705,246.582,-11.230,-25.879,102.051
1628105814.697,-1000.000,-85.449,-47.363,-755.859
1628105814.701,-529.297,-64.941,-40.039,-325.195
1628105814.705,919.434,16.602,-35.156,576.660
1628105814.709,677.246,87.402,-50.781,391.113
1628105814.713,-796.387,-46.387,-43.457,-578.125
1628105814.717,-833.008,-79.590,-24.902,-551.270
1628105814.721,591.797,-72.266,-16.113,444.336
1628105814.724,901.367,-18.066,-43.945,577.637
1628105814.728,-447.266,-9.766,-70.312,-432.617
1628105814.732,-1000.000,-71.777,-38.086,-750.977
1628105814.736,147.949,-48.828,-18.555,166.016
1628105814.740,-873.047,-51.270,-24.414,696.777
1628105814.755,-0.977,-41.016,-54.688,-138.184
1628105814.759,-1000.000,-43.457,-55.664,-818.848
1628105814.763,-234.863,-62.012,-33.691,-114.258
1628105814.767,-869.141,-47.852,-29.297,663.574
1628105814.771,391.602,-73.242,-27.344,164.551
1628105814.775,-1000.000,-44.922,-27.344,-696.289
1628105814.779,-619.629,-26.367,-41.016,-387.695
1628105814.782,847.168,-28.809,-43.457,545.898
1628105814.786,738.281,-44.922,-28.809,459.961
1628105814.790,-699.219,-48.828,-31.250,-531.250
1628105814.794,-930.664,-6.348,-32.715,-622.559
1628105814.798,420.898,-39.062,-34.668,326.172
1628105814.791,998.047,-61.035,-43.457,604.004
1628105814.795,-286.133,-89.844,-41.992,-314.453
1628105814.799,-1000.000,-26.367,-20.020,-742.188
1628105814.803,74.219,18.066,-22.461,115.234
1628105814.807,-852.051,-59.570,-43.945,706.543
1628105814.811,120.605,-62.012,-40.527,-11.719
1628105814.815,-1000.000,-81.543,-43.945,-777.832
1628105814.818,-368.652,6.836,-25.879,-206.055
1628105814.822,-912.598,79.590,-10.254,669.922
1628105814.826,451.660,-47.852,-36.621,234.863
1628105814.830,-1000.000,-84.961,-34.180,-686.035
1628105814.834,-703.125,-99.609,-42.480,-470.703
1628105814.850,742.676,75.195,0.000,550.781
1628105814.854,796.387,105.957,4.395,566.895
1628105814.858,-615.234,-80.566,-46.875,-491.699
1628105814.862,-968.750,-89.355,-40.527,-660.156
1628105814.866,346.680,-66.895,-34.180,307.129
1628105814.870,-939.941,-7.812,-33.691,680.664
1628105814.874,-153.320,-35.156,-35.645,-207.031
1628105814.877,-1000.000,-65.918,-46.387,-770.996
1628105814.881,-86.914,-47.852,-50.781,1.465
1628105814.885,-849.609,-22.461,-46.875,681.641
1628105814.889,187.012,-14.648,-47.363,28.320
1628105814.893,-1000.000,-65.918,-40.039,-769.043
1628105814.902,-442.383,-64.941,-37.109,-263.672
1628105814.906,-984.375,-75.684,-26.367,636.230
1628105814.910,551.270,-9.766,-36.621,316.406
1628105814.914,-927.734,77.148,-59.570,-646.973
1628105814.918,-763.672,-39.551,-28.320,-503.418
1628105814.922,678.223,-54.199,3.418,498.047
1628105814.926,852.051,-77.637,-25.391,554.688
1628105814.929,-518.066,7.812,-64.941,-469.727
1628105814.933,-1000.000,90.820,-64.453,-732.910
1628105814.937,220.215,-44.434,-49.316,204.102
1628105814.941,-914.062,-55.176,-46.387,656.250
1628105814.945,-110.352,-109.375,-37.109,-195.312
1628105814.942,-1000.000,62.988,-28.320,-779.785
1628105814.946,-125.000,151.367,-23.438,-43.945
1628105814.950,-844.727,-58.594,-32.227,683.594
1628105814.954,290.039,-90.332,-48.340,114.258
1628105814.958,-1000.000,-66.406,-45.898,-707.520
1628105814.962,-465.332,-7.812,-19.043,-292.480
1628105814.966,939.941,-31.738,-19.531,585.938
1628105814.969,651.855,-64.453,-38.574,377.930
1628105814.973,-816.406,-102.051,-34.180,-600.586
1628105814.977,-847.168,-70.312,-25.391,-580.566
1628105814.981,568.359,110.840,-13.672,437.500
1628105814.985,923.828,26.367,-22.949,607.422
1628105814.979,-395.020,-91.797,-34.180,-385.742
1628105814.983,-1000.000,-109.863,-48.340,-766.113
1628105814.987,93.750,19.531,-24.414,154.785
1628105814.991,-870.605,117.188,-5.859,752.930
1628105814.995,25.391,-70.801,-33.691,-84.473
1628105814.999,-1000.000,-87.402,-31.250,-788.574
1628105815.003,-312.012,-96.680,-36.621,-157.715
1628105815.006,-901.855,30.762,-36.621,652.832
1628105815.010,417.969,108.398,-32.227,210.938
1628105815.014,-1000.000,-82.520,-31.738,-710.938
1628105815.018,-651.855,-95.215,-38.574,-428.223
1628105815.022,801.758,-93.262,-42.969,524.414
1628105815.072,784.180,-0.488,-35.156,459.473
1628105815.076,-628.906,17.090,-28.320,-492.188
1628105815.080,-951.660,-83.984,-41.992,-616.211
1628105815.084,387.207,-65.430,-57.129,321.289
1628105815.088,-991.699,-81.543,-41.016,619.141
1628105815.092,-246.094,55.176,-41.016,-291.992
1628105815.096,-1000.000,49.805,-41.016,-759.277
1628105815.099,-22.949,-72.754,-18.066,54.688
1628105815.103,-853.516,-85.938,-28.320,675.781
1628105815.107,131.348,-49.805,-27.344,-5.859
1628105815.111,-1000.000,64.941,-1.465,-725.098
1628105815.115,-407.715,-38.574,-18.555,-212.402
1628105815.090,-957.031,-96.191,-37.109,623.535
1628105815.094,500.000,-94.727,-42.969,266.113
1628105815.098,-991.699,-92.285,-47.363,-697.266
1628105815.102,-701.660,-56.152,-29.297,-487.793
1628105815.106,751.465,-40.039,-10.742,524.902
1628105815.110,832.520,-50.781,-25.879,541.504
1628105815.114,-556.641,-81.055,-47.852,-482.910
1628105815.117,-1000.000,-62.988,-45.898,-717.285
1628105815.121,289.551,-47.852,-24.902,257.324
1628105815.125,-929.688,-65.918,-13.672,679.688
1628105815.129,-147.949,-74.219,-38.574,-228.027
1628105815.133,-1000.000,-119.629,-53.711,-805.664
1628105815.130,-45.898,133.789,10.742,68.848
1628105815.134,-835.938,198.242,9.766,761.230
1628105815.138,175.293,-83.496,-48.828,17.578
1628105815.142,-1000.000,-86.426,-47.852,-773.438
1628105815.146,-478.516,-76.172,-55.664,-289.551
1628105815.150,979.492,55.664,-63.965,588.867
1628105815.154,592.773,41.992,-42.480,332.520
1628105815.157,-887.207,-95.215,-36.133,-629.395
1628105815.161,-800.293,-71.777,-25.391,-532.715
1628105815.165,614.258,-57.617,-24.414,438.477
1628105815.169,880.371,0.977,-52.246,517.090
1628105815.173,-454.102,-36.133,-33.203,-425.293
1628105815.167,-1000.000,-99.121,-24.902,-716.309
1628105815.171,184.570,-83.984,-22.949,190.918
1628105815.175,-906.250,-24.414,-43.945,666.992
1628105815.179,-78.613,4.395,-71.289,-182.129
1628105815.183,-1000.000,-74.707,-46.387,-791.504
1628105815.187,-185.059,-61.035,-31.738,-70.801
1628105815.191,-861.816,-90.820,-42.480,690.430
1628105815.194,375.488,58.105,-29.297,173.340
1628105815.198,-1000.000,175.293,-27.344,-685.547
1628105815.202,-620.605,-45.898,-47.363,-382.324
1628105815.206,857.910,-77.148,-32.227,553.711
1628105815.210,716.797,-100.098,-6.348,447.266
1628105815.224,-735.840,3.418,-76.660,-622.070
1628105815.228,-898.926,60.547,-112.305,-711.914
1628105815.232,469.727,-66.406,-34.180,372.559
1628105815.236,988.770,-81.055,-25.879,632.324
1628105815.240,-307.617,-99.609,-40.039,-316.895
1628105815.244,-1000.000,-37.109,-48.828,-727.051
1628105815.248,111.816,-20.020,-34.180,136.719
1628105815.251,-858.887,-48.828,-31.250,684.082
1628105815.255,65.918,-79.590,-47.363,-71.289
1628105815.259,-1000.000,-48.340,-45.898,-785.645
1628105815.263,-249.512,87.891,-23.926,-130.859
1628105815.267,-965.332,-6.348,-14.160,632.324
1628105815.260,275.879,-102.051,-21.484,142.090
1628105815.264,-1000.000,-123.047,-21.973,-679.199
1628105815.268,-652.832,-34.668,-11.230,-420.898
1628105815.272,809.570,36.133,1.465,550.293
1628105815.276,768.555,-70.801,-6.836,495.605
1628105815.280,-637.695,-75.684,-19.531,-491.211
1628105815.284,-979.004,-92.285,-31.250,-647.461
1628105815.287,333.008,15.625,-40.039,285.156
1628105815.291,-962.891,99.609,-27.344,646.484
1628105815.295,-203.613,-49.805,-25.391,-252.930
1628105815.299,-1000.000,-90.820,-43.457,-770.020
1628105815.303,-44.922,-83.008,-40.527,53.223
1628105815.317,-854.980,-11.719,-52.246,685.059
1628105815.321,138.184,-16.113,-56.152,-9.277
1628105815.325,-1000.000,-83.984,-45.410,-743.164
1628105815.329,-371.582,-58.594,-36.621,-192.871
1628105815.333,-946.289,-76.172,-24.902,670.410
1628105815.337,589.355,36.621,-22.461,349.121
1628105815.341,-869.629,28.809,-34.180,-623.535
1628105815.344,-791.016,-75.195,-51.270,-528.320
1628105815.348,661.133,-62.012,-27.832,478.516
1628105815.352,834.961,-43.945,-31.250,520.508
1628105815.356,-553.711,23.926,-62.988,-480.957
1628105815.360,-1000.000,-50.781,-51.758,-701.172
1628105815.353,254.883,-82.520,-38.086,238.770
1628105815.357,-911.133,-62.012,-31.250,672.852
1628105815.361,-96.680,-83.496,-32.715,-187.012
1628105815.365,-1000.000,-91.309,-46.387,-778.809
1628105815.369,-127.441,-74.219,-32.227,-27.344
1628105815.373,-842.285,-48.340,-25.879,708.496
1628105815.377,291.504,-64.453,-24.414,123.047
1628105815.380,-1000.000,-6.836,-42.480,-767.090
1628105815.384,-556.641,37.598,-52.246,-378.906
1628105815.388,923.340,-55.664,-43.945,562.988
1628105815.392,633.789,-63.477,-47.852,349.609
1628105815.396,-837.402,-89.355,-25.879,-603.027
1628105815.411,-839.844,51.758,-37.598,-571.777
1628105815.415,545.410,89.844,-51.270,368.164
1628105815.419,923.828,-75.684,-38.086,547.852
1628105815.423,-401.855,-73.730,-41.992,-379.883
1628105815.427,-1000.000,-65.430,-40.039,-713.867
1628105815.431,196.289,20.020,-29.785,201.660
1628105815.435,-889.160,-9.766,-28.320,705.078
1628105815.438,-36.133,-98.633,-51.758,-139.160
1628105815.442,-1000.000,-87.891,-54.199,-800.781
1628105815.446,-255.371,-50.293,-23.438,-122.070
1628105815.450,-879.395,47.852,-8.789,689.941
1628105815.454,384.277,-6.836,-15.137,193.848
1628105815.465,-1000.000,-82.031,-26.367,-721.680
1628105815.469,-621.094,-60.547,-39.062,-403.320
1628105815.473,844.727,-40.039,-38.086,543.945
1628105815.477,735.840,-48.828,-37.598,443.359
1628105815.481,-705.566,-90.332,-41.016,-539.062
1628105815.485,-898.438,-64.453,-14.160,-599.121
1628105815.489,437.012,-49.316,-20.020,355.957
1628105815.492,-939.453,6.348,17.578,663.574
1628105815.496,-149.902,43.945,43.457,-240.723
1628105815.500,-1000.000,-71.777,-27.832,-800.781
1628105815.504,-29.785,-88.379,-36.133,30.762
1628105815.508,-855.957,-96.191,-50.293,647.949
1628105815.521,125.000,53.711,-36.621,-21.973
1628105815.525,-1000.000,83.984,-29.297,-746.094
1628105815.529,-416.992,-85.938,-58.105,-241.699
1628105815.533,-963.379,-63.965,-47.852,607.422
1628105815.537,499.023,-64.941,-37.598,241.211
1628105815.541,-981.445,-46.875,-24.902,-652.832
1628105815.545,-716.797,-56.152,-21.484,-458.496
1628105815.548,738.281,-65.430,-24.414,476.562
1628105815.552,802.246,-83.008,-45.898,465.820
1628105815.556,-615.723,-62.988,-31.738,-500.000
1628105815.560,-911.621,95.215,19.043,-598.145
1628105815.564,399.902,14.160,-10.742,301.758
1628105815.541,-965.332,-87.891,-35.645,615.723
1628105815.545,-191.406,-81.543,-43.945,-253.906
1628105815.549,-1000.000,-40.527,-45.410,-778.320
1628105815.553,-36.133,0.000,-30.762,37.598
1628105815.557,-844.238,-52.246,-38.574,694.824
1628105815.561,214.355,-54.199,-41.992,52.734
1628105815.565,-1000.000,-92.773,-45.410,-757.324
1628105815.568,-431.152,9.277,-10.254,-250.977
1628105815.572,-956.543,79.102,2.441,664.551
1628105815.576,538.086,-77.637,-41.016,313.965
1628105815.580,-921.875,-94.238,-48.340,-652.832
1628105815.584,-802.734,-77.637,-40.039,-541.504
1628105815.615,606.445,24.902,-40.527,444.336
1628105815.619,868.164,38.086,-48.828,541.992
1628105815.623,-497.070,-80.566,-35.645,-429.688
1628105815.627,-1000.000,-74.219,-30.762,-696.777
1628105815.631,231.934,-45.898,-49.316,219.238
1628105815.635,-912.598,-31.738,-53.223,683.594
1628105815.639,-92.773,-59.570,-51.270,-155.762
1628105815.642,-1000.000,-82.031,-41.992,-770.020
1628105815.646,-153.320,-63.965,-18.555,-48.340
1628105815.650,-849.609,-47.363,-25.879,684.570
1628105815.654,240.723,-34.180,-71.777,63.965
1628105815.658,-1000.000,-60.059,-62.500,-775.879
1628105815.635,-546.875,-65.430,-39.062,-343.262
1628105815.639,904.785,-46.387,-30.273,576.172
1628105815.643,675.293,-60.059,-41.992,393.066
1628105815.647,-788.086,-64.941,-48.828,-560.059
1628105815.651,-854.004,-52.734,-31.738,-550.293
1628105815.655,548.340,-35.156,-29.297,425.781
1628105815.659,922.852,-57.129,-39.551,600.098
1628105815.662,-402.832,-43.457,-25.879,-377.930
1628105815.666,-1000.000,-2.930,-8.789,-723.633
1628105815.670,120.605,-25.879,-28.320,145.508
1628105815.674,-874.512,-43.457,-44.922,665.039
1628105815.678,27.344,-65.918,-39.062,-103.027
1628105815.692,-1000.000,-47.363,-59.082,-821.777
1628105815.696,-319.336,-16.602,-66.406,-201.660
1628105815.700,-899.902,-40.039,-46.387,657.227
1628105815.704,438.965,-65.918,-60.059,208.008
1628105815.708,-1000.000,-70.801,-48.340,-694.824
1628105815.712,-649.902,21.484,-51.758,-430.664
1628105815.716,810.059,41.016,-47.363,506.348
1628105815.719,756.348,-43.945,-22.461,446.289
1628105815.723,-670.410,-73.730,-28.809,-533.203
1628105815.727,-945.312,-42.480,-34.668,-647.949
1628105815.731,399.414,6.836,-31.250,318.848
1628105815.735,-976.562,-28.320,-35.645,627.441
1628105815.729,-227.539,-59.082,-39.062,-287.109
1628105815.733,-1000.000,-77.148,-42.969,-777.344
1628105815.737,-26.367,7.812,-32.715,46.875
1628105815.741,-849.609,51.270,-29.297,687.012
1628105815.745,140.625,-52.734,-32.227,-28.320
1628105815.749,-1000.000,-65.918,-29.785,-779.297
1628105815.753,-401.367,-92.773,-51.270,-245.605
1628105815.756,-962.891,3.418,-20.020,631.348
1628105815.760,577.148,82.031,22.949,343.750
1628105815.764,-906.738,-44.922,-12.207,-632.324
1628105815.768,-762.207,-66.895,-32.227,-498.535
1628105815.772,677.734,-59.570,-44.922,458.008
1628105815.823,855.469,-6.836,-25.391,509.277
1628105815.827,-520.996,-4.395,-29.297,-455.566
1628105815.831,-1000.000,-62.500,-59.570,-692.871
1628105815.835,285.645,-50.781,-40.527,254.883
1628105815.839,-947.266,-61.035,-41.016,650.879
1628105815.843,-151.367,-33.203,-28.320,-191.406
1628105815.847,-1000.000,-31.250,-17.578,-748.047
1628105815.850,-143.555,-48.828,-33.691,-31.250
1628105815.854,-846.680,-35.645,-37.109,687.500
1628105815.858,294.922,-56.641,-19.531,117.676
1628105815.862,-1000.000,-72.266,0.488,-689.453
1628105815.866,-515.137,-56.152,-37.598,-298.828
1628105815.841,956.543,-34.180,-56.641,578.125
1628105815.845,630.859,-41.504,-32.227,347.168
1628105815.849,-842.773,-62.012,-38.574,-619.629
1628105815.853,-812.988,-61.035,-50.293,-562.012
1628105815.857,599.609,-41.016,-37.598,440.918
1628105815.861,913.574,-41.504,-37.598,583.008
1628105815.865,-421.875,-53.223,-37.598,-383.789
1628105815.868,-1000.000,-20.508,-37.598,-696.289
1628105815.872,193.359,-5.371,-34.180,205.566
1628105815.876,-886.719,-42.480,-26.855,692.383
1628105815.880,-33.691,-62.012,-34.180,-134.766
1628105815.884,-1000.000,-78.125,-24.902,-765.625
1628105815.880,-232.910,-54.199,-56.152,-117.676
1628105815.884,-885.742,-10.254,-70.312,623.047
1628105815.888,371.094,-16.602,-35.156,161.621
1628105815.892,-1000.000,-40.527,-42.969,-717.285
1628105815.896,-585.449,-34.180,-33.203,-365.234
1628105815.900,889.160,-20.996,-80.078,540.039
1628105815.904,714.355,-32.715,-86.914,385.254
1628105815.907,-745.117,-42.480,-35.156,-544.922
1628105815.911,-864.746,-25.391,-13.184,-554.688
1628105815.915,521.484,-26.855,-27.344,386.719
1628105815.919,940.430,-68.848,-71.289,545.898
1628105815.923,-352.539,-77.148,-43.457,-353.516
1628105815.915,-1000.000,-74.219,-18.555,-709.473
1628105815.919,98.145,-46.875,-27.344,146.484
1628105815.923,-855.957,-6.836,-34.180,718.750
1628105815.927,91.309,-9.277,-22.949,-18.555
1628105815.931,-1000.000,-34.180,-24.902,-743.652
1628105815.935,-312.988,-19.531,-36.621,-148.926
1628105815.939,-912.598,-28.320,-41.016,659.180
1628105815.942,514.648,-0.488,10.742,282.715
1628105815.946,-932.617,14.648,36.621,-583.984
1628105815.950,-699.707,-50.293,-23.926,-429.199
1628105815.954,772.949,-28.320,-32.227,532.715
1628105815.958,775.391,-66.406,-40.527,496.582
1628105816.009,-646.973,-18.555,-6.348,-482.422
1628105816.013,-993.652,62.500,18.555,-613.770
1628105816.017,323.730,-8.789,-30.273,277.832
1628105816.021,-977.051,-32.715,-40.527,615.723
1628105816.025,-221.680,-47.363,-44.922,-269.531
1628105816.029,-1000.000,-15.137,-43.457,-763.184
1628105816.033,-52.734,-11.719,-39.551,22.461
1628105816.036,-844.727,-40.039,-30.273,671.875
1628105816.040,175.293,-64.453,-30.273,11.719
1628105816.044,-1000.000,-58.594,-27.344,-757.324
1628105816.048,-367.188,1.465,0.000,-209.473
1628105816.052,-943.848,-12.695,-7.812,632.324
1628105816.029,537.109,-64.453,-32.227,282.227
1628105816.033,-918.945,-65.430,-56.152,-653.809
1628105816.037,-781.250,-38.574,-55.176,-534.668
1628105816.041,647.949,-37.109,-37.109,441.406
1628105816.045,845.703,-41.992,-36.133,513.672
1628105816.049,-526.367,-49.316,-36.621,-461.914
1628105816.053,-1000.000,-44.922,-26.367,-698.730
1628105816.056,250.977,-23.926,-17.090,230.957
1628105816.060,-918.945,-22.949,-27.344,666.016
1628105816.064,-115.723,-45.410,-39.062,-202.637
1628105816.068,-1000.000,-65.918,-43.457,-790.527
1628105816.072,-141.113,-38.086,-33.691,-35.645
1628105816.068,-843.262,-27.344,-24.902,697.266
1628105816.072,270.508,-53.223,-36.133,101.562
1628105816.076,-1000.000,-62.988,-42.969,-749.023
1628105816.080,-536.133,-50.781,-33.691,-330.566
1628105816.084,939.941,-17.578,-19.043,605.957
1628105816.088,616.699,-52.734,-50.293,370.605
1628105816.092,-854.492,-81.055,-60.059,-624.023
1628105816.095,-844.238,-47.852,-30.762,-573.242
1628105816.099,539.062,-43.457,-31.738,387.207
1628105816.103,927.246,-41.016,-26.367,568.359
1628105816.107,-386.230,-41.504,-57.617,-404.785
1628105816.111,-1000.000,-50.781,-69.336,-779.785
1628105816.104,121.094,-22.461,-34.180,146.484
1628105816.108,-869.141,-24.414,-29.297,695.312
1628105816.112,19.531,-43.457,-29.297,-102.539
1628105816.116,-1000.000,-30.762,-29.785,-763.672
1628105816.120,-243.652,-33.691,-41.504,-113.770
1628105816.124,-872.070,-8.789,-28.320,681.152
1628105816.128,399.902,-36.133,-21.484,198.730
1628105816.131,-1000.000,-54.688,-14.160,-708.496
1628105816.135,-614.258,-25.391,0.977,-382.812
1628105816.139,853.027,-43.457,-23.926,536.621
1628105816.143,704.590,-49.316,-40.039,412.109
1628105816.147,-729.004,-56.641,-28.809,-564.941
1628105816.162,-958.984,-54.688,-48.340,-659.180
1628105816.166,372.070,-28.809,-67.383,311.523
1628105816.170,-996.094,-35.645,-38.574,630.859
1628105816.174,-270.508,-66.895,-32.715,-298.340
1628105816.178,-1000.000,-63.477,-35.156,-756.836
1628105816.182,55.176,-10.254,-35.156,124.512
1628105816.186,-849.121,2.930,-26.855,741.211
1628105816.189,90.820,-51.270,-21.484,-39.551
1628105816.193,-1000.000,-78.125,-30.762,-784.668
1628105816.197,-349.609,-47.363,-36.621,-190.918
1628105816.201,-923.828,-14.160,-36.133,649.902
1628105816.205,489.258,-24.414,-28.320,266.113
1628105816.197,-985.352,-51.758,-31.738,-661.621
1628105816.201,-688.477,-54.199,-36.133,-446.777
1628105816.205,763.672,-22.949,-29.297,529.297
1628105816.209,830.566,-18.066,-31.738,529.785
1628105816.213,-565.430,-41.016,-45.410,-472.168
1628105816.217,-979.492,-34.668,-46.387,-666.992
1628105816.221,348.145,-30.762,-27.832,289.062
1628105816.224,-954.590,-17.578,-36.621,638.184
1628105816.228,-206.543,-27.344,-64.453,-281.250
1628105816.232,-1000.000,-56.641,-41.016,-786.133
1628105816.236,-65.918,-35.645,-29.785,12.695
1628105816.240,-842.285,-37.598,-36.133,683.105
1628105816.272,202.148,-37.598,-56.641,27.344
1628105816.276,-1000.000,-36.133,-54.688,-775.391
1628105816.280,-438.965,-32.715,-25.879,-265.137
1628105816.284,-994.629,-20.508,-24.414,624.512
1628105816.288,605.957,-26.855,-25.879,359.375
1628105816.292,-859.375,-45.410,-68.359,-628.906
1628105816.296,-791.504,-51.758,-65.918,-552.734
1628105816.299,635.742,-43.457,-16.602,449.707
1628105816.303,876.953,-57.617,-18.066,546.387
1628105816.307,-477.539,-70.801,-23.438,-432.617
1628105816.311,-1000.000,-42.969,-20.508,-720.215
1628105816.315,188.477,-23.926,-29.785,202.637
1628105816.290,-895.020,-32.227,-34.180,682.129
1628105816.294,-58.594,-51.270,-27.832,-157.227
1628105816.298,-1000.000,-53.711,-11.230,-773.926
1628105816.302,-157.715,-33.691,0.000,-40.039
1628105816.306,-845.215,-24.414,-18.555,720.215
1628105816.310,331.055,-36.621,-35.156,152.344
1628105816.314,-1000.000,-63.965,-22.461,-715.332
1628105816.317,-633.301,-58.105,-59.082,-404.785
1628105816.321,811.523,-24.414,-77.148,488.281
1628105816.325,697.754,-25.879,-26.367,398.926
1628105816.329,-766.602,-35.645,-29.785,-559.570
1628105816.333,-864.258,-33.691,-29.785,-571.289
1628105816.350,523.926,-8.789,-26.855,395.508
1628105816.354,955.078,-6.836,-22.461,603.027
1628105816.358,-344.727,-59.082,-30.273,-341.797
1628105816.362,-1000.000,-61.523,-52.734,-739.746
1628105816.366,95.215,-22.949,-40.527,120.117
1628105816.370,-872.070,9.766,-29.785,675.781
1628105816.374,60.059,-28.809,-34.180,-68.359
1628105816.377,-1000.000,-60.059,-20.996,-786.621
1628105816.381,-302.246,-56.152,-21.484,-172.363
1628105816.385,-902.344,-15.137,-11.230,688.477
1628105816.389,548.340,110.352,31.738,317.383
1628105816.393,-941.406,29.297,-3.418,-647.461
1628105816.384,-704.590,-64.941,-52.734,-450.684
1628105816.388,779.297,-38.574,-47.852,508.789
1628105816.392,775.391,-30.273,-31.250,461.426
1628105816.396,-649.902,-42.480,-25.879,-512.207
1628105816.400,-946.777,-60.059,-31.738,-638.672
1628105816.404,401.855,-50.293,-31.738,335.449
1628105816.408,992.188,-83.984,-38.574,623.047
1628105816.411,-279.297,-26.855,-32.715,-306.641
1628105816.415,-1000.000,29.785,-22.949,-733.398
1628105816.419,-6.348,-53.223,-29.297,83.496
1628105816.423,-851.562,-58.105,-19.531,701.172
1628105816.427,122.559,-74.707,-38.086,-16.602
1628105816.443,-1000.000,42.480,-7.324,-720.703
1628105816.447,-353.516,98.633,3.906,-155.762
1628105816.451,-946.777,-15.625,-33.203,620.117
1628105816.455,508.789,-46.875,-36.133,256.348
1628105816.459,-975.098,-83.984,-57.617,-693.848
1628105816.463,-673.340,-23.926,-37.598,-468.750
1628105816.467,770.996,-7.812,-18.555,504.883
1628105816.470,821.777,-66.895,-38.086,488.770
1628105816.474,-544.922,-81.543,-50.781,-471.680
1628105816.478,-1000.000,-57.129,-56.152,-695.801
1628105816.482,262.695,-0.488,-59.082,233.887
1628105816.486,-911.133,-9.277,-38.574,673.340
1628105816.482,-104.492,-54.688,-35.645,-200.195
1628105816.486,-1000.000,-64.453,-32.227,-787.598
1628105816.490,-92.285,-12.695,-18.066,0.000
1628105816.494,-840.332,-17.090,-36.133,705.078
1628105816.498,231.934,-87.402,-44.434,69.824
1628105816.502,-1000.000,-86.426,-38.086,-756.348
1628105816.506,-508.789,-76.660,-34.668,-321.777
1628105816.509,957.031,-5.859,-20.996,597.168
1628105816.513,600.098,33.203,-30.273,355.469
1628105816.517,-878.906,-28.320,-51.270,-626.465
1628105816.521,-802.734,-22.949,-36.621,-538.086
1628105816.525,580.566,-33.203,-35.156,420.410
