timestamps,TP9,AF7,AF8,TP10
1628113493.228,57.129,-36.621,-32.715,0.977
1628113493.232,198.730,-14.160,-22.949,65.918
1628113493.236,-54.199,23.926,-20.508,-27.832
1628113493.240,-270.020,-10.254,-41.504,-130.371
1628113493.244,-68.848,-41.016,-28.809,-45.410
1628113493.248,192.871,-37.109,-14.648,70.801
1628113493.252,33.203,-19.531,-18.066,-3.906
1628113493.255,-215.820,30.762,-8.301,-104.492
1628113493.259,-127.441,-41.504,-31.250,-70.312
1628113493.263,144.043,-82.031,-48.340,48.828
1628113493.267,102.051,-64.453,-61.035,27.344
1628113493.271,-205.078,-33.203,-55.664,-116.699
1628113493.274,165.527,-39.062,-26.367,43.457
1628113493.278,-159.180,-59.570,-35.156,-98.145
1628113493.282,-283.691,-18.066,-40.039,-143.066
1628113493.286,15.625,-1.953,-33.203,-10.254
1628113493.290,190.918,-52.246,-32.227,63.477
1628113493.293,-69.824,-42.969,-48.828,-53.223
1628113493.297,-273.926,-49.316,-48.340,-138.672
1628113493.301,-43.457,-69.336,-33.203,-30.762
1628113493.305,224.121,-45.898,-37.109,89.355
1628113493.309,73.730,-44.434,-52.246,18.555
1628113493.303,-251.953,-74.707,-57.129,-132.812
1628113493.307,-170.410,-49.316,-33.691,-100.586
1628113493.311,168.945,28.320,-16.602,65.918
1628113493.315,128.906,-4.395,-28.809,43.457
1628113493.319,-207.520,-58.594,-36.133,-115.723
1628113493.323,-232.910,-48.828,-27.832,-117.188
1628113493.327,83.496,-14.648,-27.832,20.508
1628113493.330,176.270,28.320,-36.621,54.688
1628113493.334,-117.188,-37.109,-36.133,-69.824
1628113493.338,-250.488,-60.547,-40.039,-122.070
1628113493.342,9.766,-40.527,-48.340,-7.812
1628113493.346,208.496,-7.812,-37.598,77.148
1628113493.360,3.906,19.043,-10.742,-14.160
1628113493.364,-259.277,-45.898,-11.230,-121.582
1628113493.368,-98.145,-74.707,-33.203,-48.340
1628113493.372,181.152,-53.711,-39.551,69.824
1628113493.376,77.637,-20.996,-23.926,23.438
1628113493.380,-223.633,-20.020,-33.203,-107.910
1628113493.384,-186.035,-28.809,-28.320,-85.938
1628113493.387,120.117,-20.020,-36.621,45.898
1628113493.391,126.465,-55.176,-59.570,42.969
1628113493.395,-136.719,16.602,0.488,-62.500
1628113493.399,-197.266,40.039,10.742,-91.309
1628113493.403,48.828,-46.875,-31.738,7.324
1628113493.397,166.016,-65.430,-32.715,52.246
1628113493.401,-118.652,-55.176,-40.527,-85.449
1628113493.405,-286.621,-5.859,-34.180,-146.973
1628113493.409,-18.066,-23.438,-22.949,-17.578
1628113493.413,211.914,-33.691,-43.945,74.707
1628113493.417,-10.254,-41.016,-74.707,-35.156
1628113493.421,-266.113,-43.457,-59.570,-141.602
1628113493.424,-116.699,-53.223,-27.832,-65.918
1628113493.428,164.551,-82.031,-27.832,52.246
1628113493.432,100.586,-62.500,-26.855,26.855
1628113493.436,-219.238,-77.637,-35.156,-115.234
1628113493.440,-207.031,-40.039,-34.180,-107.422
1628113493.453,124.512,31.250,-14.648,49.316
1628113493.457,143.066,-23.438,-17.578,39.551
1628113493.461,-178.223,-53.223,-10.742,-110.840
1628113493.465,-298.340,-72.754,-44.434,-160.645
1628113493.469,68.359,22.461,1.953,31.738
1628113493.473,289.062,75.684,32.715,135.254
1628113493.477,-69.824,-69.336,-46.387,-60.547
1628113493.480,-286.133,-84.961,-49.805,-149.902
1628113493.484,-61.523,-60.059,-50.781,-44.922
1628113493.488,266.602,1.465,14.648,125.488
1628113493.492,114.746,15.137,40.039,62.012
1628113493.496,-273.926,-56.641,-43.457,-142.090
1628113493.490,-158.691,-57.129,-39.551,-91.309
1628113493.494,164.551,-59.082,-7.812,50.781
1628113493.498,125.000,-63.477,-19.043,35.156
1628113493.502,-208.496,-48.828,-35.645,-107.910
1628113493.506,-220.703,-40.039,-32.715,-115.723
1628113493.510,99.121,-47.363,-44.922,23.438
1628113493.514,199.219,-27.832,-29.785,77.637
1628113493.517,-59.082,2.441,14.648,-15.625
1628113493.521,-250.488,-46.875,-17.090,-106.934
1628113493.525,-2.441,-53.223,-35.156,-2.441
1628113493.529,189.453,-58.594,-49.805,62.012
1628113493.533,-33.203,-8.301,-24.414,-26.367
1628113493.531,-213.379,57.617,11.230,-81.055
1628113493.535,-75.195,-25.879,-27.344,-48.340
1628113493.539,163.086,-58.105,-38.086,46.875
1628113493.543,37.109,-63.477,-34.668,-7.324
1628113493.547,-232.910,-37.598,-28.320,-112.793
1628113493.551,-141.602,-9.277,-28.320,-65.918
1628113493.555,139.160,-30.273,-26.855,46.875
1628113493.558,123.535,-65.918,-20.996,34.180
1628113493.562,-222.656,-94.727,-54.688,-131.348
1628113493.566,-214.844,15.137,-13.184,-93.750
1628113493.570,134.766,47.852,6.348,74.707
1628113493.574,171.875,-44.434,-53.223,59.082
1628113493.585,-141.113,-58.105,-50.293,-82.520
1628113493.589,-304.199,-60.547,-42.480,-157.715
1628113493.593,-18.066,-38.574,-40.527,-28.809
1628113493.597,218.262,-36.621,-37.598,75.195
1628113493.601,0.977,-47.363,-30.762,-27.344
1628113493.605,-266.602,-53.711,-34.180,-141.113
1628113493.609,-76.172,-16.113,-10.742,-46.875
1628113493.612,254.883,43.945,23.438,104.492
1628113493.616,92.773,-40.527,-15.625,12.207
1628113493.620,-244.629,-63.477,-37.598,-133.301
1628113493.624,-197.266,-41.992,-52.734,-110.352
1628113493.628,155.762,13.184,-20.996,65.430
1628113493.625,239.746,61.035,18.066,122.070
1628113493.629,-154.785,-35.156,-37.109,-74.219
1628113493.633,-268.555,-64.453,-43.457,-124.512
1628113493.637,54.688,-67.871,-24.414,8.789
1628113493.641,218.750,-31.738,-9.766,87.402
1628113493.645,-48.340,-17.578,-5.371,-21.484
1628113493.649,-278.809,-43.457,-33.203,-131.348
1628113493.652,-68.848,-56.641,-60.059,-48.828
1628113493.656,168.945,-76.172,-72.754,55.664
1628113493.660,80.078,57.617,-6.836,43.945
1628113493.664,-181.641,59.082,17.090,-70.801
1628113493.668,-146.973,-68.848,-41.016,-80.566
1628113493.678,157.715,-47.363,-38.574,52.734
1628113493.682,84.473,-47.852,-23.438,18.555
1628113493.686,-227.051,-13.672,-24.902,-111.816
1628113493.690,-203.613,-27.344,-40.039,-100.586
1628113493.694,127.930,-52.734,-41.016,43.945
1628113493.698,184.082,-65.430,-43.457,64.453
1628113493.702,-115.234,-34.180,-35.645,-63.965
1628113493.705,-184.570,57.129,-8.789,-73.730
1628113493.709,40.039,-12.207,-43.945,10.742
1628113493.713,177.734,-59.082,-54.199,56.152
1628113493.717,-79.102,-73.730,-52.246,-68.359
1628113493.721,-247.070,-19.531,-16.113,-117.188
1628113493.735,32.715,67.871,38.086,38.086
1628113493.739,205.078,-12.207,-17.090,76.172
1628113493.743,15.137,-34.668,-43.457,-24.414
1628113493.747,-275.391,-62.500,-62.500,-152.344
1628113493.751,-143.555,-23.926,-36.133,-71.289
1628113493.755,192.383,3.418,-21.484,73.730
1628113493.759,122.070,-55.664,-58.105,26.367
1628113493.762,-206.543,-65.430,-67.383,-115.723
1628113493.766,-253.418,-68.359,-71.289,-141.602
1628113493.770,137.207,66.406,2.441,58.594
1628113493.774,246.582,67.871,15.625,105.469
1628113493.778,-135.254,-88.379,-35.156,-83.008
1628113493.772,-270.508,-84.961,-37.598,-132.812
1628113493.776,-7.324,-59.570,-55.664,-20.508
1628113493.780,198.242,-41.992,-58.594,64.453
1628113493.784,-30.273,-51.758,-55.664,-45.898
1628113493.788,-282.715,-49.805,-58.594,-149.414
1628113493.792,-107.910,-62.988,-51.270,-64.453
1628113493.796,193.359,-47.363,-22.949,66.895
1628113493.799,131.348,28.320,8.789,68.848
1628113493.803,-220.215,-24.902,-29.297,-100.586
1628113493.807,-210.449,-78.613,-56.152,-118.652
1628113493.811,108.398,-74.219,-52.246,19.531
1628113493.815,140.625,-10.254,-33.691,39.551
1628113493.812,-147.461,23.926,-17.090,-78.125
1628113493.816,-247.559,-77.148,-39.062,-131.348
1628113493.820,66.406,-60.059,-33.691,11.719
1628113493.824,202.637,-21.973,-35.156,63.477
1628113493.828,-96.680,-34.180,-38.574,-75.195
1628113493.832,-272.461,-40.527,-36.621,-145.996
1628113493.836,-14.160,-33.203,-29.297,-25.879
1628113493.839,208.496,-26.855,-19.531,77.148
1628113493.843,-26.855,-83.496,-51.270,-48.340
1628113493.847,-219.238,20.508,-16.602,-115.723
1628113493.851,-76.172,58.105,-17.090,-42.480
1628113493.855,140.137,-36.133,-64.453,29.785
1628113493.865,84.961,-37.598,-40.527,3.906
1628113493.869,-221.680,-50.781,-22.949,-129.883
1628113493.873,-180.176,-16.602,-18.555,-98.145
1628113493.877,120.117,-44.922,-35.645,33.691
1628113493.881,153.320,-52.734,-32.715,39.551
1628113493.885,-157.227,-39.551,-43.945,-99.609
1628113493.889,-253.906,-26.367,-51.270,-131.348
1628113493.892,82.520,35.156,-19.531,38.086
1628113493.896,208.008,-35.645,-35.645,72.266
1628113493.900,-87.402,-69.824,-41.504,-70.801
1628113493.904,-312.012,-78.125,-55.176,-174.316
1628113493.908,-20.996,39.062,-13.672,-14.160
1628113493.922,311.035,156.250,38.086,154.785
1628113493.926,22.949,-9.766,-32.715,-19.531
1628113493.930,-289.062,-67.383,-55.664,-161.621
1628113493.934,-130.371,-39.551,-33.203,-75.195
1628113493.938,212.891,-2.441,-23.438,85.449
1628113493.942,148.438,-18.066,-51.758,46.387
1628113493.946,-212.402,-79.102,-50.293,-123.535
1628113493.949,-229.980,-80.566,-32.715,-120.605
1628113493.953,75.684,-83.008,-48.828,12.695
1628113493.957,264.648,50.293,24.414,116.699
1628113493.961,-47.363,70.801,15.137,-29.785
1628113493.965,-306.641,-53.711,-70.312,-174.316
1628113493.959,-2.930,-49.316,-52.734,-30.273
1628113493.963,203.125,-54.199,-47.852,59.570
1628113493.967,-48.828,-55.664,-54.688,-52.246
1628113493.971,-270.996,-47.852,-56.152,-142.090
1628113493.975,-59.570,-48.828,-45.410,-40.039
1628113493.979,186.523,-87.891,-48.340,56.152
1628113493.983,74.219,-25.879,-7.324,18.066
1628113493.986,-95.215,135.742,81.055,-10.742
1628113493.990,-118.164,31.250,-3.906,-55.176
1628113493.994,84.473,-55.176,-64.453,1.953
1628113493.998,83.008,-81.543,-60.059,-2.441
1628113494.002,-157.715,27.344,-8.789,-80.566
1628113494.016,-91.309,154.785,53.223,-11.230
1628113494.020,94.727,-20.508,-32.715,31.738
1628113494.024,145.508,-59.082,-52.246,37.109
1628113494.028,-162.598,-90.820,-63.965,-103.027
1628113494.032,-221.680,28.809,-13.184,-99.121
1628113494.036,96.191,88.867,1.465,48.340
1628113494.040,185.547,-71.289,-42.480,60.059
1628113494.043,-29.297,-73.242,-19.531,-36.621
1628113494.047,-269.043,-67.383,-49.316,-142.090
1628113494.051,-87.402,-43.457,-53.711,-54.199
1628113494.055,184.082,-48.340,-30.762,59.082
1628113494.059,37.598,-80.078,-29.785,-16.113
1628113494.053,-276.367,-95.703,-48.828,-151.367
1628113494.057,-213.867,-78.125,-50.293,-119.141
1628113494.061,190.918,46.387,4.395,78.125
1628113494.065,180.176,7.324,-19.043,73.242
1628113494.069,-195.312,-77.148,-64.453,-104.004
1628113494.073,-269.043,-81.543,-69.824,-141.602
1628113494.077,61.523,-53.223,-34.180,16.602
1628113494.080,308.105,52.246,47.852,156.250
1628113494.084,-44.922,-18.555,-4.883,-29.297
1628113494.088,-301.270,-63.477,-42.480,-157.715
1628113494.092,-77.637,-72.754,-51.758,-68.359
1628113494.096,200.195,-5.371,-11.719,75.684
1628113494.094,104.980,72.266,32.227,65.430
1628113494.098,-270.996,-43.457,-57.129,-139.160
1628113494.102,-168.457,-64.453,-63.477,-95.215
1628113494.106,166.016,-50.293,-50.293,58.594
1628113494.110,117.188,-30.762,-50.293,33.203
1628113494.114,-193.848,-29.785,-44.922,-100.098
1628113494.118,-207.520,-62.500,-54.688,-101.074
1628113494.121,115.234,-61.035,-52.734,47.852
1628113494.125,166.504,-79.102,-61.035,56.641
1628113494.129,-89.355,9.766,-10.742,-49.805
1628113494.133,-195.801,35.645,-3.906,-90.332
1628113494.137,34.668,-46.875,-43.945,-1.953
1628113494.147,199.219,-53.223,-45.898,62.500
1628113494.151,-78.613,-58.594,-70.801,-69.336
1628113494.155,-268.555,-10.254,-55.664,-140.137
1628113494.159,-56.641,-20.996,-52.246,-47.852
1628113494.163,186.035,-37.109,-46.875,49.316
1628113494.167,15.625,-62.988,-46.875,-34.180
1628113494.171,-245.605,-51.758,-32.227,-140.137
1628113494.174,-52.246,51.270,18.066,-18.555
1628113494.178,214.355,-4.883,-20.996,85.449
1628113494.182,103.516,-56.152,-61.035,16.113
1628113494.186,-230.957,-60.059,-74.219,-133.301
1628113494.190,-206.543,-27.344,-32.227,-98.633
1628113494.203,174.805,29.297,37.598,91.309
1628113494.207,205.566,-32.715,-3.418,77.637
1628113494.211,-141.113,-67.383,-52.246,-85.938
1628113494.215,-285.156,-68.848,-73.730,-139.160
1628113494.219,-1.465,-33.203,-64.453,-7.324
1628113494.223,196.289,-16.113,-36.133,81.055
1628113494.227,-40.527,-36.133,-25.391,-26.855
1628113494.230,-277.832,-48.828,-27.344,-131.836
1628113494.234,-104.004,-51.270,-41.016,-53.711
1628113494.238,197.754,-15.625,-41.016,75.684
1628113494.242,54.688,-39.062,-44.922,8.789
1628113494.246,-276.855,-71.777,-45.410,-135.742
1628113494.241,-186.035,-56.152,-52.734,-98.633
1628113494.245,125.488,-43.457,-66.895,39.551
1628113494.249,221.680,83.984,4.883,112.305
1628113494.253,-118.652,46.875,5.859,-50.293
1628113494.257,-273.926,-68.848,-45.410,-128.906
1628113494.261,48.340,-73.730,-41.504,16.113
1628113494.265,203.125,-30.762,-22.949,83.008
1628113494.268,-1.465,74.707,25.391,10.742
1628113494.272,-227.539,-12.695,-9.277,-99.121
1628113494.276,-35.645,-74.219,-35.156,-25.879
1628113494.280,191.895,-74.707,-45.898,65.918
1628113494.284,-7.812,-26.367,-59.082,-18.555
1628113494.308,-260.254,2.930,-43.457,-128.906
1628113494.312,-122.070,-60.059,-41.016,-73.730
1628113494.316,166.504,-38.574,-29.297,61.523
1628113494.320,34.668,-68.359,-41.992,-14.648
1628113494.324,-195.312,18.066,-2.930,-88.867
1628113494.328,-98.145,71.777,15.137,-17.090
1628113494.332,115.234,-55.176,-35.156,38.086
1628113494.335,143.066,-57.129,-29.297,47.363
1628113494.339,-174.316,-75.195,-42.480,-96.680
1628113494.343,-178.711,39.062,-0.488,-70.801
1628113494.347,156.738,70.801,13.184,86.426
1628113494.351,185.547,-77.637,-56.152,57.129
1628113494.335,-126.953,-97.168,-70.312,-88.379
1628113494.339,-305.664,-66.406,-49.805,-149.414
1628113494.343,-55.664,-32.715,-33.691,-31.738
1628113494.347,189.941,-48.340,-40.527,62.012
1628113494.351,22.949,-56.152,-41.504,-18.555
1628113494.355,-244.629,-52.734,-46.387,-137.207
1628113494.359,-122.070,-23.926,-36.621,-76.660
1628113494.362,218.750,60.059,10.742,86.914
1628113494.366,135.742,-5.371,-16.113,34.180
1628113494.370,-212.891,-69.824,-39.551,-117.188
1628113494.374,-220.215,-76.660,-39.551,-112.305
1628113494.378,108.887,-5.859,-34.668,34.180
1628113494.391,227.051,73.730,-7.324,90.332
1628113494.395,-151.855,-41.992,-37.109,-98.633
1628113494.399,-291.504,-77.637,-56.152,-161.621
1628113494.403,6.836,-62.500,-60.059,-25.391
1628113494.407,199.707,-32.227,-41.504,64.453
1628113494.411,-21.973,-22.461,-24.414,-35.645
1628113494.415,-263.672,-67.871,-34.180,-146.973
1628113494.418,-65.918,-65.918,-48.340,-49.805
1628113494.422,181.641,-75.195,-62.012,54.688
1628113494.426,78.613,5.371,-22.949,20.996
1628113494.430,-180.176,30.762,-4.395,-91.309
1628113494.434,-152.832,-60.059,-33.691,-98.633
1628113494.428,131.836,-68.359,-45.898,28.320
1628113494.432,105.469,-76.660,-52.734,10.742
1628113494.436,-206.543,-55.664,-48.340,-132.324
1628113494.440,-244.629,-55.664,-47.852,-139.648
1628113494.444,61.035,-58.594,-36.621,9.766
1628113494.448,163.574,-65.430,-38.574,45.410
1628113494.452,-123.535,-47.363,-27.832,-83.984
1628113494.455,-231.934,14.648,-12.207,-99.609
1628113494.459,13.672,-26.367,-30.273,6.348
1628113494.463,182.129,-47.363,-24.414,67.383
1628113494.467,-53.223,-76.660,-28.809,-41.992
1628113494.471,-264.648,-21.484,-8.301,-125.000
1628113494.488,-42.969,64.941,-8.301,-17.578
1628113494.492,183.594,-20.020,-55.664,58.105
1628113494.496,42.969,-52.734,-46.387,-11.230
1628113494.500,-252.930,-63.965,-67.383,-140.625
1628113494.504,-151.855,-22.949,-58.105,-84.961
1628113494.508,170.898,4.395,-29.297,62.988
1628113494.512,156.250,-36.621,-24.902,49.316
1628113494.515,-145.996,-37.598,-17.578,-86.914
1628113494.519,-263.672,-66.406,-60.059,-149.414
1628113494.523,80.566,12.207,-20.996,29.785
1628113494.527,254.395,36.133,4.395,115.723
1628113494.531,-110.352,-56.152,-67.871,-73.242
1628113494.525,-303.223,-46.875,-62.500,-153.320
1628113494.529,-31.250,-38.086,-30.273,-30.762
1628113494.533,227.051,-26.855,-22.949,85.938
1628113494.537,37.109,-27.832,-52.734,1.953
1628113494.541,-220.703,-38.086,-46.875,-106.934
1628113494.545,-82.520,-60.547,-24.414,-43.457
1628113494.549,207.031,-21.973,-26.855,88.379
1628113494.552,165.527,84.473,15.137,83.496
1628113494.556,-200.195,13.184,-1.953,-100.098
1628113494.560,-232.910,-45.898,-35.645,-124.023
1628113494.564,80.566,-66.895,-47.363,12.207
1628113494.568,195.312,19.043,-9.277,83.984
1628113494.580,-36.133,119.629,10.742,3.906
1628113494.584,-228.516,-32.715,-62.500,-105.957
1628113494.588,15.137,-67.383,-58.105,-5.371
1628113494.592,178.711,-37.109,-31.738,58.105
1628113494.596,-64.453,-17.090,-16.113,-55.664
1628113494.600,-264.648,-16.602,-12.695,-138.184
1628113494.604,-65.430,-43.945,-36.133,-43.945
1628113494.607,166.504,-57.129,-55.664,52.246
1628113494.611,-33.203,-84.473,-61.035,-46.875
1628113494.615,-231.445,17.090,-6.836,-111.328
1628113494.619,-90.332,40.527,-3.418,-36.621
1628113494.623,141.113,-57.129,-57.617,47.363
1628113494.636,96.680,-73.242,-61.523,15.625
1628113494.640,-200.684,-75.684,-42.480,-114.258
1628113494.644,-147.461,-1.953,2.441,-63.477
1628113494.648,145.020,-18.066,-10.742,66.895
1628113494.652,182.617,-36.133,-24.414,68.359
1628113494.656,-122.559,-39.062,-21.484,-70.801
1628113494.660,-227.539,-14.160,-12.695,-106.445
1628113494.663,100.098,71.777,5.859,55.176
1628113494.667,219.727,-18.555,-38.574,89.355
1628113494.671,-44.434,-78.613,-56.152,-38.086
1628113494.675,-283.203,-89.355,-54.688,-150.391
1628113494.679,-58.105,8.301,1.953,-30.273
1628113494.712,289.551,107.422,48.828,145.020
1628113494.716,72.266,-28.809,-27.832,18.555
1628113494.720,-252.441,-62.988,-45.898,-123.535
1628113494.724,-160.156,-53.223,-30.762,-74.707
1628113494.728,178.223,-15.137,0.488,81.055
1628113494.732,162.598,-18.555,-24.414,56.152
1628113494.736,-208.496,-75.684,-90.820,-129.883
1628113494.739,-253.906,-81.543,-69.336,-144.531
1628113494.743,45.898,-104.004,-40.527,-13.184
1628113494.747,239.746,32.715,19.043,102.539
1628113494.751,-25.879,62.988,16.113,-13.184
1628113494.755,-293.457,-76.660,-52.734,-151.855
1628113494.714,-31.738,-70.312,-37.598,-27.344
1628113494.718,199.707,-39.551,-35.156,74.707
1628113494.722,5.371,2.441,-28.320,-8.789
1628113494.726,-263.672,-29.297,-47.852,-133.301
1628113494.730,-125.488,-45.898,-66.406,-74.707
1628113494.734,156.738,-48.340,-47.852,49.316
1628113494.738,92.773,-32.715,-10.742,30.762
1628113494.741,-166.504,3.418,17.090,-68.848
1628113494.745,-205.078,-78.613,-35.645,-107.422
1628113494.749,68.359,-80.078,-66.895,0.977
1628113494.753,106.445,-59.082,-57.129,17.578
1628113494.757,-166.992,-33.691,-33.691,-96.680
1628113494.759,-182.617,30.273,-14.160,-82.520
1628113494.763,57.617,-27.832,-41.016,8.301
1628113494.767,165.039,-40.527,-31.738,42.480
1628113494.771,-78.125,-31.738,-32.715,-58.594
1628113494.775,-233.398,-9.766,-36.621,-115.234
1628113494.779,-0.977,-2.441,-23.438,-10.254
1628113494.783,196.289,-52.246,-34.180,67.383
1628113494.786,-11.719,-78.613,-25.879,-17.578
1628113494.790,-273.926,-67.383,-38.086,-136.719
1628113494.794,-91.309,-4.883,-32.715,-43.457
1628113494.798,194.336,-3.418,-25.879,87.402
1628113494.802,81.543,-39.551,-48.340,14.648
1628113494.830,-238.770,-45.898,-51.270,-136.230
1628113494.834,-229.492,-46.387,-49.805,-131.836
1628113494.838,97.656,-35.156,-46.875,15.625
1628113494.842,165.527,-32.227,-40.039,43.457
1628113494.846,-140.625,-56.641,-36.133,-90.332
1628113494.850,-254.883,-87.891,-34.180,-133.789
1628113494.854,39.551,-56.641,-31.250,-1.953
1628113494.857,217.285,6.348,-23.926,81.055
1628113494.861,-56.641,-15.625,-28.320,-40.039
1628113494.865,-270.020,-25.879,-36.133,-131.348
1628113494.869,-53.711,-24.414,-50.293,-36.621
1628113494.873,211.914,13.672,-23.438,78.125
1628113494.949,66.406,38.574,-0.977,16.113
1628113494.953,-246.094,-45.898,-27.344,-125.977
1628113494.957,-149.414,-57.129,-24.414,-81.055
1628113494.961,144.531,-68.359,-41.016,42.969
1628113494.965,125.977,-62.012,-47.852,39.062
1628113494.969,-168.457,-35.645,-32.715,-87.402
1628113494.973,-204.102,-41.016,-35.156,-104.492
1628113494.976,101.562,-24.902,-33.691,30.273
1628113494.980,193.359,-19.043,-33.203,64.941
1628113494.984,-81.543,2.930,-23.438,-47.852
1628113494.988,-233.398,5.859,-20.508,-109.863
1628113494.992,5.859,-38.086,-18.555,-8.789
1628113494.949,203.125,-50.781,-26.367,75.684
1628113494.953,-43.945,-70.312,-47.852,-40.527
1628113494.957,-284.668,-64.453,-53.223,-143.066
1628113494.961,-95.215,-62.500,-56.641,-52.246
1628113494.965,191.406,-59.082,-49.805,76.660
1628113494.969,77.637,-53.223,-30.762,24.414
1628113494.973,-205.078,-23.438,-25.879,-92.773
1628113494.976,-137.695,17.090,-32.715,-55.176
1628113494.980,140.137,-27.832,-29.785,51.758
1628113494.984,122.559,-46.875,-8.789,44.922
1628113494.988,-206.543,-44.922,-14.160,-101.074
1628113494.992,-230.469,-26.855,-9.277,-110.352
1628113494.975,93.750,-27.832,-7.812,37.109
1628113494.979,179.199,-73.730,-36.133,65.430
1628113494.983,-100.098,-68.359,-41.992,-63.965
1628113494.987,-263.184,-66.895,-49.316,-136.719
1628113494.991,5.859,-31.250,-42.480,-5.859
1628113494.995,239.258,6.348,-38.574,92.285
1628113494.999,9.277,-21.973,-36.133,-21.484
1628113495.002,-252.441,-27.832,-17.090,-131.348
1628113495.006,-110.840,-32.227,-40.039,-67.871
1628113495.010,225.586,-8.789,-10.742,97.656
1628113495.014,132.812,-14.648,1.953,58.594
1628113495.018,-234.375,-65.430,-41.016,-125.000
1628113495.000,-181.152,-56.641,-36.133,-106.934
1628113495.004,110.352,-41.504,-44.922,8.301
1628113495.008,234.375,56.152,10.742,90.820
1628113495.012,-65.430,65.430,12.695,-37.109
1628113495.016,-243.652,-16.602,-49.316,-131.348
1628113495.020,43.945,-38.086,-55.176,1.465
1628113495.024,210.449,-17.090,-17.090,75.195
1628113495.027,-33.203,23.926,8.301,-18.066
1628113495.031,-273.926,-31.738,-47.852,-133.789
1628113495.035,-66.406,-85.938,-48.828,-49.316
1628113495.039,171.875,-90.820,-23.438,58.105
1628113495.043,1.953,-23.438,-18.066,-19.531
1628113495.030,-254.395,20.020,-1.953,-127.930
1628113495.034,-160.156,-38.574,-27.344,-93.262
1628113495.038,158.691,-31.738,-39.062,46.387
1628113495.042,103.516,-33.691,-55.664,23.438
1628113495.046,-172.852,3.906,-16.113,-75.195
1628113495.050,-121.582,42.480,36.133,-33.691
1628113495.054,117.676,-15.625,-16.602,48.340
1628113495.057,151.855,-33.691,-30.273,47.852
1628113495.061,-181.641,-81.055,-44.434,-118.164
1628113495.065,-238.281,14.160,-17.090,-117.676
1628113495.069,92.285,67.871,-13.672,27.344
1628113495.073,193.359,-43.945,-56.152,43.945
1628113495.094,-47.363,-51.270,-47.852,-50.781
1628113495.098,-266.602,-44.434,-53.223,-143.066
1628113495.102,-1.465,38.086,-2.441,1.465
1628113495.106,250.488,30.762,-2.930,112.793
1628113495.110,11.719,-40.039,-55.176,-20.020
1628113495.114,-287.109,-76.660,-62.988,-155.273
1628113495.118,-160.156,-51.270,-41.016,-82.520
1628113495.121,254.395,97.656,34.180,127.930
1628113495.125,166.992,23.926,-2.441,54.688
1628113495.129,-267.090,-65.918,-61.035,-174.316
1628113495.133,-297.852,-71.289,-73.730,-188.965
1628113495.137,107.422,10.254,-20.020,25.391
1628113495.124,307.129,115.723,38.086,134.766
1628113495.128,-117.676,-9.766,-63.477,-107.910
1628113495.132,-327.637,-64.453,-105.469,-220.703
1628113495.136,-36.621,-37.109,-99.121,-85.938
1628113495.140,184.570,-12.695,-81.055,12.207
1628113495.144,-46.875,-8.301,-78.125,-98.633
1628113495.148,-321.289,-26.855,-115.234,-211.914
1628113495.151,-137.695,-41.992,-110.352,-125.000
1628113495.155,133.789,-90.332,-86.914,-11.719
1628113495.159,168.945,67.383,31.250,60.059
1628113495.163,-107.910,115.723,48.828,-49.805
1628113495.167,-231.445,-41.504,-66.406,-147.949
1628113495.178,85.938,-45.898,-83.008,-12.207
1628113495.182,133.789,-27.832,-71.777,10.742
1628113495.186,-103.516,28.809,-15.137,-57.129
1628113495.190,-211.914,-25.391,-54.199,-116.211
1628113495.194,36.621,-62.988,-96.191,-23.438
1628113495.198,167.969,-52.246,-82.031,31.738
1628113495.202,-88.867,-31.250,-45.898,-75.195
1628113495.205,-141.602,64.453,43.945,-41.992
1628113495.209,28.320,6.348,-5.371,12.695
1628113495.213,167.480,-38.086,-53.223,42.969
1628113495.217,-22.949,-54.199,-50.781,-46.875
1628113495.221,-214.844,21.973,-5.859,-98.145
1628113495.253,-15.137,96.680,25.879,9.277
1628113495.257,164.062,-38.574,-45.410,36.133
1628113495.261,71.289,-76.660,-48.828,-11.719
1628113495.265,-239.746,-75.684,-42.969,-141.113
1628113495.269,-169.922,-8.789,-21.973,-87.402
1628113495.273,166.992,3.906,-19.531,65.430
1628113495.277,144.531,-65.430,-65.430,34.180
1628113495.280,-184.082,-39.062,-77.148,-113.281
1628113495.284,-296.875,-42.969,-69.336,-170.898
1628113495.288,92.773,69.336,-4.395,25.391
1628113495.292,291.504,70.312,12.207,109.375
1628113495.296,-74.707,-86.426,-39.062,-82.031
1628113495.272,-296.387,-74.707,-47.852,-161.133
1628113495.276,-79.590,-61.035,-53.223,-67.383
1628113495.280,184.570,-53.711,-49.316,40.527
1628113495.284,28.809,-36.621,-48.340,-23.438
1628113495.288,-265.625,-32.715,-45.410,-139.160
1628113495.292,-169.434,-68.848,-66.406,-91.797
1628113495.296,165.527,-29.785,-49.316,61.035
1628113495.299,149.902,28.809,-3.418,56.152
1628113495.303,-233.398,-50.293,-43.945,-134.766
1628113495.307,-254.883,-76.660,-50.293,-135.742
1628113495.311,62.988,-104.492,-40.039,3.418
1628113495.315,188.477,-12.695,-9.766,61.035
1628113495.312,-35.645,107.422,32.227,-11.230
1628113495.316,-253.418,-20.508,-23.926,-125.488
1628113495.320,-22.949,-71.777,-41.016,-39.551
1628113495.324,162.109,-65.918,-45.410,36.621
1628113495.328,-24.414,9.766,-16.602,-25.879
1628113495.332,-214.355,53.223,12.207,-88.867
1628113495.336,-95.215,-43.945,-39.551,-55.664
1628113495.339,186.523,-47.852,-38.086,69.824
1628113495.343,15.625,-88.379,-62.012,-25.879
1628113495.347,-207.520,-3.906,-13.672,-89.355
1628113495.351,-71.289,46.875,26.367,-5.371
1628113495.355,123.047,-54.688,-35.645,30.762
1628113495.366,106.934,-57.129,-40.527,22.461
1628113495.370,-192.383,-47.363,-46.875,-108.398
1628113495.374,-208.496,10.742,-19.043,-93.262
1628113495.378,85.938,-28.809,-19.043,31.250
1628113495.382,168.457,-83.496,-48.828,40.527
1628113495.386,-139.648,-90.332,-64.941,-90.332
1628113495.390,-272.949,-57.617,-34.180,-131.348
1628113495.393,43.945,64.453,5.371,16.113
1628113495.397,195.801,6.348,-33.203,62.988
1628113495.401,-64.941,-55.664,-49.316,-61.523
1628113495.405,-286.133,-60.059,-61.523,-159.180
1628113495.409,-76.660,-9.277,-41.992,-44.434
1628113495.425,236.816,60.059,2.441,101.562
1628113495.429,77.148,-41.016,-44.434,2.441
1628113495.433,-256.836,-84.473,-58.594,-149.414
1628113495.437,-191.406,-57.129,-32.227,-110.840
1628113495.441,146.973,-44.434,-23.438,54.199
1628113495.445,167.969,-44.922,-40.527,62.988
1628113495.449,-177.246,-46.387,-61.035,-97.656
1628113495.452,-271.484,-51.270,-53.711,-141.113
1628113495.456,43.945,-54.688,-30.273,12.695
1628113495.460,203.125,-45.410,-41.016,81.055
1628113495.464,-87.891,-59.082,-61.523,-62.988
1628113495.468,-306.641,-55.176,-43.457,-155.762
1628113495.459,-50.781,-21.973,-21.484,-44.434
1628113495.463,213.867,-32.715,-10.742,78.125
1628113495.467,9.277,-30.762,-27.832,-16.602
1628113495.471,-275.879,-46.387,-44.434,-151.855
1628113495.475,-132.324,-78.613,-42.480,-78.125
1628113495.479,183.105,-60.059,-50.781,68.359
1628113495.483,126.953,-44.922,-33.691,45.410
1628113495.486,-183.594,-41.992,-26.367,-82.031
1628113495.490,-199.707,-34.668,-41.504,-97.656
1628113495.494,96.191,-10.254,-48.340,13.672
1628113495.498,145.020,-35.156,-56.152,35.156
1628113495.502,-151.367,-20.508,-28.809,-87.402
1628113495.499,-204.102,32.715,22.461,-91.797
1628113495.503,49.316,-38.574,-0.977,17.090
1628113495.507,184.082,-60.059,-35.645,65.430
1628113495.511,-68.848,-41.016,-40.039,-52.246
1628113495.515,-249.512,-5.859,-15.137,-122.070
1628113495.519,-16.113,2.930,-10.742,-8.789
1628113495.523,212.891,-44.434,-28.809,87.891
1628113495.526,44.434,-54.199,-33.691,2.930
1628113495.530,-259.766,-78.125,-40.039,-128.418
1628113495.534,-117.188,-22.461,-16.113,-51.758
1628113495.538,211.426,7.812,-13.184,99.121
1628113495.542,150.391,-53.711,-32.227,67.383
1628113495.553,-170.410,-55.176,-29.785,-66.895
1628113495.557,-184.082,-65.918,-32.715,-69.824
1628113495.561,137.695,-68.848,-36.133,68.848
1628113495.565,226.562,-56.152,-39.551,105.469
1628113495.569,-68.359,-37.598,-64.453,-24.902
1628113495.573,-222.168,-28.320,-89.355,-98.633
1628113495.577,38.574,-2.930,-49.805,14.160
1628113495.580,259.277,56.152,15.625,117.676
1628113495.584,-32.227,-0.977,-8.789,-32.227
1628113495.588,-286.133,-52.734,-22.949,-146.973
1628113495.592,-49.805,-70.801,-6.836,-25.879
1628113495.596,226.562,-9.277,1.465,104.980
1628113495.610,84.473,66.895,-26.855,34.668
1628113495.614,-238.770,-13.672,-59.082,-124.512
1628113495.618,-177.734,-45.410,-57.617,-95.703
1628113495.622,147.461,-35.645,-46.387,49.805
1628113495.626,175.293,-27.344,-30.273,64.453
1628113495.630,-148.926,-24.414,-46.387,-83.496
1628113495.634,-234.863,-39.551,-62.500,-121.094
1628113495.637,80.566,-44.434,-38.086,29.297
1628113495.641,241.699,-45.898,-5.371,99.609
1628113495.645,-10.254,23.438,13.184,-13.672
1628113495.649,-223.633,27.344,0.000,-106.445
1628113495.653,-26.855,-48.340,-38.086,-28.809
1628113495.647,219.727,-44.434,-30.273,79.102
1628113495.651,17.090,-25.879,-25.879,-22.949
1628113495.655,-267.090,-10.254,-49.805,-143.555
1628113495.659,-105.469,-28.809,-41.504,-55.176
1628113495.663,209.961,-35.645,-11.230,79.590
1628113495.667,114.746,-54.688,-12.207,39.062
1628113495.671,-210.938,-59.082,-16.113,-100.586
1628113495.674,-185.059,-2.930,-20.996,-99.121
1628113495.678,103.516,-13.672,-31.250,19.531
1628113495.682,151.367,-27.344,-26.855,45.410
1628113495.686,-164.062,-63.477,-50.781,-91.797
1628113495.690,-202.637,-5.859,-14.648,-84.473
1628113495.705,172.852,76.172,46.875,100.586
1628113495.709,220.703,-45.410,-18.066,88.379
1628113495.713,-106.934,-66.406,-53.711,-73.242
1628113495.717,-314.453,-52.246,-53.711,-169.922
1628113495.721,7.812,51.758,18.066,15.137
1628113495.725,293.457,87.402,42.480,156.250
1628113495.729,-4.883,-53.711,-31.250,-29.297
1628113495.732,-279.297,-53.711,-23.926,-154.297
1628113495.736,-143.555,-52.734,-33.691,-84.961
1628113495.740,229.004,0.488,-1.465,98.145
1628113495.744,179.688,8.301,0.977,78.125
1628113495.748,-224.121,-68.848,-52.246,-122.070
1628113495.741,-246.582,-103.027,-71.289,-125.977
1628113495.745,87.891,-85.449,-75.684,30.273
1628113495.749,172.363,-19.043,-58.105,60.547
1628113495.753,-138.672,-20.996,-37.109,-87.402
1628113495.757,-235.840,-29.297,-13.672,-130.371
1628113495.761,47.852,-42.480,-9.766,-0.977
1628113495.765,210.938,-24.414,-7.812,74.707
1628113495.768,-8.301,65.918,7.324,-8.301
1628113495.772,-258.789,15.137,-36.133,-129.395
1628113495.776,-82.031,-62.012,-55.176,-56.152
1628113495.780,186.035,-98.633,-51.758,49.316
1628113495.784,62.988,-32.715,-28.809,-3.418
1628113495.784,-196.777,57.617,-12.695,-96.191
1628113495.788,-161.621,-14.648,-45.898,-84.473
1628113495.792,150.879,-55.664,-35.645,42.480
1628113495.796,145.996,-67.383,-32.715,27.344
1628113495.800,-145.996,31.250,-2.441,-75.684
1628113495.804,-175.293,67.383,1.953,-82.031
1628113495.808,79.102,-35.645,-56.152,-5.371
1628113495.811,175.781,-66.895,-58.594,33.691
1628113495.815,-139.648,-88.867,-56.152,-100.098
1628113495.819,-261.230,-18.555,-20.508,-131.348
1628113495.823,32.715,0.488,-8.301,2.441
1628113495.827,189.453,-69.336,-53.223,48.340
1628113495.834,-62.500,-68.359,-56.152,-73.730
1628113495.838,-304.199,-48.828,-38.086,-175.781
1628113495.842,-89.355,-7.324,-13.184,-56.641
1628113495.846,185.059,-21.484,-36.621,55.176
1628113495.850,62.500,-57.617,-49.316,-8.301
1628113495.854,-236.328,-69.336,-53.223,-129.395
1628113495.858,-199.707,-56.152,-56.641,-114.258
1628113495.861,104.492,-19.531,-40.039,18.066
1628113495.865,141.602,-44.434,-41.504,40.039
1628113495.869,-175.293,-52.246,-49.316,-94.238
1628113495.873,-275.391,-38.574,-46.875,-143.555
1628113495.877,52.246,-23.438,-14.648,5.859
1628113495.875,198.242,-14.648,0.977,77.637
1628113495.879,-136.230,-56.641,-12.695,-77.148
1628113495.883,-315.918,-58.105,-5.859,-148.438
1628113495.887,-46.875,-64.941,-5.371,-30.762
1628113495.891,169.434,-70.801,-17.578,58.105
1628113495.895,-33.203,-66.895,-28.809,-30.273
1628113495.899,-302.246,-90.820,-30.762,-150.391
1628113495.902,-161.621,-105.469,-22.461,-85.449
1628113495.906,134.766,-115.234,-41.016,37.598
1628113495.910,118.652,-35.645,-4.883,45.898
1628113495.914,-165.527,7.812,32.715,-75.684
1628113495.918,-216.309,-51.758,-12.207,-112.305
1628113495.928,105.957,-48.340,-12.695,43.457
1628113495.932,182.617,-49.805,-4.883,75.195
1628113495.936,-141.113,-48.340,-11.230,-74.707
1628113495.940,-278.320,-55.664,-35.156,-133.789
1628113495.944,20.508,-56.641,-44.922,3.418
1628113495.948,195.801,-57.617,-45.410,72.754
1628113495.952,-77.637,-57.129,-29.785,-47.852
1628113495.955,-211.426,5.859,35.645,-83.008
1628113495.959,-14.648,-20.020,8.789,-9.766
1628113495.963,173.828,-51.758,-33.691,61.523
1628113495.967,30.762,-55.176,-13.672,-3.418
1628113495.971,-259.766,-49.316,-10.742,-135.254
1628113495.986,-163.574,-20.020,-33.203,-88.867
1628113495.990,141.113,-50.781,-43.457,36.133
1628113495.994,110.840,-71.289,-32.715,20.508
1628113495.998,-215.820,-67.383,-53.711,-135.254
1628113496.002,-241.211,-37.109,-51.758,-130.859
1628113496.006,85.449,-16.602,-40.527,17.090
1628113496.010,182.617,-36.621,-35.156,39.062
1628113496.013,-113.281,-47.852,-16.113,-72.754
1628113496.017,-265.137,-57.129,-32.715,-133.301
1628113496.021,57.129,15.137,-3.418,20.020
1628113496.025,268.066,39.551,2.930,119.629
1628113496.029,-37.598,-41.992,-44.434,-33.203
1628113496.022,-273.926,-71.777,-28.809,-135.742
1628113496.026,-57.617,-69.336,-19.531,-28.809
1628113496.030,200.195,-49.316,-28.809,85.938
1628113496.034,36.621,-46.875,-45.410,-0.488
1628113496.038,-263.672,-42.480,-51.270,-131.348
1628113496.042,-178.711,-25.391,-43.945,-89.844
1628113496.046,134.766,-19.531,-47.363,43.457
1628113496.049,97.168,-31.250,-41.016,21.973
1628113496.053,-212.402,-50.781,-20.996,-108.887
1628113496.057,-225.586,-58.105,-26.855,-110.840
1628113496.061,71.777,-64.941,-44.922,12.207
1628113496.065,204.590,-43.457,-34.180,81.543
1628113496.062,-60.547,-35.645,-20.020,-25.879
1628113496.066,-253.418,-54.199,-33.203,-117.676
1628113496.070,-6.348,-21.484,-38.574,-12.695
1628113496.074,210.449,-12.207,-53.223,75.195
1628113496.078,-15.137,-15.625,-62.500,-29.785
1628113496.082,-275.879,-26.855,-40.527,-142.090
1628113496.086,-115.234,-51.758,-20.996,-64.941
1628113496.089,176.270,-53.223,-30.273,52.246
1628113496.093,82.031,-65.918,-29.297,7.812
1628113496.097,-187.500,0.488,12.695,-77.148
1628113496.101,-135.742,25.391,19.043,-51.270
1628113496.105,137.207,-23.438,-29.785,39.062
1628113496.116,167.480,0.000,-54.199,51.270
1628113496.120,-161.133,-21.484,-50.293,-92.773
1628113496.124,-229.492,-9.277,-22.461,-113.281
1628113496.128,98.633,10.254,-30.762,36.133
1628113496.132,232.422,-20.996,-35.645,92.285
1628113496.136,-82.031,-70.312,-29.785,-58.594
1628113496.140,-266.113,-42.969,-24.414,-138.184
1628113496.143,45.410,72.266,17.090,24.902
1628113496.147,248.535,2.441,-17.578,94.727
1628113496.151,-4.395,-58.105,-41.504,-43.945
1628113496.155,-316.895,-65.918,-50.293,-178.711
1628113496.159,-139.648,9.766,-26.855,-69.824
1628113496.156,268.555,96.191,30.762,127.441
1628113496.160,125.488,-17.578,-24.902,32.227
1628113496.164,-248.047,-58.105,-56.152,-142.090
1628113496.168,-234.375,-69.336,-44.434,-134.766
1628113496.172,121.094,-60.059,-19.531,42.969
1628113496.176,199.707,-37.109,-13.672,86.426
1628113496.180,-150.391,-44.434,-28.809,-81.543
1628113496.183,-270.020,-43.457,-39.551,-134.766
1628113496.187,-10.254,-66.406,-67.383,-23.926
1628113496.191,213.867,0.000,-16.113,94.238
1628113496.195,-20.020,7.812,-1.953,-4.883
1628113496.199,-300.293,-79.590,-56.152,-143.555
1628113496.209,-66.895,-73.730,-39.062,-35.156
1628113496.213,187.988,-56.152,-31.250,62.988
1628113496.217,25.879,-29.785,-32.715,-15.625
1628113496.221,-255.371,-52.734,-36.133,-129.395
1628113496.225,-161.133,-89.355,-37.109,-82.031
1628113496.229,153.809,-68.848,-34.180,57.129
1628113496.233,145.020,-20.020,-19.531,62.500
1628113496.236,-132.324,36.133,10.254,-43.457
1628113496.240,-196.289,-10.742,-19.531,-82.520
1628113496.244,81.055,-37.598,-28.809,29.785
1628113496.248,162.109,-44.434,-36.133,52.246
1628113496.252,-73.242,-12.207,8.301,-31.738
1628113496.250,-148.438,32.227,39.551,-34.180
1628113496.254,14.648,-41.504,-43.457,2.930
1628113496.258,187.500,-51.758,-43.457,63.477
1628113496.262,-61.035,-58.105,-45.898,-54.688
1628113496.266,-275.391,-25.879,-20.020,-137.695
1628113496.270,-63.477,-6.836,-15.625,-28.809
1628113496.274,178.223,-40.039,-44.434,64.941
1628113496.277,50.293,-47.852,-26.855,0.977
1628113496.281,-273.438,-63.477,-39.551,-149.902
1628113496.285,-144.043,6.348,-2.441,-66.895
1628113496.289,208.984,19.043,13.184,97.168
1628113496.293,139.648,-61.523,-40.527,42.480
1628113496.303,-187.500,-61.035,-64.453,-99.121
1628113496.307,-242.676,-49.805,-70.801,-121.582
1628113496.311,61.523,-56.152,-30.762,13.184
1628113496.315,182.617,-57.617,-17.578,66.406
1628113496.319,-110.840,-44.434,-27.344,-70.312
1628113496.323,-294.922,-36.133,-33.203,-157.715
1628113496.327,-31.738,-43.945,-30.762,-28.809
1628113496.330,231.445,-34.180,-9.277,96.680
1628113496.334,-3.906,-41.016,-31.738,-20.508
1628113496.338,-298.340,-66.895,-44.434,-152.832
1628113496.342,-139.648,-78.125,-28.320,-67.383
1628113496.346,162.598,-51.270,-29.297,72.266
1628113496.343,75.195,-20.996,-56.641,17.090
1628113496.347,-257.324,-30.762,-74.219,-138.184
1628113496.351,-213.379,-31.250,-38.086,-101.074
1628113496.355,120.117,-38.086,-18.555,48.340
1628113496.359,172.852,-36.621,-22.949,52.246
1628113496.363,-125.977,-43.457,-22.461,-82.520
1628113496.367,-229.980,-74.219,-26.855,-114.258
1628113496.370,60.059,-76.172,-30.762,11.230
1628113496.374,218.262,-52.246,-26.855,77.637
1628113496.378,-50.293,-1.953,-13.184,-38.086
1628113496.382,-249.512,9.766,-28.320,-131.836
1628113496.386,-33.691,-22.949,-45.898,-38.086
1628113496.397,201.660,-25.879,-37.109,73.242
1628113496.401,13.672,-41.016,-34.668,-26.855
1628113496.405,-269.531,-29.785,-26.367,-153.809
1628113496.409,-150.391,-34.180,-36.133,-83.008
1628113496.413,175.781,-47.852,-33.691,61.523
1628113496.417,142.578,-54.199,-25.391,36.621
1628113496.421,-188.477,-64.453,-48.340,-109.375
1628113496.424,-191.406,-32.227,-30.273,-95.215
1628113496.428,118.164,-4.883,-11.719,33.691
1628113496.432,173.828,-14.160,-31.250,45.898
1628113496.436,-152.832,-37.109,-47.852,-94.727
1628113496.440,-260.254,-18.555,-20.508,-121.094
1628113496.454,80.078,6.836,4.395,44.922
1628113496.458,232.910,-36.133,-27.832,84.473
1628113496.462,-63.965,-59.082,-58.105,-59.570
1628113496.466,-286.621,-50.293,-61.523,-143.555
1628113496.470,-45.410,-29.297,-25.391,-25.879
1628113496.474,218.262,-31.738,-3.418,82.031
1628113496.478,33.691,-34.668,-26.367,-6.836
1628113496.481,-251.953,-26.855,-38.086,-128.418
1628113496.485,-181.641,-54.199,-44.434,-104.004
1628113496.489,207.031,29.785,28.809,99.121
1628113496.493,226.562,54.199,44.434,106.934
1628113496.497,-201.172,-47.363,-38.574,-115.723
1628113496.491,-264.160,-51.758,-77.148,-135.742
1628113496.495,50.781,-39.062,-60.547,5.371
1628113496.499,166.992,-57.617,-23.438,48.828
1628113496.503,-123.535,-64.941,-35.156,-87.891
1628113496.507,-273.438,-36.133,-23.926,-147.461
1628113496.511,-9.766,-21.973,-33.203,-26.367
1628113496.515,212.891,2.441,-43.457,76.660
1628113496.518,37.109,50.781,-1.465,9.277
1628113496.522,-238.770,-1.465,-28.809,-113.770
1628113496.526,-107.422,-59.570,-53.223,-67.871
1628113496.530,163.086,-68.359,-38.086,40.527
1628113496.534,61.035,-45.410,-27.344,7.812
1628113496.530,-208.008,-18.066,-16.113,-97.168
1628113496.534,-191.406,-62.988,-46.875,-105.469
1628113496.538,104.492,-57.129,-37.598,25.391
1628113496.542,135.254,-41.016,-29.297,31.738
1628113496.546,-167.969,-45.410,-32.227,-104.980
1628113496.550,-227.051,-24.902,-14.160,-115.234
1628113496.554,62.012,-12.207,-27.344,18.555
1628113496.557,194.336,-7.324,-45.410,73.730
1628113496.561,-95.215,-36.621,-37.598,-67.383
1628113496.565,-225.098,-16.113,17.090,-103.027
1628113496.569,28.809,-3.418,-3.906,18.555
1628113496.573,192.871,-47.363,-68.848,64.453
1628113496.585,-22.461,-57.617,-53.711,-41.016
1628113496.589,-300.781,-66.895,-49.316,-164.551
1628113496.593,-140.625,-43.945,-36.133,-90.820
1628113496.597,166.504,-27.344,-34.180,39.062
1628113496.601,91.309,-19.043,-41.504,13.672
1628113496.605,-226.562,-30.762,-51.758,-125.488
1628113496.609,-215.820,-35.156,-45.410,-109.863
1628113496.612,156.250,22.949,5.859,75.684
1628113496.616,203.125,-8.301,-4.395,82.520
1628113496.620,-166.504,-60.547,-35.645,-94.238
1628113496.624,-272.949,-54.688,-56.641,-144.043
1628113496.628,26.367,-32.227,-81.543,-5.859
1628113496.640,213.379,-1.465,-49.316,81.055
1628113496.644,-72.754,-45.898,-38.574,-54.688
1628113496.648,-306.641,-71.777,-34.180,-153.320
1628113496.652,-72.754,-58.105,-24.414,-55.664
1628113496.656,194.824,-23.438,-26.855,61.523
1628113496.660,41.992,-18.555,-20.020,2.441
1628113496.664,-244.141,-47.852,-20.508,-125.000
1628113496.667,-169.922,-48.828,-34.180,-90.332
1628113496.671,129.883,-46.875,-41.992,35.645
1628113496.675,124.512,-51.758,-35.645,31.250
1628113496.679,-203.613,-64.941,-72.266,-106.934
1628113496.683,-233.398,-46.875,-82.031,-112.793
1628113496.678,111.816,-20.996,-17.090,44.434
1628113496.682,174.316,-38.086,-1.465,57.129
1628113496.686,-110.352,-18.066,12.695,-57.617
1628113496.690,-231.934,-15.137,2.441,-93.750
1628113496.694,-10.254,-32.227,-43.457,-14.648
1628113496.698,173.340,-15.137,-48.828,54.688
1628113496.702,-62.012,-35.645,-50.293,-46.387
1628113496.705,-264.160,-34.668,-29.297,-118.164
1628113496.709,-64.941,-26.855,-52.246,-25.879
1628113496.713,187.988,-35.156,-54.199,66.406
1628113496.717,47.852,-54.688,-19.043,-12.695
1628113496.721,-248.535,-24.414,-8.789,-139.160
1628113496.735,-144.043,9.277,0.977,-72.266
1628113496.739,173.828,-29.297,-11.719,69.336
1628113496.743,152.344,-33.203,-22.461,49.316
1628113496.747,-202.637,-31.250,-50.781,-112.305
1628113496.751,-237.793,0.488,-59.082,-118.652
1628113496.755,98.145,-0.488,-43.945,32.715
1628113496.759,178.711,-46.387,-51.270,50.781
1628113496.762,-130.859,-46.387,-50.293,-90.820
1628113496.766,-288.574,-52.734,-46.875,-147.949
1628113496.770,7.812,-7.812,-39.551,-2.930
1628113496.774,249.512,-3.906,-25.879,100.586
1628113496.778,20.020,-61.035,-9.277,-6.348
1628113496.772,-250.977,-58.105,-21.484,-123.535
1628113496.776,-111.328,-42.480,-58.594,-55.664
1628113496.780,177.734,-8.789,-51.758,69.336
1628113496.784,94.238,-4.395,-35.156,18.066
1628113496.788,-212.891,-9.277,-29.785,-117.676
1628113496.792,-193.359,-20.020,-28.809,-100.586
1628113496.796,141.602,-24.902,-17.578,47.363
1628113496.799,244.141,29.785,28.320,106.445
1628113496.803,-116.211,-22.949,2.441,-51.270
1628113496.807,-252.441,-72.754,-38.086,-120.117
1628113496.811,47.852,-34.668,-48.340,0.977
1628113496.815,200.684,14.648,-31.250,68.359
1628113496.813,-46.387,42.480,-17.578,-35.156
1628113496.817,-269.043,-11.230,-46.875,-138.672
1628113496.821,-58.594,-41.016,-42.969,-41.504
1628113496.825,189.453,-52.246,-38.086,55.176
1628113496.829,31.738,-41.504,-26.855,-18.066
1628113496.833,-240.234,-35.156,-18.555,-130.859
1628113496.837,-133.789,-60.059,-35.645,-82.520
1628113496.840,168.457,-59.570,-32.715,62.500
1628113496.844,117.188,-64.453,-36.133,34.668
1628113496.848,-149.902,-3.418,-11.230,-68.848
1628113496.852,-136.719,27.832,-4.883,-48.828
1628113496.856,94.238,-26.367,-55.664,27.832
1628113496.866,146.484,-20.996,-62.988,36.133
1628113496.870,-161.621,-29.785,-66.895,-101.562
1628113496.874,-277.344,-5.371,-57.129,-140.137
1628113496.878,33.691,1.465,-44.922,-1.465
1628113496.882,220.703,-4.883,-53.711,76.172
1628113496.886,-45.898,-34.180,-70.801,-52.246
1628113496.890,-294.434,-61.035,-80.078,-173.828
1628113496.893,-34.668,36.621,-39.062,-41.016
1628113496.897,221.680,35.645,-34.668,59.570
1628113496.901,36.133,-30.273,-46.387,-32.715
1628113496.905,-253.418,-64.453,-47.852,-154.785
1628113496.909,-149.414,-22.949,-43.945,-100.098
1628113496.906,211.426,77.148,-8.789,81.543
1628113496.910,159.180,23.438,-35.645,39.551
1628113496.914,-207.520,-41.992,-74.707,-132.324
1628113496.918,-237.305,-56.641,-83.984,-138.184
1628113496.922,93.262,-20.996,-74.707,7.324
1628113496.926,189.941,-6.348,-56.152,43.945
1628113496.930,-118.652,-34.180,-30.762,-88.867
1628113496.933,-256.836,-42.969,-19.531,-131.836
1628113496.937,-13.672,-77.148,-43.945,-26.855
1628113496.941,222.168,12.207,-18.066,84.473
1628113496.945,30.762,70.312,-8.301,0.977
1628113496.949,-276.367,-36.133,-51.270,-152.832
1628113496.959,-111.328,-58.594,-59.082,-74.219
1628113496.963,196.777,-29.785,-70.312,59.082
1628113496.967,104.980,-3.906,-65.430,9.766
1628113496.971,-208.008,-27.344,-35.645,-122.070
1628113496.975,-148.438,-32.227,-12.207,-87.891
1628113496.979,149.414,-18.555,-28.809,34.668
1628113496.983,140.625,-31.250,-34.668,30.762
1628113496.986,-126.953,13.184,0.977,-64.941
1628113496.990,-199.219,-11.230,-23.438,-95.703
1628113496.994,76.172,-42.480,-42.480,19.531
1628113496.998,214.355,-26.855,-50.781,71.777
1628113497.002,-70.312,-4.883,-93.750,-60.059
1628113497.017,-250.488,13.184,-57.129,-135.254
1628113497.021,-45.410,-49.805,-16.113,-52.734
1628113497.025,160.156,-56.152,-31.250,26.367
1628113497.029,-15.625,-41.504,-31.250,-51.270
1628113497.033,-237.305,0.977,-4.395,-123.535
1628113497.037,-83.496,8.789,-4.883,-44.922
1628113497.041,152.832,-56.152,-39.062,40.039
1628113497.044,64.941,-53.223,-52.734,-3.418
1628113497.048,-221.191,-70.312,-48.828,-125.488
1628113497.052,-172.852,8.301,-27.832,-86.914
1628113497.056,139.648,54.199,-30.762,59.570
1628113497.060,140.137,-42.480,-62.500,40.039
1628113497.053,-159.180,-40.527,-59.082,-89.844
1628113497.057,-236.816,-33.691,-24.902,-114.746
1628113497.061,48.340,-59.082,-14.648,20.508
1628113497.065,198.242,-51.758,-16.113,80.078
1628113497.069,-64.941,-37.109,-20.996,-60.547
1628113497.073,-275.391,-55.176,-44.922,-154.785
1628113497.077,-70.801,-47.363,-39.062,-55.176
1628113497.080,200.195,-12.695,-3.906,67.871
1628113497.084,51.270,-24.902,-5.859,6.348
1628113497.088,-249.512,-41.504,-43.945,-128.418
1628113497.092,-172.363,-53.223,-52.734,-88.867
1628113497.096,138.672,-54.688,-15.137,61.523
1628113497.093,145.508,-20.020,-3.906,66.895
1628113497.097,-187.012,-33.203,-36.621,-95.215
1628113497.101,-230.957,-44.922,-31.738,-116.211
1628113497.105,52.734,-58.105,-30.273,0.000
1628113497.109,187.012,-9.766,-11.230,70.801
1628113497.113,-39.062,29.785,18.555,-4.883
1628113497.117,-239.746,-35.645,-11.719,-107.422
1628113497.120,-31.250,-44.434,-27.344,-33.203
1628113497.124,129.883,-47.363,-37.109,23.438
1628113497.128,-6.348,41.016,-6.348,-4.883
1628113497.132,-187.500,57.129,-18.555,-76.660
1628113497.136,-98.145,-56.641,-59.082,-61.035
1628113497.147,153.320,-75.195,-37.109,50.781
1628113497.151,40.039,-56.152,-25.391,-2.930
1628113497.155,-206.055,-12.207,-20.020,-104.004
1628113497.159,-137.207,-54.199,-32.227,-64.941
1628113497.163,112.793,-74.707,-52.734,29.785
1628113497.167,104.492,-44.922,-64.941,20.996
1628113497.171,-179.688,-37.109,-42.969,-95.703
1628113497.174,-184.082,41.016,5.859,-82.520
1628113497.178,79.590,-0.488,-3.906,31.250
1628113497.182,146.484,-73.242,-40.527,48.828
1628113497.186,-113.770,-77.148,-42.969,-65.918
1628113497.190,-245.117,-22.949,-8.789,-111.328
1628113497.205,42.969,46.875,21.484,30.273
1628113497.209,213.867,-30.273,-13.184,90.332
1628113497.213,-16.602,-56.152,-39.062,-22.461
1628113497.217,-269.043,-37.598,-45.898,-131.348
1628113497.221,-95.215,-1.953,-32.227,-49.316
1628113497.225,196.777,-0.488,-26.855,82.520
1628113497.229,88.867,-59.570,-47.852,41.016
1628113497.232,-212.402,-64.941,-30.762,-105.957
1628113497.236,-205.566,-52.734,-34.668,-115.723
1628113497.240,165.039,31.738,-11.719,77.637
1628113497.244,222.656,25.391,10.254,100.586
1628113497.248,-160.156,-60.059,-36.133,-93.750
1628113497.241,-239.746,-35.156,-37.598,-124.023
1628113497.245,32.227,-49.805,-26.367,-14.648
1628113497.249,159.668,-66.895,-24.414,41.992
1628113497.253,-76.172,-51.270,-38.086,-54.199
1628113497.257,-251.953,-57.129,-41.504,-129.395
1628113497.261,-50.293,-50.293,-42.969,-41.992
1628113497.265,184.082,-28.809,-27.832,62.012
1628113497.268,71.777,3.906,27.344,38.086
1628113497.272,-202.148,-15.137,1.953,-89.355
1628113497.276,-144.531,-37.109,-48.828,-87.891
1628113497.280,124.023,-51.270,-73.242,20.996
1628113497.284,84.473,-11.230,-50.293,13.672
1628113497.283,-177.246,53.711,-1.953,-84.473
1628113497.287,-200.684,-22.461,-39.551,-102.051
1628113497.291,83.008,-60.547,-62.500,13.672
1628113497.295,145.508,-51.270,-63.477,39.551
1628113497.299,-141.113,-60.547,-50.781,-82.031
1628113497.303,-242.676,-57.129,-12.207,-119.629
1628113497.307,33.203,-27.344,-15.137,-1.465
1628113497.310,195.312,-31.250,-26.855,62.012
1628113497.314,-75.684,-72.754,-38.574,-63.477
1628113497.318,-236.328,-5.371,-21.973,-109.863
1628113497.322,-30.273,22.949,-29.785,-15.137
1628113497.326,166.016,-50.293,-50.781,44.434
1628113497.336,25.391,-73.730,-40.039,-18.066
1628113497.340,-250.977,-88.379,-58.105,-134.277
1628113497.344,-39.062,103.027,11.719,8.301
1628113497.348,252.441,131.348,26.367,131.836
1628113497.352,102.051,-20.020,-30.762,28.809
1628113497.356,-236.328,-56.641,-54.688,-133.789
1628113497.360,-267.578,-42.480,-52.246,-151.855
1628113497.363,138.672,85.449,29.297,62.988
1628113497.367,194.824,12.695,-2.930,69.336
1628113497.371,-162.109,-75.684,-56.641,-104.492
1628113497.375,-297.852,-86.426,-69.336,-168.945
1628113497.379,16.113,-11.719,-24.414,-7.324
1628113497.375,311.523,115.723,46.875,163.086
1628113497.379,-32.227,-11.230,-22.949,-33.203
1628113497.383,-333.984,-69.824,-49.805,-186.523
1628113497.387,-127.930,-56.152,-43.945,-89.355
1628113497.391,185.547,-32.715,-25.879,73.242
1628113497.395,70.801,-42.480,-33.203,25.391
1628113497.399,-277.832,-96.191,-58.105,-148.926
1628113497.402,-232.422,-76.172,-42.969,-130.859
1628113497.406,57.129,-80.566,-55.176,-15.625
1628113497.410,190.918,32.715,11.230,86.426
1628113497.414,-75.195,53.711,24.414,-20.020
1628113497.418,-257.324,-65.430,-53.711,-129.883
1628113497.428,33.203,-50.781,-54.199,0.000
1628113497.432,152.832,-63.477,-53.711,42.969
1628113497.436,-61.523,-40.527,-29.785,-46.875
1628113497.440,-241.699,-54.199,-47.852,-127.441
1628113497.444,-38.574,-69.824,-49.316,-37.109
1628113497.448,197.266,-62.988,-43.945,60.547
1628113497.452,0.000,-48.340,-43.945,-27.344
1628113497.455,-170.410,68.848,19.531,-59.082
1628113497.459,-82.520,6.348,-27.832,-39.551
1628113497.463,120.117,-91.309,-65.918,20.508
1628113497.467,53.223,-102.051,-65.918,-7.324
1628113497.471,-177.734,1.465,-17.090,-79.590
1628113497.468,-80.566,108.398,43.945,-6.836
1628113497.472,128.418,-20.020,-20.020,44.434
1628113497.476,145.508,-49.805,-41.016,26.855
1628113497.480,-181.152,-82.520,-66.406,-126.465
1628113497.484,-203.613,6.348,-15.137,-92.773
1628113497.488,144.531,48.340,4.883,83.984
1628113497.492,195.312,-71.289,-66.895,64.941
1628113497.495,-72.266,-69.824,-58.594,-59.570
1628113497.499,-291.992,-99.609,-76.172,-156.250
1628113497.503,26.855,39.062,13.672,29.297
1628113497.507,321.777,101.562,62.988,157.715
1628113497.511,-13.184,-54.199,-43.945,-48.828
1628113497.522,-311.523,-72.754,-57.129,-175.293
1628113497.526,-175.293,-78.125,-53.223,-104.980
1628113497.530,153.320,-54.688,-48.340,38.086
1628113497.534,109.375,-63.965,-48.828,12.207
1628113497.538,-209.473,-91.309,-31.738,-124.512
1628113497.542,-229.980,-110.352,-63.477,-128.906
1628113497.546,78.125,-66.895,-84.473,9.766
1628113497.549,250.488,63.477,-3.906,107.910
1628113497.553,-83.984,8.301,-19.043,-53.711
1628113497.557,-283.203,-46.875,-37.109,-160.645
1628113497.561,-25.391,-51.270,-39.062,-53.223
1628113497.565,202.148,13.672,-10.742,68.848
1628113497.562,77.637,135.742,52.246,44.922
1628113497.566,-246.582,-11.719,-15.137,-138.184
1628113497.570,-109.863,-88.867,-47.852,-85.449
1628113497.574,187.012,-68.848,-43.457,58.105
1628113497.578,95.215,-8.789,-30.762,30.273
1628113497.582,-207.520,-19.531,-42.969,-114.746
1628113497.586,-186.035,-83.496,-57.129,-124.512
1628113497.589,118.164,-56.641,-33.203,13.672
1628113497.593,78.613,-64.453,-51.758,-12.695
1628113497.597,-139.648,41.016,2.441,-72.754
1628113497.601,-132.324,63.477,26.855,-48.340
1628113497.605,66.895,-58.594,-37.598,8.789
1628113497.615,158.203,-73.730,-48.340,43.457
1628113497.619,-125.977,-79.590,-48.340,-81.543
1628113497.623,-240.234,-8.301,-27.344,-116.699
1628113497.627,37.598,-22.949,-45.410,18.066
1628113497.631,216.309,-66.895,-63.965,96.680
1628113497.635,-41.992,-66.895,-55.176,-42.480
1628113497.639,-287.598,-27.344,-29.785,-152.832
1628113497.642,-7.324,114.258,51.758,17.578
1628113497.646,241.699,46.875,31.738,111.328
1628113497.650,50.293,-66.895,-27.832,-1.953
1628113497.654,-273.438,-101.562,-58.594,-151.855
1628113497.658,-173.340,-19.043,-23.926,-82.031
1628113497.655,250.000,117.676,42.969,151.855
1628113497.659,161.133,-21.484,-24.902,81.543
1628113497.663,-215.332,-110.840,-67.871,-107.422
1628113497.667,-284.180,-90.820,-81.543,-137.695
1628113497.671,55.664,-20.508,-29.785,29.297
1628113497.675,215.332,-2.441,-16.602,103.516
1628113497.679,-108.887,-66.895,-57.617,-63.477
1628113497.682,-311.035,-60.547,-46.387,-145.508
1628113497.686,-73.242,-78.613,-50.781,-43.945
1628113497.690,293.945,45.410,33.691,145.020
1628113497.694,132.324,71.777,50.293,91.797
1628113497.698,-281.738,-96.680,-55.176,-131.348
1628113497.710,-151.855,-83.008,-56.152,-81.055
1628113497.714,142.090,-71.289,-54.688,44.434
1628113497.718,117.676,-21.484,-40.527,48.828
1628113497.722,-203.125,-34.668,-58.594,-99.609
1628113497.726,-234.863,-63.477,-89.355,-125.977
1628113497.730,102.539,-65.918,-58.594,27.344
1628113497.734,172.852,-49.805,-18.555,55.664
1628113497.737,-41.504,106.445,41.992,-10.742
1628113497.741,-220.703,22.949,1.953,-102.539
1628113497.745,-24.414,-85.449,-54.199,-39.551
1628113497.749,165.039,-95.703,-62.988,37.109
1628113497.753,-63.965,-44.922,-38.574,-48.828
1628113497.750,-212.402,53.223,2.930,-93.262
1628113497.754,-50.781,-37.109,-43.457,-38.086
1628113497.758,177.734,-77.637,-61.523,60.059
1628113497.762,-2.930,-81.055,-73.730,-46.387
1628113497.766,-246.094,-6.348,-26.367,-136.230
1628113497.770,-111.816,6.836,-6.836,-56.641
1628113497.774,141.602,-65.430,-54.199,31.250
1628113497.777,101.074,-71.289,-65.918,4.395
1628113497.781,-236.816,-113.281,-83.984,-150.391
1628113497.785,-132.812,19.531,20.020,-56.641
1628113497.789,201.660,53.711,43.457,104.004
1628113497.793,152.832,-70.312,-48.340,52.734
1628113497.803,-137.207,-58.105,-44.922,-79.102
1628113497.807,-271.973,-54.688,-41.016,-139.160
1628113497.811,56.152,-14.160,-2.930,27.344
1628113497.815,237.793,-48.828,-11.719,107.422
1628113497.819,-46.875,-88.379,-49.316,-38.574
1628113497.823,-282.715,-91.309,-59.570,-157.715
1628113497.827,-99.609,-46.387,-41.992,-68.359
1628113497.830,319.824,139.648,55.664,169.922
1628113497.834,139.160,41.992,-1.953,70.312
1628113497.838,-294.434,-89.844,-67.871,-155.273
1628113497.842,-229.980,-97.656,-67.871,-129.395
1628113497.846,137.695,-34.180,-21.484,47.363
1628113497.843,273.926,109.375,63.477,141.113
1628113497.847,-144.531,-16.113,-19.043,-77.637
1628113497.851,-286.133,-81.543,-53.711,-150.879
1628113497.855,13.184,-75.684,-68.359,-32.227
1628113497.859,172.852,-23.926,-46.875,40.527
1628113497.863,-62.012,-7.324,-9.766,-53.711
1628113497.867,-291.504,-98.633,-44.922,-161.133
1628113497.870,-69.336,-100.098,-51.758,-49.316
1628113497.874,142.578,-101.074,-62.988,20.508
1628113497.878,52.246,56.641,21.484,12.695
1628113497.882,-157.227,100.098,50.293,-55.176
1628113497.886,-151.367,-80.078,-42.969,-97.656
1628113497.897,106.445,-92.773,-51.270,14.160
1628113497.901,15.137,-80.078,-68.848,-28.320
1628113497.905,-240.234,-11.230,-54.199,-129.883
1628113497.909,-184.082,-15.137,-32.715,-100.098
1628113497.913,94.727,-90.332,-53.223,13.184
1628113497.917,125.488,-124.023,-68.359,26.367
1628113497.921,-188.965,-101.562,-62.012,-108.398
1628113497.924,-177.734,47.363,14.160,-64.941
1628113497.928,69.336,11.719,-13.672,20.020
1628113497.932,130.859,-55.664,-60.547,12.695
1628113497.936,-145.996,-76.172,-66.895,-114.258
1628113497.940,-264.160,1.465,-6.348,-125.977
1628113497.954,83.008,113.281,68.359,67.871
1628113497.958,197.266,-36.133,-27.344,66.406
1628113497.962,-13.672,-76.660,-61.035,-29.785
1628113497.966,-270.508,-85.449,-63.965,-132.324
1628113497.970,-113.281,-42.480,-26.855,-44.434
1628113497.974,195.312,-6.348,-12.695,80.078
1628113497.978,74.707,-72.754,-57.129,-12.207
1628113497.981,-239.746,-42.969,-51.758,-146.484
1628113497.985,-278.320,-75.684,-71.777,-166.504
1628113497.989,204.102,107.422,38.086,107.422
1628113497.993,364.746,177.246,82.520,198.730
1628113497.997,-140.137,-60.059,-47.852,-90.332
1628113497.990,-300.781,-80.566,-59.570,-164.551
1628113497.994,-3.906,-63.965,-43.457,-26.855
1628113497.998,171.387,-70.312,-48.340,46.875
1628113498.002,-85.938,-87.891,-69.824,-82.520
1628113498.006,-277.344,-62.500,-71.289,-157.715
1628113498.010,-72.266,-45.410,-65.430,-57.129
1628113498.014,196.289,-20.996,-35.645,57.617
1628113498.017,170.898,98.633,69.336,83.496
1628113498.021,-193.359,24.902,32.227,-91.797
1628113498.025,-218.750,-82.031,-49.805,-123.535
1628113498.029,89.844,-93.262,-68.359,12.207
1628113498.033,129.883,-15.137,-23.926,48.340
1628113498.032,-60.547,97.656,59.082,-3.906
1628113498.036,-227.051,-35.156,-30.273,-118.652
1628113498.040,-3.418,-90.820,-95.703,-36.621
1628113498.044,136.230,-67.383,-77.637,19.531
1628113498.048,-116.211,-32.715,-32.227,-89.844
1628113498.052,-251.465,-34.180,-34.668,-140.137
1628113498.056,0.000,-71.777,-41.016,-24.414
1628113498.059,210.938,-57.617,-18.555,67.871
1628113498.063,-63.477,-100.098,-56.152,-72.754
1628113498.067,-145.508,89.844,46.387,-41.016
1628113498.071,64.941,134.766,72.754,71.777
1628113498.075,109.863,-83.984,-57.617,15.137
1628113498.085,-6.348,-64.453,-54.688,-44.922
1628113498.089,-281.738,-69.824,-63.965,-171.875
1628113498.093,-163.574,-16.113,-31.738,-94.727
1628113498.097,143.555,-12.695,-28.809,48.828
1628113498.101,112.793,-71.777,-51.270,23.438
1628113498.105,-187.012,-86.914,-48.340,-101.562
1628113498.109,-248.535,-70.801,-50.781,-122.070
1628113498.112,149.414,71.777,14.648,79.102
1628113498.116,219.238,26.367,-17.578,83.008
1628113498.120,-128.906,-59.570,-55.176,-86.914
1628113498.124,-296.387,-82.031,-74.707,-159.180
1628113498.128,-0.977,7.812,-19.043,5.371
1628113498.125,367.188,172.852,86.914,207.031
1628113498.129,41.992,-2.930,-14.160,7.324
1628113498.133,-303.711,-87.891,-48.828,-149.414
1628113498.137,-146.484,-76.660,-41.504,-73.730
1628113498.141,185.059,-35.156,-33.691,77.148
1628113498.145,140.137,-38.086,-25.879,57.617
1628113498.149,-246.582,-104.004,-74.707,-141.602
1628113498.152,-239.746,-66.406,-69.824,-141.113
1628113498.156,76.660,-101.074,-57.617,0.977
1628113498.160,259.277,84.961,36.621,121.582
1628113498.164,-16.113,151.855,44.434,12.207
1628113498.168,-295.898,-83.496,-62.988,-152.832
1628113498.178,-9.766,-95.703,-54.688,-26.855
1628113498.182,172.852,-85.938,-67.383,57.129
1628113498.186,-30.273,1.465,-37.598,-25.391
1628113498.190,-256.836,-12.695,-32.715,-139.160
1628113498.194,-91.797,-79.102,-50.293,-75.195
1628113498.198,166.016,-80.078,-46.387,40.527
1628113498.202,-1.953,-88.379,-44.922,-43.457
1628113498.205,-184.570,34.668,26.855,-91.797
1628113498.209,-117.676,0.488,-1.465,-57.129
1628113498.213,98.145,-69.824,-53.711,20.996
1628113498.217,59.570,-84.473,-62.988,-1.465
1628113498.221,-215.332,-21.484,-39.551,-104.980
1628113498.249,-166.504,79.590,-5.859,-66.895
1628113498.253,85.449,-59.082,-35.156,20.996
1628113498.257,135.742,-104.492,-32.715,33.203
1628113498.261,-179.688,-105.957,-55.176,-120.605
1628113498.265,-289.062,-37.598,-37.109,-155.762
1628113498.269,3.418,-3.418,-23.926,-21.484
1628113498.273,141.602,-78.613,-68.359,15.137
1628113498.276,-88.867,-87.402,-66.406,-83.008
1628113498.280,-330.566,-136.230,-65.918,-189.941
1628113498.284,-64.941,5.371,4.883,-43.945
1628113498.288,253.906,75.195,31.738,109.863
1628113498.292,25.391,-72.754,-47.363,-25.391
