timestamps,TP9,AF7,AF8,TP10
1626640339.766,-55.664,-23.438,-57.617,-168.945
1626640339.770,-37.598,-29.785,-37.598,-20.020
1626640339.774,-1.953,-34.180,-19.043,108.887
1626640339.778,-8.789,-27.832,-11.230,-6.348
1626640339.782,-49.805,-32.227,-21.484,-169.434
1626640339.786,-60.059,-22.949,-42.480,-88.379
1626640339.790,-39.551,-22.461,-42.969,78.125
1626640339.793,-29.785,-28.320,-25.879,20.020
1626640339.797,-51.270,-30.273,-22.461,-149.902
1626640339.801,-60.547,-35.645,-37.598,-124.512
1626640339.805,-29.785,-23.438,-44.922,56.152
1626640339.809,-6.836,-17.578,-29.297,79.102
1626640339.831,-21.973,-21.973,-20.020,-82.520
1626640339.835,-46.875,-28.809,-32.715,-145.020
1626640339.839,-17.090,-22.949,-22.949,29.297
1626640339.843,2.930,-10.254,-22.949,116.211
1626640339.847,-19.531,-15.137,-29.785,-37.598
1626640339.851,-18.555,-14.648,-0.488,-119.141
1626640339.855,-7.324,4.883,-4.395,-0.488
1626640339.858,-11.230,-6.836,-41.504,102.539
1626640339.862,-33.691,-34.668,-56.152,-8.301
1626640339.866,-50.781,-21.973,-42.480,-157.227
1626640339.870,-20.020,-54.688,-15.625,-60.059
1626640339.874,1.953,-97.656,-13.672,102.539
1626640339.834,-20.020,-41.016,-26.855,42.480
1626640339.838,-43.945,-25.391,-26.367,-132.324
1626640339.842,-45.410,-32.715,-35.645,-132.812
1626640339.846,-27.832,-27.344,-44.922,39.062
1626640339.850,-21.484,-15.625,-41.504,63.965
1626640339.854,-27.832,-5.859,-36.133,-90.332
1626640339.858,-35.645,-23.926,-37.109,-144.043
1626640339.861,-21.973,-31.250,-33.203,9.277
1626640339.865,2.441,-37.109,-16.602,113.770
1626640339.869,-8.789,-20.508,-11.230,-18.066
1626640339.873,-30.273,-7.812,-15.137,-136.719
1626640339.877,-45.898,-30.762,-32.227,-50.293
1626640339.905,-40.039,-16.113,-37.109,76.660
1626640339.909,-20.996,-30.762,-23.926,17.090
1626640339.913,-49.316,-67.383,-27.832,-153.320
1626640339.917,-49.316,-32.715,-32.715,-109.375
1626640339.921,-2.930,-27.344,-27.832,88.867
1626640339.925,3.418,-30.762,-29.297,74.707
1626640339.929,-40.527,-29.785,-36.621,-125.488
1626640339.932,-61.523,-24.902,-34.668,-151.367
1626640339.936,-38.086,0.977,-19.531,26.855
1626640339.940,-37.598,-14.648,-31.738,59.082
1626640339.944,-58.105,-40.039,-50.781,-112.305
1626640339.948,-55.176,-27.832,-32.227,-169.434
1626640339.939,-15.625,-2.930,-8.301,3.906
1626640339.943,-12.695,-16.602,-14.160,102.051
1626640339.947,-40.039,-40.527,-27.344,-38.086
1626640339.951,-55.176,-40.039,-44.434,-175.293
1626640339.955,-36.133,-13.184,-30.273,-69.824
1626640339.959,-13.672,-18.555,-17.090,90.820
1626640339.963,-24.414,-40.527,-36.621,16.602
1626640339.966,-51.270,-40.039,-53.223,-163.574
1626640339.970,-47.363,-26.367,-41.016,-120.117
1626640339.974,-8.301,-17.090,-21.484,78.613
1626640339.978,9.766,-58.105,-4.883,86.426
1626640339.982,-32.227,-61.035,-27.832,-107.910
1626640339.981,-53.223,-26.367,-49.805,-153.809
1626640339.985,-27.344,-12.207,-40.527,20.996
1626640339.989,-2.930,-10.742,-37.109,104.004
1626640339.993,-6.348,-18.066,-26.367,-33.691
1626640339.997,-36.133,-23.926,-20.508,-140.625
1626640340.001,-38.086,-28.809,-28.809,-19.531
1626640340.005,-25.391,-27.344,-41.992,97.168
1626640340.008,-40.527,-31.250,-50.293,-17.578
1626640340.012,-45.410,-32.715,-32.227,-147.949
1626640340.016,-31.738,-37.598,-25.391,-69.336
1626640340.020,-9.277,-31.738,-20.020,92.773
1626640340.024,-5.371,-9.277,-15.625,52.246
1626640340.055,-29.785,-1.465,-29.785,-126.465
1626640340.059,-49.316,-61.035,-45.898,-129.883
1626640340.063,-22.949,-45.410,-28.809,54.199
1626640340.067,-8.789,-9.766,-13.184,78.613
1626640340.071,-50.781,-47.363,-32.227,-110.352
1626640340.075,-68.848,-41.504,-43.457,-165.039
1626640340.079,-41.504,-44.434,-40.039,-2.441
1626640340.082,-56.641,-139.160,-56.152,49.805
1626640340.086,-80.078,-150.391,-62.988,-102.539
1626640340.090,-54.688,-40.527,-38.086,-173.340
1626640340.094,-27.344,-8.789,-32.227,-36.621
1626640340.098,-11.230,-19.531,-33.203,98.633
1626640340.103,-11.719,-31.738,-26.855,14.160
1626640340.107,-34.180,-34.180,-32.227,-140.137
1626640340.111,-34.668,-10.742,-32.227,-76.660
1626640340.115,-17.578,-4.883,-19.043,90.332
1626640340.119,-21.973,-33.203,-16.602,58.105
1626640340.123,-35.156,-45.898,-10.254,-106.445
1626640340.127,-32.715,-15.625,-4.395,-103.516
1626640340.130,-22.949,-15.137,-20.508,54.199
1626640340.134,-14.160,-20.020,-22.949,87.891
1626640340.138,-20.508,-28.809,-14.648,-73.242
1626640340.142,-38.574,-30.762,-32.715,-148.438
1626640340.146,-17.578,3.906,-32.227,11.230
1626640340.123,4.395,9.277,-16.113,121.094
1626640340.127,-22.461,-17.578,-26.367,-19.531
1626640340.131,-39.062,-39.551,-23.926,-146.973
1626640340.135,-17.578,-42.969,-11.719,-33.203
1626640340.139,-2.441,-12.207,-18.555,102.539
1626640340.143,-15.137,-0.977,-31.250,21.973
1626640340.147,-44.922,-15.625,-36.621,-149.414
1626640340.150,-31.250,-19.043,-27.832,-104.492
1626640340.154,12.695,-7.324,-20.508,87.402
1626640340.158,7.324,9.766,-28.809,72.754
1626640340.162,-25.879,-3.418,-33.203,-113.281
1626640340.166,-41.016,-22.949,-34.668,-143.066
1626640340.175,-38.086,-22.461,-34.668,17.578
1626640340.179,-25.391,-66.406,-33.691,83.984
1626640340.183,-44.434,-127.441,-59.570,-77.637
1626640340.187,-64.941,-89.844,-60.547,-175.781
1626640340.191,-25.879,-29.297,-20.020,-12.207
1626640340.195,-5.371,-18.066,-11.719,105.957
1626640340.199,-29.297,-44.434,-25.391,-22.461
1626640340.202,-49.316,-35.645,-20.508,-158.691
1626640340.206,-41.992,-0.977,-15.625,-64.453
1626640340.210,-9.766,-18.066,-18.066,104.492
1626640340.214,-9.766,-17.090,-22.461,43.457
1626640340.218,-56.641,-54.688,-44.922,-152.832
1626640340.222,-70.801,-81.543,-53.711,-137.207
1626640340.226,-28.809,-13.672,-41.016,48.828
1626640340.230,-21.484,-4.395,-41.992,55.664
1626640340.234,-32.227,-14.160,-29.297,-98.633
1626640340.238,-30.273,-23.926,-18.066,-134.766
1626640340.242,-20.996,-27.344,-21.973,25.391
1626640340.246,-26.855,-46.875,-32.715,88.867
1626640340.249,-46.387,-58.594,-39.551,-69.336
1626640340.253,-56.152,-15.625,-25.391,-170.410
1626640340.257,-63.477,-22.949,-31.250,-60.059
1626640340.261,-48.828,-41.504,-44.434,61.523
1626640340.265,-25.391,-13.184,-35.156,-13.672
1626640340.261,-41.992,-16.113,-31.250,-156.738
1626640340.265,-40.039,-18.555,-26.367,-86.426
1626640340.269,-12.695,-21.973,-21.484,80.078
1626640340.273,-15.625,-38.574,-21.484,48.340
1626640340.277,-36.621,-36.133,-19.043,-126.465
1626640340.281,-41.992,-27.832,-17.090,-119.629
1626640340.285,-5.371,-12.207,-8.789,83.008
1626640340.288,22.461,0.488,4.883,123.047
1626640340.292,-34.668,-88.379,-28.809,-80.078
1626640340.296,-78.613,-168.945,-66.895,-178.711
1626640340.300,-40.527,-103.027,-47.852,-12.207
1626640340.304,1.953,-43.457,-22.461,111.328
1626640340.343,-16.113,-39.062,-33.691,-28.320
1626640340.347,-45.898,-17.578,-43.945,-164.062
1626640340.351,-23.926,0.977,-38.086,-42.480
1626640340.355,1.465,5.371,-38.574,107.910
1626640340.359,-5.859,14.160,-25.391,21.484
1626640340.363,-38.574,4.883,-1.953,-144.531
1626640340.367,-77.637,-115.234,-40.527,-131.836
1626640340.370,-56.152,-121.582,-57.129,34.668
1626640340.374,-10.254,-22.461,-24.414,63.477
1626640340.378,-23.438,-12.207,-21.973,-104.980
1626640340.382,-41.016,-13.184,-30.762,-134.766
1626640340.386,-31.738,-24.414,-37.109,30.762
1626640340.356,-16.602,-9.277,-25.879,87.402
1626640340.360,-39.551,-11.230,-28.809,-69.824
1626640340.364,-52.246,-17.578,-45.898,-152.344
1626640340.368,-22.949,-20.020,-32.227,2.930
1626640340.372,-5.859,-36.133,-12.695,109.863
1626640340.376,-14.160,-25.391,-19.043,-18.066
1626640340.380,-36.133,-17.090,-29.785,-155.273
1626640340.383,-37.598,-12.695,-30.273,-73.242
1626640340.387,-4.395,0.000,-13.672,91.797
1626640340.391,-22.949,-31.738,-30.273,16.113
1626640340.395,-53.223,-31.738,-40.039,-164.062
1626640340.399,-46.387,-24.902,-37.109,-130.371
1626640340.396,-22.949,-35.156,-40.527,49.805
1626640340.400,-13.672,-17.578,-35.156,58.105
1626640340.404,-47.852,-67.871,-37.598,-126.465
1626640340.408,-85.449,-198.242,-55.176,-190.918
1626640340.412,-49.316,-120.117,-47.363,-13.184
1626640340.416,-13.184,-13.672,-29.297,77.148
1626640340.420,-12.207,-5.371,-17.578,-52.734
1626640340.423,-38.086,-36.133,-30.273,-155.273
1626640340.427,-60.547,-152.344,-56.641,-64.453
1626640340.431,-23.926,-73.242,-38.574,72.754
1626640340.435,-26.367,1.953,-26.855,-17.578
1626640340.439,-49.316,-3.418,-32.715,-161.133
1626640340.457,-41.016,2.441,-35.156,-81.055
1626640340.461,-19.043,0.977,-32.227,90.332
1626640340.465,-15.137,9.766,-24.902,45.898
1626640340.469,-35.645,-0.488,-20.020,-128.906
1626640340.473,-49.316,-10.254,-21.973,-119.141
1626640340.477,-28.320,-14.160,-24.414,57.129
1626640340.481,-10.254,-53.711,-21.484,87.402
1626640340.484,-32.227,-41.016,-33.691,-83.008
1626640340.488,-48.828,-14.648,-46.875,-140.625
1626640340.492,-33.691,-13.184,-34.180,12.207
1626640340.496,-20.020,-24.902,-20.996,96.680
1626640340.500,-27.344,-63.477,-14.160,-44.434
1626640340.495,-29.297,-17.090,2.441,-141.113
1626640340.499,-17.090,7.812,0.488,-16.602
1626640340.503,-20.996,-11.230,-22.461,95.703
1626640340.507,-45.898,-29.297,-40.527,-9.766
1626640340.511,-68.359,-56.641,-53.711,-166.504
1626640340.515,-64.941,-35.645,-40.527,-104.004
1626640340.519,-26.855,-20.508,-22.461,76.660
1626640340.522,-17.578,-36.621,-17.090,49.316
1626640340.526,-34.668,-9.277,-21.484,-119.629
1626640340.530,-64.941,-93.262,-44.434,-147.461
1626640340.534,-71.289,-194.336,-56.152,-1.465
1626640340.538,-5.859,-27.832,-25.879,95.703
1626640340.555,-6.348,32.715,-16.602,-39.551
1626640340.559,-34.668,-14.648,-16.602,-127.930
1626640340.563,-63.965,-60.059,-42.969,-22.949
1626640340.567,-65.918,-53.711,-50.781,59.082
1626640340.571,-36.621,5.859,-20.996,-52.734
1626640340.575,-45.410,-9.766,-10.254,-165.527
1626640340.579,-28.809,4.395,-14.648,-51.758
1626640340.582,-24.902,-45.898,-37.598,77.148
1626640340.586,-64.941,-166.504,-62.988,-24.902
1626640340.590,-52.734,-59.082,-43.457,-162.598
1626640340.594,-42.969,10.254,-32.715,-105.957
1626640340.598,-30.273,0.977,-24.902,69.824
1626640340.595,-20.996,-13.184,-23.438,65.430
1626640340.599,-37.598,-29.297,-37.598,-116.699
1626640340.603,-44.922,-15.625,-36.133,-138.672
1626640340.607,-22.949,-16.113,-26.855,35.156
1626640340.611,-14.648,-4.395,-32.715,84.961
1626640340.615,-42.969,-33.203,-41.016,-85.938
1626640340.619,-49.805,-68.359,-29.297,-166.016
1626640340.622,-44.434,-20.020,-22.461,-28.320
1626640340.626,-34.668,-6.836,-25.391,74.219
1626640340.630,-25.391,4.395,-23.926,-28.809
1626640340.634,-45.410,-24.902,-31.250,-165.039
1626640340.638,-54.199,-165.527,-48.828,-91.309
1626640340.635,-14.160,-80.566,-28.320,86.914
1626640340.639,2.930,18.555,-5.371,51.270
1626640340.643,-21.973,3.418,-17.090,-125.000
1626640340.647,-32.227,14.160,-24.414,-111.328
1626640340.651,-17.090,10.254,-20.996,58.105
1626640340.655,-4.883,14.160,-22.461,78.125
1626640340.659,-31.250,-6.348,-43.457,-104.004
1626640340.662,-45.410,-17.578,-44.922,-157.227
1626640340.666,-22.949,8.301,-26.367,8.301
1626640340.670,-25.391,-72.266,-29.785,72.754
1626640340.674,-40.527,-156.250,-32.227,-68.359
1626640340.678,-43.945,-52.246,-25.879,-159.668
1626640340.678,-40.527,6.348,-29.297,-41.016
1626640340.682,-12.207,-9.766,-24.902,99.609
1626640340.686,-15.137,-22.461,-22.461,8.301
1626640340.690,-41.992,-18.066,-24.414,-146.484
1626640340.694,-34.668,-5.859,-26.367,-73.242
1626640340.698,-20.508,-16.602,-28.320,91.797
1626640340.702,-19.043,-19.043,-35.645,53.223
1626640340.705,-55.664,-77.637,-59.570,-147.949
1626640340.709,-62.500,-91.797,-52.246,-148.438
1626640340.713,-20.996,-5.371,-30.762,53.223
1626640340.717,-13.184,17.090,-28.320,80.078
1626640340.721,-16.602,23.438,-19.043,-75.195
1626640340.725,-31.250,-19.043,-20.508,-143.555
1626640340.729,-34.180,-56.152,-38.574,-15.137
1626640340.733,-14.160,-12.207,-36.133,82.031
1626640340.737,-18.555,1.953,-21.484,-43.945
1626640340.741,-35.645,-4.395,-21.484,-157.227
1626640340.745,-41.016,-33.691,-41.504,-63.965
1626640340.749,-20.508,-53.223,-53.711,73.730
1626640340.752,-8.789,-20.508,-45.410,15.625
1626640340.756,-36.133,-16.602,-40.039,-147.461
1626640340.760,-34.668,0.488,-30.762,-95.215
1626640340.764,-22.949,-12.695,-32.715,69.336
1626640340.768,-28.320,-56.641,-33.691,38.574
1626640340.797,-27.832,-15.137,-21.484,-118.652
1626640340.801,-30.273,0.488,-26.855,-132.812
1626640340.805,-4.883,0.977,-22.461,46.387
1626640340.809,18.555,0.488,-7.324,116.211
1626640340.813,-62.012,-167.480,-55.176,-108.887
1626640340.817,-93.750,-167.969,-66.406,-213.379
1626640340.821,-32.715,-25.391,-39.551,-18.555
1626640340.824,-10.742,0.488,-43.945,104.004
1626640340.828,-21.973,-9.277,-33.203,-21.484
1626640340.832,-63.965,-99.121,-45.898,-185.059
1626640340.836,-35.645,-32.715,-43.457,-68.359
1626640340.840,3.906,23.438,-26.367,105.957
1626640340.840,-0.977,9.277,-21.973,41.016
1626640340.844,-16.113,11.230,-11.230,-119.141
1626640340.848,-35.156,-14.648,-14.648,-98.145
1626640340.852,-30.762,-14.648,-25.391,68.848
1626640340.856,-9.766,-28.809,-8.789,83.008
1626640340.860,-10.742,-28.809,3.418,-76.660
1626640340.864,-26.855,-12.695,-8.789,-116.699
1626640340.867,-21.484,-53.711,-28.320,38.086
1626640340.871,-16.602,-23.438,-43.457,102.539
1626640340.875,-41.992,12.207,-39.551,-60.059
1626640340.879,-50.293,-5.859,-17.090,-155.273
1626640340.883,-33.203,14.160,-10.254,-21.973
1626640340.879,-42.969,-89.355,-38.086,70.312
1626640340.883,-76.660,-261.719,-67.871,-62.988
1626640340.887,-70.312,-118.652,-43.945,-172.852
1626640340.891,-42.969,13.184,-26.367,-67.871
1626640340.895,-9.277,11.230,-24.902,99.121
1626640340.899,-5.859,-31.250,-27.832,56.152
1626640340.903,-34.668,-52.734,-33.691,-124.023
1626640340.906,-32.715,-3.906,-25.391,-110.840
1626640340.910,-16.602,-14.160,-25.879,53.711
1626640340.914,-13.184,0.977,-32.715,67.871
1626640340.918,-24.902,-19.043,-34.668,-92.773
1626640340.922,-24.902,-132.324,-20.996,-140.625
1626640340.928,-21.484,-61.035,-11.230,7.324
1626640340.932,-10.254,6.348,-27.344,85.938
1626640340.936,-16.113,-3.418,-38.086,-47.363
1626640340.940,-54.199,-4.883,-37.109,-167.480
1626640340.944,-49.805,-10.254,-30.273,-55.176
1626640340.948,-27.344,-0.977,-22.949,83.008
1626640340.952,-30.762,-7.812,-31.250,-5.371
1626640340.955,-49.316,-10.742,-31.738,-153.809
1626640340.959,-51.270,-21.484,-27.344,-89.844
1626640340.963,-57.617,-163.574,-45.898,44.434
1626640340.967,-50.293,-152.344,-43.945,16.602
1626640340.971,-40.527,-2.930,-25.391,-125.000
1626640340.965,-51.270,13.672,-29.297,-132.812
1626640340.969,-17.090,6.348,-16.602,53.223
1626640340.973,9.766,-17.578,-24.414,102.051
1626640340.977,-18.555,-7.812,-28.809,-67.383
1626640340.981,-59.082,-13.184,-34.668,-164.062
1626640340.985,-36.621,11.719,-29.297,-11.230
1626640340.989,-19.531,13.672,-26.367,97.656
1626640340.992,-71.289,-158.203,-74.219,-73.242
1626640340.996,-73.730,-133.789,-58.594,-187.988
1626640341.000,-24.902,2.930,-16.113,-44.434
1626640341.004,2.441,24.902,-6.348,114.258
1626640341.008,-6.836,5.859,-12.207,32.227
1626640341.034,-45.410,-85.938,-35.156,-150.391
1626640341.038,-42.480,-38.086,-29.785,-107.910
1626640341.042,-9.766,7.324,-12.695,71.289
1626640341.046,-1.953,-15.137,-8.789,73.730
1626640341.050,-25.391,12.207,-17.090,-100.586
1626640341.054,-66.895,-90.332,-46.875,-159.180
1626640341.058,-64.941,-161.133,-57.129,-5.859
1626640341.061,-30.762,-30.762,-32.227,80.566
1626640341.065,-35.645,9.766,-18.555,-62.012
1626640341.069,-43.945,7.812,-17.578,-150.391
1626640341.073,-29.297,-43.945,-29.785,-18.066
1626640341.077,-22.461,-71.289,-31.738,90.332
1626640341.090,-16.602,-3.906,-4.883,-5.859
1626640341.094,-25.391,13.672,-5.371,-141.602
1626640341.098,-24.902,16.602,-20.020,-56.152
1626640341.102,-17.578,-15.625,-27.344,86.426
1626640341.106,-14.160,-34.668,-28.320,29.297
1626640341.110,-15.137,6.836,-14.648,-112.305
1626640341.114,-39.551,-6.348,-32.715,-117.188
1626640341.117,-31.250,-10.742,-40.039,49.805
1626640341.121,-28.809,-24.902,-26.855,63.477
1626640341.125,-43.457,-37.109,-15.137,-114.746
1626640341.129,-35.645,-6.836,-1.953,-143.066
1626640341.133,-20.020,-15.625,-7.324,29.785
1626640341.098,-14.648,4.395,-20.020,99.609
1626640341.102,-35.645,-7.324,-35.645,-61.035
1626640341.106,-79.102,-120.605,-62.012,-188.477
1626640341.110,-42.480,-47.363,-39.551,-38.086
1626640341.114,4.883,16.113,-27.344,112.305
1626640341.118,7.324,10.254,-18.555,24.414
1626640341.122,-23.926,-2.441,3.418,-132.812
1626640341.125,-53.711,-55.176,-7.812,-96.680
1626640341.129,-37.598,-31.738,-20.996,70.801
1626640341.133,-27.344,-3.906,-23.926,40.039
1626640341.137,-49.316,-2.930,-17.578,-141.113
1626640341.141,-48.340,-1.953,-14.648,-126.465
1626640341.162,-59.570,-196.777,-51.270,20.996
1626640341.166,-67.871,-289.551,-78.125,37.109
1626640341.170,-42.480,-61.035,-39.062,-86.914
1626640341.174,-46.875,25.391,-18.555,-153.320
1626640341.178,-32.715,0.977,-19.531,-1.953
1626640341.182,-26.855,-24.902,-25.391,91.797
1626640341.186,-24.902,-4.395,-19.531,-44.434
1626640341.189,-29.785,5.859,-15.137,-152.832
1626640341.193,-17.090,8.789,-10.254,-33.691
1626640341.197,9.766,12.207,-2.441,114.258
1626640341.201,-14.160,-69.824,-25.879,13.184
1626640341.205,-38.574,-56.152,-32.715,-151.367
1626640341.200,-20.996,-0.977,-22.461,-92.773
1626640341.204,-15.625,-4.883,-21.484,58.105
1626640341.208,-27.832,-3.906,-20.020,32.227
1626640341.212,-60.059,-58.594,-39.551,-155.273
1626640341.216,-59.082,-51.758,-36.133,-150.391
1626640341.220,-14.160,8.789,-18.555,47.852
1626640341.224,2.441,16.602,-17.578,102.051
1626640341.227,-7.324,23.438,-24.414,-50.293
1626640341.231,-45.410,-35.645,-45.898,-153.320
1626640341.235,-49.316,-70.801,-41.016,-27.344
1626640341.239,0.977,-14.160,-8.301,112.793
1626640341.243,-0.977,-14.160,-5.859,6.836
1626640341.262,-20.508,5.859,-2.930,-127.930
1626640341.266,-22.461,9.277,-5.859,-48.828
1626640341.270,-10.742,-17.578,-21.973,98.145
1626640341.274,-16.113,-18.555,-30.762,29.297
1626640341.278,-45.410,-28.320,-36.133,-151.367
1626640341.282,-42.480,-8.301,-29.785,-112.793
1626640341.286,-17.578,-20.508,-27.832,68.359
1626640341.289,-54.688,-220.215,-70.801,27.832
1626640341.293,-102.051,-291.992,-109.375,-179.688
1626640341.297,-48.828,-96.191,-52.246,-157.227
1626640341.301,9.277,11.230,3.418,50.293
1626640341.305,8.789,-2.441,-16.602,111.328
1626640341.301,-10.742,3.906,-34.180,-47.852
1626640341.305,-34.668,11.230,-28.809,-149.414
1626640341.309,-28.320,2.441,-35.156,-17.578
1626640341.313,10.742,22.461,-19.043,121.582
1626640341.317,-8.301,6.348,-16.113,7.812
1626640341.321,-68.848,-67.383,-48.828,-177.734
1626640341.325,-45.410,-27.832,-33.691,-80.566
1626640341.328,-7.324,3.418,-6.348,96.680
1626640341.332,-8.789,4.883,-6.348,50.293
1626640341.336,-43.945,-4.395,-23.438,-133.789
1626640341.340,-69.336,-64.941,-49.316,-148.438
1626640341.344,-23.926,-22.461,-33.203,51.758
1626640341.339,-5.859,-0.488,-16.602,90.332
1626640341.343,-34.180,-29.785,-18.066,-84.961
1626640341.347,-42.969,4.395,-17.578,-128.418
1626640341.351,-69.824,-133.789,-62.012,-7.324
1626640341.355,-86.426,-209.961,-84.961,42.969
1626640341.359,-37.109,-24.414,-27.832,-41.504
1626640341.363,-31.250,6.836,-15.137,-134.766
1626640341.366,-24.902,17.578,-8.301,-18.555
1626640341.370,-46.387,-104.980,-33.203,83.008
1626640341.374,-122.559,-346.680,-112.305,-83.496
1626640341.378,-84.961,-153.809,-76.172,-189.453
1626640341.382,-31.250,29.785,-18.066,-72.754
1626640341.428,-2.930,8.301,-5.859,103.516
1626640341.432,10.742,12.207,-6.348,82.031
1626640341.436,-23.438,6.348,-26.367,-112.305
1626640341.440,-46.875,9.277,-38.574,-136.230
1626640341.444,-35.645,-2.930,-35.645,29.297
1626640341.448,0.977,33.203,-10.254,97.168
1626640341.452,-13.184,-15.625,-23.926,-65.918
1626640341.455,-98.633,-211.426,-78.613,-213.379
1626640341.459,-34.180,-68.359,-31.738,-13.672
1626640341.463,32.715,41.504,0.000,133.301
1626640341.467,-2.441,14.648,-15.137,-11.719
1626640341.471,-31.250,-2.441,-21.484,-144.531
1626640341.464,-39.062,-58.594,-34.180,-61.523
1626640341.468,-12.207,-6.348,-35.645,95.703
1626640341.472,-4.883,29.785,-27.832,36.621
1626640341.476,-9.766,29.785,-16.602,-114.258
1626640341.480,-20.020,9.277,-21.484,-79.102
1626640341.484,-9.766,-3.906,-31.250,85.938
1626640341.488,8.301,16.602,-25.879,87.891
1626640341.491,-26.855,8.789,-20.020,-93.262
1626640341.495,-37.598,0.000,-4.395,-122.070
1626640341.499,7.812,4.883,5.371,65.918
1626640341.503,8.789,-20.020,-13.672,121.582
1626640341.507,-37.598,-23.926,-24.414,-56.641
1626640341.474,-63.965,-20.996,-24.902,-165.527
1626640341.478,-43.457,-4.883,-28.320,-26.367
1626640341.482,-21.484,-4.395,-32.715,99.121
1626640341.486,-50.293,-153.809,-48.828,-31.250
1626640341.490,-41.016,-127.930,-32.227,-146.973
1626640341.494,-10.742,20.996,-27.344,-32.227
1626640341.498,-6.836,7.324,-45.410,107.422
1626640341.501,-13.672,-22.461,-27.344,33.691
1626640341.505,-33.203,-34.180,-6.348,-130.859
1626640341.509,-31.250,5.859,-1.465,-98.145
1626640341.513,-14.160,15.137,-12.207,78.125
1626640341.517,-17.090,-13.672,-26.367,90.820
1626640341.536,-30.762,2.441,-25.391,-81.055
1626640341.540,-72.266,-96.680,-54.688,-161.133
1626640341.544,-103.027,-238.770,-90.820,-48.828
1626640341.548,-44.434,-101.562,-44.434,65.918
1626640341.552,-24.414,10.254,-14.648,-49.316
1626640341.556,-37.109,13.672,-13.184,-152.832
1626640341.560,-34.668,-20.996,-29.785,-37.598
1626640341.563,-32.227,-48.828,-53.223,76.172
1626640341.567,-24.414,-6.348,-32.715,-8.301
1626640341.571,-34.668,5.371,-14.648,-150.391
1626640341.575,-19.531,21.973,-8.301,-74.219
1626640341.579,2.930,4.883,-19.531,93.750
1626640341.584,-14.648,-45.410,-35.645,52.734
1626640341.588,-25.391,-12.207,-32.715,-115.723
1626640341.592,-29.785,0.488,-33.203,-121.094
1626640341.596,-27.832,-11.230,-30.273,36.133
1626640341.600,-25.391,-19.531,-27.832,65.918
1626640341.604,-39.551,-23.438,-35.156,-97.168
1626640341.608,-34.180,9.766,-34.180,-150.879
1626640341.611,-16.113,10.254,-33.691,4.883
1626640341.615,-1.953,16.602,-24.414,96.191
1626640341.619,-12.695,4.883,-32.227,-43.457
1626640341.623,-117.188,-208.496,-120.117,-248.535
1626640341.627,-119.629,-221.680,-115.234,-151.367
1626640341.620,-7.812,-22.949,-21.973,91.309
1626640341.624,5.859,4.883,-10.742,34.668
1626640341.628,-29.297,-9.277,-28.320,-146.973
1626640341.632,-35.645,-10.742,-27.832,-102.539
1626640341.636,-16.602,-7.812,-20.020,74.219
1626640341.640,-23.438,-3.418,-36.133,58.105
1626640341.644,-45.898,7.812,-57.617,-121.582
1626640341.647,-38.086,24.414,-34.668,-125.488
1626640341.651,-57.617,-178.711,-53.223,12.695
1626640341.655,-52.246,-208.984,-53.711,49.805
1626640341.659,-30.273,-35.645,-16.602,-72.266
1626640341.663,-29.785,-2.930,-7.324,-131.836
1626640341.620,-7.812,-22.949,-21.973,91.309
1626640341.624,5.859,4.883,-10.742,34.668
1626640341.628,-29.297,-9.277,-28.320,-146.973
1626640341.632,-35.645,-10.742,-27.832,-102.539
1626640341.636,-16.602,-7.812,-20.020,74.219
1626640341.640,-23.438,-3.418,-36.133,58.105
1626640341.644,-45.898,7.812,-57.617,-121.582
1626640341.647,-38.086,24.414,-34.668,-125.488
1626640341.651,-57.617,-178.711,-53.223,12.695
1626640341.655,-52.246,-208.984,-53.711,49.805
1626640341.659,-30.273,-35.645,-16.602,-72.266
1626640341.663,-29.785,-2.930,-7.324,-131.836
1626640341.663,-10.742,28.320,2.930,12.695
1626640341.667,-20.508,11.719,-9.277,93.750
1626640341.671,-25.391,-7.812,-12.207,-21.484
1626640341.675,-27.344,-2.441,-7.324,-131.836
1626640341.679,-37.598,-4.395,-30.762,-53.223
1626640341.683,-24.902,1.465,-39.062,84.961
1626640341.687,-47.363,-66.406,-49.316,9.766
1626640341.690,-48.340,-68.359,-33.691,-137.695
1626640341.694,-22.949,0.977,-11.230,-84.473
1626640341.698,-10.254,0.488,-12.207,86.426
1626640341.702,-1.465,-7.812,-13.672,91.309
1626640341.706,-27.344,-42.480,-40.039,-90.820
1626640341.720,-40.039,-24.902,-48.340,-142.090
1626640341.724,-19.043,8.789,-32.715,24.414
1626640341.728,0.977,-15.625,-13.672,106.445
1626640341.732,7.812,13.672,16.113,-18.066
1626640341.736,-45.898,-52.734,-11.719,-153.320
1626640341.740,-120.117,-290.039,-92.285,-112.305
1626640341.744,-57.129,-155.762,-56.152,60.547
1626640341.747,-3.418,6.348,-2.441,17.090
1626640341.751,-27.832,2.441,-16.602,-137.207
1626640341.755,-29.785,19.531,-33.691,-64.453
1626640341.759,-19.043,-6.348,-37.109,87.891
1626640341.763,-7.812,14.648,-17.578,50.293
1626640341.780,-20.508,18.555,-15.625,-115.723
1626640341.784,-30.762,10.742,-20.996,-110.840
1626640341.788,-23.438,-28.809,-32.227,50.293
1626640341.792,-42.969,-121.582,-65.918,49.316
1626640341.796,-29.297,-28.809,-38.574,-80.078
1626640341.800,-8.789,31.250,-18.066,-108.887
1626640341.804,2.441,9.766,-21.484,37.109
1626640341.807,-25.879,-27.344,-50.781,76.660
1626640341.811,-60.059,-72.754,-66.895,-81.055
1626640341.815,-39.551,-18.066,-25.391,-153.320
1626640341.819,-33.691,-4.883,-22.949,-38.086
1626640341.823,-10.742,3.906,-20.996,103.516
1626640341.829,1.953,2.441,-9.766,29.785
1626640341.833,-83.984,-139.160,-60.059,-188.965
1626640341.837,-72.754,-92.285,-47.363,-121.582
1626640341.841,-2.930,6.836,-20.020,94.238
1626640341.845,-7.324,7.812,-36.621,59.082
1626640341.849,-20.020,8.789,-36.133,-106.445
1626640341.853,-34.668,-37.598,-45.410,-133.789
1626640341.856,-20.508,-8.789,-40.039,35.645
1626640341.860,7.812,16.602,-31.250,104.980
1626640341.864,-0.488,-1.465,-34.668,-58.105
1626640341.868,-26.855,6.836,-17.090,-143.066
1626640341.872,-86.426,-115.234,-65.430,-69.824
1626640341.854,-112.793,-176.270,-106.445,-9.766
1626640341.858,-35.156,-15.137,-28.809,-45.898
1626640341.862,-8.301,30.273,2.441,-134.766
1626640341.866,-5.859,14.648,-10.742,-43.457
1626640341.870,-8.301,-5.371,-27.344,86.426
1626640341.874,-14.648,-13.672,-28.320,20.020
1626640341.878,-23.926,3.906,-22.949,-126.953
1626640341.881,-34.668,-12.207,-29.297,-102.051
1626640341.885,13.184,27.832,-3.906,90.820
1626640341.889,14.648,0.000,-10.742,79.590
1626640341.893,-111.328,-270.508,-109.863,-196.289
1626640341.897,-104.004,-220.703,-104.492,-205.566
1626640341.895,-18.555,-12.207,-40.039,31.738
1626640341.899,-2.441,12.695,-23.926,100.586
1626640341.903,-1.953,16.113,-15.625,-42.480
1626640341.907,-25.391,0.977,-21.973,-144.043
1626640341.911,-15.137,19.043,-8.789,-6.836
1626640341.915,-1.465,16.602,-23.926,108.398
1626640341.919,-14.648,8.301,-35.645,-10.742
1626640341.922,-49.805,-18.066,-26.367,-166.016
1626640341.926,-95.703,-175.293,-67.871,-125.977
1626640341.930,-40.527,-90.820,-43.945,63.965
1626640341.934,-5.859,26.855,-18.066,42.480
1626640341.938,-30.273,17.578,-17.090,-130.859
1626640341.942,-24.414,23.438,-9.277,-101.562
1626640341.946,-5.371,14.160,-5.371,76.660
1626640341.950,5.371,13.184,-6.348,89.844
1626640341.954,-29.297,-14.160,-38.086,-98.145
1626640341.958,-48.340,-4.883,-39.551,-152.832
1626640341.962,-41.016,-12.207,-26.855,8.301
1626640341.966,-71.777,-134.766,-65.430,44.922
1626640341.969,-41.504,-62.988,-41.504,-65.430
1626640341.973,-21.484,23.438,-8.301,-133.301
1626640341.977,-22.949,5.371,-17.578,-25.879
1626640341.981,-11.719,-13.672,-23.438,94.238
1626640341.985,-30.273,-37.598,-25.879,-10.742
1626640341.995,-35.645,-6.836,-19.043,-145.996
1626640341.999,-23.438,-1.465,-10.742,-71.289
1626640342.003,-1.953,-11.719,-19.043,94.727
1626640342.007,13.184,17.578,-24.902,77.637
1626640342.011,-66.895,-99.121,-72.266,-153.809
1626640342.015,-133.301,-231.934,-117.188,-220.215
1626640342.019,-53.711,-66.895,-40.039,23.438
1626640342.022,-11.230,21.484,-3.418,85.449
1626640342.026,-30.273,8.301,-10.254,-86.426
1626640342.030,-62.988,-43.945,-29.785,-164.062
1626640342.034,-22.949,-33.691,-24.414,12.695
1626640342.038,12.695,6.348,-4.883,132.324
1626640342.057,-6.836,-20.996,-20.996,-15.137
1626640342.061,-17.090,-3.418,-20.020,-127.930
1626640342.065,-31.250,-36.133,-29.785,-33.203
1626640342.069,-9.277,-41.504,-34.180,102.051
1626640342.073,2.930,18.555,-13.672,37.598
1626640342.077,-32.715,2.441,-22.949,-133.789
1626640342.081,-23.438,13.672,-16.602,-91.309
1626640342.084,-17.578,-13.184,-22.949,69.336
1626640342.088,-56.152,-148.926,-66.406,22.949
1626640342.092,-38.574,-85.449,-46.875,-125.488
1626640342.096,-26.367,0.488,-28.320,-127.930
1626640342.100,-22.949,-11.719,-28.809,38.574
1626640342.095,-12.695,-20.996,-29.297,85.449
1626640342.099,-32.715,-34.668,-27.344,-75.195
1626640342.103,-41.992,-5.371,-11.230,-143.066
1626640342.107,-33.691,3.906,-15.625,-5.371
1626640342.111,-17.578,-15.137,-18.066,103.027
1626640342.115,-17.578,0.977,-11.230,-12.207
1626640342.119,-47.852,-9.766,-20.996,-160.645
1626640342.122,-42.969,-15.137,-27.832,-67.383
1626640342.126,-15.625,-4.883,-25.391,97.656
1626640342.130,-9.766,5.859,-13.672,44.922
1626640342.134,-29.785,-2.441,-5.371,-121.582
1626640342.138,-47.852,-118.164,-12.207,-108.887
1626640342.137,-28.809,-90.332,-8.301,68.848
1626640342.141,-35.645,-11.230,-17.090,62.500
1626640342.145,-54.688,-13.672,-29.785,-111.328
1626640342.149,-47.852,-17.578,-40.039,-138.672
1626640342.153,-28.320,-23.926,-36.621,25.879
1626640342.157,-19.043,-18.555,-27.832,96.191
1626640342.161,-43.945,-32.227,-36.133,-64.453
1626640342.164,-60.059,-27.832,-43.457,-162.598
1626640342.168,-32.715,-1.953,-34.668,-23.438
1626640342.172,-5.859,-57.617,-17.578,104.980
1626640342.176,-14.648,-118.164,-9.766,3.418
1626640342.180,-36.621,-42.480,-12.695,-153.320
1626640342.194,-36.133,15.137,-35.156,-72.754
1626640342.198,-11.230,11.230,-32.227,98.633
1626640342.202,-6.836,-7.324,-7.812,57.129
1626640342.206,-36.133,-19.043,-17.090,-129.883
1626640342.210,-56.152,-32.715,-34.668,-134.277
1626640342.214,-27.344,-15.625,-22.949,62.500
1626640342.218,-3.906,13.184,-5.859,106.445
1626640342.221,-44.434,-48.828,-24.414,-89.355
1626640342.225,-74.707,-78.125,-44.922,-169.922
1626640342.229,-44.922,-21.973,-33.691,8.789
1626640342.233,-24.414,-9.277,-33.691,98.633
1626640342.237,-26.855,7.324,-30.273,-36.133
1626640342.239,-56.152,-27.832,-37.598,-161.133
1626640342.243,-61.035,-80.078,-46.387,-65.918
1626640342.247,-15.625,-8.301,-27.344,103.516
1626640342.251,-13.672,1.953,-32.227,28.320
1626640342.255,-42.969,-25.879,-42.480,-142.578
1626640342.259,-41.992,-28.809,-33.691,-92.773
1626640342.263,-34.668,-48.340,-47.363,59.570
1626640342.266,-3.906,-4.883,-26.367,63.965
1626640342.270,-5.859,8.789,-6.836,-79.590
1626640342.274,-41.016,-10.742,-37.109,-112.793
1626640342.278,-24.902,-29.297,-48.340,43.945
1626640342.282,4.883,-52.734,-34.668,97.656
1626640342.281,-11.719,-28.809,-27.832,-59.570
1626640342.285,-50.781,-33.691,-39.551,-157.715
1626640342.289,-24.902,-16.113,-21.484,-7.812
1626640342.293,-24.414,-28.809,-25.879,82.031
1626640342.297,-117.188,-183.594,-100.586,-116.699
1626640342.301,-112.305,-142.578,-82.031,-224.121
1626640342.305,-32.715,-0.488,-20.508,-50.781
1626640342.308,0.000,19.043,-5.859,107.910
1626640342.312,-13.672,-4.395,-17.090,20.020
1626640342.316,-98.145,-116.211,-86.426,-203.613
1626640342.320,-81.543,-79.590,-66.895,-145.996
1626640342.324,-9.766,-0.977,-13.184,73.730
1626640342.334,24.414,18.066,6.348,93.750
1626640342.338,2.441,15.625,-3.418,-79.590
1626640342.342,-46.875,-16.602,-41.016,-145.508
1626640342.346,-33.691,-16.602,-47.363,19.531
1626640342.350,-20.996,-11.719,-29.297,82.031
1626640342.354,-32.227,-31.250,-20.996,-75.684
1626640342.358,-17.090,-8.789,10.742,-136.719
1626640342.361,-59.082,-92.285,-39.062,-50.293
1626640342.365,-132.324,-236.816,-139.160,-20.020
1626640342.369,-68.848,-100.586,-76.660,-59.082
1626640342.373,-25.879,7.324,-15.625,-135.742
1626640342.377,-25.879,-0.488,-11.719,-59.570
1626640342.396,-0.977,-1.465,-2.930,97.168
1626640342.400,-4.395,0.488,0.000,46.387
1626640342.404,-33.691,1.465,-16.113,-133.789
1626640342.408,-45.410,-7.324,-27.832,-116.699
1626640342.412,-13.672,5.371,-16.602,68.359
1626640342.416,-7.812,0.000,-20.996,62.012
1626640342.420,-29.785,-13.672,-20.508,-103.027
1626640342.423,-26.855,-0.488,-14.160,-128.418
1626640342.427,-19.531,-16.602,-25.879,22.949
1626640342.431,-3.906,-19.043,-11.719,103.516
1626640342.435,-20.996,-38.574,-16.602,-45.898
1626640342.439,-93.262,-167.969,-68.359,-208.496
1626640342.436,-68.848,-85.938,-43.457,-71.777
1626640342.440,-18.066,9.766,-18.066,96.680
1626640342.444,-26.855,-3.906,-29.297,-0.488
1626640342.448,-57.617,-18.066,-38.086,-158.691
1626640342.452,-45.898,-15.625,-34.180,-84.473
1626640342.456,-17.090,5.859,-23.926,87.891
1626640342.460,-29.297,-9.277,-20.020,45.898
1626640342.463,-58.105,-18.555,-14.160,-139.160
1626640342.467,-53.223,-21.484,-12.695,-131.836
1626640342.471,-23.438,-41.992,-18.066,52.734
1626640342.475,8.301,-16.113,-4.883,112.793
1626640342.479,7.812,-5.859,-4.883,-43.457
1626640342.462,-18.066,-15.625,-16.113,-130.371
1626640342.466,-3.418,-12.695,-15.625,28.320
1626640342.470,-10.254,-105.469,-56.152,104.980
1626640342.474,-40.039,-147.949,-59.082,-47.363
1626640342.478,-64.941,-52.734,-33.691,-175.293
1626640342.482,-46.387,-2.441,-9.766,-49.316
1626640342.486,-10.742,-12.695,-5.371,114.258
1626640342.489,-42.480,-73.242,-41.992,3.418
1626640342.493,-59.570,-44.922,-35.645,-159.180
1626640342.497,-32.227,-8.301,-13.184,-87.402
1626640342.501,0.977,5.859,-15.625,94.238
1626640342.505,-1.953,11.230,-18.555,71.777
1626640342.524,-40.039,-54.688,-33.203,-119.141
1626640342.528,-47.852,-39.062,-37.598,-142.090
1626640342.532,-10.254,5.859,-10.254,45.410
1626640342.536,14.648,-20.508,-6.836,109.375
1626640342.540,-13.184,-46.387,-24.902,-65.918
1626640342.544,-34.180,-57.617,-15.625,-153.809
1626640342.548,-23.926,-97.656,-21.484,-14.648
1626640342.551,-15.137,-36.133,-32.715,86.426
1626640342.555,-21.973,12.207,-38.574,-29.297
1626640342.559,-37.109,-4.883,-41.992,-166.016
1626640342.563,-26.855,-23.926,-31.250,-65.430
1626640342.567,8.789,-24.902,-26.855,107.910
1626640342.571,-4.883,-6.348,-34.668,37.598
1626640342.575,-43.945,-21.484,-42.969,-147.461
1626640342.579,-35.645,-15.137,-41.504,-110.840
1626640342.583,-3.906,-4.883,-29.297,78.613
1626640342.587,-4.395,-13.184,-16.113,80.566
1626640342.591,-35.645,-11.719,-21.484,-106.934
1626640342.595,-41.504,-6.836,-27.344,-142.090
1626640342.598,-18.555,3.906,-12.695,24.414
1626640342.602,3.906,-17.578,-6.836,100.586
1626640342.606,-39.551,-84.473,-43.457,-72.754
1626640342.610,-60.059,-48.340,-54.199,-180.176
1626640342.614,-19.043,4.883,-33.691,-21.484
1626640342.595,-3.418,-5.859,-27.344,107.422
1626640342.599,-25.391,-24.902,-31.250,-11.230
1626640342.603,-42.969,-27.344,-32.715,-157.227
1626640342.607,-32.227,-17.578,-25.879,-78.125
1626640342.611,-5.371,-10.254,-16.602,97.656
1626640342.615,-6.348,-12.695,-20.020,63.477
1626640342.619,-13.184,-0.977,-11.719,-99.609
1626640342.622,-57.129,-119.629,-42.969,-134.277
1626640342.626,-87.402,-198.242,-83.496,-10.254
1626640342.630,-38.086,-65.430,-49.805,49.316
1626640342.634,-32.227,-18.555,-31.250,-95.215
1626640342.638,-53.223,-38.086,-36.621,-149.414
1626640342.684,-39.551,-37.598,-34.668,-1.953
1626640342.688,-10.742,-14.648,-22.949,95.215
1626640342.692,-8.789,-2.441,-13.672,-17.578
1626640342.696,-31.250,-6.348,-22.949,-142.578
1626640342.700,-29.785,-11.230,-36.133,-36.621
1626640342.704,-23.926,-37.109,-47.363,87.891
1626640342.708,-34.180,-24.414,-38.574,-6.836
1626640342.711,-50.781,-16.113,-36.133,-154.785
1626640342.715,-39.062,-16.113,-33.691,-92.285
1626640342.719,-6.348,0.977,-29.297,84.961
1626640342.723,2.930,-42.480,-26.855,76.660
1626640342.727,-27.344,-58.594,-31.738,-105.957
1626640342.697,-35.156,-12.695,-33.691,-119.629
1626640342.701,-21.973,-2.441,-31.250,42.969
1626640342.705,-34.668,-23.926,-39.062,58.105
1626640342.709,-38.574,-21.973,-39.062,-92.773
1626640342.713,-35.645,-9.766,-22.461,-151.855
1626640342.717,-25.391,-8.789,-19.531,-6.836
1626640342.721,-0.977,-1.953,-22.461,112.305
1626640342.724,-23.438,-7.324,-34.180,-21.484
1626640342.728,-65.430,-24.414,-49.805,-177.246
1626640342.732,-50.293,-26.367,-35.156,-71.777
1626640342.736,-17.090,-7.812,-16.602,93.750
1626640342.740,-18.066,-11.230,-18.066,28.320
1626640342.736,-39.551,-17.090,-20.020,-146.973
1626640342.740,-36.133,-30.273,-16.113,-111.328
1626640342.744,-30.273,-95.703,-27.832,53.711
1626640342.748,-33.691,-72.266,-32.227,49.316
1626640342.752,-53.711,-23.438,-30.273,-124.512
1626640342.756,-59.082,-11.719,-28.320,-145.020
1626640342.760,-21.484,-29.785,-24.902,40.527
1626640342.763,-12.207,-109.375,-33.203,92.773
1626640342.767,-29.297,-49.805,-35.645,-62.500
1626640342.771,-36.133,-2.930,-32.715,-148.926
1626640342.775,-23.438,-33.203,-34.668,-10.742
1626640342.779,-2.441,-27.832,-36.621,112.793
1626640342.822,-10.254,-4.395,-25.391,-6.348
1626640342.826,-42.969,4.883,-20.996,-153.320
1626640342.830,-47.852,-10.254,-33.203,-78.125
1626640342.834,-28.809,-12.695,-28.320,73.242
1626640342.838,-28.320,-18.555,-29.297,19.531
1626640342.842,-44.434,-60.059,-44.434,-147.461
1626640342.846,-35.156,-42.480,-31.738,-109.375
1626640342.849,-4.883,-1.465,-13.184,81.543
1626640342.853,-7.324,0.488,-18.066,91.797
1626640342.857,-34.180,-6.836,-21.973,-81.055
1626640342.861,-57.129,-64.453,-32.715,-137.695
1626640342.865,-42.969,-54.688,-39.062,15.137
1626640342.837,-5.859,-31.250,-24.414,109.863
1626640342.841,-13.672,-31.250,-34.668,-30.273
1626640342.845,-49.316,-34.180,-50.781,-156.250
1626640342.849,-47.363,-93.750,-42.969,-39.062
1626640342.853,-17.090,-62.988,-33.203,101.562
1626640342.857,-18.555,-15.137,-36.133,12.695
1626640342.861,-54.199,-15.625,-34.668,-149.414
1626640342.864,-46.387,-2.441,-20.996,-85.449
1626640342.868,-4.883,-24.902,-8.789,101.562
1626640342.872,7.812,-23.438,-1.953,77.148
1626640342.876,-15.625,-5.859,-9.766,-98.633
1626640342.880,-43.457,-25.391,-25.391,-115.723
1626640342.896,-39.551,-8.301,-32.715,49.316
1626640342.900,-17.578,-28.809,-20.508,92.285
1626640342.904,-28.809,-137.207,-10.742,-66.895
1626640342.908,-54.688,-74.219,-18.066,-147.461
1626640342.912,-38.574,-4.395,-13.672,0.977
1626640342.916,-20.996,-13.672,-26.367,107.422
1626640342.920,-23.438,-36.133,-29.297,-26.367
1626640342.923,-20.996,-75.684,4.883,-139.160
1626640342.927,-21.484,-19.043,4.395,-47.852
1626640342.931,-7.324,-10.742,-3.906,89.844
1626640342.935,-32.715,-32.227,-23.438,3.418
1626640342.939,-62.012,-27.832,-31.738,-166.504
1626640342.942,-56.641,-93.750,-23.926,-116.211
1626640342.946,-41.504,-46.875,-35.156,48.340
1626640342.950,-25.879,9.766,-29.297,50.781
1626640342.954,-36.133,-20.996,-18.066,-110.352
1626640342.958,-46.387,-36.621,-29.785,-141.602
1626640342.962,-26.367,-20.508,-27.344,33.203
1626640342.966,-25.879,-7.812,-32.715,81.543
1626640342.969,-60.059,-26.367,-42.969,-104.980
1626640342.973,-74.219,-19.531,-27.832,-189.941
1626640342.977,-46.387,-18.066,-23.926,-32.227
1626640342.981,-12.695,-45.898,-6.836,96.191
1626640342.985,-27.344,-24.902,-13.672,-20.996
1626640342.975,-51.758,-17.578,-28.809,-156.250
1626640342.979,-38.574,-17.090,-20.996,-55.664
1626640342.983,-2.441,-16.113,-10.742,110.352
1626640342.987,22.461,-73.730,23.438,77.637
1626640342.991,-24.414,-54.199,-0.488,-113.770
1626640342.995,-53.711,-7.812,-27.344,-111.328
1626640342.999,-20.508,0.977,-17.578,74.219
1626640343.002,-11.719,0.977,-33.203,67.871
1626640343.006,-22.949,-65.918,-19.043,-91.797
1626640343.010,-20.020,-157.227,10.254,-111.816
1626640343.014,-24.902,-105.957,-17.090,30.273
1626640343.018,-32.227,-10.742,-34.668,81.543
1626640343.035,-41.992,1.953,-32.715,-66.406
1626640343.039,-43.945,-16.113,-24.414,-151.367
1626640343.043,-26.367,-1.465,-20.508,-18.555
1626640343.047,-25.391,4.395,-34.668,81.055
1626640343.051,-39.551,-18.555,-51.270,-30.762
1626640343.055,-46.387,-0.977,-54.688,-163.574
1626640343.059,-22.461,-39.062,-27.832,-75.195
1626640343.062,8.789,-97.168,-11.719,100.098
1626640343.066,-7.812,-25.879,-31.738,43.457
1626640343.070,-35.156,1.953,-41.504,-127.441
1626640343.074,-47.363,-6.348,-56.641,-128.418
1626640343.078,-32.227,-3.418,-54.688,36.621
1626640343.079,-3.906,-2.930,-28.320,82.520
1626640343.083,-33.203,-11.230,-32.227,-95.703
1626640343.087,-57.617,-24.414,-40.527,-161.621
1626640343.091,-35.645,-17.090,-42.480,-5.859
1626640343.095,-18.066,-28.809,-40.527,90.332
1626640343.099,-38.574,-59.570,-40.039,-41.016
1626640343.103,-62.012,-19.531,-45.898,-170.898
1626640343.106,-34.668,16.113,-31.738,-46.875
1626640343.110,-7.812,8.789,-23.438,103.027
1626640343.114,-17.578,-9.277,-20.020,12.207
1626640343.118,-36.133,-152.344,-17.578,-145.508
1626640343.122,-45.410,-178.223,-34.180,-97.656
1626640343.136,-33.203,-30.273,-41.016,58.594
1626640343.140,-20.508,20.020,-35.645,39.062
1626640343.144,-40.039,-1.953,-39.551,-136.230
1626640343.148,-62.012,-40.039,-45.410,-154.785
1626640343.152,-45.410,-24.414,-43.457,20.508
1626640343.156,-9.277,1.953,-31.738,90.820
1626640343.160,-20.020,5.859,-34.668,-63.477
1626640343.163,-59.082,-9.766,-45.898,-165.039
1626640343.167,-50.781,-97.168,-44.922,-29.785
1626640343.171,-22.949,-76.172,-39.062,89.355
1626640343.175,-21.484,7.812,-38.574,-24.414
1626640343.179,-39.062,0.000,-31.250,-152.832
1626640343.185,-31.738,-12.695,-15.625,-47.852
1626640343.189,-19.043,-41.504,-14.648,94.238
1626640343.193,-25.879,-31.250,-20.020,25.391
1626640343.197,-41.992,-19.043,-24.414,-137.207
1626640343.201,-49.316,-16.602,-35.645,-113.770
1626640343.205,-29.785,-0.488,-45.410,63.965
1626640343.209,-33.203,-55.664,-45.898,52.246
1626640343.212,-54.199,-44.434,-32.715,-128.418
1626640343.216,-55.664,-5.371,-33.691,-148.438
1626640343.220,-35.156,-17.578,-31.738,17.090
1626640343.224,-5.371,1.953,-20.996,98.633
1626640343.228,-29.785,-60.059,-35.156,-60.059
1626640343.218,-58.105,-72.266,-35.156,-171.875
1626640343.222,-22.949,0.000,-18.066,-20.020
1626640343.226,-7.324,3.418,-17.578,106.445
1626640343.230,-25.391,7.812,-25.391,-6.836
1626640343.234,-47.852,-18.066,-29.297,-158.691
1626640343.238,-53.711,-44.922,-38.086,-89.844
1626640343.242,-19.043,-6.836,-28.809,77.148
1626640343.245,-17.090,-16.602,-25.879,25.391
1626640343.249,-36.133,-17.090,-25.391,-136.719
1626640343.253,-25.879,-4.883,-13.184,-104.004
1626640343.257,-2.441,-133.789,-12.695,72.754
1626640343.261,-5.371,-187.500,-16.602,87.891
1626640343.297,-27.344,-55.176,-18.555,-74.219
1626640343.301,-36.621,3.418,-21.973,-130.371
1626640343.305,-32.227,-12.695,-20.996,13.672
1626640343.309,-20.020,-22.949,-14.648,101.562
1626640343.313,-24.902,-1.953,-12.207,-44.434
1626640343.317,-40.527,-0.488,-12.207,-154.785
1626640343.321,-29.785,7.812,-22.949,-25.879
1626640343.324,5.859,12.207,-25.391,110.840
1626640343.328,-4.395,-111.328,-17.090,17.578
1626640343.332,-40.527,-106.934,-17.090,-147.949
1626640343.336,-22.949,0.977,-11.230,-76.660
1626640343.340,9.277,14.160,4.395,104.980
1626640343.299,-7.324,-5.859,-15.137,55.176
1626640343.303,-46.387,-24.414,-42.969,-135.742
1626640343.307,-53.223,-1.465,-45.898,-133.789
1626640343.311,-32.227,15.137,-25.391,40.527
1626640343.315,-13.184,16.113,-9.277,80.078
1626640343.319,-31.250,0.977,-35.645,-92.285
1626640343.323,-48.340,-37.109,-37.598,-169.434
1626640343.326,-30.762,-18.555,-25.879,-14.160
1626640343.330,-25.391,1.953,-39.062,82.520
1626640343.334,-36.133,-2.441,-38.574,-47.363
1626640343.338,-50.293,-20.996,-34.668,-167.480
1626640343.342,-47.852,-56.152,-33.691,-60.547
1626640343.356,-31.250,-34.668,-28.809,82.031
1626640343.360,-26.367,-12.695,-21.484,18.066
1626640343.364,-42.480,-14.648,-22.949,-138.184
1626640343.368,-43.457,16.113,-33.203,-97.168
1626640343.372,-20.996,-36.621,-39.062,77.637
1626640343.376,-1.953,-153.809,-21.484,83.984
1626640343.380,-27.344,-59.082,-17.090,-92.773
1626640343.383,-56.641,-12.695,-34.668,-142.090
1626640343.387,-24.902,-5.859,-22.461,36.621
1626640343.391,-2.441,-37.598,-23.438,96.680
1626640343.395,-58.594,-190.430,-61.523,-112.305
1626640343.399,-70.801,-88.867,-44.922,-190.918
1626640343.419,-35.645,17.578,-30.273,-23.438
1626640343.423,-27.344,0.488,-40.039,81.055
1626640343.427,-29.297,7.324,-38.574,-31.738
1626640343.431,-37.109,0.977,-34.668,-155.762
1626640343.435,-23.926,11.719,-22.949,-49.316
1626640343.439,0.488,18.555,-12.695,110.352
1626640343.443,-3.906,22.949,-13.184,41.992
1626640343.446,-47.363,-25.879,-34.180,-147.949
1626640343.450,-67.383,-112.793,-46.387,-135.254
1626640343.454,-17.578,-42.969,-27.832,71.289
1626640343.458,-1.953,-6.836,-32.227,81.543
1626640343.462,-28.320,-16.602,-46.387,-104.492
1626640343.459,-43.945,-31.738,-49.316,-147.949
1626640343.463,-27.832,-65.918,-41.016,22.949
1626640343.467,-11.230,-22.949,-21.484,109.375
1626640343.471,-28.809,-9.766,-9.277,-46.875
1626640343.475,-51.270,-22.949,-17.578,-160.156
1626640343.479,-38.574,-33.203,-29.785,-23.438
1626640343.483,-14.648,-49.316,-26.367,106.445
1626640343.486,-13.672,-29.297,-24.414,6.836
1626640343.490,-39.062,-25.879,-30.273,-138.184
1626640343.494,-37.109,-25.391,-23.926,-62.012
1626640343.498,-24.414,-25.391,-20.020,99.121
1626640343.502,-22.949,-118.164,-19.531,56.152
1626640343.515,-26.855,-201.172,-9.766,-103.027
1626640343.519,-38.574,-101.562,-18.066,-103.516
1626640343.523,-25.391,-15.625,-34.180,62.988
1626640343.527,-32.715,-29.785,-49.805,76.660
1626640343.531,-52.246,-41.016,-54.199,-97.168
1626640343.535,-52.246,-23.926,-33.691,-145.508
1626640343.539,-24.902,-10.254,-9.277,21.484
1626640343.542,-11.719,-14.648,-4.395,110.352
1626640343.546,-33.691,-17.090,-16.602,-31.738
1626640343.550,-45.410,-72.266,-25.879,-151.855
1626640343.554,-40.527,-79.590,-27.832,-46.875
1626640343.558,-23.438,2.441,-23.438,90.332
1626640343.540,-28.809,-5.859,-37.109,0.488
1626640343.544,-47.852,-19.043,-49.805,-157.715
1626640343.548,-31.250,-2.930,-32.715,-85.938
1626640343.552,-21.484,-11.719,-48.828,68.848
1626640343.556,-12.207,3.418,-44.922,43.945
1626640343.560,-22.461,5.859,-21.484,-117.188
1626640343.564,-37.598,1.465,-19.531,-137.695
1626640343.567,-24.414,-28.320,-27.832,28.320
1626640343.571,-17.578,-52.734,-42.969,75.195
1626640343.575,-22.461,-10.742,-41.992,-76.172
1626640343.579,-36.621,-5.859,-38.574,-148.438
1626640343.583,-14.648,-8.789,-31.250,0.000
1626640343.595,-3.906,-25.879,-30.762,94.727
1626640343.599,-14.160,-50.293,-34.180,-27.344
1626640343.603,-30.273,-6.348,-37.598,-152.832
1626640343.607,-41.992,-16.602,-35.645,-63.965
1626640343.611,-13.184,-27.832,-14.160,102.051
1626640343.615,-8.789,-18.555,-18.066,42.480
1626640343.619,-95.703,-189.453,-83.008,-189.941
1626640343.622,-122.070,-285.156,-90.820,-190.430
1626640343.626,-49.316,-129.883,-40.039,29.297
1626640343.630,-10.254,10.742,-14.160,62.988
1626640343.634,-41.992,5.859,-27.344,-121.582
1626640343.638,-57.129,-24.902,-39.062,-155.273
1626640343.645,-31.738,-14.648,-32.227,15.625
1626640343.649,-34.668,-7.812,-35.645,64.941
1626640343.653,-51.758,-12.695,-41.504,-86.914
1626640343.657,-52.734,-19.531,-30.762,-170.898
1626640343.661,-29.297,-16.113,-21.973,-18.555
1626640343.665,-4.883,13.672,-19.531,113.770
1626640343.669,-8.301,16.113,-5.371,10.742
1626640343.672,-12.695,7.812,9.766,-113.770
1626640343.676,-9.277,6.836,4.395,-32.227
1626640343.680,-42.480,-117.188,-44.434,83.984
1626640343.684,-42.480,-112.305,-48.340,29.785
1626640343.688,-56.152,-3.906,-36.621,-143.555
1626640343.682,-88.867,-8.301,-55.176,-156.250
1626640343.686,-53.223,-2.441,-48.828,37.109
1626640343.690,-57.129,-70.312,-57.129,46.875
1626640343.694,-70.801,-46.875,-52.734,-125.488
1626640343.698,-53.711,19.531,-32.715,-152.832
1626640343.702,-29.785,-3.418,-29.785,12.695
1626640343.706,-8.789,25.391,-15.625,106.445
1626640343.709,-26.367,-32.227,-25.391,-49.316
1626640343.713,-83.496,-190.430,-77.148,-205.566
1626640343.717,-49.316,-93.262,-57.129,-48.828
1626640343.721,-8.789,21.484,-30.762,113.770
1626640343.725,-33.691,13.184,-42.969,-4.883
1626640343.756,-49.805,-5.371,-36.133,-164.551
1626640343.760,-42.969,-20.996,-30.273,-94.727
1626640343.764,-32.715,-20.508,-36.621,68.359
1626640343.768,-23.438,-13.672,-33.691,41.016
1626640343.772,-34.180,26.855,-34.668,-126.465
1626640343.776,-40.527,16.113,-33.691,-124.512
1626640343.780,-34.668,-80.078,-46.875,38.086
1626640343.783,-19.531,-41.016,-43.457,76.660
1626640343.787,-20.996,-2.441,-22.461,-74.707
1626640343.791,-33.203,-3.906,-17.578,-139.648
1626640343.795,-18.066,1.953,-22.949,8.301
1626640343.799,-6.836,-26.855,-34.180,102.539
1626640343.799,-30.762,-3.418,-46.387,-41.016
1626640343.803,-42.480,14.648,-42.480,-162.109
1626640343.807,-26.855,10.742,-36.133,-46.875
1626640343.811,-5.859,-22.461,-28.320,97.656
1626640343.815,1.953,-65.430,-15.137,28.809
1626640343.819,-25.879,-30.273,-13.672,-133.301
1626640343.823,-36.621,-0.488,-15.625,-95.703
1626640343.826,-23.438,3.418,-25.879,62.012
1626640343.830,-11.230,0.000,-12.695,60.547
1626640343.834,-15.137,-36.133,-2.930,-97.168
1626640343.838,-14.160,-18.555,-26.855,-112.793
1626640343.842,14.160,0.488,-16.113,65.430
1626640343.817,-2.930,-11.230,-4.395,92.285
1626640343.821,-43.457,-4.395,-13.672,-89.844
1626640343.825,-32.715,-52.246,6.836,-150.391
1626640343.829,-17.090,-57.617,-5.371,-5.371
1626640343.833,-9.766,-17.090,-27.832,96.680
1626640343.837,-28.320,-18.066,-31.250,-24.902
1626640343.841,-51.758,-2.441,-41.016,-161.621
1626640343.844,-26.855,-60.547,-16.602,-53.223
1626640343.848,-2.441,-62.988,-4.395,104.004
1626640343.852,-15.137,-13.184,-20.508,31.250
1626640343.856,-46.387,-14.160,-36.621,-143.066
1626640343.860,-54.688,1.953,-47.852,-119.629
1626640343.881,5.371,-39.551,-7.812,90.820
1626640343.885,41.016,-137.695,40.039,129.883
1626640343.889,-20.996,-72.754,10.742,-81.543
1626640343.893,-62.012,0.977,-24.414,-158.691
1626640343.897,-44.922,0.488,-39.062,3.418
1626640343.901,-12.695,-17.090,-30.762,98.633
1626640343.905,-14.648,-47.363,-21.973,-43.457
1626640343.908,-49.316,-26.367,-32.227,-166.016
1626640343.912,-35.156,-19.531,-24.414,-33.691
1626640343.916,-14.648,-6.348,-21.973,98.633
1626640343.920,-13.672,8.301,-11.719,1.465
1626640343.924,-35.645,-11.719,-13.184,-149.414
1626640343.920,-51.758,-23.438,-38.086,-91.797
1626640343.924,-25.879,-21.973,-47.363,78.125
1626640343.928,-20.996,-2.930,-46.875,47.363
1626640343.932,-37.598,-3.906,-39.551,-120.605
1626640343.936,-30.273,-10.742,-23.438,-104.004
1626640343.940,-5.371,-4.395,-22.461,72.266
1626640343.944,-0.488,-12.207,-17.090,97.656
1626640343.947,-32.227,-17.578,-27.344,-78.613
1626640343.951,-60.059,-17.090,-39.551,-155.273
1626640343.955,-40.039,-124.023,-16.113,2.441
1626640343.959,5.859,-139.648,-10.254,118.652
1626640343.963,5.371,-7.812,-17.090,-11.230
1626640343.999,-36.621,15.625,-41.016,-143.066
1626640344.003,-60.547,-32.227,-49.805,-58.105
1626640344.007,-59.082,-65.430,-42.480,59.082
1626640344.011,-55.176,-31.738,-37.109,-16.113
1626640344.015,-72.754,-20.996,-37.598,-173.340
1626640344.019,-64.941,-35.156,-49.316,-108.887
1626640344.023,-30.273,-20.996,-28.320,73.730
1626640344.026,-28.809,-71.777,7.812,47.363
1626640344.030,-49.805,-83.008,3.418,-129.883
1626640344.034,-63.965,-27.832,-19.531,-142.578
1626640344.038,-41.504,-28.320,-21.973,38.086
1626640344.042,-31.250,-38.086,-23.438,78.125
1626640344.035,-55.176,-26.855,-31.250,-94.238
1626640344.039,-66.895,-21.484,-41.504,-168.457
1626640344.043,-56.152,-39.551,-37.109,-23.438
1626640344.047,-45.898,-44.434,-33.203,74.219
1626640344.051,-45.410,-21.484,-31.250,-39.062
1626640344.055,-42.969,-28.320,-14.648,-145.020
1626640344.059,-25.391,-35.645,-0.977,-37.598
1626640344.062,-5.371,-21.484,0.488,108.887
1626640344.066,-20.020,-28.809,-21.973,21.973
1626640344.070,-62.012,-35.156,-43.457,-166.992
1626640344.074,-77.148,-41.992,-51.758,-143.066
1626640344.078,-44.922,-31.738,-38.574,42.480
1626640344.056,-27.832,-13.184,-25.391,54.199
1626640344.060,-41.504,-16.113,-34.180,-116.699
1626640344.064,-39.551,-7.812,-27.832,-134.766
1626640344.068,-9.766,-17.090,-4.883,52.246
1626640344.072,-9.277,-111.328,-18.555,100.098
1626640344.076,-23.438,-86.426,-23.926,-57.617
1626640344.080,-33.691,-22.949,-14.648,-137.695
1626640344.083,-29.297,-16.113,-26.367,-6.348
1626640344.087,-8.789,-2.441,-34.668,118.652
1626640344.091,-19.043,-43.457,-41.992,-1.953
1626640344.095,-47.852,-47.363,-47.363,-156.250
1626640344.099,-39.062,-16.602,-41.016,-66.406
1626640344.095,-9.766,-7.812,-20.508,101.074
1626640344.099,-22.949,-26.367,-25.879,36.621
1626640344.103,-45.410,-45.898,-33.203,-140.137
1626640344.107,-46.387,-22.949,-31.738,-125.000
1626640344.111,-27.832,-7.324,-34.668,46.875
1626640344.115,-20.996,-10.254,-40.527,63.965
1626640344.119,-33.691,-18.066,-36.621,-94.727
1626640344.122,-37.109,-85.938,-20.996,-132.812
1626640344.126,-38.086,-95.215,-25.391,6.836
1626640344.130,-23.926,-42.480,-28.809,83.984
1626640344.134,-17.578,-22.461,-23.438,-37.598
1626640344.138,-31.250,-31.738,-20.508,-142.090
1626640344.164,-33.203,-38.086,-25.879,-28.320
1626640344.168,-13.672,-18.555,-31.738,98.633
1626640344.172,-4.883,-22.461,-31.738,4.883
1626640344.176,-36.133,-29.785,-40.527,-153.809
1626640344.180,-45.898,-28.809,-41.992,-88.379
1626640344.184,-19.531,-42.480,-30.273,82.031
1626640344.188,-23.438,-31.250,-24.902,43.457
1626640344.191,-42.969,-13.672,-34.668,-123.535
1626640344.195,-41.016,-24.902,-43.945,-115.234
1626640344.199,-27.344,-19.531,-46.387,45.898
1626640344.203,-23.926,-97.168,-56.152,80.078
1626640344.207,-42.969,-138.184,-51.270,-93.750
1626640344.204,-47.852,-40.039,-29.297,-164.551
1626640344.208,-34.668,-16.113,-20.508,-7.324
1626640344.212,-13.672,0.488,-19.531,100.586
1626640344.216,-26.367,-11.719,-26.367,-30.273
1626640344.220,-46.387,-20.996,-24.414,-158.691
1626640344.224,-30.762,-6.836,-23.926,-46.387
1626640344.228,-15.625,-21.484,-26.367,100.098
1626640344.231,-19.043,-8.789,-26.367,24.414
1626640344.235,-25.391,-29.297,-28.320,-127.441
1626640344.239,-26.367,-141.602,-24.414,-80.078
1626640344.243,-11.230,-91.309,-19.531,83.008
1626640344.247,-14.160,-1.465,-21.484,63.477
1626640344.256,-43.457,-20.020,-34.180,-123.047
1626640344.260,-51.270,-53.711,-43.457,-152.832
1626640344.264,-36.133,-71.777,-50.293,18.066
1626640344.268,-10.742,-19.043,-29.785,90.332
1626640344.272,-13.184,-12.207,-32.715,-57.129
1626640344.276,-30.273,-9.277,-39.551,-139.160
1626640344.280,-26.855,-7.324,-25.391,-5.371
1626640344.283,-14.648,-28.320,-25.879,96.680
1626640344.287,-15.625,3.906,-15.625,-2.930
1626640344.291,-40.527,8.301,-16.113,-139.160
1626640344.295,-38.574,-6.348,-32.715,-65.918
1626640344.299,-11.719,-0.488,-26.855,89.355
1626640344.295,-26.855,-37.109,-33.691,19.531
1626640344.299,-55.176,-35.156,-35.156,-148.926
1626640344.303,-54.199,-32.227,-23.438,-114.746
1626640344.307,-12.695,-28.809,-15.137,75.195
1626640344.311,3.418,-24.414,-18.555,91.797
1626640344.315,-31.250,-54.688,-29.785,-86.914
1626640344.319,-35.156,-18.066,-18.066,-124.023
1626640344.322,-30.762,-12.695,-27.344,26.855
1626640344.326,-26.367,-19.043,-37.109,94.727
1626640344.330,-27.344,3.906,-25.391,-48.828
1626640344.334,-78.125,-103.027,-52.246,-191.895
1626640344.338,-84.473,-173.828,-65.918,-77.637
1626640344.340,-20.508,-46.875,-34.668,101.074
1626640344.344,-26.367,-8.789,-36.133,1.465
1626640344.348,-48.340,-25.879,-29.297,-147.461
1626640344.352,-45.410,-16.602,-30.762,-74.707
1626640344.356,-19.043,-1.465,-25.391,90.332
1626640344.360,-20.996,-5.859,-15.137,45.410
1626640344.364,-56.152,-28.320,-30.762,-142.090
1626640344.367,-37.109,4.395,-21.973,-116.699
1626640344.371,-55.664,-42.969,-60.547,19.531
1626640344.375,-122.070,-132.812,-136.230,-33.691
1626640344.379,-60.059,-42.480,-57.129,-129.395
1626640344.383,-26.855,-7.324,-7.324,-139.648
1626640344.395,-22.949,-18.066,-20.020,6.836
1626640344.399,-12.695,-2.930,-16.602,95.703
1626640344.403,-23.926,0.488,-22.461,-37.109
1626640344.407,-29.297,9.766,-24.902,-149.902
1626640344.411,-26.855,-8.789,-25.879,-49.805
1626640344.415,-1.465,-3.418,-19.531,101.562
1626640344.419,-20.020,-34.180,-37.598,3.418
1626640344.422,-98.633,-129.395,-84.961,-219.727
1626640344.426,-63.477,-49.316,-42.969,-121.094
1626640344.430,-8.789,-0.977,-16.113,84.473
1626640344.434,-12.695,-5.371,-21.484,52.734
1626640344.438,-60.547,-53.223,-35.156,-147.461
1626640344.436,-147.949,-185.059,-101.562,-242.188
1626640344.440,-62.500,-83.496,-43.457,0.977
1626640344.444,19.531,16.113,14.160,122.070
1626640344.448,-18.066,-9.766,-16.113,-64.453
1626640344.452,-39.062,-4.883,-26.367,-151.367
1626640344.456,-29.785,-8.301,-24.414,-6.836
1626640344.460,-16.113,-14.160,-27.832,98.633
1626640344.463,-15.625,-20.020,-26.367,-23.926
1626640344.467,-23.926,-11.719,-15.137,-143.066
1626640344.471,-26.367,-17.090,-26.367,-47.363
1626640344.475,-73.730,-169.922,-85.938,31.738
1626640344.479,-64.941,-139.648,-62.500,-22.949
1626640344.501,-33.691,-3.906,-13.672,-139.160
1626640344.505,-30.762,1.465,-20.020,-101.562
1626640344.509,-12.695,-10.254,-31.738,72.754
1626640344.513,-32.227,-73.242,-60.059,41.504
1626640344.517,-34.668,-40.039,-42.480,-113.281
1626640344.521,-17.090,7.812,-12.695,-110.840
1626640344.525,4.883,-3.906,-5.859,59.082
1626640344.528,-4.395,-20.020,-12.695,110.352
1626640344.532,-55.664,-99.121,-37.598,-78.125
1626640344.536,-54.688,-65.918,-23.926,-169.922
1626640344.540,-21.973,6.348,-2.441,-11.719
1626640344.544,-1.465,7.812,-2.441,114.746
1626640344.540,-4.395,16.113,0.977,2.930
1626640344.544,-36.621,-23.926,-15.137,-146.973
1626640344.548,-32.715,-32.715,-25.391,-55.176
1626640344.552,0.000,-11.719,-18.555,108.398
1626640344.556,-3.418,-18.066,-20.020,47.363
1626640344.560,-35.645,-8.301,-34.180,-126.465
1626640344.564,-49.316,-47.363,-45.410,-121.094
1626640344.567,-41.504,-60.547,-42.969,38.574
1626640344.571,-22.949,3.418,-30.273,66.406
1626640344.575,-16.113,23.438,-13.184,-75.684
1626640344.579,-37.109,18.066,-18.555,-138.184
1626640344.583,-31.250,-22.461,-30.273,3.418
1626640344.578,-25.879,-134.277,-50.293,83.984
1626640344.582,-41.992,-98.145,-49.316,-53.223
1626640344.586,-30.273,-3.906,-26.367,-142.578
1626640344.590,-31.250,-15.625,-27.344,-36.621
1626640344.594,-23.926,-14.160,-18.555,94.238
1626640344.598,-29.297,-8.301,-37.598,-0.977
1626640344.602,-53.223,-22.949,-44.434,-164.062
1626640344.605,-36.133,-25.879,-19.531,-92.773
1626640344.609,-14.160,-12.695,-23.438,80.078
1626640344.613,-13.672,-0.488,-17.090,57.617
1626640344.617,-14.648,-42.480,-5.859,-98.633
1626640344.621,-18.066,-80.078,-12.695,-103.516
1626640344.617,-19.531,-25.391,-17.578,50.781
1626640344.621,-24.902,0.000,-20.996,71.289
1626640344.625,-45.410,-20.996,-25.391,-97.168
1626640344.629,-49.805,-27.832,-17.578,-150.879
1626640344.633,-23.926,-20.508,-10.254,11.230
1626640344.637,-22.461,-36.133,-29.297,89.844
1626640344.641,-43.945,-29.297,-47.363,-51.758
1626640344.644,-55.176,-10.742,-36.133,-167.969
1626640344.648,-51.270,-100.098,-29.297,-61.035
1626640344.652,-37.109,-115.723,-32.227,83.008
1626640344.656,-35.645,-25.879,-42.480,0.488
1626640344.660,-56.152,-1.465,-42.969,-166.992
1626640344.660,-42.480,8.301,-23.926,-102.051
1626640344.664,-20.996,-1.953,-25.879,62.500
1626640344.668,-33.203,-18.066,-33.203,37.109
1626640344.672,-45.898,-17.090,-17.090,-117.188
1626640344.676,-53.711,-26.367,-8.789,-136.230
1626640344.680,-37.598,-20.508,-21.484,31.250
1626640344.684,-7.812,-66.406,-14.648,103.516
1626640344.687,-24.414,-82.031,-11.230,-63.477
1626640344.691,-51.270,-19.531,-30.273,-165.039
1626640344.695,-39.062,-17.578,-35.156,-27.344
1626640344.699,-18.066,-9.277,-23.926,91.797
1626640344.703,-17.090,-16.602,-24.902,-12.207
1626640344.739,-43.945,-30.762,-41.504,-156.250
1626640344.743,-48.340,-27.832,-38.574,-78.125
1626640344.747,-17.090,-29.785,-20.020,79.102
1626640344.751,-12.207,-4.395,-14.648,29.297
1626640344.755,-39.062,-26.367,-13.184,-145.020
1626640344.759,-32.227,-99.121,-4.395,-104.492
1626640344.763,0.488,-33.691,0.977,79.590
1626640344.766,4.883,12.207,-12.207,74.219
1626640344.770,-28.809,-6.348,-41.504,-106.445
1626640344.774,-41.016,-12.207,-36.133,-140.137
1626640344.778,-26.367,-35.156,-20.020,27.344
1626640344.782,-32.715,-28.809,-26.367,77.637
1626640344.783,-48.340,-31.250,-26.855,-66.895
1626640344.787,-62.988,-29.297,-27.344,-159.668
1626640344.791,-52.734,-33.203,-28.809,-41.992
1626640344.795,-25.879,-53.711,-20.508,82.031
1626640344.799,-19.531,-25.879,-13.184,-16.602
1626640344.803,-29.297,-10.254,-18.555,-157.227
1626640344.807,-39.062,-25.391,-28.809,-87.891
1626640344.810,-13.672,-33.203,-19.043,80.566
1626640344.814,2.441,-30.273,-17.090,51.758
1626640344.818,-33.203,-25.391,-36.621,-137.207
1626640344.822,-53.711,-24.902,-49.805,-142.578
1626640344.826,-27.832,-14.648,-48.828,41.504
1626640344.828,-13.184,-90.332,-6.348,-124.512
1626640344.832,-20.020,-38.086,-27.344,9.277
1626640344.836,-27.832,-44.922,-34.180,82.031
1626640344.840,-48.828,-35.645,-51.270,-61.523
1626640344.844,-53.711,-6.348,-40.039,-166.504
1626640344.847,-36.621,6.348,-17.090,-42.969
1626640344.851,-8.789,-4.395,-15.137,104.004
1626640344.855,-17.090,-22.461,-24.902,17.578
1626640344.859,-59.570,-2.930,-33.691,-160.156
1626640344.863,-22.461,-33.691,-7.324,-79.102
1626640344.863,14.160,-97.168,-2.930,106.445
1626640344.867,-9.766,-41.992,-33.203,53.711
1626640344.871,-45.410,-11.230,-45.410,-131.836
1626640344.875,-77.637,-49.316,-55.176,-160.645
1626640344.879,-46.875,-49.316,-40.527,17.090
1626640344.883,-23.438,-10.742,-36.133,79.590
1626640344.887,-35.645,10.742,-43.945,-69.824
1626640344.890,-34.180,-4.883,-37.109,-136.719
1626640344.894,-28.320,-20.020,-35.645,-7.812
1626640344.898,-22.949,-22.461,-31.738,84.961
1626640344.902,-6.348,-63.965,-2.930,-13.672
1626640344.906,-31.250,-59.570,-4.395,-150.879
1626640344.916,-55.176,-18.555,-26.367,-75.195
1626640344.920,-43.457,-23.926,-28.320,74.219
1626640344.924,-37.109,-26.855,-27.832,6.836
1626640344.928,-50.293,-20.508,-27.832,-154.297
1626640344.932,-59.082,-14.160,-41.504,-114.258
1626640344.936,-35.156,-20.508,-55.176,59.082
1626640344.940,-18.555,-20.020,-43.945,57.617
1626640344.943,-45.410,-51.270,-33.691,-121.094
1626640344.947,-57.617,-119.141,-37.109,-154.297
1626640344.951,-35.156,-52.246,-31.738,18.066
1626640344.955,-21.973,-20.020,-30.273,75.195
1626640344.959,-28.809,-32.227,-29.785,-80.078
1626640344.960,-46.387,-26.855,-34.180,-169.922
1626640344.964,-42.969,-39.062,-41.992,-40.039
1626640344.968,-20.020,-22.461,-34.668,80.566
1626640344.972,-24.414,-26.367,-33.203,-18.555
1626640344.976,-38.574,-19.043,-22.461,-145.508
1626640344.980,-28.320,-10.254,-7.324,-58.105
1626640344.984,-33.203,-64.453,-37.109,70.801
1626640344.987,-42.480,-50.781,-46.387,8.301
1626640344.991,-55.176,-25.879,-42.480,-149.902
1626640344.995,-49.316,-17.090,-50.293,-119.629
1626640344.999,-34.668,-21.973,-48.828,52.246
1626640345.003,-43.457,-66.895,-53.223,49.316
1626640345.000,-42.480,-34.180,-35.156,-106.445
1626640345.004,-46.875,-17.578,-19.531,-142.578
1626640345.008,-23.926,-31.738,-17.090,18.066
1626640345.012,-9.277,-20.508,-21.484,96.191
1626640345.016,-38.574,-55.664,-38.086,-62.012
1626640345.020,-53.711,-46.387,-36.133,-168.945
1626640345.024,-40.527,-16.113,-29.297,-30.762
1626640345.027,-21.484,-23.926,-27.832,97.656
1626640345.031,-20.020,-26.855,-23.438,-2.441
1626640345.035,-72.266,-80.078,-58.105,-182.617
1626640345.039,-122.559,-160.156,-100.098,-165.039
1626640345.043,-59.570,-72.754,-53.223,44.922
1626640345.054,-11.230,-3.906,-27.344,59.082
1626640345.058,-41.016,-18.066,-31.250,-125.000
1626640345.062,-34.180,-2.930,-10.254,-112.305
1626640345.066,6.836,12.207,3.906,80.078
1626640345.070,8.789,-0.977,6.836,103.027
1626640345.074,-32.227,-24.902,-13.184,-82.520
1626640345.078,-56.152,-5.371,-30.762,-160.645
1626640345.081,-71.777,-50.293,-42.480,-35.156
1626640345.085,-102.051,-196.289,-82.031,10.742
1626640345.089,-73.730,-128.418,-64.941,-89.844
1626640345.093,-42.969,5.371,-22.461,-157.715
1626640345.097,-31.738,10.742,-20.508,-49.316
1626640345.094,-4.395,4.395,-21.973,98.633
1626640345.098,4.883,3.418,-13.184,40.527
1626640345.102,-28.320,-7.324,-16.113,-127.441
1626640345.106,-54.199,-21.484,-24.414,-106.934
1626640345.110,-25.879,-17.578,-20.996,72.754
1626640345.114,15.625,4.395,-5.859,101.074
1626640345.118,1.465,5.371,1.465,-67.871
1626640345.121,-43.457,-10.742,-24.902,-136.230
1626640345.125,-42.480,-18.066,-34.668,13.672
1626640345.129,-18.555,-8.301,-26.367,79.102
1626640345.133,-41.992,-15.137,-45.898,-85.449
1626640345.137,-89.844,-136.719,-72.754,-201.660
1626640345.136,-53.223,-112.793,-50.293,-40.039
1626640345.140,-9.277,-1.465,-24.902,105.469
1626640345.144,-21.484,-0.977,-26.367,-12.695
1626640345.148,-24.902,-6.348,-17.090,-142.578
1626640345.152,-24.902,-25.391,-12.695,-60.059
1626640345.156,-9.766,-17.090,-11.719,99.121
1626640345.160,-9.766,-20.996,-20.996,40.039
1626640345.163,-31.738,-50.293,-26.367,-134.766
1626640345.167,-25.879,-22.461,-24.414,-100.098
1626640345.171,-27.832,-96.680,-37.598,44.922
1626640345.175,-61.523,-253.418,-75.195,12.695
1626640345.179,-67.871,-157.227,-75.195,-143.066
1626640345.182,-36.133,13.672,-34.668,-144.043
1626640345.186,-10.254,29.785,-18.066,34.668
1626640345.190,-14.160,-0.488,-26.855,94.238
1626640345.194,-33.203,2.930,-24.414,-63.965
1626640345.198,-39.551,2.930,-16.113,-156.250
1626640345.202,-34.668,-20.996,-25.391,-29.785
1626640345.206,-13.672,-12.207,-25.391,96.191
1626640345.209,-16.113,-32.227,-23.438,-1.953
1626640345.213,-42.480,-42.480,-37.109,-158.203
1626640345.217,-27.832,4.395,-30.273,-81.543
1626640345.221,2.441,15.625,-4.883,101.562
1626640345.225,-8.789,10.254,-3.906,58.105
1626640345.239,-30.273,-35.156,-15.625,-114.746
1626640345.243,-38.574,-56.152,-27.344,-109.863
1626640345.247,-28.320,-4.883,-42.969,50.293
1626640345.251,-7.812,3.906,-38.086,76.172
1626640345.255,-27.344,2.441,-44.922,-91.797
1626640345.259,-49.805,-9.766,-46.875,-150.879
1626640345.263,-33.203,-82.031,-39.062,0.488
1626640345.266,-25.879,-60.059,-44.434,74.707
1626640345.270,-27.344,-8.789,-34.668,-46.875
1626640345.274,-20.996,5.859,-16.602,-138.672
1626640345.278,-19.531,-9.766,-23.926,-40.527
1626640345.282,-16.113,-58.594,-38.574,87.891
1626640345.280,-9.277,-12.207,-41.016,16.602
1626640345.284,-33.203,-1.465,-25.391,-140.137
1626640345.288,-42.969,-5.371,-18.555,-101.074
1626640345.292,-15.625,-10.742,-22.461,76.172
1626640345.296,-10.254,-63.477,-23.926,64.453
1626640345.300,-42.480,-31.738,-29.785,-115.234
1626640345.304,-45.898,-9.277,-26.367,-119.629
1626640345.307,-15.137,-28.320,-13.672,61.523
1626640345.311,-7.324,-30.762,-13.672,104.980
1626640345.315,-39.062,-115.234,-28.320,-72.266
1626640345.319,-59.082,-110.840,-43.457,-156.738
1626640345.323,-34.180,-17.090,-40.039,-0.977
1626640345.319,-5.859,-0.977,-25.879,111.328
1626640345.323,-8.789,5.859,-23.438,-5.371
1626640345.327,-37.598,-8.789,-36.621,-144.531
1626640345.331,-39.062,-26.855,-36.133,-67.871
1626640345.335,-22.949,-26.367,-27.832,77.148
1626640345.339,-38.086,-28.809,-33.691,9.277
1626640345.343,-64.453,-34.668,-35.156,-153.809
1626640345.346,-45.410,-72.754,-22.949,-104.004
1626640345.350,-10.742,-147.949,-10.254,86.426
1626640345.354,-22.949,-77.148,-24.902,66.406
1626640345.358,-54.688,-3.418,-43.457,-126.953
1626640345.362,-46.387,2.930,-38.574,-137.207
1626640345.394,-26.855,8.789,-28.809,39.551
1626640345.398,-19.531,-4.883,-31.250,95.703
1626640345.402,-21.973,-3.418,-24.414,-43.945
1626640345.406,-49.316,-5.371,-27.832,-146.484
1626640345.410,-40.527,-0.488,-27.344,-19.531
1626640345.414,-26.855,-48.828,-25.879,100.098
1626640345.418,-48.828,-100.586,-36.133,-24.414
1626640345.421,-68.848,-36.621,-31.738,-175.293
1626640345.425,-51.270,-9.766,-34.668,-87.402
1626640345.429,-25.391,-11.719,-40.039,77.637
1626640345.433,-23.438,-7.812,-27.832,33.203
1626640345.437,-31.738,-13.672,-8.789,-125.000
1626640345.436,-46.387,-17.090,-14.160,-118.164
1626640345.440,-33.691,-19.043,-26.367,47.852
1626640345.444,-36.621,-21.973,-45.410,58.105
1626640345.448,-57.617,-37.598,-46.387,-114.258
1626640345.452,-52.246,-59.082,-24.902,-153.809
1626640345.456,-35.645,-27.344,-16.602,10.254
1626640345.460,-22.949,-17.578,-20.508,91.309
1626640345.463,-24.902,-20.508,-22.461,-43.945
1626640345.467,-40.039,-43.945,-31.250,-150.879
1626640345.471,-29.785,-83.008,-25.391,-31.738
1626640345.475,-8.301,-27.832,-10.742,102.051
1626640345.479,-21.484,-0.977,-20.508,8.301
1626640345.477,-41.016,-11.230,-32.715,-139.160
1626640345.481,-26.855,-27.832,-22.461,-71.289
1626640345.485,-16.602,-81.543,-29.785,79.590
1626640345.489,-23.926,-49.805,-48.828,42.480
1626640345.493,-38.086,-36.133,-52.734,-125.488
1626640345.497,-41.992,-46.875,-41.016,-127.930
1626640345.501,-23.926,-0.977,-21.484,43.457
1626640345.504,-20.996,-54.688,-14.160,83.496
1626640345.508,-52.734,-164.551,-34.180,-92.773
1626640345.512,-65.918,-105.469,-34.668,-166.016
1626640345.516,-46.387,-1.953,-12.695,-5.859
1626640345.520,-43.457,-2.930,-19.531,74.219
1626640345.525,-32.715,-17.090,-21.484,-40.527
1626640345.529,-38.086,-12.695,-19.043,-148.438
1626640345.533,-62.500,-25.879,-36.133,-73.242
1626640345.537,-46.387,-32.715,-38.574,61.523
1626640345.541,-38.574,-18.555,-32.227,-4.395
1626640345.545,-46.875,-29.297,-28.320,-150.391
1626640345.549,-48.340,-41.504,-31.738,-109.863
1626640345.552,-27.344,-20.996,-30.273,62.988
1626640345.556,-23.438,-20.996,-32.715,52.734
1626640345.560,-48.340,-27.344,-30.273,-123.047
1626640345.564,-45.410,-33.203,-38.086,-134.277
1626640345.568,-61.523,-125.488,-71.777,5.859
1626640345.554,-49.805,-102.051,-51.270,58.105
1626640345.558,-30.273,-13.672,-11.719,-73.242
1626640345.562,-54.199,-4.395,-23.438,-163.574
1626640345.566,-25.879,-1.465,-22.949,-11.230
1626640345.570,5.371,6.836,-17.090,114.746
1626640345.574,-25.879,2.441,-36.133,-16.113
1626640345.578,-57.129,-28.320,-33.691,-159.180
1626640345.581,-38.086,-13.184,-20.508,-55.664
1626640345.585,-7.812,-18.066,-26.367,104.004
1626640345.589,-5.371,-99.121,-28.809,48.828
1626640345.593,-32.227,-40.039,-25.391,-117.676
1626640345.597,-28.320,4.395,-12.695,-91.309
1626640345.594,15.137,0.000,-11.719,92.285
1626640345.598,18.555,19.531,-30.273,93.750
1626640345.602,-32.715,-3.906,-34.668,-110.840
1626640345.606,-52.246,-19.043,-27.344,-166.992
1626640345.610,-42.969,-18.066,-44.434,-8.301
1626640345.614,-23.438,0.488,-41.504,78.125
1626640345.618,-32.227,-8.301,-33.203,-62.012
1626640345.621,-70.312,-91.797,-51.758,-186.523
1626640345.625,-40.527,-67.383,-39.551,-35.645
1626640345.629,0.488,-15.137,-31.250,110.840
1626640345.633,-13.672,-30.762,-41.016,-8.301
1626640345.637,-27.832,-16.113,-30.273,-152.832
1626640345.662,-22.949,-10.742,-27.344,-72.754
1626640345.666,-17.578,-13.672,-35.156,81.543
1626640345.670,-19.531,-16.602,-41.016,40.039
1626640345.674,-23.926,-7.324,-26.367,-114.746
1626640345.678,-28.320,-20.020,-17.578,-108.887
1626640345.682,-10.254,-43.945,-19.043,70.801
1626640345.686,1.465,-23.926,-12.695,108.398
1626640345.689,-23.926,-35.156,-20.996,-73.242
1626640345.693,-42.969,-49.805,-36.621,-146.484
1626640345.697,-34.668,-35.156,-33.691,2.441
1626640345.701,-20.020,-25.879,-15.625,94.238
1626640345.705,-34.180,-15.625,-16.602,-44.434
1626640345.698,-56.641,-17.090,-26.367,-169.922
1626640345.702,-38.574,-20.508,-21.484,-50.293
1626640345.706,-14.648,-14.648,-21.973,97.168
1626640345.710,-0.977,-37.109,-18.555,21.484
1626640345.714,-10.254,-53.711,-13.672,-120.605
1626640345.718,-33.691,-21.973,-31.738,-79.590
1626640345.722,-38.574,-27.344,-55.176,63.477
1626640345.725,-30.762,-33.691,-41.992,48.828
1626640345.729,-53.223,-45.410,-44.434,-127.930
1626640345.733,-109.863,-130.859,-83.984,-187.500
1626640345.737,-56.641,-72.266,-61.035,19.043
1626640345.741,-15.625,2.441,-48.828,81.543
1626640345.754,-46.875,-14.648,-48.340,-96.680
1626640345.758,-69.824,-37.109,-38.086,-176.270
1626640345.762,-53.711,-55.176,-41.504,-40.527
1626640345.766,-6.348,-23.926,-24.414,94.238
1626640345.770,-1.953,-21.484,-22.461,-2.930
1626640345.774,-15.137,-11.719,-18.066,-125.977
1626640345.778,-35.645,-50.293,-30.273,-57.129
1626640345.781,-64.453,-136.719,-71.289,45.898
1626640345.785,-44.434,-42.969,-46.387,-1.953
1626640345.789,-36.133,15.137,-20.996,-141.113
1626640345.793,-40.527,-8.301,-33.691,-110.352
1626640345.797,-24.902,-7.812,-41.992,52.734
1626640345.794,-32.227,-24.902,-48.340,31.250
1626640345.798,-41.016,-25.879,-44.434,-128.906
1626640345.802,-27.832,-10.254,-42.480,-136.719
1626640345.806,-2.441,2.441,-41.504,46.387
1626640345.810,-7.324,-25.391,-36.133,100.098
1626640345.814,-51.270,-88.379,-42.480,-86.914
1626640345.818,-56.641,-53.711,-20.996,-177.734
1626640345.821,-32.227,-7.324,-7.812,-28.320
1626640345.825,-18.555,-10.742,-24.414,90.820
1626640345.829,-26.855,7.324,-26.855,-20.996
1626640345.833,-84.961,-129.395,-64.453,-204.590
1626640345.837,-99.609,-222.656,-95.703,-137.695
1626640345.837,-20.508,-49.805,-52.246,81.543
1626640345.841,5.371,20.508,-17.578,57.617
1626640345.845,-2.930,0.000,7.324,-99.121
1626640345.849,-26.367,-35.156,-5.859,-101.562
1626640345.853,-34.668,-30.762,-31.250,48.340
1626640345.857,-28.320,-2.441,-35.156,62.988
1626640345.861,-57.129,-5.859,-39.551,-114.258
1626640345.864,-63.477,1.465,-45.410,-152.832
1626640345.868,-47.363,-56.152,-65.918,7.324
1626640345.872,-59.570,-126.465,-83.496,50.293
1626640345.876,-44.434,-26.855,-39.062,-70.801
1626640345.880,-45.410,16.602,-18.066,-164.551
1626640345.926,-33.203,6.348,-12.695,-39.062
1626640345.930,-17.578,4.883,-16.113,90.820
1626640345.934,-16.602,9.277,-8.789,-1.465
1626640345.938,-25.391,10.254,-13.184,-145.020
1626640345.942,-25.879,-6.348,-22.461,-86.426
1626640345.946,-5.371,-11.230,-14.160,87.402
1626640345.950,-25.391,-26.855,-39.551,36.621
1626640345.953,-91.797,-89.844,-84.961,-186.523
1626640345.957,-73.242,-41.504,-62.500,-164.062
1626640345.961,-12.207,1.465,-29.297,47.852
1626640345.965,-0.977,0.488,-21.973,82.520
1626640345.969,-38.086,-16.602,-24.902,-92.773
1626640345.941,-61.035,-54.199,-33.203,-165.039
1626640345.945,-23.438,-5.371,-18.066,9.766
1626640345.949,-7.324,12.695,-15.625,109.375
1626640345.953,-25.391,-8.789,-12.207,-32.227
1626640345.957,-41.016,-22.461,-15.137,-161.621
1626640345.961,-41.504,-42.480,-42.480,-61.523
1626640345.965,-31.250,-29.785,-49.805,80.078
1626640345.968,-35.156,-19.043,-41.504,-11.230
1626640345.972,-30.273,-8.789,-19.531,-148.438
1626640345.976,-20.996,-11.719,-12.207,-81.543
1626640345.980,-57.129,-89.355,-61.523,32.227
1626640345.984,-78.125,-131.348,-79.590,-13.672
1626640345.998,-50.781,-43.457,-49.805,-132.812
1626640346.002,-33.691,16.602,-36.133,-119.629
1626640346.006,-21.973,12.695,-27.832,45.410
1626640346.010,-44.434,-66.895,-50.781,63.477
1626640346.014,-35.645,-47.852,-30.762,-82.031
1626640346.018,-23.438,1.953,-10.254,-139.160
1626640346.022,-20.508,-14.648,-20.020,-9.766
1626640346.025,0.977,0.000,-15.137,104.980
1626640346.029,-56.641,-93.750,-71.777,-56.641
1626640346.033,-119.629,-203.613,-122.559,-238.281
1626640346.037,-53.711,-71.289,-56.152,-86.426
1626640346.041,1.465,9.766,-8.301,107.910
1626640346.034,-10.742,-14.160,-12.695,38.574
1626640346.038,-33.203,-21.484,-10.254,-130.371
1626640346.042,-15.137,-11.230,1.953,-86.426
1626640346.046,-0.977,-17.578,-14.648,81.055
1626640346.050,-3.418,-18.555,-14.160,82.520
1626640346.054,-20.996,0.000,-14.648,-83.984
1626640346.058,-28.320,-7.324,-20.996,-114.746
1626640346.061,-3.906,-18.066,-12.207,49.805
1626640346.065,-1.953,-8.301,-24.414,105.469
1626640346.069,-18.555,-7.812,-36.133,-47.363
1626640346.073,-36.621,-13.184,-32.715,-141.602
1626640346.077,-29.785,-26.367,-26.855,-14.160
1626640346.099,-14.648,-48.340,-27.344,96.191
1626640346.103,-17.578,-28.809,-30.762,-8.301
1626640346.107,-31.738,-10.742,-22.949,-150.391
1626640346.111,-29.785,-6.836,-18.066,-81.055
1626640346.115,-1.953,0.977,-16.113,87.891
1626640346.119,6.836,0.000,-20.508,57.617
1626640346.123,-22.461,-11.230,-31.738,-117.676
1626640346.126,-38.574,-31.250,-31.250,-125.977
1626640346.130,-17.578,-27.344,-24.414,49.316
1626640346.134,-7.812,-20.996,-26.367,79.590
1626640346.138,-54.199,-136.230,-50.293,-118.652
1626640346.142,-71.777,-171.387,-50.781,-179.199
1626640346.139,-30.273,-56.152,-28.809,8.789
1626640346.143,-26.855,-29.785,-29.785,89.355
1626640346.147,-44.922,-26.367,-33.203,-53.711
1626640346.151,-22.461,4.883,-16.602,-133.301
1626640346.155,-5.859,-11.719,-7.812,-13.672
1626640346.159,-16.602,-30.273,-22.949,96.680
1626640346.163,-35.156,-18.555,-41.016,-3.906
1626640346.166,-52.734,-23.926,-39.062,-163.574
1626640346.170,-46.875,-58.105,-39.062,-100.586
1626640346.174,-30.273,-38.574,-44.922,76.660
1626640346.178,-39.062,-21.973,-40.039,47.852
1626640346.182,-55.664,-21.484,-27.344,-115.234
1626640346.174,-45.898,-34.180,-14.160,-110.840
1626640346.178,-32.715,-87.891,-26.367,47.852
1626640346.182,-19.043,-36.621,-31.250,85.449
1626640346.186,-41.504,-7.324,-29.785,-80.566
1626640346.190,-55.664,-32.227,-30.762,-151.855
1626640346.194,-25.391,-18.555,-19.531,5.859
1626640346.198,-25.879,-61.035,-27.344,95.215
1626640346.201,-46.387,-66.406,-38.574,-44.922
1626640346.205,-50.781,-15.137,-24.902,-158.203
1626640346.209,-41.504,-20.020,-23.438,-50.293
1626640346.213,-7.324,-2.930,-26.367,114.746
1626640346.217,1.953,-10.254,-13.184,54.199
1626640346.266,-49.805,-129.395,-30.273,-138.672
1626640346.270,-94.727,-189.941,-66.406,-147.461
1626640346.274,-55.176,-72.754,-49.805,39.062
1626640346.278,-14.160,-7.324,-22.461,71.289
1626640346.282,-17.578,-24.414,-18.555,-88.867
1626640346.286,-22.461,-24.414,-12.207,-116.211
1626640346.290,-15.625,-25.879,-16.602,44.922
1626640346.293,-4.883,2.441,-17.578,105.957
1626640346.297,-13.184,25.391,-10.254,-44.922
1626640346.301,-50.293,-18.555,-27.344,-156.738
1626640346.305,-48.828,-87.402,-40.039,-34.180
1626640346.309,-22.949,-25.391,-25.391,94.238
1626640346.268,-31.738,7.324,-26.367,-9.277
1626640346.272,-45.410,-9.766,-21.973,-142.090
1626640346.276,-27.344,-12.207,-9.766,-52.734
1626640346.280,-6.836,-58.105,-31.738,102.539
1626640346.284,-19.531,-49.805,-46.875,38.574
1626640346.288,-39.062,-8.789,-29.297,-132.324
1626640346.292,-27.344,6.348,-5.371,-104.492
1626640346.295,-17.090,-11.230,-5.371,62.500
1626640346.299,-31.250,-51.270,-28.320,66.895
1626640346.303,-37.598,-36.133,-33.691,-102.051
1626640346.307,-24.902,-11.230,-23.926,-135.254
1626640346.311,-2.441,0.000,-17.090,37.598
1626640346.316,-9.277,-8.789,-27.832,98.633
1626640346.320,-34.180,-35.156,-46.875,-55.664
1626640346.324,-43.945,-30.273,-41.504,-154.785
1626640346.328,-28.320,-28.809,-32.227,-28.809
1626640346.332,-11.719,-28.809,-34.668,101.074
1626640346.336,-19.531,-12.207,-35.156,13.184
1626640346.340,-72.754,-111.328,-60.059,-165.039
1626640346.343,-86.426,-222.168,-88.379,-132.812
1626640346.347,-34.668,-147.461,-55.176,59.570
1626640346.351,3.418,-12.695,-14.160,62.500
1626640346.355,-13.672,8.301,-18.555,-107.910
1626640346.359,-36.133,-19.043,-26.855,-120.605
1626640346.382,-21.484,-3.906,-12.695,55.664
1626640346.386,-5.859,6.348,-6.348,101.562
1626640346.390,-31.250,-6.348,-20.996,-73.730
1626640346.394,-58.105,-15.137,-19.043,-158.691
1626640346.398,-32.227,-19.043,-18.066,-3.418
1626640346.402,-12.207,-24.902,-41.992,96.680
1626640346.406,-35.156,-29.297,-49.805,-35.645
1626640346.409,-44.434,-30.762,-37.598,-150.391
1626640346.413,-21.973,-8.301,-22.949,-24.902
1626640346.417,-6.836,-14.648,-14.160,115.234
1626640346.421,-26.855,-36.621,-15.625,9.766
1626640346.425,-52.246,-14.648,-13.184,-157.227
1626640346.394,-51.270,-7.812,-11.230,-108.887
1626640346.398,-21.973,-3.906,-12.207,64.941
1626640346.402,-15.137,-24.414,-18.555,55.176
1626640346.406,-35.645,-54.688,-21.973,-113.281
1626640346.410,-34.180,-26.367,-26.855,-130.371
1626640346.414,-15.625,-8.789,-31.738,34.668
1626640346.418,-9.277,-15.137,-30.762,87.402
1626640346.421,-27.344,-20.508,-40.527,-66.895
1626640346.425,-34.668,-27.832,-29.785,-144.531
1626640346.429,-22.949,-14.648,-15.137,-7.324
1626640346.433,-13.672,-26.367,-31.250,97.656
1626640346.437,-6.348,-30.762,-14.160,1.953
1626640346.480,-28.809,-14.648,-5.859,-140.137
1626640346.484,-89.844,-175.781,-63.965,-120.117
1626640346.488,-96.191,-285.156,-96.191,2.441
1626640346.492,-49.805,-122.559,-54.199,-6.348
1626640346.496,-39.551,-9.277,-24.414,-141.602
1626640346.500,-38.086,-7.324,-25.879,-110.352
1626640346.504,-26.855,-68.848,-28.320,59.082
1626640346.507,-20.508,-43.945,-33.691,57.129
1626640346.511,-37.598,1.953,-33.203,-108.887
1626640346.515,-41.504,2.441,-18.066,-136.230
1626640346.519,-17.578,7.812,-10.742,30.273
1626640346.523,-22.949,-64.941,-29.785,85.449
1626640346.500,-22.461,-44.922,-33.691,-50.781
1626640346.504,-17.090,24.902,-20.996,-129.395
1626640346.508,-21.973,1.953,-17.090,-16.113
1626640346.512,-20.020,-18.555,-23.926,94.238
1626640346.516,-38.086,-32.715,-40.527,-20.508
1626640346.520,-62.012,-21.973,-42.969,-172.363
1626640346.524,-49.316,0.488,-28.809,-94.727
1626640346.527,-27.344,-3.906,-26.855,70.312
1626640346.531,-16.113,-1.465,-13.184,40.039
1626640346.535,-39.062,-48.828,-15.137,-137.695
1626640346.539,-48.340,-48.340,-22.949,-131.348
1626640346.543,-20.508,-6.348,-24.414,51.758
1626640346.538,-10.742,-31.738,-43.457,78.125
1626640346.542,-18.555,-12.695,-30.762,-80.078
1626640346.546,-43.945,-25.391,-13.184,-145.020
1626640346.550,-32.715,-61.523,-7.812,14.160
1626640346.554,-7.324,-12.695,-4.883,114.746
1626640346.558,-20.996,-6.836,-15.137,-30.762
1626640346.562,-55.664,-3.906,-29.297,-161.621
1626640346.565,-59.570,-17.578,-40.527,-56.152
1626640346.569,-40.527,-153.320,-50.781,79.590
1626640346.573,-26.367,-134.277,-35.156,8.789
1626640346.577,-34.180,-20.996,-18.066,-134.766
1626640346.581,-40.527,-6.348,-21.484,-90.820
1626640346.594,-18.555,8.301,-23.926,79.590
1626640346.598,-12.207,9.277,-34.668,58.594
1626640346.602,-28.809,-4.395,-32.715,-115.234
1626640346.606,-34.180,-12.207,-17.090,-121.582
1626640346.610,-6.348,9.766,-9.766,55.176
1626640346.614,-7.812,4.883,-25.879,83.496
1626640346.618,-51.758,-60.547,-42.969,-100.586
1626640346.621,-51.270,-35.156,-32.715,-160.645
1626640346.625,-28.809,-3.906,-35.156,-9.766
1626640346.629,-2.441,-3.418,-19.531,107.422
1626640346.633,-1.465,-2.930,-12.695,-4.395
1626640346.637,-58.105,-42.969,-53.223,-170.410
1626640346.640,-57.617,-44.434,-47.852,-83.008
1626640346.644,-12.695,-25.879,-20.020,85.449
1626640346.648,-6.348,-9.277,-21.484,26.855
1626640346.652,-24.414,-3.418,-21.484,-134.277
1626640346.656,-23.438,-10.254,-14.648,-94.238
1626640346.660,-6.348,-0.488,-17.578,73.242
1626640346.664,-11.230,-7.812,-29.297,57.617
1626640346.667,-28.320,-26.367,-32.715,-112.305
1626640346.671,-30.762,-6.836,-22.461,-131.348
1626640346.675,-36.621,-67.871,-38.086,18.555
1626640346.679,-59.082,-184.570,-76.172,46.387
1626640346.683,-52.246,-94.727,-58.105,-88.867
1626640346.694,-37.109,-14.160,-26.855,-156.250
1626640346.698,-16.113,-12.695,-23.438,-11.719
1626640346.702,5.371,0.488,-22.461,109.863
1626640346.706,-5.859,6.348,-18.555,0.488
1626640346.710,-30.273,6.348,-16.602,-145.020
1626640346.714,-41.016,-10.254,-20.996,-72.266
1626640346.718,-20.508,7.812,-24.414,97.168
1626640346.721,-11.230,-4.883,-27.344,53.711
1626640346.725,-40.039,-43.945,-26.367,-125.000
1626640346.729,-33.203,-8.789,-10.742,-98.633
1626640346.733,-17.090,0.977,-11.230,70.801
1626640346.737,-31.738,-15.137,-31.250,70.801
1626640346.725,-54.688,-26.367,-51.758,-106.934
1626640346.729,-63.965,-23.926,-61.523,-158.203
1626640346.733,-28.320,-20.508,-41.016,14.160
1626640346.737,-9.766,-23.926,-25.391,92.285
1626640346.741,-27.344,-11.230,-26.367,-54.199
1626640346.745,-44.434,-16.602,-26.367,-165.527
1626640346.749,-38.574,-42.480,-25.391,-48.828
1626640346.752,-15.137,-18.066,-17.578,91.797
1626640346.756,-24.902,-3.906,-19.531,-4.395
1626640346.760,-45.898,-5.371,-20.020,-157.715
1626640346.764,-49.316,-23.438,-30.762,-99.121
1626640346.768,-54.199,-101.074,-62.988,45.410
1626640346.788,-23.438,-55.176,-38.574,44.922
1626640346.792,-15.625,-3.418,-15.625,-100.098
1626640346.796,-44.922,-22.461,-36.133,-125.488
1626640346.800,-23.438,-16.602,-27.832,47.363
1626640346.804,-11.230,-82.031,-22.461,86.426
1626640346.808,-52.734,-103.027,-39.551,-97.168
1626640346.812,-55.664,-14.160,-29.297,-154.785
1626640346.815,-34.180,3.906,-14.160,4.395
1626640346.819,-22.461,-3.418,-18.066,95.215
1626640346.823,-48.340,-78.613,-36.133,-50.781
1626640346.827,-69.824,-87.402,-45.898,-171.387
1626640346.831,-46.875,-20.996,-40.039,-50.293
1626640346.834,-24.414,-24.902,-23.438,94.727
1626640346.838,-20.508,-33.691,-19.043,24.902
1626640346.842,-51.758,-41.992,-37.598,-144.043
1626640346.846,-53.711,-20.996,-24.414,-100.586
1626640346.850,-2.441,5.371,1.953,87.402
1626640346.854,-12.207,-14.648,-13.672,61.035
1626640346.858,-46.387,-13.184,-31.738,-125.488
1626640346.861,-85.449,-76.172,-63.965,-182.617
1626640346.865,-91.309,-169.434,-92.285,-42.480
1626640346.869,-27.344,-70.312,-42.969,64.941
1626640346.873,-26.855,-7.324,-17.090,-64.453
1626640346.877,-42.480,-24.414,-21.484,-149.902
1626640346.883,-24.414,-11.719,-20.996,-5.371
1626640346.887,-11.230,-1.465,-27.832,97.168
1626640346.891,-27.344,-12.207,-38.086,-28.809
1626640346.895,-39.062,-27.832,-30.273,-152.344
1626640346.899,-6.348,-16.113,-7.812,-38.086
1626640346.903,14.648,-7.324,-7.812,115.723
1626640346.907,-11.230,-26.367,-30.762,25.391
1626640346.910,-38.574,-17.090,-30.273,-144.043
1626640346.914,-34.180,-9.277,-20.508,-99.609
1626640346.918,1.465,-8.301,-11.230,79.102
1626640346.922,3.906,-16.602,-16.602,81.543
1626640346.926,-44.922,-96.680,-52.734,-113.281
1626640346.916,-46.387,-66.895,-43.945,-141.602
1626640346.920,-21.484,-8.789,-31.250,34.180
1626640346.924,-16.113,-17.090,-28.809,95.703
1626640346.928,-32.227,-13.184,-25.879,-56.152
1626640346.932,-44.434,-17.090,-26.855,-154.297
1626640346.936,-23.926,-12.695,-15.137,-22.461
1626640346.940,-9.766,-19.043,-14.648,98.145
1626640346.943,-13.184,-15.625,-16.602,7.324
1626640346.947,-33.203,-13.184,-27.344,-142.578
1626640346.951,-100.098,-167.480,-85.449,-141.602
1626640346.955,-85.938,-164.551,-80.078,19.043
1626640346.959,-17.578,-10.254,-20.020,42.969
1626640346.961,-38.086,3.418,-30.762,-127.441
1626640346.965,-71.289,-28.809,-60.059,-134.277
1626640346.969,-72.754,-89.355,-75.195,20.996
1626640346.973,-25.879,-25.879,-25.879,76.172
1626640346.977,-23.926,10.742,-3.418,-76.172
1626640346.981,-45.898,-10.742,-21.484,-147.461
1626640346.985,-24.414,-1.465,-25.391,12.207
1626640346.988,-41.504,-66.895,-59.082,66.895
1626640346.992,-55.664,-54.199,-53.711,-67.871
1626640346.996,-52.734,-14.648,-39.062,-164.551
1626640347.000,-32.715,0.488,-37.598,-44.922
1626640347.004,1.465,25.391,-19.043,112.793
1626640347.020,-38.574,-45.898,-43.457,-7.324
1626640347.024,-71.289,-54.688,-45.410,-175.781
1626640347.028,-42.969,-5.371,-25.879,-95.703
1626640347.032,-27.832,-25.391,-32.227,72.266
1626640347.036,-19.043,-13.184,-28.809,55.176
1626640347.040,-71.289,-82.520,-67.383,-162.598
1626640347.044,-173.828,-294.434,-141.602,-270.508
1626640347.047,-79.590,-127.930,-62.500,-18.066
1626640347.051,3.906,39.062,-2.930,101.074
1626640347.055,-29.785,8.301,-19.531,-79.102
1626640347.059,-55.176,-11.230,-34.668,-165.039
1626640347.063,-25.879,-4.395,-25.391,-1.465
1626640347.054,11.719,21.484,4.883,127.441
1626640347.058,-20.996,-14.648,-7.812,-16.602
1626640347.062,-39.551,-13.184,-19.531,-152.832
1626640347.066,-33.203,-25.391,-36.621,-66.895
1626640347.070,-42.969,-73.242,-56.152,57.129
1626640347.074,-10.742,-6.348,-16.113,25.879
1626640347.078,-28.320,21.973,-12.695,-132.812
1626640347.081,-33.203,11.719,-20.508,-104.492
1626640347.085,-14.160,-9.766,-24.414,70.312
1626640347.089,-53.711,-116.699,-59.082,22.949
1626640347.093,-45.898,-74.707,-36.133,-123.535
1626640347.097,-35.645,4.395,-17.578,-121.094
1626640347.122,-21.484,3.418,-20.996,43.457
1626640347.126,-15.625,-14.160,-17.578,99.121
1626640347.130,-55.176,-41.016,-25.879,-77.637
1626640347.134,-60.547,-21.484,-18.555,-163.574
1626640347.138,-31.250,7.812,-9.277,-11.230
1626640347.142,-15.625,4.883,-24.902,99.121
1626640347.146,-26.367,5.859,-32.715,-14.648
1626640347.149,-75.684,-108.887,-57.617,-182.617
1626640347.153,-90.332,-182.617,-77.148,-116.211
1626640347.157,-25.391,-41.992,-33.691,93.750
1626640347.161,-14.648,21.973,-14.160,61.035
1626640347.165,-56.152,-2.930,-27.832,-129.395
1626640347.155,-84.961,-93.262,-58.105,-140.137
1626640347.159,-33.691,-51.758,-28.809,61.035
1626640347.163,9.766,5.371,6.836,102.539
1626640347.167,-14.648,-35.156,-3.906,-81.543
1626640347.171,-32.715,-24.414,-14.160,-133.789
1626640347.175,-44.922,-41.016,-52.734,2.930
1626640347.179,-25.391,-18.555,-44.434,84.961
1626640347.182,-20.996,0.488,-9.766,-37.598
1626640347.186,-47.363,-12.695,-8.789,-148.438
1626640347.190,-36.621,-1.465,-16.602,-31.250
1626640347.194,-27.344,-34.180,-32.227,94.238
1626640347.198,-39.551,-46.875,-51.758,-10.742
1626640347.209,-48.828,-18.066,-49.316,-157.227
1626640347.213,-41.504,-17.090,-21.973,-82.031
1626640347.217,0.488,-16.602,2.930,103.516
1626640347.221,-9.277,-45.898,-17.578,51.758
1626640347.225,-52.734,-56.152,-32.715,-150.391
1626640347.229,-38.574,-17.090,-23.438,-126.953
1626640347.233,8.301,4.883,-9.766,77.637
1626640347.236,13.184,9.277,-12.695,101.074
1626640347.240,-36.133,-22.949,-36.133,-92.773
1626640347.244,-68.359,-42.480,-46.875,-180.664
1626640347.248,-28.320,-5.371,-25.879,-3.418
1626640347.252,1.953,-3.418,-17.578,114.746
1626640347.255,-15.137,-20.508,-20.996,-25.391
1626640347.259,-35.645,-36.621,-21.484,-146.973
1626640347.263,-64.453,-149.902,-69.824,-80.078
1626640347.267,-26.367,-102.051,-56.641,77.148
1626640347.271,13.672,18.066,-1.465,53.223
1626640347.275,-22.949,12.207,-10.742,-122.070
1626640347.279,-26.367,-13.184,-18.066,-84.961
1626640347.282,-8.301,-103.516,-27.832,84.961
1626640347.286,-0.977,-52.246,-23.438,77.148
1626640347.290,-30.273,-1.465,-28.320,-109.863
1626640347.294,-53.223,-20.508,-38.086,-146.973
1626640347.298,-39.062,-20.020,-31.738,20.020
1626640347.294,-28.809,-15.625,-22.461,76.660
1626640347.298,-32.227,-6.348,-22.949,-68.848
1626640347.302,-38.086,-14.648,-24.902,-147.461
1626640347.306,-24.902,-8.789,-12.695,-3.418
1626640347.310,-9.277,-9.277,-10.742,108.887
1626640347.314,-14.160,-37.109,-12.695,0.000
1626640347.318,-34.668,-35.156,-19.531,-143.555
1626640347.321,-33.691,-20.996,-27.344,-59.570
1626640347.325,-5.859,-14.648,-21.484,100.098
1626640347.329,-21.973,-17.578,-28.809,26.367
1626640347.333,-31.738,-49.316,-18.555,-128.418
1626640347.337,-12.695,-64.941,-6.836,-80.078
1626640347.338,-22.461,-36.133,-35.645,66.895
1626640347.342,-22.949,-42.480,-35.645,57.129
1626640347.346,-23.438,-24.902,-12.695,-96.191
1626640347.350,-22.461,-18.066,-3.418,-121.094
1626640347.354,-14.648,-35.156,-13.184,27.832
1626640347.358,-6.836,-25.391,-25.879,98.633
1626640347.362,-17.090,-18.555,-31.738,-43.457
1626640347.365,-39.551,-28.809,-35.645,-154.297
1626640347.369,-34.180,-25.391,-31.250,-23.438
1626640347.373,-17.090,-23.926,-32.227,107.910
1626640347.377,-10.742,-27.344,-30.762,1.953
1626640347.381,-40.527,-36.133,-33.691,-155.273
1626640347.394,-52.734,-21.484,-36.621,-92.773
1626640347.398,-8.789,-25.391,-24.902,88.379
1626640347.402,19.531,-45.898,-1.953,81.543
1626640347.406,-20.508,-15.137,-14.648,-109.863
1626640347.410,-34.180,-11.719,-33.203,-114.746
1626640347.414,-30.273,-24.902,-51.270,50.781
1626640347.418,-6.348,-40.039,-27.344,86.914
1626640347.421,35.645,-68.359,19.531,-27.832
1626640347.425,-17.090,-40.527,-21.973,-112.793
1626640347.429,-34.180,-9.766,-37.109,8.789
1626640347.433,-6.836,4.395,-15.625,94.727
1626640347.437,-17.578,-9.766,-20.996,-45.410
1626640347.436,-14.160,-58.105,-8.301,-130.371
1626640347.440,-21.484,-38.574,-19.043,-24.414
1626640347.444,-23.926,-13.184,-36.133,92.773
1626640347.448,-18.555,-30.762,-36.621,8.301
1626640347.452,-40.527,-30.762,-41.992,-144.531
1626640347.456,-36.133,-15.625,-36.133,-83.984
1626640347.460,-11.230,-21.484,-28.809,80.078
1626640347.463,-1.953,-29.785,-25.391,65.918
1626640347.467,-38.574,-32.715,-47.852,-116.211
1626640347.471,-45.898,-32.715,-45.898,-133.301
1626640347.475,13.672,-40.039,2.930,78.613
1626640347.479,26.367,-25.391,9.766,131.836
1626640347.476,-20.996,-14.648,-22.949,-62.500
1626640347.480,-56.152,-29.297,-50.293,-155.762
1626640347.484,-42.480,-32.227,-49.316,-14.160
1626640347.488,0.488,-29.785,-14.160,113.281
1626640347.492,-20.508,-33.203,-23.926,-23.926
1626640347.496,-56.641,-27.344,-43.457,-172.363
1626640347.500,-29.785,-16.113,-27.344,-54.199
1626640347.503,-20.996,-20.996,-47.363,86.914
1626640347.507,12.695,-22.461,-29.785,50.293
1626640347.511,22.949,-28.320,-0.977,-86.914
1626640347.515,-31.250,-39.551,-30.273,-100.586
1626640347.519,-21.973,-21.973,-24.902,58.594
1626640347.535,-19.043,-11.719,-21.484,62.500
1626640347.539,-46.387,-32.227,-17.090,-108.887
1626640347.543,-43.945,-43.457,-10.254,-129.883
1626640347.547,-31.250,-12.207,-22.461,35.156
1626640347.551,-25.879,0.488,-29.297,93.750
1626640347.555,-56.641,-34.668,-45.898,-81.543
1626640347.559,-57.129,-46.387,-30.273,-168.945
1626640347.562,-9.766,-64.941,12.207,13.184
1626640347.566,-24.414,-63.477,-12.695,103.027
1626640347.570,-54.688,-44.434,-33.203,-37.598
1626640347.574,-72.754,-51.270,-33.203,-182.129
1626640347.578,-56.641,-33.203,-32.227,-87.402
1626640347.575,-11.230,-16.602,-20.996,101.562
1626640347.579,-34.668,-26.367,-49.805,26.855
1626640347.583,-81.055,-40.527,-64.453,-172.852
1626640347.587,-75.195,-37.598,-48.340,-145.020
1626640347.591,-49.805,-33.203,-48.828,36.621
1626640347.595,-33.691,-26.855,-48.340,60.547
1626640347.599,-45.898,-25.391,-41.504,-104.980
1626640347.602,-64.453,-39.062,-40.039,-158.691
1626640347.606,-50.781,-37.598,-36.621,2.930
1626640347.610,-27.832,-28.809,-33.203,85.938
1626640347.614,-32.715,-90.820,-30.762,-45.410
1626640347.618,-39.062,-90.332,-30.762,-141.113
1626640347.616,2.930,-16.602,-13.184,3.906
1626640347.620,9.766,-13.672,-18.066,123.047
1626640347.624,-44.434,-20.996,-46.875,-15.625
1626640347.628,-53.711,-12.695,-33.691,-152.344
1626640347.632,-41.504,-17.578,-29.297,-83.984
1626640347.636,-31.738,-29.785,-44.434,66.406
1626640347.640,-22.949,-22.949,-41.504,47.852
1626640347.643,-55.176,-25.391,-41.016,-134.766
1626640347.647,-71.289,-99.609,-50.781,-149.902
1626640347.651,-37.598,-92.773,-49.805,35.156
1626640347.655,-15.625,-20.020,-37.109,79.102
1626640347.659,-42.480,-22.949,-32.715,-82.520
1626640347.658,-57.617,-31.738,-32.227,-151.855
1626640347.662,-41.504,-44.922,-38.086,-6.348
1626640347.666,-21.484,-31.250,-38.574,94.238
1626640347.670,-9.766,-17.090,-25.879,-22.949
1626640347.674,-34.180,-41.016,-31.738,-151.855
1626640347.678,-23.438,-30.273,-28.809,-38.086
1626640347.682,13.672,-25.879,-9.766,125.977
1626640347.685,-11.230,-35.156,-25.879,23.926
1626640347.689,-49.805,-25.879,-44.922,-149.902
1626640347.693,-50.293,-22.949,-34.180,-97.168
1626640347.697,-23.926,-10.742,-32.227,75.195
1626640347.701,-19.043,-28.809,-47.852,56.152
1626640347.758,-36.621,-45.410,-41.992,-116.699
1626640347.762,-22.461,-17.578,-19.043,-120.117
1626640347.766,-10.254,-33.203,-15.625,39.551
1626640347.770,-18.066,-45.898,-26.367,72.266
1626640347.774,-22.949,-41.504,-20.508,-77.637
1626640347.778,-45.410,-111.816,-37.109,-164.062
1626640347.782,-42.480,-76.660,-51.758,-27.832
1626640347.785,-9.766,2.930,-31.738,94.727
1626640347.789,-15.137,5.859,-16.113,-15.137
1626640347.793,-48.828,-8.789,-19.043,-154.785
1626640347.797,-48.340,-38.574,-34.668,-72.266
1626640347.801,-20.996,-28.320,-37.109,87.402
1626640347.778,-20.020,-21.484,-38.574,25.391
1626640347.782,-31.738,-20.508,-39.062,-133.789
1626640347.786,-33.691,-29.785,-39.551,-96.191
1626640347.790,-12.695,-40.039,-37.109,69.824
1626640347.794,-6.348,-24.902,-24.902,70.801
1626640347.798,-35.645,-16.602,-34.180,-109.375
1626640347.802,-53.223,-11.719,-30.762,-153.320
1626640347.805,-35.156,-23.926,-17.578,14.160
1626640347.809,-16.113,-45.898,-27.832,94.238
1626640347.813,-12.207,-21.973,-18.066,-38.086
1626640347.817,-26.367,-8.301,-13.672,-136.719
1626640347.821,-45.410,-26.855,-33.691,-32.227
1626640347.828,-53.711,-49.805,-39.551,70.312
1626640347.832,-49.805,-67.383,-33.691,-21.973
1626640347.836,-64.453,-31.738,-38.086,-175.293
1626640347.840,-70.312,-16.113,-42.969,-112.305
1626640347.844,-45.410,-24.414,-37.109,56.641
1626640347.848,-40.527,-20.020,-33.203,18.066
1626640347.852,-30.273,-44.434,-15.137,-122.559
1626640347.855,-37.109,-41.992,-16.113,-119.141
1626640347.859,-28.320,-19.531,-20.996,42.969
1626640347.863,-21.484,-35.156,-39.551,64.453
1626640347.867,-46.875,-24.414,-62.988,-115.723
1626640347.871,-55.664,-36.621,-43.457,-164.551
1626640347.856,-45.898,-145.020,-24.902,-5.371
1626640347.860,-22.461,-116.211,-25.879,85.449
1626640347.864,-22.949,-20.996,-36.133,-40.527
1626640347.868,-50.781,-20.508,-41.016,-162.109
1626640347.872,-54.688,-26.367,-32.715,-51.270
1626640347.876,-23.926,-18.066,-24.902,100.586
1626640347.880,-22.461,-37.598,-32.715,10.254
1626640347.883,-49.316,-36.133,-33.691,-151.367
1626640347.887,-38.574,10.254,-19.531,-84.473
1626640347.891,-18.555,0.977,-15.625,81.055
1626640347.895,-49.316,-107.422,-43.457,16.113
1626640347.899,-76.660,-96.191,-56.152,-169.434
1626640347.898,-50.781,-0.488,-25.879,-139.648
1626640347.902,-32.715,2.441,-29.785,31.250
1626640347.906,-24.902,-18.066,-32.715,67.871
1626640347.910,-22.461,-13.184,-19.531,-72.266
1626640347.914,-31.250,-1.953,-23.438,-138.184
1626640347.918,-20.508,-0.977,-33.203,1.465
1626640347.922,-5.371,-4.883,-36.621,100.586
1626640347.925,-13.672,-22.949,-25.391,-16.602
1626640347.929,-31.738,-32.227,-21.484,-141.602
1626640347.933,-14.160,-11.230,-22.949,-29.785
1626640347.937,7.324,-12.695,-28.809,120.117
1626640347.941,-11.230,-18.555,-33.691,34.180
1626640347.960,-52.246,-28.320,-39.551,-148.926
1626640347.964,-29.785,-52.734,-19.531,-83.496
1626640347.968,-0.488,-21.484,-9.766,102.539
1626640347.972,-19.531,-12.207,-26.855,66.895
1626640347.976,-42.969,-24.414,-32.227,-104.492
1626640347.980,-40.039,-24.902,-25.391,-112.305
1626640347.984,-12.207,-80.078,-27.832,56.152
1626640347.987,-18.555,-57.129,-38.574,87.402
1626640347.991,-39.551,-8.789,-37.109,-70.312
1626640347.995,-29.297,-9.766,-32.227,-134.766
1626640347.999,-22.949,-21.973,-33.203,-7.324
1626640348.003,-30.762,-61.035,-36.621,81.055
1626640347.994,-34.668,-43.945,-40.039,-26.367
1626640347.998,-45.898,-7.812,-32.227,-157.715
1626640348.002,-41.992,-14.648,-22.949,-67.871
1626640348.006,-36.621,-39.551,-41.016,78.613
1626640348.010,-33.203,-44.434,-41.504,15.137
1626640348.014,-51.270,-31.738,-41.504,-154.297
1626640348.018,-56.152,-9.766,-39.062,-134.277
1626640348.021,-27.832,-4.883,-25.391,42.480
1626640348.025,-26.855,-11.230,-30.273,47.852
1626640348.029,-44.434,-34.180,-35.156,-119.141
1626640348.033,-54.199,-44.922,-34.180,-162.109
1626640348.037,-32.227,-19.043,-32.715,0.977
1626640348.035,-16.113,-26.367,-28.320,80.566
1626640348.039,-36.133,-28.320,-36.621,-68.848
1626640348.043,-50.293,-20.020,-37.598,-166.992
1626640348.047,-21.484,-22.461,-18.555,-26.367
1626640348.051,-5.371,-28.809,-11.230,100.098
1626640348.055,-36.621,-29.297,-30.762,-15.625
1626640348.059,-63.965,-6.836,-38.086,-175.293
1626640348.062,-64.941,-9.766,-33.691,-109.375
1626640348.066,-71.289,-125.977,-55.664,27.832
1626640348.070,-78.125,-142.578,-54.688,-16.113
1626640348.074,-81.543,-40.039,-29.297,-165.527
1626640348.078,-81.543,-6.836,-20.996,-158.203
1626640348.094,-70.801,-15.137,-26.855,3.418
1626640348.098,-85.449,-20.508,-30.273,13.184
1626640348.102,-129.883,-21.484,-30.762,-173.828
1626640348.106,-169.922,-34.180,-30.273,-263.184
1626640348.110,-172.852,-26.855,-20.020,-125.977
1626640348.114,-177.246,-41.016,-19.043,-39.551
1626640348.118,-219.727,-130.371,-46.387,-206.055
1626640348.121,-219.238,-89.844,-11.719,-308.105
1626640348.125,-209.961,-47.852,10.254,-188.965
1626640348.129,-205.078,-61.035,-7.812,-59.082
1626640348.133,-228.516,-78.125,-25.879,-160.156
1626640348.137,-276.367,-134.277,-49.316,-351.562
1626640348.137,-248.535,-90.820,-34.180,-273.926
1626640348.141,-202.148,-54.688,-17.090,-82.031
1626640348.145,-188.965,-58.105,-9.277,-91.797
1626640348.149,-212.402,-70.312,-25.879,-266.602
1626640348.153,-216.797,-65.918,-29.785,-281.738
1626640348.157,-166.992,-34.180,13.672,-83.984
1626640348.161,-153.809,-49.316,20.020,-27.832
1626640348.164,-170.410,-64.453,-10.742,-190.430
1626640348.168,-159.668,-52.246,-14.160,-251.953
1626640348.172,-148.438,-116.211,-40.527,-116.699
1626640348.176,-98.145,-89.355,-57.617,13.672
1626640348.180,-61.523,-27.344,-26.367,-59.570
1626640348.195,-79.102,-62.988,-13.672,-193.359
1626640348.199,-51.758,-23.926,1.465,-89.355
1626640348.203,-40.039,-61.523,-20.508,53.711
1626640348.207,-88.379,-256.836,-86.426,-50.781
1626640348.211,-58.594,-133.789,-60.059,-161.621
1626640348.215,-19.043,6.836,-17.578,-88.379
1626640348.219,-2.930,-14.160,-17.090,76.660
1626640348.222,-7.324,-43.945,-53.711,65.430
1626640348.226,-41.504,-81.055,-67.383,-115.234
1626640348.230,-27.344,-19.043,-23.438,-124.512
1626640348.234,-8.301,-3.906,-27.344,43.457
1626640348.238,12.207,-9.766,-30.273,119.629
1626640348.238,2.930,-16.113,-16.602,-29.297
1626640348.242,1.953,-18.555,-10.742,-116.699
1626640348.246,29.785,-2.441,-30.273,30.273
1626640348.250,42.969,-0.977,-37.109,142.578
1626640348.254,51.270,-7.324,-20.020,48.828
1626640348.258,29.297,-22.461,-29.297,-94.727
1626640348.262,20.508,-22.949,-55.664,-38.086
1626640348.265,54.199,6.348,-61.035,134.766
1626640348.269,71.289,10.742,-39.062,111.816
1626640348.273,45.898,-14.648,-34.668,-64.453
1626640348.277,33.691,-2.441,-28.320,-58.594
1626640348.281,39.062,-19.531,-30.273,98.633
1626640348.275,29.785,-31.738,-52.246,99.121
1626640348.279,14.160,-7.812,-52.734,-67.871
1626640348.283,7.812,-17.578,-41.504,-110.840
1626640348.287,40.527,-16.113,-24.414,64.941
1626640348.291,66.895,-10.742,-17.090,166.504
1626640348.295,54.688,-16.113,-20.508,32.715
1626640348.299,25.879,-12.207,-35.645,-83.496
1626640348.302,19.531,-8.301,-47.363,20.996
1626640348.306,39.062,-8.301,-42.969,153.809
1626640348.310,17.578,-50.781,-54.199,49.805
1626640348.314,6.348,-62.012,-39.062,-96.191
1626640348.318,15.625,-27.344,-39.551,-24.902
1626640348.354,19.531,-22.461,-71.777,122.070
1626640348.358,26.367,-13.672,-61.035,97.656
1626640348.362,11.719,-0.488,-42.480,-70.312
1626640348.366,15.625,6.836,-26.855,-72.266
1626640348.370,58.105,17.090,-8.301,129.883
1626640348.374,80.078,29.785,-4.883,186.523
1626640348.378,43.945,11.230,-28.320,0.000
1626640348.381,6.348,-29.297,-37.598,-101.074
1626640348.385,29.785,-41.504,-13.672,62.988
1626640348.389,40.039,-24.414,-25.391,163.086
1626640348.393,19.043,-24.414,-39.062,20.508
1626640348.397,15.625,-18.066,-20.996,-92.773
1626640348.375,8.301,-29.297,-18.066,1.953
1626640348.379,24.902,-31.250,-18.066,152.344
1626640348.383,32.227,-8.301,-24.414,89.844
1626640348.387,-1.953,-16.113,-29.297,-86.914
1626640348.391,-4.395,-17.090,-20.020,-44.434
1626640348.395,16.113,-11.230,-29.785,120.605
1626640348.399,26.367,-9.277,-28.320,111.816
1626640348.402,2.441,-7.812,-21.484,-63.965
1626640348.406,-13.184,-20.508,-26.367,-100.098
1626640348.410,-6.836,-28.809,-36.621,59.570
1626640348.414,-9.766,-27.344,-50.781,104.492
1626640348.418,-20.996,-37.109,-44.434,-51.758
1626640348.435,-13.672,-14.648,-12.207,-119.629
1626640348.439,0.488,-8.301,-8.301,13.672
1626640348.443,11.719,0.488,-15.625,130.859
1626640348.447,-5.859,3.418,-32.715,9.277
1626640348.451,-77.148,-37.598,-81.055,-191.406
1626640348.455,-58.594,-36.621,-63.965,-93.750
1626640348.459,-7.324,-27.344,-24.902,100.098
1626640348.462,-16.113,-26.367,-20.996,41.504
1626640348.466,-32.227,-17.090,-20.996,-123.047
1626640348.470,-83.496,-49.805,-68.848,-148.438
1626640348.474,-61.523,-55.176,-74.219,14.648
1626640348.478,-0.977,-20.508,-37.109,74.707
1626640348.494,-8.301,2.930,-17.090,-73.242
1626640348.498,-27.832,-6.348,-21.484,-125.000
1626640348.502,-37.109,-43.945,-58.594,2.441
1626640348.506,-0.977,-37.109,-42.480,86.426
1626640348.510,-1.953,-24.902,-28.320,-39.551
1626640348.514,-22.461,-19.531,-33.691,-137.695
1626640348.518,2.441,-7.324,-34.180,-18.555
1626640348.521,-5.859,-34.668,-48.340,83.984
1626640348.525,-14.648,-42.480,-39.062,-12.695
1626640348.529,-20.996,-32.227,-18.555,-145.020
1626640348.533,-32.227,-40.039,-21.484,-83.008
1626640348.537,1.953,-22.461,-17.090,88.379
1626640348.518,-26.855,-34.180,-56.641,16.602
1626640348.522,-63.965,-41.992,-73.242,-170.410
1626640348.526,-27.832,-12.207,-43.945,-121.582
1626640348.530,-11.719,-8.301,-53.223,55.176
1626640348.534,-14.160,-0.977,-46.387,82.520
1626640348.538,-45.898,-16.113,-39.062,-93.750
1626640348.542,-62.988,-41.016,-40.039,-165.527
1626640348.545,-18.555,-32.227,-21.973,7.812
1626640348.549,13.184,-4.395,-15.625,118.652
1626640348.553,-10.742,-2.930,-27.344,-28.320
1626640348.557,-50.293,-41.016,-45.898,-170.410
1626640348.561,-35.156,-49.805,-37.109,-54.688
1626640348.570,-0.977,-12.207,-12.695,103.027
1626640348.574,-7.324,-18.066,-13.672,24.902
1626640348.578,-20.508,-31.250,-9.277,-126.465
1626640348.582,-32.227,-27.832,-36.621,-94.238
1626640348.586,-73.730,-85.938,-98.145,12.207
1626640348.590,-48.340,-60.547,-72.754,9.766
1626640348.594,-15.137,-12.695,-32.715,-100.586
1626640348.597,-24.414,-21.484,-28.809,-118.164
1626640348.601,-2.930,-15.137,-20.020,45.898
1626640348.605,-40.527,-77.637,-64.941,50.293
1626640348.609,-38.574,-69.824,-46.387,-89.844
1626640348.613,-18.555,-17.578,-17.578,-135.742
1626640348.602,-25.391,-14.648,-24.902,-9.277
1626640348.606,-14.648,-10.742,-22.949,96.191
1626640348.610,-27.344,-21.973,-43.457,-29.785
1626640348.614,-32.227,-27.832,-41.016,-149.414
1626640348.618,-18.066,-24.902,-25.391,-43.945
1626640348.622,-12.207,-21.484,-14.648,97.168
1626640348.626,-25.391,-37.598,-18.066,19.043
1626640348.629,-91.797,-109.863,-61.523,-198.730
1626640348.633,-51.758,-80.566,-32.715,-128.418
1626640348.637,20.508,-13.672,4.883,103.027
1626640348.641,3.906,-17.578,-13.184,83.496
1626640348.645,-22.949,-35.645,-22.949,-102.051
1626640348.661,-44.922,-62.012,-43.457,-151.367
1626640348.665,-20.508,-28.320,-34.668,20.508
1626640348.669,-0.977,5.859,-21.484,97.656
1626640348.673,-27.344,-8.301,-32.227,-52.734
1626640348.677,-27.832,-9.766,-24.902,-135.742
1626640348.681,-48.340,-54.688,-61.035,-46.387
1626640348.685,-85.938,-127.930,-122.559,16.113
1626640348.688,-23.438,-60.059,-64.941,-18.066
1626640348.692,-1.953,-0.977,-19.043,-112.305
1626640348.696,-12.695,-8.789,-23.926,-55.176
1626640348.700,17.090,-10.742,1.953,102.539
1626640348.704,21.973,-12.207,11.719,65.430
1626640348.719,-24.902,-15.625,-11.230,-122.070
1626640348.723,-39.062,-16.113,-29.297,-113.770
1626640348.727,-8.789,-13.184,-12.207,78.125
1626640348.731,-17.090,-24.414,-19.531,79.590
1626640348.735,-38.574,-34.180,-27.344,-95.703
1626640348.739,-27.344,-7.812,-8.301,-119.629
1626640348.743,-11.719,-4.395,-8.789,38.574
1626640348.746,-8.789,-16.602,-23.926,101.562
1626640348.750,-32.227,-48.340,-36.621,-51.758
1626640348.754,-88.379,-133.301,-63.477,-203.125
1626640348.758,-57.129,-79.590,-47.363,-67.871
1626640348.762,1.465,1.465,-17.578,114.746
1626640348.736,-16.602,-12.207,-23.438,16.602
1626640348.740,-50.781,-18.555,-26.367,-139.160
1626640348.744,-41.504,-17.578,-20.508,-66.406
1626640348.748,-11.230,-17.090,-14.648,104.004
1626640348.752,-24.902,-39.551,-26.367,51.270
1626640348.756,-38.574,-22.461,-18.066,-113.281
1626640348.760,-24.414,-8.301,-7.812,-96.680
1626640348.763,-25.879,-54.199,-22.461,43.945
1626640348.767,-22.461,-44.922,-12.695,88.379
1626640348.771,-44.434,-33.203,-13.672,-69.336
1626640348.775,-52.734,-29.297,-11.230,-150.879
1626640348.779,-18.555,-27.344,-4.395,7.324
1626640348.794,-13.184,-63.965,-25.391,101.562
1626640348.798,-25.391,-41.504,-33.691,-29.297
1626640348.802,-46.875,-38.086,-40.039,-162.109
1626640348.806,-54.199,-50.293,-43.457,-71.777
1626640348.810,-28.809,-24.902,-26.855,84.961
1626640348.814,-62.012,-52.246,-59.082,-17.090
1626640348.818,-84.473,-55.664,-63.477,-188.477
1626640348.821,-20.020,-8.789,-9.277,-84.473
1626640348.825,26.855,-6.348,-0.977,109.375
1626640348.829,17.090,-20.508,-12.695,88.867
1626640348.833,-38.086,-48.828,-32.227,-113.770
1626640348.837,-63.965,-62.500,-33.203,-159.668
1626640348.845,-23.926,-31.250,-7.812,31.250
1626640348.849,-1.953,-0.977,-4.395,105.957
1626640348.853,-20.020,4.883,-18.066,-55.176
1626640348.857,-41.016,-7.324,-34.668,-149.414
1626640348.861,-25.391,-17.090,-21.484,0.000
1626640348.865,-3.906,-28.320,1.953,121.582
1626640348.869,-9.766,-20.020,-4.883,15.625
1626640348.872,-10.742,-3.418,-0.977,-102.051
1626640348.876,-14.648,-13.672,-8.301,-29.297
1626640348.880,-31.250,-33.691,-30.762,88.867
1626640348.884,-23.438,-34.180,-17.578,39.062
1626640348.888,-14.160,-26.855,-4.395,-108.887
1626640348.874,-26.855,-11.230,-12.207,-97.656
1626640348.878,-32.227,-32.227,-39.062,52.246
1626640348.882,-22.949,-53.711,-51.758,59.082
1626640348.886,-21.484,-25.391,-29.785,-92.773
1626640348.890,-32.715,-20.020,-17.578,-131.836
1626640348.894,-16.113,-15.625,-14.160,27.344
1626640348.898,-19.043,-32.715,-28.809,84.473
1626640348.901,-75.684,-77.637,-63.965,-104.980
1626640348.905,-58.594,-54.688,-23.438,-178.223
1626640348.909,-20.020,-18.066,6.348,-22.949
1626640348.913,-16.602,-18.066,-14.648,93.262
1626640348.917,-24.902,-25.879,-21.973,-12.695
1626640348.956,-95.703,-72.266,-65.430,-207.031
1626640348.960,-67.871,-49.316,-48.828,-107.910
1626640348.964,-7.812,-13.672,-16.602,90.332
1626640348.968,-20.020,-16.113,-23.438,41.992
1626640348.972,-55.664,-27.832,-39.062,-138.184
1626640348.976,-68.359,-52.734,-48.828,-138.184
1626640348.980,-24.414,-31.738,-32.227,62.012
1626640348.983,-9.766,-15.137,-27.832,94.238
1626640348.987,-42.480,-24.902,-30.762,-86.426
1626640348.991,-50.293,-26.367,-25.391,-147.461
1626640348.995,-50.781,-48.828,-37.598,-10.254
1626640348.999,-28.320,-53.711,-34.180,89.844
1626640348.976,-14.648,-38.574,-21.973,-22.461
1626640348.980,-44.434,-25.391,-23.438,-150.879
1626640348.984,-39.551,-18.066,-35.645,-45.410
1626640348.988,-28.320,-59.570,-37.109,88.867
1626640348.992,-26.855,-46.875,-20.996,7.324
1626640348.996,-41.504,-11.719,-16.602,-140.625
1626640349.000,-28.320,-14.648,-11.719,-79.590
1626640349.003,4.395,-5.859,-7.812,95.703
1626640349.007,-24.902,-32.715,-38.086,52.246
1626640349.011,-71.289,-61.523,-50.293,-145.508
1626640349.015,-61.523,-37.109,-27.344,-142.090
1626640349.019,-30.273,-23.438,-19.531,41.016
1626640349.055,-12.207,-22.461,-13.184,100.098
1626640349.059,-37.109,-62.988,-31.250,-73.242
1626640349.063,-108.398,-143.555,-88.379,-213.379
1626640349.067,-62.500,-60.059,-56.641,-36.621
1626640349.071,1.953,14.160,-14.648,121.094
1626640349.075,0.488,8.789,-7.812,16.113
1626640349.079,-32.715,-36.133,-24.902,-129.395
1626640349.082,-96.680,-140.137,-98.145,-116.699
1626640349.086,-51.270,-81.543,-74.219,53.223
1626640349.090,7.812,-18.555,-13.672,43.945
1626640349.094,-14.160,-23.438,-1.953,-120.605
1626640349.098,-40.039,-23.926,-5.859,-107.422
1626640349.077,-34.180,-33.203,-20.996,47.363
1626640349.081,-20.508,-20.996,-26.367,51.758
1626640349.085,-39.551,-11.719,-28.809,-115.234
1626640349.089,-55.664,-18.066,-37.109,-146.973
1626640349.093,-33.203,-16.602,-38.574,26.367
1626640349.097,-9.766,-15.137,-20.020,104.492
1626640349.101,-19.043,-18.555,-19.531,-44.434
1626640349.104,-50.293,-33.691,-31.738,-158.691
1626640349.108,-40.039,-33.203,-29.785,-26.367
1626640349.112,-14.648,-25.879,-36.133,104.980
1626640349.116,-32.715,-39.551,-38.574,-14.160
1626640349.120,-44.922,-33.691,-20.996,-147.949
1626640349.115,-37.598,-36.621,-28.809,-69.824
1626640349.119,-24.414,-39.551,-42.969,83.984
1626640349.123,-11.719,0.000,-33.691,50.781
1626640349.127,-76.172,-63.965,-83.496,-167.480
1626640349.131,-123.535,-174.805,-127.441,-198.730
1626640349.135,-16.602,-78.613,-41.992,59.082
1626640349.139,10.742,-4.395,-4.395,94.727
1626640349.142,-31.738,-22.461,-14.160,-96.680
1626640349.146,-79.102,-104.980,-69.336,-184.082
1626640349.150,-77.637,-100.586,-83.008,-38.086
1626640349.154,-27.344,-6.348,-27.344,91.797
1626640349.158,-38.086,-9.766,-36.133,-46.875
1626640349.181,-47.363,-11.230,-27.344,-151.855
1626640349.185,-61.035,-40.527,-42.480,-59.082
1626640349.189,-35.156,-40.039,-43.945,80.078
1626640349.193,-2.441,-18.066,-20.996,29.785
1626640349.197,-19.043,-27.832,-29.297,-117.188
1626640349.201,-27.344,-15.137,-21.973,-59.570
1626640349.205,-16.113,-31.738,-20.508,93.750
1626640349.208,-30.762,-58.594,-47.852,42.969
1626640349.212,-42.969,-25.879,-36.133,-124.023
1626640349.216,-37.109,-10.254,-23.438,-113.770
1626640349.220,-5.371,-10.254,-12.207,63.477
1626640349.224,-2.441,-26.855,-20.996,83.984
1626640349.224,-36.133,-46.875,-37.109,-83.008
1626640349.228,-37.109,-31.250,-15.625,-140.137
1626640349.232,-25.391,-20.020,-17.578,-0.488
1626640349.236,-19.531,-18.066,-31.738,87.402
1626640349.240,-24.902,-41.016,-35.156,-40.527
1626640349.244,-27.832,-40.039,-24.414,-148.438
1626640349.248,-14.160,-15.625,-10.254,-28.320
1626640349.251,-13.184,-20.996,-20.020,102.539
1626640349.255,-13.184,-11.230,-20.020,26.855
1626640349.259,-22.461,-5.859,-25.391,-125.488
1626640349.263,-78.125,-81.543,-81.055,-135.742
1626640349.267,-48.828,-87.891,-58.105,44.434
1626640349.260,-5.371,-27.832,-13.672,69.336
1626640349.264,-30.273,-11.719,-19.531,-112.793
1626640349.268,-37.598,-9.277,-19.531,-129.883
1626640349.272,-17.578,-14.648,-18.555,38.574
1626640349.276,-0.488,-7.812,-11.230,103.516
1626640349.280,-11.719,-7.812,-13.184,-38.574
1626640349.284,-31.738,-27.832,-18.555,-131.836
1626640349.287,-22.461,-22.461,-17.578,0.977
1626640349.291,-46.875,-70.312,-62.012,77.148
1626640349.295,-68.848,-98.145,-87.891,-57.617
1626640349.299,-54.688,-41.504,-50.781,-163.086
1626640349.303,-36.621,-22.461,-32.715,-67.383
1626640349.339,-10.254,-23.438,-23.926,97.168
1626640349.343,-13.672,-17.578,-25.391,45.898
1626640349.347,-41.016,-20.020,-29.297,-128.418
1626640349.351,-37.598,-19.531,-11.719,-101.562
1626640349.355,-17.090,-7.812,-7.324,64.453
1626640349.359,-13.184,-12.207,-12.695,72.266
1626640349.363,-73.242,-80.078,-62.500,-134.766
1626640349.366,-92.285,-85.449,-71.777,-189.453
1626640349.370,-20.996,-3.906,-28.320,22.949
1626640349.374,19.531,18.066,-23.926,117.188
1626640349.378,13.184,-4.883,-13.672,-13.184
1626640349.382,-40.039,-48.340,-28.809,-146.484
1626640349.361,-44.922,-53.223,-39.062,-45.410
1626640349.365,-24.414,-21.973,-30.762,87.402
1626640349.369,-26.855,-5.859,-18.555,-9.277
1626640349.373,-32.715,3.906,-2.930,-148.438
1626640349.377,-41.992,-14.160,-15.137,-87.891
1626640349.381,-34.180,-33.691,-33.691,65.430
1626640349.385,-31.250,-41.016,-43.457,27.832
1626640349.388,-39.551,-37.109,-43.457,-130.859
1626640349.392,-25.391,-25.879,-31.250,-105.957
1626640349.396,5.371,-20.508,-20.508,71.289
1626640349.400,8.301,-11.719,-28.809,89.355
1626640349.404,-16.113,-3.906,-39.062,-83.008
1626640349.401,-41.016,-15.625,-46.875,-160.156
1626640349.405,-23.438,-23.926,-44.434,-5.371
1626640349.409,7.812,-29.297,-22.461,99.121
1626640349.413,-76.660,-126.465,-83.008,-105.957
1626640349.417,-116.699,-130.859,-93.262,-238.281
1626640349.421,-32.715,-23.926,-25.391,-49.805
1626640349.425,-2.930,-3.418,-16.113,103.516
1626640349.428,-27.344,-16.113,-36.621,2.441
1626640349.432,-83.496,-65.430,-83.008,-200.684
1626640349.436,-62.988,-39.062,-52.246,-124.512
1626640349.440,-9.766,-5.371,-14.648,84.961
1626640349.444,-6.836,-20.508,-20.996,56.641
1626640349.439,-27.832,-15.137,-33.203,-113.770
1626640349.443,-20.508,0.977,-21.973,-112.305
1626640349.447,10.254,2.930,0.977,64.941
1626640349.451,-1.465,-22.461,-19.531,93.750
1626640349.455,-17.578,-23.926,-25.879,-63.477
1626640349.459,-21.973,-25.879,-36.133,-130.371
1626640349.463,-23.926,-27.832,-51.758,-7.812
1626640349.466,-14.648,-14.160,-27.832,81.055
1626640349.470,-4.883,-0.977,5.859,-19.043
1626640349.474,-24.414,0.000,0.000,-153.320
1626640349.478,-32.715,-5.371,-18.066,-72.266
1626640349.482,-4.395,-0.488,-13.672,95.215
1626640349.494,-5.859,-9.766,-23.926,33.691
1626640349.498,-28.320,-20.996,-41.504,-129.395
1626640349.502,-25.879,-19.531,-35.156,-93.262
1626640349.506,-20.996,-19.531,-30.273,74.707
1626640349.510,-28.809,-38.086,-41.504,65.430
1626640349.514,-36.133,-59.570,-34.180,-109.375
1626640349.518,-32.227,-46.875,-12.695,-123.535
1626640349.521,-17.578,-22.461,-15.137,38.086
1626640349.525,-17.578,-14.160,-20.020,96.680
1626640349.529,-57.617,-32.227,-41.504,-71.289
1626640349.533,-66.895,-33.203,-47.363,-167.480
1626640349.537,-44.922,-30.273,-38.574,-27.344
1626640349.536,-21.973,-33.691,-25.391,95.215
1626640349.540,-25.879,-37.598,-16.113,-7.812
1626640349.544,-72.754,-45.898,-38.086,-173.340
1626640349.548,-71.289,-32.715,-41.016,-94.238
1626640349.552,-30.762,-20.996,-23.926,83.984
1626640349.556,-35.156,-31.250,-23.926,35.156
1626640349.560,-39.062,-15.625,-16.113,-119.629
1626640349.563,-39.551,-19.043,-26.855,-102.539
1626640349.567,-109.863,-107.422,-115.234,-18.066
1626640349.571,-78.125,-92.773,-87.402,13.184
1626640349.575,-26.367,-26.855,5.371,-81.055
1626640349.579,-74.219,-53.223,-25.879,-164.551
1626640349.594,-63.965,-53.223,-49.316,-15.625
1626640349.598,-33.691,-52.246,-44.434,83.008
1626640349.602,-41.504,-47.852,-48.340,-54.688
1626640349.606,-45.898,-20.508,-24.414,-155.273
1626640349.610,-21.973,-11.230,6.348,-25.879
1626640349.614,-16.602,-22.949,-13.184,97.168
1626640349.618,-73.242,-66.895,-75.195,-43.945
1626640349.621,-67.871,-54.199,-56.152,-171.387
1626640349.625,-21.973,-10.742,-4.883,-54.199
1626640349.629,18.066,12.695,6.836,125.488
1626640349.633,6.836,-6.348,-21.484,76.660
1626640349.637,-77.148,-72.754,-84.961,-161.133
1626640349.637,-68.359,-63.965,-52.246,-152.344
1626640349.641,-22.461,-43.457,-12.695,48.828
1626640349.645,-7.324,-43.945,-28.320,94.238
1626640349.649,-24.414,-48.340,-30.762,-66.406
1626640349.653,-44.434,-38.574,-40.527,-145.508
1626640349.657,-13.184,-10.742,-25.879,17.578
1626640349.661,-9.766,-25.879,-17.090,104.004
1626640349.664,-38.086,-28.809,-26.855,-38.574
1626640349.668,-21.484,9.277,-10.254,-131.348
1626640349.672,-58.105,-64.453,-54.199,-73.242
1626640349.676,-111.816,-164.551,-114.746,-5.859
1626640349.680,-37.598,-67.383,-50.781,-3.418
1626640349.683,-21.484,-6.348,-23.438,-117.188
1626640349.687,-22.949,-30.762,-28.320,-79.102
1626640349.691,0.488,-52.246,-24.414,86.914
1626640349.695,0.000,-28.809,-14.160,68.848
1626640349.699,-14.160,-3.418,0.000,-92.285
1626640349.703,-39.062,-20.996,-22.461,-133.789
1626640349.707,-22.949,-10.742,-32.227,26.367
1626640349.710,-12.695,-20.020,-28.320,87.891
1626640349.714,-33.691,-39.062,-35.645,-78.125
1626640349.718,-39.062,-23.926,-26.367,-157.227
1626640349.722,-21.484,-22.461,-13.672,-4.883
1626640349.726,11.719,-12.207,-4.883,115.234
1626640349.735,-14.648,-25.879,-28.320,-21.484
1626640349.739,-60.059,-48.828,-44.434,-177.246
1626640349.743,-44.922,-21.484,-36.133,-75.684
1626640349.747,-16.113,-8.789,-21.973,83.008
1626640349.751,-21.973,-25.879,-16.602,21.484
1626640349.755,-44.434,-45.898,-20.508,-138.184
1626640349.759,-58.594,-89.355,-33.691,-126.953
1626640349.762,-36.133,-59.082,-37.598,45.410
1626640349.766,-15.137,-2.441,-28.320,72.754
1626640349.770,-18.066,-2.441,-9.277,-76.660
1626640349.774,-31.250,-22.461,-16.602,-125.488
1626640349.778,-31.250,-53.223,-38.086,7.812
1626640349.795,-7.324,-38.574,-29.297,93.262
1626640349.799,-22.461,-41.504,-31.250,-43.457
1626640349.803,-49.316,-39.062,-22.949,-153.320
1626640349.807,-40.527,-23.438,-6.348,-32.227
1626640349.811,-31.738,-36.621,-11.230,85.938
1626640349.815,-37.109,-47.852,-21.973,-9.766
1626640349.819,-55.664,-39.062,-23.926,-145.996
1626640349.822,-43.457,-17.090,-15.625,-69.824
1626640349.826,-16.602,-2.441,-21.973,88.379
1626640349.830,-54.199,-109.863,-69.824,8.301
1626640349.834,-79.102,-150.879,-64.453,-165.527
1626640349.838,-32.227,-22.949,-9.766,-104.004
1626640349.840,-20.996,-33.691,-27.344,-33.203
