timestamps,TP9,AF7,AF8,TP10,Right AUX
1626294639451979.250,-11.719,-20.020,-23.926,1.000,1.000
1626294639455885.500,57.129,-62.012,-35.645,1.000,1.000
1626294639459791.750,-45.898,-61.523,-70.312,1.000,1.000
1626294639463698.000,-138.184,-35.645,-69.824,1.000,1.000
1626294639467604.250,-61.523,-21.973,-44.922,1.000,1.000
1626294639471510.500,34.180,-14.160,-36.621,1.000,1.000
1626294639475416.750,-11.230,-11.230,-29.785,1.000,1.000
1626294639479323.000,-114.746,-35.156,-20.996,1.000,1.000
1626294639483229.250,-85.938,-47.363,-33.691,1.000,1.000
1626294639487135.500,38.086,-38.086,-54.688,1.000,1.000
1626294639491041.750,39.062,-25.879,-55.664,1.000,1.000
1626294639494948.000,-80.078,-52.246,-52.246,1.000,1.000
1626294639498854.250,-106.445,-42.969,-25.879,-200.195,1.000
1626294639502760.500,-86.914,-44.922,-24.414,-118.164,1.000
1626294639506666.750,30.762,-20.020,-27.344,119.629,1.000
1626294639510573.000,34.668,-15.625,-36.621,81.543,1.000
1626294639514479.250,-87.402,-29.297,-47.852,-173.828,1.000
1626294639518385.500,-111.328,-32.227,-40.527,-181.152,1.000
1626294639522291.750,17.090,-22.461,-20.508,77.148,1.000
1626294639526198.000,55.664,-13.672,-29.297,129.883,1.000
1626294639530104.250,-54.199,-23.438,-43.945,-111.328,1.000
1626294639534010.500,-115.234,-30.273,-38.086,-211.426,1.000
1626294639537916.750,-13.184,-20.996,-20.996,17.090,1.000
1626294639541823.000,61.035,-35.156,-30.273,151.367,1.000
1626294639545729.250,51.270,-19.531,-40.527,-43.457,1.000
1626294639549635.500,-48.828,-43.945,-39.551,-222.168,1.000
1626294639553541.750,-138.184,-68.359,-41.504,-72.266,1.000
1626294639557448.000,-48.828,-39.062,-26.367,155.762,1.000
1626294639561354.250,49.316,-39.551,-21.973,44.434,1.000
1626294639565260.500,-6.836,-39.062,-28.809,-192.871,1.000
1626294639569166.750,-109.863,-40.039,-31.250,-111.328,1.000
1626294639573073.000,-68.359,-50.781,-20.020,135.742,1.000
1626294639576979.250,57.129,-17.090,-8.301,112.305,1.000
1626294639580885.500,28.809,-15.625,-32.715,-141.113,1.000
1626294639584791.750,-97.656,-28.809,-52.246,-192.871,1.000
1626294639588698.000,-104.004,-31.250,-39.551,44.922,1.000
1626294639592604.250,17.578,-30.273,-22.461,1.000,1.000
1626294639596510.500,40.527,-31.250,-23.438,1.000,1.000
1626294639600416.750,-66.895,-41.504,-35.156,1.000,1.000
1626294639604323.000,-113.281,-53.711,-46.875,1.000,1.000
1626294639608229.250,-8.301,-35.156,-43.945,1.000,1.000
1626294639612135.500,72.754,-10.742,-27.832,1.000,1.000
1626294639616041.750,-30.762,-24.414,-38.574,1.000,1.000
1626294639619948.000,-122.070,-24.902,-41.504,1.000,1.000
1626294639623854.250,-37.598,-9.766,-18.066,1.000,1.000
1626294639627760.500,49.316,-12.695,-21.973,1.000,1.000
1626294639631666.750,-9.277,-29.785,-39.551,1.000,1.000
1626294639635573.000,-110.840,-26.855,-39.062,1.000,1.000
1626294639639479.250,-82.031,-23.926,-24.414,-89.844,1.000
1626294639643385.500,37.109,-37.598,-12.207,145.508,1.000
1626294639647291.750,28.320,-52.246,-20.508,75.684,1.000
1626294639651198.000,-84.473,-65.918,-30.762,-168.457,1.000
1626294639655104.250,-93.262,-51.758,-32.227,-147.949,1.000
1626294639659010.500,29.785,-15.625,-31.250,112.305,1.000
1626294639662916.750,52.246,-0.488,-51.270,130.859,1.000
1626294639666823.000,-76.660,-24.902,-63.965,-134.277,1.000
1626294639670729.250,-132.324,-39.062,-51.758,-216.309,1.000
1626294639674635.500,-20.996,-29.785,-43.457,9.766,1.000
1626294639678541.750,66.895,-24.414,-18.066,156.250,1.000
1626294639682448.000,-22.461,-37.598,-16.602,-40.039,1.000
1626294639686354.250,-45.410,-20.996,-38.086,-114.746,1.000
1626294639690260.500,-109.863,-41.992,-21.973,-204.590,1.000
1626294639694166.750,-21.484,-49.805,-24.414,12.695,1.000
1626294639698073.000,75.195,-20.996,-30.273,160.156,1.000
1626294639701979.250,-11.230,-8.789,-46.387,-35.156,1.000
1626294639705885.500,-121.094,-33.203,-64.453,-218.262,1.000
1626294639709791.750,-28.320,-35.645,-38.086,-18.555,1.000
1626294639713698.000,81.543,-25.879,-16.113,195.801,1.000
1626294639717604.250,-4.395,-25.391,-21.973,28.320,1.000
1626294639721510.500,-129.395,-19.531,-21.484,-204.102,1.000
1626294639725416.750,-101.562,-31.250,-28.809,-134.277,1.000
1626294639729323.000,32.715,-34.180,-15.137,109.375,1.000
1626294639733229.250,49.805,-21.484,-12.695,1.000,1.000
1626294639737135.500,-79.102,-30.762,-57.129,1.000,1.000
1626294639741041.750,-113.770,-28.809,-59.082,1.000,1.000
1626294639744948.000,17.090,-14.648,-21.973,1.000,1.000
1626294639748854.250,102.051,7.324,0.488,1.000,1.000
1626294639752760.500,-37.598,-0.488,-19.043,1.000,1.000
1626294639756666.750,-169.434,-35.156,-25.879,1.000,1.000
1626294639760573.000,-79.102,-50.293,0.000,1.000,1.000
1626294639764479.250,19.531,-64.453,-5.859,1.000,1.000
1626294639768385.500,-56.641,-49.805,-8.301,1.000,1.000
1626294639772291.750,-178.223,-52.734,-8.789,1.000,1.000
1626294639776198.000,-136.230,-59.570,1.465,1.000,1.000
1626294639780104.250,-31.738,-37.109,13.184,1.000,1.000
1626294639784010.500,-62.988,-46.387,17.578,1.000,1.000
1626294639787916.750,-194.336,-87.891,8.789,1.000,1.000
1626294639791823.000,-209.473,-112.305,4.395,1.000,1.000
1626294639795729.250,-102.051,-122.070,20.996,1.000,1.000
1626294639799635.500,-92.285,-116.211,39.062,1.000,1.000
1626294639803541.750,-179.688,-114.746,38.086,1.000,1.000
1626294639807448.000,-185.547,-111.816,40.039,1.000,1.000
1626294639811354.250,-71.289,-92.285,43.457,1.000,1.000
1626294639815260.500,-35.645,-101.562,23.926,1.000,1.000
1626294639819166.750,-148.926,-122.559,-17.090,1.000,1.000
1626294639823073.000,-217.285,-126.465,-25.391,1.000,1.000
1626294639826979.250,-134.277,-117.676,-6.348,-53.711,1.000
1626294639830885.500,-14.160,-107.422,22.461,152.832,1.000
1626294639834791.750,-50.781,-120.605,22.461,4.883,1.000
1626294639838698.000,-181.641,-131.836,-18.555,-232.910,1.000
1626294639842604.250,-137.695,-94.238,1.953,-102.051,1.000
1626294639846510.500,2.930,-65.918,26.367,161.133,1.000
1626294639850416.750,2.930,-67.871,10.742,97.656,1.000
1626294639854323.000,-122.070,-83.008,-23.926,-169.922,1.000
1626294639858229.250,-129.883,-65.918,-28.809,-144.043,1.000
1626294639862135.500,-10.742,-71.289,-10.254,112.793,1.000
1626294639866041.750,25.391,-93.262,-2.930,131.836,1.000
1626294639869948.000,-67.871,-86.426,-10.742,-109.375,1.000
1626294639873854.250,-128.906,-74.707,-14.160,-196.289,1.000
1626294639877760.500,-29.297,-56.641,-10.254,36.621,1.000
1626294639881666.750,46.875,-77.148,-13.184,167.480,1.000
1626294639885573.000,-37.109,-83.496,-7.324,-47.852,1.000
1626294639889479.250,-115.723,-77.148,-9.277,-196.777,1.000
1626294639893385.500,-44.922,-62.500,-16.113,-6.348,1.000
1626294639897291.750,56.152,-51.758,-22.461,180.176,1.000
1626294639901198.000,6.836,-55.176,-47.852,23.438,1.000
1626294639905104.250,-105.957,-44.922,-64.453,-216.309,1.000
1626294639909010.500,-85.938,-46.875,-36.133,-115.234,1.000
1626294639912916.750,34.180,-30.273,-0.488,141.113,1.000
1626294639916823.000,28.809,-30.273,-14.160,80.078,1.000
1626294639920729.250,24.414,-40.039,-30.273,15.137,1.000
1626294639924635.500,-115.723,-58.594,-49.316,-235.352,1.000
1626294639928541.750,-101.074,-39.551,-38.574,-144.043,1.000
1626294639932448.000,36.621,-5.371,-17.090,130.371,1.000
1626294639936354.250,31.738,-24.414,-35.156,83.496,1.000
1626294639940260.500,-85.938,-27.832,-39.062,-183.594,1.000
1626294639944166.750,-120.117,-33.203,-25.879,-213.379,1.000
1626294639948073.000,-16.602,-63.477,-38.574,31.738,1.000
1626294639951979.250,56.152,-38.574,-41.016,126.465,1.000
1626294639955885.500,-54.199,-34.668,-56.152,-128.418,1.000
1626294639959791.750,-144.043,-45.898,-58.105,-267.090,1.000
1626294639963698.000,-62.988,-53.223,-21.973,-46.387,1.000
1626294639967604.250,40.527,-40.039,-7.324,1.000,1.000
1626294639971510.500,-7.812,-20.020,-11.230,1.000,1.000
1626294639975416.750,-116.211,-12.207,-40.039,1.000,1.000
1626294639979323.000,-67.871,-13.672,-57.129,1.000,1.000
1626294639983229.250,53.711,-29.297,-33.203,1.000,1.000
1626294639987135.500,21.973,-21.973,-34.180,1.000,1.000
1626294639991041.750,-106.934,-23.926,-54.688,1.000,1.000
1626294639994948.000,-91.797,-18.555,-37.598,1.000,1.000
1626294639998854.250,49.805,-15.137,-4.883,1.000,1.000
1626294640002760.500,41.504,-62.012,-39.551,1.000,1.000
1626294640006666.750,-94.727,-52.734,-67.383,1.000,1.000
1626294640010573.000,-125.000,-28.809,-34.180,1.000,1.000
1626294640014479.250,-15.137,-24.414,-21.973,31.250,1.000
1626294640018385.500,58.105,-1.953,-20.020,143.555,1.000
1626294640022291.750,-46.875,-23.438,-27.832,-98.145,1.000
1626294640026198.000,-135.254,-31.738,-35.645,-250.000,1.000
1626294640030104.250,-39.551,-13.672,-21.484,-36.133,1.000
1626294640034010.500,70.312,1.465,-20.508,152.832,1.000
1626294640037916.750,14.648,-19.531,-25.879,-5.371,1.000
1626294640041823.000,-101.562,-60.059,-29.297,-229.492,1.000
1626294640045729.250,-56.641,-50.781,-22.949,-90.820,1.000
1626294640049635.500,76.660,-6.836,-9.277,176.758,1.000
1626294640053541.750,53.711,19.043,-17.578,81.543,1.000
1626294640057448.000,-79.590,-32.715,-33.691,-191.406,1.000
1626294640061354.250,-120.605,-19.043,-35.645,-236.328,1.000
1626294640065260.500,-94.238,-21.484,-42.969,-125.977,1.000
1626294640069166.750,19.043,-63.965,-64.453,122.070,1.000
1626294640073073.000,41.992,-63.965,-21.484,87.402,1.000
1626294640076979.250,-79.102,-52.734,-9.277,-177.734,1.000
1626294640080885.500,-130.859,-55.664,-30.762,-200.195,1.000
1626294640084791.750,-5.371,-7.812,-13.184,73.730,1.000
1626294640088698.000,43.945,11.230,-17.578,128.418,1.000
1626294640092604.250,-62.012,-28.320,-43.945,-128.418,1.000
1626294640096510.500,-123.047,-49.805,-54.688,-226.074,1.000
1626294640100416.750,-26.367,-35.156,-42.480,15.625,1.000
1626294640104323.000,76.660,-0.977,-18.555,184.082,1.000
1626294640108229.250,-23.926,-97.168,-11.719,113.281,1.000
1626294640112135.500,-128.418,-97.656,-20.508,-135.742,1.000
1626294640116041.750,-175.781,-68.848,-6.836,-240.234,1.000
1626294640119948.000,-103.027,-77.637,-0.977,-30.273,1.000
1626294640123854.250,-0.488,-72.754,22.461,155.762,1.000
1626294640127760.500,-46.387,-84.961,26.367,-15.625,1.000
1626294640131666.750,-188.965,-119.141,-5.371,-256.836,1.000
1626294640135573.000,-143.555,-85.449,-11.230,-107.422,1.000
1626294640139479.250,-17.578,-62.988,0.000,125.000,1.000
1626294640143385.500,-34.668,-67.383,13.184,24.902,1.000
1626294640147291.750,-155.762,-88.379,-6.836,-225.586,1.000
1626294640151198.000,-162.598,-66.895,-41.016,-172.852,1.000
1626294640155104.250,-23.926,-39.551,-16.113,1.000,1.000
1626294640159010.500,0.977,-74.219,-0.977,1.000,1.000
1626294640162916.750,-113.281,-70.801,-16.602,1.000,1.000
1626294640166823.000,-140.625,-69.336,-14.160,1.000,1.000
1626294640170729.250,0.977,-39.551,16.113,1.000,1.000
1626294640174635.500,67.383,-43.457,20.996,1.000,1.000
1626294640178541.750,-59.570,-79.590,-8.301,1.000,1.000
1626294640182448.000,-164.551,-60.547,-30.762,1.000,1.000
1626294640186354.250,-92.773,-52.246,-32.227,1.000,1.000
1626294640190260.500,36.621,-27.344,-13.184,1.000,1.000
1626294640194166.750,-1.953,-40.039,-15.137,1.000,1.000
1626294640198073.000,-120.117,-59.570,-36.621,1.000,1.000
1626294640201979.250,-80.078,-52.734,-29.297,-66.406,1.000
1626294640205885.500,43.945,-41.992,-4.883,183.594,1.000
1626294640209791.750,34.668,-17.090,-7.324,102.539,1.000
1626294640213698.000,-82.520,-60.059,-11.230,-162.109,1.000
1626294640217604.250,-106.934,-89.355,0.488,-141.602,1.000
1626294640221510.500,13.184,-35.645,-8.301,129.883,1.000
1626294640225416.750,98.145,22.461,-11.719,195.312,1.000
1626294640229323.000,-11.719,-8.789,-8.301,-63.477,1.000
1626294640233229.250,-136.230,-71.777,-36.133,-204.102,1.000
1626294640237135.500,-38.574,-59.082,-35.645,36.621,1.000
1626294640241041.750,54.688,-49.316,-28.809,170.898,1.000
1626294640244948.000,-6.348,-0.488,-9.277,-37.598,1.000
1626294640248854.250,-51.270,-91.309,-28.320,-117.676,1.000
1626294640252760.500,-122.559,-63.965,-30.762,-214.355,1.000
1626294640256666.750,-17.578,-23.438,-17.578,37.598,1.000
1626294640260573.000,74.219,-32.715,-13.184,189.453,1.000
1626294640264479.250,-7.324,-21.484,-31.250,-22.949,1.000
1626294640268385.500,-116.699,-19.043,-48.340,-216.309,1.000
1626294640272291.750,-48.828,3.906,-27.832,-41.992,1.000
1626294640276198.000,70.312,29.297,6.836,187.012,1.000
1626294640280104.250,12.207,-34.180,-11.719,38.574,1.000
1626294640284010.500,-103.027,-54.199,-18.066,-210.938,1.000
1626294640287916.750,-86.914,-52.246,-33.691,-134.766,1.000
1626294640291823.000,45.410,-36.133,-33.203,133.789,1.000
1626294640295729.250,50.781,-38.574,-32.227,1.000,1.000
1626294640299635.500,-96.191,-66.406,-47.363,1.000,1.000
1626294640303541.750,-136.719,-44.434,-53.711,1.000,1.000
1626294640307448.000,-18.555,-32.715,-56.641,1.000,1.000
1626294640311354.250,53.711,-15.137,-34.668,1.000,1.000
1626294640315260.500,-42.969,-24.414,-23.926,1.000,1.000
1626294640319166.750,-134.277,-77.148,-30.273,1.000,1.000
1626294640323073.000,-38.086,-56.152,-6.836,1.000,1.000
1626294640326979.250,70.312,-21.484,11.719,1.000,1.000
1626294640330885.500,-3.418,-23.438,-5.859,1.000,1.000
1626294640334791.750,-116.699,-30.762,-28.320,1.000,1.000
1626294640338698.000,-61.035,-48.828,-26.367,1.000,1.000
1626294640342604.250,52.734,-38.086,-26.855,1.000,1.000
1626294640346510.500,14.160,-18.555,-43.945,1.000,1.000
1626294640350416.750,-88.867,1.953,-39.062,1.000,1.000
1626294640354323.000,-83.984,-16.113,-27.344,1.000,1.000
1626294640358229.250,38.574,-53.711,-20.508,1.000,1.000
1626294640362135.500,62.988,-70.801,-34.668,1.000,1.000
1626294640366041.750,-69.824,-39.062,-34.668,1.000,1.000
1626294640369948.000,-124.512,-6.836,-26.855,1.000,1.000
1626294640373854.250,-28.809,-26.367,-28.809,1.000,1.000
1626294640377760.500,47.852,-42.969,-19.043,1.000,1.000
1626294640381666.750,-28.320,-57.129,-49.316,1.000,1.000
1626294640385573.000,-78.125,1.953,-21.484,1.000,1.000
1626294640389479.250,-3.418,22.949,9.766,1.000,1.000
1626294640393385.500,58.105,-39.062,-20.996,1.000,1.000
1626294640397291.750,-8.789,-60.059,-27.344,1.000,1.000
1626294640401198.000,-119.629,-69.824,-28.809,1.000,1.000
1626294640405104.250,-69.336,-38.574,-11.719,1.000,1.000
1626294640409010.500,53.223,-24.902,-8.301,1.000,1.000
1626294640412916.750,44.922,-29.785,-26.855,1.000,1.000
1626294640416823.000,-90.820,-37.109,-53.223,1.000,1.000
1626294640420729.250,-121.094,-54.688,-61.523,1.000,1.000
1626294640424635.500,18.066,-25.879,-28.809,1.000,1.000
1626294640428541.750,65.918,2.441,-30.273,1.000,1.000
1626294640432448.000,-50.293,-18.555,-60.059,1.000,1.000
1626294640436354.250,-98.633,-49.805,-27.832,-195.801,1.000
1626294640440260.500,14.648,-41.016,15.137,68.848,1.000
1626294640444166.750,86.426,-11.230,5.859,192.871,1.000
1626294640448073.000,-26.855,-31.250,-28.320,-63.477,1.000
1626294640451979.250,-120.117,-51.270,-33.203,-234.863,1.000
1626294640455885.500,-52.734,-53.223,-34.668,-43.945,1.000
1626294640459791.750,47.852,-18.555,-40.039,150.879,1.000
1626294640463698.000,10.254,-0.488,-46.875,3.418,1.000
1626294640467604.250,-119.629,-33.203,-59.570,-237.793,1.000
1626294640471510.500,-83.496,-32.227,-39.551,-112.305,1.000
1626294640475416.750,58.105,-29.297,-32.227,158.203,1.000
1626294640479323.000,61.523,-25.391,-31.250,97.656,1.000
1626294640483229.250,10.254,-70.312,-40.527,27.344,1.000
1626294640487135.500,-106.445,-64.453,-51.270,-222.656,1.000
1626294640491041.750,-72.266,-24.414,-20.020,-116.211,1.000
1626294640494948.000,37.598,-33.691,-16.602,143.066,1.000
1626294640498854.250,57.617,-37.598,-16.113,116.211,1.000
1626294640502760.500,-43.945,-31.738,-10.254,-127.930,1.000
1626294640506666.750,-103.027,-26.367,-34.180,-173.828,1.000
1626294640510573.000,14.648,-2.441,-38.086,85.449,1.000
1626294640514479.250,65.918,-21.973,-33.203,152.832,1.000
1626294640518385.500,-48.340,-56.152,-48.340,-106.934,1.000
1626294640522291.750,-108.398,-63.965,-41.504,-206.055,1.000
1626294640526198.000,-12.207,-26.367,-24.902,29.297,1.000
1626294640530104.250,66.406,-3.418,-28.809,1.000,1.000
1626294640534010.500,-8.789,-10.742,-29.297,1.000,1.000
1626294640537916.750,-117.676,-28.809,-28.320,1.000,1.000
1626294640541823.000,-67.871,-39.062,-26.855,1.000,1.000
1626294640545729.250,50.293,-5.859,-25.391,1.000,1.000
1626294640549635.500,25.879,-1.465,-32.715,1.000,1.000
1626294640553541.750,-73.242,-33.691,-26.855,1.000,1.000
1626294640557448.000,-62.988,-62.988,-28.320,1.000,1.000
1626294640561354.250,39.551,-68.848,-30.762,1.000,1.000
1626294640565260.500,64.453,-16.113,-12.695,1.000,1.000
1626294640569166.750,-62.012,-20.020,-19.531,1.000,1.000
1626294640573073.000,-124.512,-45.898,-43.945,1.000,1.000
1626294640576979.250,-0.488,-12.207,-23.438,59.082,1.000
1626294640580885.500,70.312,5.859,-2.441,170.410,1.000
1626294640584791.750,-36.621,-4.395,-22.461,-83.984,1.000
1626294640588698.000,-145.996,-30.762,-42.480,-252.441,1.000
1626294640592604.250,-54.199,-30.762,-33.691,-16.602,1.000
1626294640596510.500,73.730,-43.945,-8.789,200.195,1.000
1626294640600416.750,10.254,-26.367,-14.160,15.137,1.000
1626294640604323.000,-108.887,5.859,-34.180,-223.633,1.000
1626294640608229.250,-63.477,-36.621,-25.391,-85.449,1.000
1626294640612135.500,56.152,-54.199,-7.812,155.273,1.000
1626294640616041.750,27.832,-36.621,-25.391,56.152,1.000
1626294640619948.000,-91.797,-22.949,-42.480,-203.125,1.000
1626294640623854.250,-119.141,-56.152,-35.645,-233.398,1.000
1626294640627760.500,-82.031,-67.871,-7.812,-108.887,1.000
1626294640631666.750,48.828,-17.578,-1.953,151.855,1.000
1626294640635573.000,27.344,1.465,-39.551,73.730,1.000
1626294640639479.250,-108.887,-41.504,-62.988,-210.449,1.000
1626294640643385.500,-135.742,-64.453,-41.992,-199.219,1.000
1626294640647291.750,0.000,-44.434,-17.578,97.168,1.000
1626294640651198.000,76.172,-20.020,2.930,156.250,1.000
1626294640655104.250,-38.574,-23.438,-21.973,-116.211,1.000
1626294640659010.500,-102.051,-29.297,-29.297,-197.266,1.000
1626294640662916.750,-15.625,-33.691,-18.555,41.504,1.000
1626294640666823.000,73.730,-16.113,-16.602,187.012,1.000
1626294640670729.250,72.266,-13.672,-39.062,-23.438,1.000
1626294640674635.500,-37.109,-42.480,-44.434,-221.680,1.000
1626294640678541.750,-100.098,-44.922,-14.160,-49.316,1.000
1626294640682448.000,-14.160,-28.320,-11.719,170.410,1.000
1626294640686354.250,71.289,-14.648,-31.250,47.852,1.000
1626294640690260.500,14.160,-34.668,-30.273,-185.059,1.000
1626294640694166.750,-80.078,-39.551,-22.949,-109.375,1.000
1626294640698073.000,-44.922,0.977,-23.438,151.855,1.000
1626294640701979.250,61.523,-11.719,-18.066,145.996,1.000
1626294640705885.500,31.738,-25.391,-35.156,-125.977,1.000
1626294640709791.750,-104.492,-40.039,-70.801,-165.527,1.000
1626294640713698.000,-96.191,-47.363,-46.387,85.938,1.000
1626294640717604.250,38.086,-16.113,-20.508,1.000,1.000
1626294640721510.500,54.199,-30.273,-39.551,1.000,1.000
1626294640725416.750,-71.289,-56.641,-43.945,1.000,1.000
1626294640729323.000,-119.141,-47.852,-43.457,1.000,1.000
1626294640733229.250,-11.230,-18.555,-28.320,1.000,1.000
1626294640737135.500,50.781,-2.930,-26.367,1.000,1.000
1626294640741041.750,-42.969,-23.926,-36.621,1.000,1.000
1626294640744948.000,-115.234,-39.062,-25.879,1.000,1.000
1626294640748854.250,-26.855,-34.668,2.441,1.000,1.000
1626294640752760.500,55.664,-67.871,-5.859,1.000,1.000
1626294640756666.750,-7.324,-55.176,-28.809,1.000,1.000
1626294640760573.000,-116.699,-23.438,-42.480,1.000,1.000
1626294640764479.250,-68.848,-22.949,-44.434,-81.055,1.000
1626294640768385.500,73.730,-21.484,-23.926,172.852,1.000
1626294640772291.750,62.988,-29.785,-32.227,107.422,1.000
1626294640776198.000,-61.035,-31.250,-26.367,-155.762,1.000
1626294640780104.250,-83.984,-24.902,-7.324,-142.578,1.000
1626294640784010.500,37.598,-12.695,12.695,140.137,1.000
1626294640787916.750,81.055,-18.555,3.418,157.715,1.000
1626294640791823.000,-49.805,-29.785,-43.457,-133.789,1.000
1626294640795729.250,-111.816,-11.719,-38.086,-199.707,1.000
1626294640799635.500,-4.395,-12.695,-20.508,45.410,1.000
1626294640803541.750,34.180,-24.414,-50.293,130.371,1.000
1626294640807448.000,-59.570,-22.949,-64.453,-82.520,1.000
1626294640811354.250,-44.434,-35.645,-35.156,-119.141,1.000
1626294640815260.500,-112.305,-38.574,-41.016,-221.191,1.000
1626294640819166.750,-4.883,-19.043,-21.973,27.344,1.000
1626294640823073.000,88.867,-11.719,-9.277,183.594,1.000
1626294640826979.250,8.789,-24.902,-21.484,-41.016,1.000
1626294640830885.500,-112.793,-42.969,-35.645,-232.910,1.000
1626294640834791.750,-62.988,-51.270,-36.621,-48.828,1.000
1626294640838698.000,59.570,-14.648,-39.551,177.246,1.000
1626294640842604.250,13.184,-11.230,-51.758,24.902,1.000
1626294640846510.500,-128.906,-45.410,-54.199,-245.605,1.000
1626294640850416.750,-109.863,-30.273,-28.320,-132.812,1.000
1626294640854323.000,12.695,-16.602,-25.879,127.930,1.000
1626294640858229.250,30.273,-33.691,-27.344,1.000,1.000
1626294640862135.500,-83.496,-55.664,-24.902,1.000,1.000
1626294640866041.750,-130.371,-56.152,-19.043,1.000,1.000
1626294640869948.000,-13.672,-31.738,-4.395,1.000,1.000
1626294640873854.250,35.645,-27.344,-27.344,1.000,1.000
1626294640877760.500,-74.707,-36.621,-41.992,1.000,1.000
1626294640881666.750,-146.484,-28.809,-34.180,1.000,1.000
1626294640885573.000,-59.082,-5.371,-28.809,1.000,1.000
1626294640889479.250,46.387,-3.418,-22.461,1.000,1.000
1626294640893385.500,2.441,4.395,-13.184,1.000,1.000
1626294640897291.750,-124.512,-34.180,-40.527,1.000,1.000
1626294640901198.000,-100.586,-66.895,-42.480,1.000,1.000
1626294640905104.250,23.438,-51.270,-4.883,166.992,1.000
1626294640909010.500,-1.953,-57.617,-24.414,43.945,1.000
1626294640912916.750,-115.234,-31.250,-39.551,-209.473,1.000
1626294640916823.000,-87.891,-16.602,-13.184,-136.719,1.000
1626294640920729.250,21.484,-21.973,-5.859,130.859,1.000
1626294640924635.500,19.043,-11.719,-29.297,100.586,1.000
1626294640928541.750,-82.031,-4.883,-36.133,-161.133,1.000
1626294640932448.000,-99.609,10.254,-17.090,-176.270,1.000
1626294640936354.250,7.812,-13.184,-20.020,79.102,1.000
1626294640940260.500,63.477,-38.574,-32.227,157.715,1.000
1626294640944166.750,-37.598,-37.109,-46.875,-88.867,1.000
1626294640948073.000,-118.652,-47.852,-46.875,-223.145,1.000
1626294640951979.250,-34.180,-57.129,-41.992,1.000,1.000
1626294640955885.500,79.590,-29.785,-28.809,1.000,1.000
1626294640959791.750,14.160,-25.391,-20.996,1.000,1.000
1626294640963698.000,-129.883,-42.969,-39.062,1.000,1.000
1626294640967604.250,-74.219,-2.441,-17.578,1.000,1.000
1626294640971510.500,58.105,18.066,-2.441,1.000,1.000
1626294640975416.750,29.785,-14.648,-20.020,1.000,1.000
1626294640979323.000,-98.145,-31.738,-32.715,1.000,1.000
1626294640983229.250,-111.816,-40.527,-40.039,1.000,1.000
1626294640987135.500,23.438,-28.320,-30.762,1.000,1.000
1626294640991041.750,63.477,-35.645,-41.992,1.000,1.000
1626294640994948.000,-44.434,-73.730,-54.688,1.000,1.000
1626294640998854.250,-78.125,-67.871,-45.898,-194.824,1.000
1626294641002760.500,45.410,-13.672,-31.738,76.172,1.000
1626294641006666.750,81.055,3.906,-39.551,153.809,1.000
1626294641010573.000,-35.156,-5.371,-54.199,-108.398,1.000
1626294641014479.250,-112.793,-26.367,-51.758,-261.719,1.000
1626294641018385.500,-51.270,-20.996,-44.922,-45.410,1.000
1626294641022291.750,53.223,-20.508,-29.785,160.645,1.000
1626294641026198.000,24.414,-29.785,-32.227,6.836,1.000
1626294641030104.250,-86.914,-9.766,-58.594,-224.609,1.000
1626294641034010.500,-62.988,-19.531,-38.574,-100.098,1.000
1626294641037916.750,44.434,-34.668,-17.090,144.043,1.000
1626294641041823.000,64.941,-39.062,-2.930,89.844,1.000
1626294641045729.250,32.715,-57.617,-22.461,-155.273,1.000
1626294641049635.500,-69.336,-58.105,-35.645,-172.363,1.000
1626294641053541.750,-71.777,-21.484,-43.457,79.102,1.000
1626294641057448.000,51.758,21.484,-20.020,118.164,1.000
1626294641061354.250,51.270,-24.414,-38.574,-123.047,1.000
1626294641065260.500,-78.125,-46.875,-61.523,-208.496,1.000
1626294641069166.750,-118.652,-15.625,-41.016,37.109,1.000
1626294641073073.000,-4.395,-26.855,-24.902,196.289,1.000
1626294641076979.250,83.008,-16.602,0.488,-48.828,1.000
1626294641080885.500,-22.949,-14.160,-13.184,-213.379,1.000
1626294641084791.750,-105.957,-39.551,-25.391,-5.371,1.000
1626294641088698.000,-40.039,-36.133,-41.992,168.945,1.000
1626294641092604.250,42.480,-25.391,-49.316,146.973,1.000
1626294641096510.500,-8.301,-27.832,-29.297,-41.992,1.000
1626294641100416.750,-108.398,-25.391,-19.043,-230.469,1.000
1626294641104323.000,-74.219,-27.832,-19.531,-67.871,1.000
1626294641108229.250,31.250,-14.160,-27.344,151.855,1.000
1626294641112135.500,-8.301,-32.227,-42.969,31.738,1.000
1626294641116041.750,-120.117,-67.383,-58.105,-224.121,1.000
1626294641119948.000,-108.887,-61.035,-38.086,-118.652,1.000
1626294641123854.250,22.949,-17.578,-25.879,179.199,1.000
1626294641127760.500,42.480,-13.672,-56.152,128.418,1.000
1626294641131666.750,-103.516,-46.875,-70.801,-178.711,1.000
1626294641135573.000,-140.137,-48.828,-49.316,-217.285,1.000
1626294641139479.250,-14.648,-26.367,-27.344,58.105,1.000
1626294641143385.500,44.922,-28.809,-14.160,171.875,1.000
1626294641147291.750,-49.316,-55.176,-26.367,-74.219,1.000
1626294641151198.000,-130.371,-63.965,-44.922,-234.863,1.000
1626294641155104.250,-47.852,-25.879,-35.156,-32.227,1.000
1626294641159010.500,35.156,-8.789,-25.879,150.391,1.000
1626294641162916.750,-14.648,-17.090,-36.133,-41.504,1.000
1626294641166823.000,-115.234,-26.855,-40.039,-276.855,1.000
1626294641170729.250,-84.961,-52.246,-28.320,-116.699,1.000
1626294641174635.500,35.156,-38.574,-21.973,179.688,1.000
1626294641178541.750,24.414,-24.414,-37.109,83.496,1.000
1626294641182448.000,-86.914,-40.039,-28.809,-190.430,1.000
1626294641186354.250,-124.023,-27.344,-38.086,-240.723,1.000
1626294641190260.500,-83.496,-31.250,-18.555,-104.980,1.000
1626294641194166.750,40.039,-24.414,-9.277,136.719,1.000
1626294641198073.000,33.203,-18.066,-23.926,53.223,1.000
1626294641201979.250,-86.914,-48.340,-25.879,-211.426,1.000
1626294641205885.500,-98.145,-51.758,-29.785,-178.223,1.000
1626294641209791.750,26.367,-5.371,-23.926,109.863,1.000
1626294641213698.000,51.270,-0.488,-28.809,127.930,1.000
1626294641217604.250,-70.312,-16.113,-48.340,-167.969,1.000
1626294641221510.500,-113.281,-4.395,-33.691,-233.887,1.000
1626294641225416.750,9.277,-9.277,-18.555,33.203,1.000
1626294641229323.000,84.961,-18.555,-16.602,157.715,1.000
1626294641233229.250,57.129,-28.809,-15.137,-75.684,1.000
1626294641237135.500,-38.086,-29.297,-29.785,-246.582,1.000
1626294641241041.750,-114.258,-37.109,-59.082,-37.109,1.000
1626294641244948.000,-9.766,-3.906,-51.758,185.547,1.000
1626294641248854.250,88.867,17.090,-34.668,20.508,1.000
1626294641252760.500,1.953,-40.527,-44.922,-193.359,1.000
1626294641256666.750,-127.930,-79.590,-43.945,-65.918,1.000
1626294641260573.000,-84.961,-57.129,-25.391,154.297,1.000
1626294641264479.250,61.523,-2.441,8.301,104.492,1.000
1626294641268385.500,25.879,9.766,1.465,-199.707,1.000
1626294641272291.750,-117.676,-27.344,-39.062,-231.445,1.000
1626294641276198.000,-102.051,-61.035,-42.969,62.500,1.000
1626294641280104.250,45.898,-44.922,-18.555,1.000,1.000
1626294641284010.500,63.477,-26.855,-17.090,1.000,1.000
1626294641287916.750,-67.383,-35.156,-35.645,1.000,1.000
1626294641291823.000,-93.262,-28.320,-35.156,1.000,1.000
1626294641295729.250,29.297,2.930,-33.203,1.000,1.000
1626294641299635.500,88.867,-5.371,-23.438,1.000,1.000
1626294641303541.750,-25.391,-38.086,-24.414,1.000,1.000
1626294641307448.000,-80.078,-49.805,-32.227,1.000,1.000
1626294641311354.250,41.504,-38.574,-25.879,1.000,1.000
1626294641315260.500,55.176,-19.043,-37.109,1.000,1.000
1626294641319166.750,-72.266,-31.738,-43.945,1.000,1.000
1626294641323073.000,-111.328,-29.297,-43.457,1.000,1.000
1626294641326979.250,8.789,-18.555,-40.527,95.703,1.000
1626294641330885.500,86.914,-4.883,-32.715,189.941,1.000
1626294641334791.750,-3.418,-12.695,-22.461,-64.453,1.000
1626294641338698.000,-95.703,-44.434,-20.020,-219.238,1.000
1626294641342604.250,-12.695,-44.922,-13.184,0.977,1.000
1626294641346510.500,75.195,-23.926,-16.602,185.059,1.000
1626294641350416.750,-4.883,-35.645,-40.039,-20.508,1.000
1626294641354323.000,-91.797,-57.129,-43.945,-234.375,1.000
1626294641358229.250,-36.621,-40.527,-34.180,-67.871,1.000
1626294641362135.500,60.059,-13.184,-16.602,167.969,1.000
1626294641366041.750,23.438,-15.137,-33.203,48.828,1.000
1626294641369948.000,-114.258,-60.059,-59.570,-229.980,1.000
1626294641373854.250,-12.207,-19.531,-20.508,-244.141,1.000
1626294641377760.500,-133.301,-17.578,-30.273,-140.625,1.000
1626294641381666.750,-100.586,-31.738,-32.227,139.160,1.000
1626294641385573.000,20.508,-13.672,-20.020,97.656,1.000
1626294641389479.250,-7.812,-24.414,-39.062,-194.336,1.000
1626294641393385.500,-140.625,-54.688,-48.340,-177.246,1.000
1626294641397291.750,-122.070,-64.941,-41.016,115.723,1.000
1626294641401198.000,13.672,-57.617,-30.762,152.832,1.000
1626294641405104.250,25.391,-40.039,-17.578,-130.859,1.000
1626294641409010.500,-73.730,-32.227,-21.973,-235.840,1.000
1626294641412916.750,-89.844,-13.672,-32.227,12.207,1.000
1626294641416823.000,7.812,9.277,-44.434,157.227,1.000
1626294641420729.250,29.297,-22.461,-54.688,126.953,1.000
1626294641424635.500,-92.285,-70.801,-60.059,-159.668,1.000
1626294641428541.750,-160.156,-49.805,-40.039,-262.207,1.000
1626294641432448.000,-44.434,-7.324,-2.441,9.766,1.000
1626294641436354.250,57.129,-20.996,6.348,162.598,1.000
1626294641440260.500,-9.277,-37.109,-11.230,-25.879,1.000
1626294641444166.750,-134.277,-28.809,-40.039,-231.934,1.000
1626294641448073.000,-79.590,-22.461,-23.438,-70.312,1.000
1626294641451979.250,61.035,-20.996,-7.812,180.664,1.000
1626294641455885.500,26.367,-29.785,-33.203,44.434,1.000
1626294641459791.750,-107.422,-36.621,-49.316,-222.656,1.000
1626294641463698.000,-104.980,-25.391,-43.945,-143.555,1.000
1626294641467604.250,26.855,-32.715,-27.344,1.000,1.000
1626294641471510.500,51.270,-46.875,-32.715,1.000,1.000
1626294641475416.750,-77.148,-42.480,-54.199,1.000,1.000
1626294641479323.000,-120.117,-14.160,-51.758,1.000,1.000
1626294641483229.250,6.836,7.324,-34.668,1.000,1.000
1626294641487135.500,59.570,-21.973,-35.645,1.000,1.000
1626294641491041.750,-42.480,-55.664,-28.809,1.000,1.000
1626294641494948.000,-106.445,-43.945,-11.719,1.000,1.000
1626294641498854.250,-24.902,-33.691,-7.324,1.000,1.000
1626294641502760.500,60.059,-41.016,-18.066,1.000,1.000
1626294641506666.750,12.695,-31.738,-35.156,1.000,1.000
1626294641510573.000,-90.332,-44.922,-40.527,1.000,1.000
1626294641514479.250,-52.734,-37.109,-14.160,-74.219,1.000
1626294641518385.500,48.340,-40.039,-6.348,156.738,1.000
1626294641522291.750,13.184,-55.664,-42.480,40.039,1.000
1626294641526198.000,-92.285,-15.137,-61.523,-209.961,1.000
1626294641530104.250,-83.984,7.812,-44.922,-150.879,1.000
1626294641534010.500,27.832,-6.348,-37.109,114.258,1.000
1626294641537916.750,47.852,-34.668,-36.133,107.422,1.000
1626294641541823.000,-58.105,-44.434,-28.320,-153.809,1.000
1626294641545729.250,-101.562,-41.016,-23.926,-201.172,1.000
1626294641549635.500,20.996,-17.090,-5.859,78.125,1.000
1626294641553541.750,99.121,0.000,-8.789,190.918,1.000
1626294641557448.000,-8.301,-32.715,-27.832,-66.895,1.000
1626294641561354.250,-61.523,-29.297,-34.668,-232.910,1.000
1626294641565260.500,-119.629,-44.922,-26.367,-26.855,1.000
1626294641569166.750,-22.461,-60.059,-34.180,176.758,1.000
1626294641573073.000,67.871,-51.270,-34.668,4.883,1.000
1626294641576979.250,-4.395,-35.156,-33.691,-236.816,1.000
1626294641580885.500,-112.793,-39.062,-55.664,-104.980,1.000
1626294641584791.750,-64.941,-22.949,-52.734,172.852,1.000
1626294641588698.000,49.805,-3.906,-24.414,93.262,1.000
1626294641592604.250,12.207,-6.348,-29.297,-208.496,1.000
1626294641596510.500,-98.145,-8.789,-32.715,-181.152,1.000
1626294641600416.750,-74.219,-2.930,-19.043,119.141,1.000
1626294641604323.000,24.414,-7.812,-26.855,134.766,1.000
1626294641608229.250,36.621,-20.508,-29.785,1.000,1.000
1626294641612135.500,-81.543,-40.039,-21.484,1.000,1.000
1626294641616041.750,-110.840,-43.457,-8.789,1.000,1.000
1626294641619948.000,21.484,-31.250,-5.859,1.000,1.000
1626294641623854.250,59.570,-45.410,-26.367,1.000,1.000
1626294641627760.500,-48.340,-41.504,-37.109,1.000,1.000
1626294641631666.750,-111.328,-26.367,-48.828,1.000,1.000
1626294641635573.000,-26.367,-16.602,-62.988,1.000,1.000
1626294641639479.250,54.199,-5.371,-49.805,1.000,1.000
1626294641643385.500,-9.766,-15.625,-24.414,1.000,1.000
1626294641647291.750,-97.656,-15.625,-18.066,1.000,1.000
1626294641651198.000,-45.410,-15.137,-29.297,1.000,1.000
1626294641655104.250,64.453,-23.926,-34.180,167.969,1.000
1626294641659010.500,19.531,-40.527,-44.434,41.504,1.000
1626294641662916.750,-105.957,-59.570,-43.457,-218.750,1.000
1626294641666823.000,-77.148,-47.852,-20.996,-121.094,1.000
1626294641670729.250,39.062,-23.438,-22.949,149.902,1.000
1626294641674635.500,50.781,-21.484,-26.367,119.141,1.000
1626294641678541.750,-71.777,-21.973,-32.715,-152.832,1.000
1626294641682448.000,-104.980,-12.207,-38.574,-167.969,1.000
1626294641686354.250,37.109,-7.812,-35.645,113.281,1.000
1626294641690260.500,84.961,-33.691,-24.902,180.176,1.000
1626294641694166.750,-42.480,-54.199,-22.949,-83.984,1.000
1626294641698073.000,-125.977,-22.461,-28.320,-214.355,1.000
1626294641701979.250,-118.652,-27.832,-36.133,-210.449,1.000
1626294641705885.500,-10.742,-20.508,-17.578,55.176,1.000
1626294641709791.750,57.129,-24.414,-13.184,161.621,1.000
1626294641713698.000,-28.809,-29.785,-27.832,-68.848,1.000
1626294641717604.250,-112.793,-49.316,-29.785,-218.262,1.000
1626294641721510.500,-20.508,-27.832,-2.930,8.789,1.000
1626294641725416.750,75.195,-41.016,-11.719,190.918,1.000
1626294641729323.000,5.371,-70.801,-40.527,-3.418,1.000
1626294641733229.250,-85.938,-66.895,-40.527,-211.426,1.000
1626294641737135.500,-46.387,-39.062,-51.758,-79.102,1.000
1626294641741041.750,41.016,0.977,-56.641,150.391,1.000
1626294641744948.000,22.949,-19.043,-26.367,67.383,1.000
1626294641748854.250,30.762,-24.902,-13.184,-182.617,1.000
1626294641752760.500,-101.562,-34.180,-46.875,-148.926,1.000
1626294641756666.750,-71.289,-24.414,-36.133,119.141,1.000
1626294641760573.000,63.965,-6.836,-20.996,121.094,1.000
1626294641764479.250,61.523,-15.625,-21.484,-157.715,1.000
1626294641768385.500,-68.359,-53.223,-28.320,-199.219,1.000
1626294641772291.750,-115.723,-84.473,-46.875,48.340,1.000
1626294641776198.000,-0.488,-35.156,-40.527,175.781,1.000
1626294641780104.250,55.176,6.348,-30.273,-40.039,1.000
1626294641784010.500,-39.551,-17.578,-25.879,-222.656,1.000
1626294641787916.750,-117.676,-33.203,-48.340,-41.992,1.000
1626294641791823.000,-44.434,-50.293,-75.195,172.852,1.000
1626294641795729.250,61.523,-32.715,-35.156,1.000,1.000
1626294641799635.500,-10.254,-41.016,-18.555,1.000,1.000
1626294641803541.750,-110.840,-38.574,-40.527,1.000,1.000
1626294641807448.000,-60.547,-23.926,-32.715,1.000,1.000
1626294641811354.250,32.715,-41.992,-29.785,1.000,1.000
1626294641815260.500,7.324,-17.090,-30.762,1.000,1.000
1626294641819166.750,-100.098,-10.254,-31.250,1.000,1.000
1626294641823073.000,-77.148,-23.438,-14.160,1.000,1.000
1626294641826979.250,31.250,-33.203,-16.113,1.000,1.000
1626294641830885.500,11.719,-45.898,-40.527,1.000,1.000
1626294641834791.750,-89.355,-29.297,-28.809,1.000,1.000
1626294641838698.000,-110.840,-17.090,-9.766,1.000,1.000
1626294641842604.250,4.395,-9.277,8.789,107.910,1.000
1626294641846510.500,47.852,-21.484,-3.418,168.457,1.000
1626294641850416.750,-71.289,-57.129,-25.391,-111.816,1.000
1626294641854323.000,-135.254,-52.734,-21.973,-221.680,1.000
1626294641858229.250,-29.297,-24.902,-27.832,18.555,1.000
1626294641862135.500,61.523,-9.766,-31.738,177.246,1.000
1626294641866041.750,-21.973,-33.203,-37.598,-40.039,1.000
1626294641869948.000,-106.445,-44.434,-27.344,-238.770,1.000
1626294641873854.250,-50.293,-47.852,-13.184,-71.777,1.000
1626294641877760.500,47.363,-46.875,-32.715,145.508,1.000
1626294641881666.750,37.109,-20.996,-54.688,42.969,1.000
1626294641885573.000,-90.332,-32.227,-56.641,-207.520,1.000
1626294641889479.250,-113.770,-15.625,-39.062,-234.375,1.000
1626294641893385.500,-96.191,-20.508,-46.875,-111.328,1.000
1626294641897291.750,18.066,-38.086,-50.781,123.535,1.000
1626294641901198.000,35.645,-32.715,-37.109,62.988,1.000
1626294641905104.250,-77.637,-36.621,-40.527,-193.848,1.000
1626294641909010.500,-97.656,-36.621,-42.480,-168.457,1.000
1626294641912916.750,20.996,-25.879,-34.180,107.422,1.000
1626294641916823.000,60.059,-39.551,-28.809,137.695,1.000
1626294641920729.250,-39.551,-40.039,-19.531,-124.512,1.000
1626294641924635.500,-102.539,-25.879,-28.809,-207.031,1.000
1626294641928541.750,-18.555,-20.996,-31.738,44.434,1.000
1626294641932448.000,76.172,0.000,-15.625,181.641,1.000
1626294641936354.250,-19.043,-10.742,-30.762,1.000,1.000
1626294641940260.500,-133.789,-25.391,-50.781,1.000,1.000
1626294641944166.750,-59.082,-35.645,-52.734,1.000,1.000
1626294641948073.000,58.105,-30.762,-22.949,1.000,1.000
1626294641951979.250,37.598,0.488,-0.488,1.000,1.000
1626294641955885.500,-82.520,-18.555,-22.949,1.000,1.000
1626294641959791.750,-76.660,-18.066,-39.551,1.000,1.000
1626294641963698.000,18.066,-28.809,-43.457,1.000,1.000
1626294641967604.250,20.508,-41.992,-27.832,1.000,1.000
1626294641971510.500,-87.891,-16.602,-39.062,1.000,1.000
1626294641975416.750,-130.371,-21.484,-59.570,1.000,1.000
1626294641979323.000,-3.906,-32.715,-39.551,1.000,1.000
1626294641983229.250,51.758,-42.969,-34.180,126.953,1.000
1626294641987135.500,-61.035,-43.457,-35.645,-146.973,1.000
1626294641991041.750,-119.629,-21.973,-35.156,-244.629,1.000
1626294641994948.000,-33.203,-36.133,-42.969,-4.395,1.000
1626294641998854.250,43.457,-25.879,-22.949,138.672,1.000
1626294642002760.500,-20.020,-34.180,-36.133,-66.406,1.000
1626294642006666.750,-119.629,-54.688,-77.148,-256.836,1.000
1626294642010573.000,-58.594,-12.207,-41.992,-65.430,1.000
1626294642014479.250,56.641,21.973,-2.441,168.457,1.000
1626294642018385.500,3.906,-6.836,-25.391,7.324,1.000
1626294642022291.750,-101.562,-40.527,-32.715,-220.703,1.000
1626294642026198.000,-64.941,-31.738,-19.043,-118.652,1.000
1626294642030104.250,-60.547,-32.715,-43.457,-64.941,1.000
1626294642034010.500,57.617,-11.719,-33.203,173.340,1.000
1626294642037916.750,32.715,-15.625,-16.113,65.430,1.000
1626294642041823.000,-99.609,-47.852,-7.324,-209.961,1.000
1626294642045729.250,-123.047,-35.156,-9.766,-169.434,1.000
1626294642049635.500,-9.766,-13.672,-11.230,105.957,1.000
1626294642053541.750,25.879,-20.996,-16.113,107.422,1.000
1626294642057448.000,-71.777,-24.902,-54.688,-165.527,1.000
1626294642061354.250,-102.539,-11.230,-57.617,-199.707,1.000
1626294642065260.500,2.930,-22.461,-26.855,74.219,1.000
1626294642069166.750,58.594,-39.551,-39.062,156.250,1.000
1626294642073073.000,-31.738,-48.828,-43.457,-96.191,1.000
1626294642076979.250,-87.402,-35.156,-44.434,-226.562,1.000
1626294642080885.500,-142.578,-49.805,-34.180,-3.906,1.000
1626294642084791.750,-53.223,-56.641,-8.789,178.223,1.000
1626294642088698.000,49.805,-33.203,-8.789,-1.465,1.000
1626294642092604.250,-20.508,-30.762,-29.785,-231.445,1.000
1626294642096510.500,-121.094,-41.504,-37.109,-99.609,1.000
1626294642100416.750,-52.734,-42.969,-17.578,143.555,1.000
1626294642104323.000,68.848,-21.484,-0.977,91.309,1.000
1626294642108229.250,22.949,-20.996,-17.090,-157.715,1.000
1626294642112135.500,-110.352,-51.270,-34.180,-164.551,1.000
1626294642116041.750,-74.707,-53.223,-24.414,90.820,1.000
1626294642119948.000,56.152,-35.645,-24.902,91.309,1.000
1626294642123854.250,49.316,-21.973,-31.250,1.000,1.000
1626294642127760.500,-80.078,-21.484,-33.691,1.000,1.000
1626294642131666.750,-96.191,-15.137,-34.180,1.000,1.000
1626294642135573.000,24.902,-27.344,-31.250,1.000,1.000
1626294642139479.250,74.707,-39.551,-40.039,1.000,1.000
1626294642143385.500,-19.043,-18.555,-25.879,1.000,1.000
1626294642147291.750,-99.121,-16.113,-32.715,1.000,1.000
1626294642151198.000,-13.672,-22.461,-58.594,1.000,1.000
1626294642155104.250,83.496,-31.250,-34.180,1.000,1.000
1626294642159010.500,19.043,-36.621,-19.531,1.000,1.000
1626294642162916.750,-90.332,-30.273,-35.645,1.000,1.000
1626294642166823.000,-40.527,-14.160,-38.086,1.000,1.000
1626294642170729.250,65.430,-19.043,-6.348,167.480,1.000
1626294642174635.500,1.465,-61.523,-20.508,0.488,1.000
1626294642178541.750,-116.211,-64.453,-49.316,-227.539,1.000
1626294642182448.000,-65.918,-45.410,-0.488,-106.934,1.000
1626294642186354.250,42.480,-55.664,-0.488,150.879,1.000
1626294642190260.500,27.832,-35.645,-34.180,94.727,1.000
1626294642194166.750,-81.543,-45.410,-55.664,-187.012,1.000
1626294642198073.000,-100.098,-42.480,-63.477,-202.637,1.000
1626294642201979.250,3.906,-6.836,-27.832,85.938,1.000
1626294642205885.500,58.105,-17.090,-28.809,151.855,1.000
1626294642209791.750,-43.945,-37.109,-50.781,-113.770,1.000
1626294642213698.000,-123.535,-48.828,-37.598,-216.309,1.000
1626294642217604.250,-125.000,-44.922,-44.922,-210.449,1.000
1626294642221510.500,1.465,-16.602,-13.672,63.965,1.000
1626294642225416.750,46.387,-5.859,-32.715,159.180,1.000
1626294642229323.000,-61.523,-62.012,-53.223,-90.332,1.000
1626294642233229.250,-94.727,-54.688,-28.809,-219.727,1.000
1626294642237135.500,-4.395,-2.930,0.977,24.902,1.000
1626294642241041.750,85.938,-10.742,-28.320,223.633,1.000
1626294642244948.000,20.020,-47.852,-46.387,11.230,1.000
1626294642248854.250,-111.816,-52.734,-17.578,-233.398,1.000
1626294642252760.500,-98.145,-22.949,-20.508,-106.934,1.000
1626294642256666.750,6.836,-3.906,-25.391,144.043,1.000
1626294642260573.000,23.438,-4.395,-18.066,76.660,1.000
1626294642264479.250,-7.324,-29.297,-13.672,-218.750,1.000
1626294642268385.500,-111.816,-48.828,-26.855,-187.012,1.000
1626294642272291.750,-65.430,-57.129,-28.809,117.676,1.000
1626294642276198.000,47.852,-32.227,-23.926,154.785,1.000
1626294642280104.250,38.574,-16.602,-19.531,-126.465,1.000
1626294642284010.500,-84.961,-36.621,-34.180,-234.375,1.000
1626294642287916.750,-121.582,-77.148,-61.523,66.895,1.000
1626294642291823.000,-8.301,-70.801,-55.664,166.504,1.000
1626294642295729.250,49.805,-31.738,-28.320,-108.887,1.000
1626294642299635.500,-56.152,-43.945,-33.691,-241.211,1.000
1626294642303541.750,-122.559,-61.035,-50.293,-20.020,1.000
1626294642307448.000,-32.227,-60.547,-60.059,183.594,1.000
1626294642311354.250,64.941,-37.598,-35.645,1.000,1.000
1626294642315260.500,-4.395,-22.949,-21.484,1.000,1.000
1626294642319166.750,-96.191,-21.973,-24.902,1.000,1.000
1626294642323073.000,-42.480,-14.160,-22.461,1.000,1.000
1626294642326979.250,51.270,-18.555,-20.508,1.000,1.000
1626294642330885.500,22.461,-8.789,-24.902,1.000,1.000
1626294642334791.750,-113.281,-25.391,-52.734,1.000,1.000
1626294642338698.000,-106.934,-38.086,-39.062,1.000,1.000
1626294642342604.250,43.945,-30.273,-8.301,1.000,1.000
1626294642346510.500,53.711,-53.711,-25.879,1.000,1.000
1626294642350416.750,-90.332,-39.551,-21.484,1.000,1.000
1626294642354323.000,-118.652,-12.695,-17.578,1.000,1.000
1626294642358229.250,0.000,-20.508,-35.645,95.215,1.000
1626294642362135.500,34.180,-44.434,-40.527,134.277,1.000
1626294642366041.750,-66.895,-62.500,-40.527,-136.719,1.000
1626294642369948.000,-128.906,-56.152,-37.109,-224.609,1.000
1626294642373854.250,-40.527,-30.273,-27.832,14.648,1.000
1626294642377760.500,57.617,-2.441,-34.668,168.945,1.000
1626294642381666.750,-22.949,-45.898,-57.617,-41.992,1.000
1626294642385573.000,-123.047,-50.293,-55.176,-233.398,1.000
1626294642389479.250,-49.805,-4.883,-36.133,-53.223,1.000
1626294642393385.500,64.941,-7.812,-24.414,175.781,1.000
1626294642397291.750,39.551,-26.855,-19.531,54.688,1.000
1626294642401198.000,-86.426,-88.867,-33.691,-198.242,1.000
1626294642405104.250,-84.473,-34.180,-40.039,-204.102,1.000
1626294642409010.500,-65.430,-59.082,-40.527,-69.336,1.000
1626294642412916.750,46.387,-62.500,-15.137,169.922,1.000
1626294642416823.000,44.434,-22.949,3.418,82.031,1.000
1626294642420729.250,-95.215,-23.926,-29.785,-197.266,1.000
1626294642424635.500,-116.699,-16.602,-40.527,-164.062,1.000
1626294642428541.750,14.160,-2.930,-32.227,106.934,1.000
1626294642432448.000,47.852,-12.695,-46.875,104.004,1.000
1626294642436354.250,-67.871,-25.391,-44.922,-163.086,1.000
1626294642440260.500,-120.117,-36.133,-28.320,-209.473,1.000
1626294642444166.750,-8.789,-33.203,-26.855,63.477,1.000
1626294642448073.000,50.293,-36.133,-34.668,156.738,1.000
1626294642451979.250,-39.062,-40.039,-37.109,1.000,1.000
1626294642455885.500,-105.469,-41.992,-41.992,1.000,1.000
1626294642459791.750,-20.996,-33.691,-28.320,1.000,1.000
1626294642463698.000,77.148,-32.715,-16.602,1.000,1.000
1626294642467604.250,23.438,-58.105,-28.809,1.000,1.000
1626294642471510.500,-82.520,-42.969,-51.758,1.000,1.000
1626294642475416.750,-68.848,-13.672,-53.711,1.000,1.000
1626294642479323.000,20.508,-1.465,-30.273,1.000,1.000
1626294642483229.250,25.391,-2.930,-19.531,1.000,1.000
1626294642487135.500,-74.707,-23.926,-13.672,1.000,1.000
1626294642491041.750,-95.703,-20.508,-13.184,1.000,1.000
1626294642494948.000,27.832,-12.695,-4.883,1.000,1.000
1626294642498854.250,74.707,-16.602,4.883,167.480,1.000
1626294642502760.500,-34.668,-36.621,-17.090,-100.098,1.000
1626294642506666.750,-105.469,-39.551,-31.250,-198.242,1.000
1626294642510573.000,-13.184,-26.367,-14.648,39.551,1.000
1626294642514479.250,46.875,-26.855,-14.160,158.691,1.000
1626294642518385.500,-35.156,-41.016,-30.762,-58.105,1.000
1626294642522291.750,-122.559,-60.059,-31.738,-224.609,1.000
1626294642526198.000,-60.547,-48.340,-23.438,-41.504,1.000
1626294642530104.250,62.988,-15.137,-13.672,179.688,1.000
1626294642534010.500,11.230,-12.207,-51.758,24.414,1.000
1626294642537916.750,-120.117,-35.645,-73.242,-235.352,1.000
1626294642541823.000,-81.055,-45.898,-24.902,-124.512,1.000
1626294642545729.250,-63.965,-12.207,-34.668,-61.035,1.000
1626294642549635.500,59.570,-7.812,-31.738,177.734,1.000
1626294642553541.750,41.016,-11.719,-4.395,76.172,1.000
1626294642557448.000,-74.219,-30.273,0.000,-178.223,1.000
1626294642561354.250,-92.773,-43.457,-15.137,-138.672,1.000
1626294642565260.500,33.203,-43.457,-24.414,127.441,1.000
1626294642569166.750,64.453,-18.555,-12.207,124.023,1.000
1626294642573073.000,-82.031,-22.949,-24.902,-164.062,1.000
1626294642576979.250,-124.023,-45.410,-43.945,-200.195,1.000
1626294642580885.500,-6.836,-32.715,-18.066,71.777,1.000
1626294642584791.750,54.199,-24.902,-6.348,145.508,1.000
1626294642588698.000,-44.434,-30.273,-37.109,-108.887,1.000
1626294642592604.250,-72.754,-59.570,-59.082,-229.980,1.000
1626294642596510.500,-89.844,-38.086,-20.508,1.465,1.000
1626294642600416.750,29.785,-8.789,-8.301,183.105,1.000
1626294642604323.000,77.148,0.977,-21.973,10.254,1.000
1626294642608229.250,-19.043,-23.926,-9.277,-218.262,1.000
1626294642612135.500,-121.094,-59.082,-18.066,-97.656,1.000
1626294642616041.750,-44.434,-10.254,-21.973,155.273,1.000
1626294642619948.000,55.176,16.602,-18.066,66.895,1.000
1626294642623854.250,-12.207,-27.344,-30.762,-217.773,1.000
1626294642627760.500,-121.094,-50.781,-41.016,-182.129,1.000
1626294642631666.750,-75.684,-50.781,-30.273,112.793,1.000
1626294642635573.000,62.500,-21.973,-1.465,129.395,1.000
1626294642639479.250,56.641,-6.836,-10.254,1.000,1.000
1626294642643385.500,-79.102,-40.039,-27.344,1.000,1.000
1626294642647291.750,-97.656,-33.203,-19.043,1.000,1.000
1626294642651198.000,26.367,4.883,-19.531,1.000,1.000
1626294642655104.250,62.988,5.859,-23.926,1.000,1.000
1626294642659010.500,-48.340,-25.391,-52.734,1.000,1.000
1626294642662916.750,-99.609,-43.457,-65.430,1.000,1.000
1626294642666823.000,-9.766,-37.598,-33.691,1.000,1.000
1626294642670729.250,74.707,-38.574,0.977,1.000,1.000
1626294642674635.500,-1.953,-42.480,-1.465,1.000,1.000
1626294642678541.750,-116.699,-30.762,-28.809,1.000,1.000
1626294642682448.000,-56.641,-27.832,-26.367,1.000,1.000
1626294642686354.250,49.316,-42.480,-35.645,160.645,1.000
1626294642690260.500,19.531,-33.203,-37.109,18.066,1.000
1626294642694166.750,-88.867,-5.371,-31.250,-208.984,1.000
1626294642698073.000,-78.613,-6.836,-42.480,-113.281,1.000
1626294642701979.250,43.945,6.836,-48.340,140.625,1.000
1626294642705885.500,40.039,-6.348,-47.852,82.520,1.000
1626294642709791.750,-83.984,-25.391,-39.062,-187.012,1.000
1626294642713698.000,-94.238,-36.621,-7.324,-168.945,1.000
1626294642717604.250,24.902,-32.227,0.000,114.258,1.000
1626294642721510.500,45.898,-35.156,-35.645,140.625,1.000
1626294642725416.750,-73.242,-45.410,-40.039,-136.719,1.000
1626294642729323.000,-130.371,-29.785,-27.344,-213.867,1.000
1626294642733229.250,-117.188,-33.203,-38.574,-193.359,1.000
1626294642737135.500,0.000,-25.879,-34.668,77.637,1.000
1626294642741041.750,76.172,4.395,-25.391,172.852,1.000
1626294642744948.000,-25.391,-10.742,-34.180,-81.055,1.000
1626294642748854.250,-118.652,-52.246,-40.527,-226.562,1.000
1626294642752760.500,-39.062,-46.387,-25.391,6.348,1.000
1626294642756666.750,48.340,-13.672,-42.969,168.457,1.000
1626294642760573.000,-5.859,-24.902,-52.734,-15.137,1.000
1626294642764479.250,-91.309,-26.367,-32.227,-194.824,1.000
1626294642768385.500,-63.477,-18.555,-28.809,-58.594,1.000
1626294642772291.750,29.785,-20.020,-18.555,150.391,1.000
1626294642776198.000,3.418,-36.133,-33.691,38.086,1.000
1626294642780104.250,-107.422,-38.086,-41.992,1.000,1.000
1626294642784010.500,-99.609,-19.043,-21.973,1.000,1.000
1626294642787916.750,22.949,-6.348,-38.574,1.000,1.000
1626294642791823.000,53.711,-11.230,-41.504,1.000,1.000
1626294642795729.250,-64.941,-39.551,-32.227,1.000,1.000
1626294642799635.500,-120.605,-58.594,-30.273,1.000,1.000
1626294642803541.750,-16.602,-52.246,-20.508,1.000,1.000
1626294642807448.000,56.152,-40.527,-22.949,1.000,1.000
1626294642811354.250,-29.785,-26.855,-41.992,1.000,1.000
1626294642815260.500,-112.793,-27.832,-62.988,1.000,1.000
1626294642819166.750,-37.109,-29.785,-40.039,1.000,1.000
1626294642823073.000,58.594,-25.391,-12.695,1.000,1.000
1626294642826979.250,20.020,-14.648,-13.672,15.625,1.000
1626294642830885.500,-103.027,-34.668,-29.785,-217.285,1.000
1626294642834791.750,-76.660,-48.828,-25.879,-94.727,1.000
1626294642838698.000,71.289,-28.320,-14.160,178.711,1.000
1626294642842604.250,48.828,-30.273,-28.320,92.773,1.000
1626294642846510.500,-89.844,-19.531,-46.387,-188.477,1.000
1626294642850416.750,-94.238,-22.461,-51.758,-161.621,1.000
1626294642854323.000,46.875,-15.625,-39.551,124.512,1.000
1626294642858229.250,92.773,-17.090,-33.691,150.391,1.000
1626294642862135.500,-40.527,-47.852,-39.551,-143.066,1.000
1626294642866041.750,-113.281,-60.059,-21.973,-216.797,1.000
1626294642869948.000,-10.254,-59.082,-7.812,49.316,1.000
1626294642873854.250,70.801,-42.969,-26.367,162.109,1.000
1626294642877760.500,-19.043,-27.344,-40.527,-77.637,1.000
1626294642881666.750,-126.465,-13.672,-52.734,-242.188,1.000
1626294642885573.000,-66.406,-22.461,-43.945,-50.293,1.000
1626294642889479.250,40.527,-40.039,-25.879,157.715,1.000
1626294642893385.500,22.461,-30.762,-18.555,35.645,1.000
1626294642897291.750,-76.660,-17.090,-16.113,-187.500,1.000
1626294642901198.000,-70.801,-25.391,-27.832,-104.980,1.000
1626294642905104.250,34.180,-42.969,-50.293,131.836,1.000
1626294642909010.500,29.785,-41.016,-30.273,67.871,1.000
1626294642912916.750,-78.613,-50.781,-15.625,-200.684,1.000
1626294642916823.000,-99.121,-59.570,-24.902,-187.988,1.000
1626294642920729.250,7.812,-23.438,-25.879,91.309,1.000
1626294642924635.500,53.711,-9.277,-37.598,138.672,1.000
1626294642928541.750,-48.340,-29.785,-56.152,-116.699,1.000
1626294642932448.000,-108.887,-31.250,-49.316,-205.078,1.000
1626294642936354.250,-22.461,-8.789,-20.996,34.180,1.000
1626294642940260.500,55.176,5.859,-15.625,167.480,1.000
1626294642944166.750,-18.066,-21.973,-38.086,-50.781,1.000
1626294642948073.000,-113.281,-44.434,-38.574,-235.352,1.000
1626294642951979.250,-58.594,-37.109,-18.066,-49.805,1.000
1626294642955885.500,61.035,-44.434,-19.531,174.805,1.000
1626294642959791.750,35.156,-51.270,-42.969,49.316,1.000
1626294642963698.000,-109.863,-67.383,-65.918,-212.402,1.000
1626294642967604.250,-115.723,-40.527,-49.316,-234.375,1.000
1626294642971510.500,-73.242,-35.156,-61.523,-83.984,1.000
1626294642975416.750,35.156,-31.738,-41.504,148.438,1.000
1626294642979323.000,29.297,-32.715,-24.414,51.758,1.000
1626294642983229.250,-93.750,-54.199,-33.691,-213.867,1.000
1626294642987135.500,-97.168,-27.832,-45.410,-151.855,1.000
1626294642991041.750,27.344,7.812,-31.250,139.160,1.000
1626294642994948.000,34.668,-30.273,-25.879,123.535,1.000
1626294642998854.250,-86.426,-63.965,-32.715,-160.645,1.000
1626294643002760.500,-131.348,-46.875,-35.645,-216.309,1.000
1626294643006666.750,-21.484,-14.648,-25.879,38.086,1.000
1626294643010573.000,47.852,-3.906,-21.484,141.113,1.000
1626294643014479.250,-57.617,-18.555,-52.734,1.000,1.000
1626294643018385.500,-124.023,-11.230,-60.547,1.000,1.000
1626294643022291.750,-22.949,-23.438,-44.434,1.000,1.000
1626294643026198.000,56.641,-30.762,-21.484,1.000,1.000
1626294643030104.250,3.906,-14.160,-2.441,1.000,1.000
1626294643034010.500,-103.516,-15.625,-13.184,1.000,1.000
1626294643037916.750,-54.688,-16.602,-26.367,1.000,1.000
1626294643041823.000,58.594,-28.809,-46.875,1.000,1.000
1626294643045729.250,24.902,-45.410,-53.711,1.000,1.000
1626294643049635.500,-87.891,-28.320,-24.902,1.000,1.000
1626294643053541.750,-105.469,-15.625,-23.438,1.000,1.000
1626294643057448.000,3.906,-9.277,-44.434,1.000,1.000
1626294643061354.250,40.527,-1.953,-36.133,109.863,1.000
1626294643065260.500,-69.336,-26.367,-36.133,-155.762,1.000
1626294643069166.750,-109.863,-42.969,-22.461,-203.613,1.000
1626294643073073.000,8.789,-26.855,-13.672,63.477,1.000
1626294643076979.250,91.309,-13.184,-23.926,175.781,1.000
1626294643080885.500,-5.371,-40.527,-22.461,-49.316,1.000
1626294643084791.750,-88.379,-33.203,-7.812,-195.312,1.000
1626294643088698.000,-23.438,-16.602,-8.301,-11.719,1.000
1626294643092604.250,51.758,-15.137,-42.969,151.855,1.000
1626294643096510.500,-6.348,-13.672,-91.309,-5.371,1.000
1626294643100416.750,-126.465,-27.832,-88.379,-232.422,1.000
1626294643104323.000,-97.168,-23.926,-36.621,-119.629,1.000
1626294643108229.250,-67.383,-45.898,-28.320,-64.941,1.000
1626294643112135.500,41.992,-33.691,-27.344,160.645,1.000
1626294643116041.750,-7.812,-41.504,-45.410,5.371,1.000
1626294643119948.000,-130.371,-57.129,-53.711,-241.699,1.000
1626294643123854.250,-104.980,-50.781,-43.457,-126.953,1.000
1626294643127760.500,27.832,-15.625,-31.250,143.066,1.000
1626294643131666.750,40.039,-25.879,-31.738,106.445,1.000
1626294643135573.000,-79.590,-37.598,-30.273,-162.109,1.000
1626294643139479.250,-105.957,-12.695,-24.414,-167.969,1.000
1626294643143385.500,-0.488,-7.324,-37.598,91.309,1.000
1626294643147291.750,45.410,-26.367,-62.988,130.371,1.000
1626294643151198.000,-72.754,-56.641,-58.105,-141.602,1.000
1626294643155104.250,-66.406,-37.598,-36.621,-162.598,1.000
1626294643159010.500,-92.773,-38.086,-59.570,-205.566,1.000
1626294643162916.750,9.766,-35.156,-54.688,79.102,1.000
1626294643166823.000,83.496,-42.480,-29.785,191.406,1.000
1626294643170729.250,-0.977,-36.621,-36.621,-69.336,1.000
1626294643174635.500,-110.840,-36.133,-45.898,-230.469,1.000
1626294643178541.750,-41.504,10.254,-6.348,10.742,1.000
1626294643182448.000,63.965,15.137,17.578,207.031,1.000
1626294643186354.250,-12.695,-38.574,-8.301,3.906,1.000
1626294643190260.500,-113.770,-34.668,-32.227,-222.656,1.000
1626294643194166.750,-45.898,-3.906,-34.180,-72.266,1.000
1626294643198073.000,53.711,1.465,-30.762,168.945,1.000
1626294643201979.250,59.082,-34.180,-19.043,1.000,1.000
1626294643205885.500,-42.480,-56.152,-14.648,1.000,1.000
1626294643209791.750,-94.727,-31.250,-39.551,1.000,1.000
1626294643213698.000,-8.789,-24.414,-53.711,1.000,1.000
1626294643217604.250,31.738,-33.203,-51.758,1.000,1.000
1626294643221510.500,-60.059,-22.949,-66.406,1.000,1.000
1626294643225416.750,-112.305,-15.625,-61.523,1.000,1.000
1626294643229323.000,-6.836,-15.625,-18.555,1.000,1.000
1626294643233229.250,75.195,-38.086,0.000,1.000,1.000
1626294643237135.500,-14.648,-59.082,-14.648,1.000,1.000
1626294643241041.750,-123.535,-43.945,-31.738,1.000,1.000
1626294643244948.000,-38.574,-22.461,-30.273,1.000,1.000
1626294643248854.250,83.984,-15.137,-19.531,184.570,1.000
1626294643252760.500,3.418,-41.504,-42.480,12.695,1.000
1626294643256666.750,-123.047,-58.594,-68.359,-230.469,1.000
1626294643260573.000,-78.613,-40.527,-45.410,-99.609,1.000
1626294643264479.250,64.453,-31.738,-12.695,161.621,1.000
1626294643268385.500,71.289,-31.250,-11.230,102.051,1.000
1626294643272291.750,-84.961,-40.039,-47.852,-184.570,1.000
1626294643276198.000,-116.699,-41.504,-63.965,-175.293,1.000
1626294643280104.250,3.906,-41.504,-43.945,98.145,1.000
1626294643284010.500,56.641,-18.555,-21.484,132.812,1.000
1626294643287916.750,-30.762,-21.484,-20.996,-123.535,1.000
1626294643291823.000,-129.395,-98.145,-47.852,-236.328,1.000
1626294643295729.250,-135.254,-49.805,-29.297,-194.824,1.000
1626294643299635.500,-8.789,-40.039,-24.902,82.520,1.000
1626294643303541.750,49.316,-30.273,-30.762,159.180,1.000
1626294643307448.000,-67.383,-36.621,-46.875,-114.258,1.000
1626294643311354.250,-150.879,-49.805,-58.594,-242.676,1.000
1626294643315260.500,-45.410,-29.297,-35.645,16.602,1.000
1626294643319166.750,77.148,0.488,-3.418,197.266,1.000
1626294643323073.000,15.137,-16.602,-20.508,-15.137,1.000
1626294643326979.250,-125.000,-15.625,-55.176,-234.863,1.000
1626294643330885.500,-80.566,-5.371,-27.832,-75.195,1.000
1626294643334791.750,30.762,-34.180,0.488,157.227,1.000
1626294643338698.000,3.906,-32.227,-20.020,41.992,1.000
1626294643342604.250,-125.000,-26.855,-42.969,1.000,1.000
1626294643346510.500,-134.277,-37.109,-33.203,1.000,1.000
1626294643350416.750,7.812,-23.926,-7.324,1.000,1.000
1626294643354323.000,49.316,-29.297,-9.766,1.000,1.000
1626294643358229.250,-74.219,-38.086,-31.250,1.000,1.000
1626294643362135.500,-117.676,-10.254,-44.922,1.000,1.000
1626294643366041.750,12.695,15.137,-26.367,1.000,1.000
1626294643369948.000,55.176,7.324,-6.836,1.000,1.000
1626294643373854.250,-55.664,-39.551,-28.320,1.000,1.000
1626294643377760.500,-144.531,-58.594,-47.363,1.000,1.000
1626294643381666.750,-65.918,-35.156,-35.156,1.000,1.000
1626294643385573.000,39.062,-25.391,-35.156,1.000,1.000
1626294643389479.250,-16.113,-35.156,-44.922,-15.137,1.000
1626294643393385.500,-105.469,-29.785,-42.480,-211.914,1.000
1626294643397291.750,-64.453,-23.926,-28.809,-77.148,1.000
1626294643401198.000,41.504,-42.480,-9.277,155.273,1.000
1626294643405104.250,24.414,-51.758,-22.949,52.734,1.000
1626294643409010.500,-96.191,-48.340,-37.109,-207.031,1.000
1626294643412916.750,-101.562,-25.879,-16.602,-147.461,1.000
1626294643416823.000,17.578,-17.578,-13.184,123.535,1.000
1626294643420729.250,54.199,-30.762,-22.949,131.836,1.000
1626294643424635.500,-52.734,-46.387,-29.297,-134.766,1.000
1626294643428541.750,-102.539,-31.250,-42.480,-189.941,1.000
1626294643432448.000,12.207,-13.672,-20.508,81.055,1.000
1626294643436354.250,62.500,-31.738,-19.531,1.000,1.000
1626294643440260.500,-39.551,-47.852,-32.715,1.000,1.000
1626294643444166.750,-125.977,-39.062,-25.879,1.000,1.000
1626294643448073.000,-66.406,-41.016,-24.414,1.000,1.000
1626294643451979.250,35.645,-47.363,-47.852,1.000,1.000
1626294643455885.500,6.348,-27.832,-62.988,1.000,1.000
1626294643459791.750,-106.934,-34.668,-56.641,1.000,1.000
1626294643463698.000,-79.590,-32.227,-31.738,1.000,1.000
1626294643467604.250,48.340,-19.043,-7.324,1.000,1.000
1626294643471510.500,50.293,-18.066,-14.648,1.000,1.000
1626294643475416.750,-70.801,-31.738,-19.531,1.000,1.000
1626294643479323.000,-110.352,-47.363,-20.020,1.000,1.000
1626294643483229.250,5.859,-23.926,-16.113,103.027,1.000
1626294643487135.500,75.684,-9.277,-24.902,152.344,1.000
1626294643491041.750,-22.461,-46.875,-35.645,-118.652,1.000
1626294643494948.000,-110.840,-43.457,-34.180,-213.379,1.000
1626294643498854.250,-24.902,-29.785,-24.414,37.109,1.000
1626294643502760.500,65.918,-40.527,-24.902,169.434,1.000
1626294643506666.750,12.207,-11.719,-33.203,-27.344,1.000
1626294643510573.000,-89.355,-7.812,-41.016,-207.520,1.000
1626294643514479.250,-36.133,-20.996,-24.902,-29.785,1.000
1626294643518385.500,67.871,-22.461,-11.230,182.617,1.000
1626294643522291.750,9.277,-50.293,-37.109,21.973,1.000
1626294643526198.000,-108.887,-85.449,-67.383,-231.445,1.000
1626294643530104.250,-111.816,-65.430,-25.391,-121.094,1.000
1626294643534010.500,-49.805,-60.547,-29.297,157.227,1.000
1626294643537916.750,57.617,-30.273,-36.133,108.887,1.000
1626294643541823.000,34.668,-17.578,-30.762,-175.293,1.000
1626294643545729.250,-81.055,-29.785,-37.598,-180.664,1.000
1626294643549635.500,-90.820,-34.180,-49.316,97.168,1.000
1626294643553541.750,26.367,-14.648,-40.527,170.898,1.000
1626294643557448.000,52.246,-4.883,-24.414,-95.215,1.000
1626294643561354.250,-61.523,-45.410,-36.133,-216.797,1.000
1626294643565260.500,-114.746,-57.617,-40.527,31.250,1.000
1626294643569166.750,1.465,-35.156,-25.879,179.199,1.000
1626294643573073.000,69.824,-59.570,-22.949,-40.039,1.000
1626294643576979.250,-35.645,-55.664,-32.715,1.000,1.000
1626294643580885.500,-116.211,-27.832,-46.387,1.000,1.000
1626294643584791.750,-19.043,-12.695,-40.527,1.000,1.000
1626294643588698.000,82.031,-14.648,-29.297,1.000,1.000
1626294643592604.250,7.812,-34.668,-28.320,1.000,1.000
1626294643596510.500,-113.770,-43.457,-31.250,1.000,1.000
1626294643600416.750,-67.871,-21.484,-32.227,1.000,1.000
1626294643604323.000,63.477,-5.859,-13.184,1.000,1.000
1626294643608229.250,48.828,-18.555,-3.418,1.000,1.000
1626294643612135.500,-70.801,-31.250,-17.090,1.000,1.000
1626294643616041.750,-82.031,-16.113,-34.180,1.000,1.000
1626294643619948.000,42.480,-0.488,-17.090,1.000,1.000
1626294643623854.250,61.035,-15.625,-28.809,136.719,1.000
1626294643627760.500,-55.176,-19.043,-47.852,-136.230,1.000
1626294643631666.750,-86.426,-28.809,-14.648,-177.246,1.000
1626294643635573.000,11.719,-27.832,-2.930,75.684,1.000
1626294643639479.250,82.031,5.371,-10.742,177.734,1.000
1626294643643385.500,-9.766,-2.441,-34.180,-63.477,1.000
1626294643647291.750,-109.375,-28.809,-47.363,-223.145,1.000
1626294643651198.000,-46.875,-20.508,-38.086,-18.066,1.000
1626294643655104.250,59.082,-9.766,-26.367,179.199,1.000
1626294643659010.500,15.625,-12.695,-14.648,12.207,1.000
1626294643662916.750,-105.957,-28.809,-33.203,-222.168,1.000
1626294643666823.000,-86.426,-77.148,-49.316,-106.445,1.000
1626294643670729.250,-40.527,-21.973,-17.090,-22.461,1.000
1626294643674635.500,56.152,-33.691,-30.762,167.480,1.000
1626294643678541.750,8.301,-38.086,-39.551,11.230,1.000
1626294643682448.000,-101.562,-26.855,-38.086,-219.238,1.000
1626294643686354.250,-92.285,-25.391,-58.594,-128.906,1.000
1626294643690260.500,33.203,-8.789,-44.434,133.789,1.000
1626294643694166.750,46.875,-26.367,-11.230,96.680,1.000
1626294643698073.000,-84.473,-62.988,-17.090,-183.594,1.000
1626294643701979.250,-119.629,-54.688,-29.785,-190.430,1.000
1626294643705885.500,7.812,-27.832,-20.508,87.891,1.000
1626294643709791.750,65.918,-14.648,-12.695,147.949,1.000
1626294643713698.000,-62.012,-47.852,-38.574,-128.906,1.000
1626294643717604.250,-85.938,-27.344,-39.551,-241.699,1.000
1626294643721510.500,-135.254,-43.457,-41.504,19.043,1.000
1626294643725416.750,-18.555,-24.902,-26.367,176.270,1.000
1626294643729323.000,47.852,-12.695,-30.273,-49.316,1.000
1626294643733229.250,-52.734,-25.879,-33.691,-244.141,1.000
1626294643737135.500,-127.930,-37.109,-26.855,-46.875,1.000
1626294643741041.750,-41.016,-26.367,-20.020,178.223,1.000
1626294643744948.000,49.805,-15.137,-11.719,42.969,1.000
1626294643748854.250,-18.555,-41.504,-28.809,-195.801,1.000
1626294643752760.500,-134.277,-61.523,-56.152,-104.492,1.000
1626294643756666.750,-92.773,-54.688,-39.551,153.809,1.000
1626294643760573.000,24.902,-31.250,-23.926,118.164,1.000
1626294643764479.250,26.855,-6.348,-26.855,1.000,1.000
1626294643768385.500,-96.680,-27.344,-41.504,1.000,1.000
1626294643772291.750,-123.535,-43.945,-38.086,1.000,1.000
1626294643776198.000,6.836,-15.625,-11.719,1.000,1.000
1626294643780104.250,31.250,-24.902,-20.996,1.000,1.000
1626294643784010.500,-79.102,-36.621,-32.715,1.000,1.000
1626294643787916.750,-111.816,-26.855,-26.367,1.000,1.000
1626294643791823.000,-8.301,-25.391,-24.414,1.000,1.000
1626294643795729.250,52.734,-18.066,-31.738,1.000,1.000
1626294643799635.500,-52.246,-42.480,-52.246,1.000,1.000
1626294643803541.750,-124.023,-84.473,-55.176,1.000,1.000
1626294643807448.000,-16.602,-30.762,-23.926,1.000,1.000
1626294643811354.250,78.125,8.301,-8.789,200.195,1.000
1626294643815260.500,5.371,-12.695,-29.297,5.371,1.000
1626294643819166.750,-119.629,-16.113,-49.316,-232.422,1.000
1626294643823073.000,-88.379,-29.297,-43.457,-101.562,1.000
1626294643826979.250,46.387,-24.414,-31.738,151.855,1.000
1626294643830885.500,54.199,-23.926,-30.762,87.402,1.000
1626294643834791.750,-68.848,-57.617,-35.156,-183.594,1.000
1626294643838698.000,-98.633,-73.730,-42.480,-167.969,1.000
1626294643842604.250,24.414,-27.344,-24.902,119.629,1.000
1626294643846510.500,70.801,10.742,-9.277,153.809,1.000
1626294643850416.750,-52.734,-2.930,-36.621,-128.418,1.000
1626294643854323.000,-123.047,-9.277,-61.523,-216.309,1.000
1626294643858229.250,-100.586,-35.645,-26.367,-183.594,1.000
1626294643862135.500,4.883,-27.832,-26.367,88.379,1.000
1626294643866041.750,55.664,-28.320,-42.480,140.137,1.000
1626294643869948.000,-44.434,-26.855,-48.340,-119.141,1.000
1626294643873854.250,-125.488,-50.293,-33.203,-208.008,1.000
1626294643877760.500,-8.301,-28.809,4.395,53.223,1.000
1626294643881666.750,68.848,-23.926,-8.301,177.734,1.000
1626294643885573.000,-18.066,-41.992,-41.504,-52.734,1.000
1626294643889479.250,-111.328,-38.086,-60.547,-235.352,1.000
1626294643893385.500,-63.477,-31.738,-58.594,-61.035,1.000
1626294643897291.750,56.152,-18.066,-23.438,171.875,1.000
1626294643901198.000,24.902,-17.090,-27.832,37.109,1.000
1626294643905104.250,-103.516,-39.062,-51.270,1.000,1.000
1626294643909010.500,-80.078,-55.664,-29.297,1.000,1.000
1626294643912916.750,36.621,-33.691,-1.465,1.000,1.000
1626294643916823.000,34.180,-17.090,-5.859,1.000,1.000
1626294643920729.250,-83.984,-42.480,-22.461,1.000,1.000
1626294643924635.500,-114.258,-41.016,-22.949,1.000,1.000
1626294643928541.750,3.906,-14.648,-11.230,1.000,1.000
1626294643932448.000,69.336,-12.695,-19.043,1.000,1.000
1626294643936354.250,-19.043,-22.949,-32.715,1.000,1.000
1626294643940260.500,-88.867,-24.902,-12.207,1.000,1.000
1626294643944166.750,-13.672,-17.578,-12.695,1.000,1.000
1626294643948073.000,86.914,2.441,-18.555,1.000,1.000
1626294643951979.250,26.855,1.953,-26.855,-6.348,1.000
1626294643955885.500,-110.352,-34.668,-40.527,-229.980,1.000
1626294643959791.750,-75.195,-40.039,-33.203,-77.148,1.000
1626294643963698.000,52.734,-25.391,-23.438,169.434,1.000
1626294643967604.250,40.527,-19.531,-22.461,72.754,1.000
1626294643971510.500,-65.430,-35.645,-42.480,-176.270,1.000
1626294643975416.750,-75.684,-62.012,-54.199,-134.277,1.000
1626294643979323.000,20.020,-64.453,-38.086,116.699,1.000
1626294643983229.250,49.805,-40.527,-30.273,119.141,1.000
1626294643987135.500,-68.848,-46.875,-32.715,-159.180,1.000
1626294643991041.750,-115.723,-59.570,-14.160,-203.125,1.000
1626294643994948.000,15.625,-9.766,14.648,89.844,1.000
1626294643998854.250,80.078,7.324,8.301,183.594,1.000
1626294644002760.500,-27.832,-14.648,-29.785,-82.031,1.000
1626294644006666.750,-120.605,-21.484,-43.457,-235.352,1.000
1626294644010573.000,-45.898,-16.113,-33.203,-24.414,1.000
1626294644014479.250,56.152,-9.766,-24.414,163.086,1.000
1626294644018385.500,5.859,-32.227,-23.438,-7.324,1.000
1626294644022291.750,-107.422,-58.105,-37.598,-221.191,1.000
1626294644026198.000,-80.078,-64.453,-40.527,-92.285,1.000
1626294644030104.250,41.504,-42.969,-31.250,147.461,1.000
1626294644034010.500,21.973,-20.020,-45.410,58.594,1.000
1626294644037916.750,-104.004,-24.902,-57.617,-208.496,1.000
1626294644041823.000,-117.188,-31.738,-44.434,-174.805,1.000
1626294644045729.250,-129.883,-40.039,-49.805,-130.371,1.000
1626294644049635.500,-63.965,-25.391,-25.391,136.719,1.000
1626294644053541.750,42.480,-20.996,-23.438,93.262,1.000
1626294644057448.000,0.488,-36.133,-31.250,-185.547,1.000
1626294644061354.250,-107.422,-32.715,-26.855,-178.223,1.000
1626294644065260.500,-75.684,-25.391,-9.277,115.234,1.000
1626294644069166.750,30.273,-25.391,-20.508,165.039,1.000
1626294644073073.000,29.297,-29.297,-38.086,-118.164,1.000
1626294644076979.250,-85.938,-39.062,-45.898,-227.051,1.000
1626294644080885.500,-118.652,-49.316,-43.457,26.367,1.000
1626294644084791.750,9.277,-42.969,-20.996,163.086,1.000
1626294644088698.000,59.082,-24.414,-24.902,-63.477,1.000
1626294644092604.250,-57.617,-44.922,-48.828,-116.699,1.000
1626294644096510.500,-133.301,-66.895,-54.688,-228.516,1.000
1626294644100416.750,-31.250,-55.176,-41.992,18.555,1.000
1626294644104323.000,73.730,-20.020,-10.742,189.453,1.000
1626294644108229.250,3.418,-11.719,-5.371,-2.441,1.000
1626294644112135.500,-111.328,-50.781,-30.273,-203.613,1.000
1626294644116041.750,-79.590,-50.293,-38.086,-69.824,1.000
1626294644119948.000,29.297,-30.273,-34.668,146.973,1.000
1626294644123854.250,20.020,-15.137,-43.945,49.805,1.000
1626294644127760.500,-104.980,-26.855,-57.617,-200.195,1.000
1626294644131666.750,-99.121,-40.039,-33.691,-136.719,1.000
1626294644135573.000,36.621,-22.949,-6.348,139.160,1.000
1626294644139479.250,52.734,-27.344,-13.672,126.465,1.000
1626294644143385.500,-76.660,-42.969,-31.738,-156.250,1.000
1626294644147291.750,-113.281,-34.668,-16.113,-189.453,1.000
1626294644151198.000,-1.465,-30.762,-6.836,75.195,1.000
1626294644155104.250,65.918,-35.156,-15.137,159.180,1.000
1626294644159010.500,-24.414,-37.598,-27.832,-69.824,1.000
1626294644162916.750,-127.930,-36.621,-44.434,-223.145,1.000
1626294644166823.000,-55.176,-29.785,-47.363,-11.230,1.000
1626294644170729.250,54.199,-7.324,-22.461,181.641,1.000
1626294644174635.500,-14.160,-9.766,-21.973,-12.695,1.000
1626294644178541.750,-130.371,-34.668,-36.621,-244.629,1.000
1626294644182448.000,-86.426,-34.668,-39.062,-94.238,1.000
1626294644186354.250,-40.527,-25.879,-32.227,-28.320,1.000
1626294644190260.500,69.824,-26.367,-35.156,179.199,1.000
1626294644194166.750,17.578,-31.738,-59.082,32.715,1.000
1626294644198073.000,-89.355,-35.645,-48.828,-196.289,1.000
1626294644201979.250,-71.289,-48.828,-41.504,-106.445,1.000
1626294644205885.500,55.664,-41.016,-21.484,160.156,1.000
1626294644209791.750,47.363,-42.969,-5.371,93.262,1.000
1626294644213698.000,-87.402,-46.875,-26.855,-197.754,1.000
1626294644217604.250,-100.098,-24.414,-36.133,-171.387,1.000
1626294644221510.500,18.066,-26.855,-25.391,104.980,1.000
1626294644225416.750,46.387,-41.016,-30.762,131.836,1.000
1626294644229323.000,-67.871,-28.809,-36.133,-131.836,1.000
1626294644233229.250,-80.566,-30.273,-33.691,-210.938,1.000
1626294644237135.500,-110.352,-47.852,-39.062,40.527,1.000
1626294644241041.750,6.348,-50.781,-34.668,167.969,1.000
1626294644244948.000,72.754,-54.688,-24.902,-58.105,1.000
1626294644248854.250,-20.996,-53.711,-23.926,-232.910,1.000
1626294644252760.500,-94.238,-41.016,-36.133,-64.941,1.000
1626294644256666.750,-24.902,-20.508,-32.715,145.508,1.000
1626294644260573.000,46.387,2.930,-17.578,19.531,1.000
1626294644264479.250,-17.090,-3.418,-37.109,-215.332,1.000
1626294644268385.500,-112.305,-21.484,-53.223,-128.418,1.000
1626294644272291.750,-68.359,-24.902,-27.344,141.113,1.000
1626294644276198.000,30.762,-44.922,-15.137,100.586,1.000
1626294644280104.250,16.602,-45.410,-12.207,1.000,1.000
1626294644284010.500,-85.938,-25.879,-27.832,1.000,1.000
1626294644287916.750,-79.102,-36.621,-42.969,1.000,1.000
1626294644291823.000,53.223,-44.922,-9.766,1.000,1.000
1626294644295729.250,44.434,-49.805,-31.250,1.000,1.000
1626294644299635.500,-87.891,-59.082,-54.199,1.000,1.000
1626294644303541.750,-125.977,-42.480,-46.387,1.000,1.000
1626294644307448.000,-19.531,-2.441,-48.828,1.000,1.000
1626294644311354.250,42.969,-12.695,-32.715,1.000,1.000
1626294644315260.500,-58.594,-49.805,-40.039,1.000,1.000
1626294644319166.750,-138.672,-36.621,-44.922,1.000,1.000
1626294644323073.000,-54.199,-58.105,-27.832,1.000,1.000
1626294644326979.250,59.082,-57.617,-7.812,176.270,1.000
1626294644330885.500,-17.578,-59.570,-40.527,-39.062,1.000
1626294644334791.750,-134.277,-51.270,-65.918,-265.137,1.000
1626294644338698.000,-65.918,1.465,-34.668,-79.590,1.000
1626294644342604.250,45.898,-14.648,-21.484,168.945,1.000
1626294644346510.500,40.039,-22.949,-28.320,80.566,1.000
1626294644350416.750,-83.496,-44.434,-39.551,-177.246,1.000
1626294644354323.000,-97.656,-47.363,-47.852,-135.742,1.000
1626294644358229.250,37.598,-4.883,-32.227,141.602,1.000
1626294644362135.500,53.711,-13.184,-15.625,131.836,1.000
1626294644366041.750,-80.566,-45.410,-28.809,-147.461,1.000
1626294644369948.000,-134.277,-60.059,-48.340,-214.844,1.000
1626294644373854.250,-99.609,-23.438,-36.133,-154.785,1.000
1626294644377760.500,8.301,-33.691,-36.621,108.887,1.000
1626294644381666.750,51.270,-39.062,-45.410,133.789,1.000
1626294644385573.000,-50.781,-47.852,-39.551,-121.582,1.000
1626294644389479.250,-107.910,-44.434,-21.973,-202.637,1.000
1626294644393385.500,-5.859,-13.184,-14.648,47.852,1.000
1626294644397291.750,44.922,-26.367,-35.645,158.691,1.000
1626294644401198.000,-37.109,-33.203,-49.316,-73.730,1.000
1626294644405104.250,-113.770,-20.508,-41.504,-227.539,1.000
1626294644409010.500,-47.852,-33.691,-38.086,-32.227,1.000
1626294644412916.750,63.477,-15.625,-38.574,171.387,1.000
1626294644416823.000,-11.719,-45.898,-59.570,2.441,1.000
1626294644420729.250,-133.301,-83.008,-52.246,1.000,1.000
1626294644424635.500,-85.449,-61.035,-31.738,1.000,1.000
1626294644428541.750,41.016,-19.043,-17.090,1.000,1.000
1626294644432448.000,44.922,4.395,-21.973,1.000,1.000
1626294644436354.250,-101.074,-36.133,-48.340,1.000,1.000
1626294644440260.500,-98.633,-19.531,-31.738,1.000,1.000
1626294644444166.750,26.367,3.906,-7.324,1.000,1.000
1626294644448073.000,48.340,-20.020,-12.207,1.000,1.000
1626294644451979.250,-49.805,-26.367,-40.527,1.000,1.000
1626294644455885.500,-140.625,-35.645,-57.129,1.000,1.000
1626294644459791.750,-43.945,-28.320,-39.062,1.000,1.000
1626294644463698.000,67.383,-19.043,-17.090,1.000,1.000
1626294644467604.250,-6.836,-34.180,-20.020,-24.414,1.000
1626294644471510.500,-113.281,-49.316,-31.250,-241.699,1.000
1626294644475416.750,-73.730,-40.527,-18.555,-73.242,1.000
1626294644479323.000,41.504,-10.254,-0.488,166.504,1.000
1626294644483229.250,23.438,-13.184,-12.207,45.410,1.000
1626294644487135.500,-89.844,-23.438,-41.992,-202.637,1.000
1626294644491041.750,-119.141,-41.016,-50.293,-144.043,1.000
1626294644494948.000,12.695,-26.367,-16.602,136.719,1.000
1626294644498854.250,57.617,-33.691,-16.113,129.395,1.000
1626294644502760.500,-70.312,-55.176,-50.293,-158.691,1.000
1626294644506666.750,-108.398,-33.203,-46.875,-190.918,1.000
1626294644510573.000,-25.879,-53.223,-44.922,48.340,1.000
1626294644514479.250,20.020,-24.414,-48.340,136.719,1.000
1626294644518385.500,40.527,-18.555,-58.594,124.512,1.000
1626294644522291.750,-86.914,-31.738,-37.598,-171.875,1.000
1626294644526198.000,-131.836,-41.016,-18.555,-221.191,1.000
1626294644530104.250,-14.160,-36.133,-13.184,50.781,1.000
1626294644534010.500,64.941,-27.832,-27.344,166.992,1.000
1626294644537916.750,-38.086,-29.297,-47.852,-82.520,1.000
1626294644541823.000,-130.859,-41.504,-41.992,-239.258,1.000
1626294644545729.250,-50.781,-41.504,-16.602,-27.344,1.000
1626294644549635.500,52.246,-28.320,-4.395,163.086,1.000
1626294644553541.750,7.812,-49.316,-23.438,-6.836,1.000
1626294644557448.000,-127.441,-61.523,-65.430,-255.371,1.000
1626294644561354.250,-105.469,-28.320,-46.387,-126.465,1.000
1626294644565260.500,-40.039,0.488,-28.809,148.438,1.000
1626294644569166.750,54.688,-12.207,-27.832,101.562,1.000
1626294644573073.000,16.113,-28.320,-50.293,-176.270,1.000
1626294644576979.250,-76.660,-18.555,-48.828,-167.969,1.000
1626294644580885.500,-51.758,-11.230,-19.531,118.652,1.000
1626294644584791.750,41.992,-36.133,-16.602,149.902,1.000
1626294644588698.000,40.039,-40.039,-31.250,-122.070,1.000
1626294644592604.250,-72.754,-44.922,-30.762,-208.008,1.000
1626294644596510.500,-99.609,-45.410,-30.273,48.828,1.000
1626294644600416.750,25.391,-10.254,-33.691,178.711,1.000
1626294644604323.000,84.473,-23.926,-17.578,-57.129,1.000
1626294644608229.250,-35.156,-37.109,-29.297,1.000,1.000
1626294644612135.500,-103.516,-14.648,-56.152,1.000,1.000
1626294644616041.750,7.324,-20.020,-36.621,1.000,1.000
1626294644619948.000,92.773,-27.832,-20.996,1.000,1.000
1626294644623854.250,3.418,-29.297,-42.969,1.000,1.000
1626294644627760.500,-109.375,-21.484,-67.871,1.000,1.000
1626294644631666.750,-41.504,-3.906,-30.273,1.000,1.000
1626294644635573.000,74.707,-7.812,0.000,1.000,1.000
1626294644639479.250,37.109,-33.691,-3.906,1.000,1.000
1626294644643385.500,-110.840,-56.641,-25.391,1.000,1.000
1626294644647291.750,-127.930,-48.340,-44.434,1.000,1.000
1626294644651198.000,14.160,-31.250,-34.180,1.000,1.000
1626294644655104.250,50.293,-40.039,-35.156,104.980,1.000
1626294644659010.500,-73.242,-53.711,-39.062,-171.387,1.000
1626294644662916.750,-113.281,-55.664,-24.902,-193.848,1.000
1626294644666823.000,11.719,-39.551,-18.066,87.891,1.000
1626294644670729.250,68.848,-19.531,-21.973,163.086,1.000
1626294644674635.500,-39.062,-17.578,-40.527,-95.703,1.000
1626294644678541.750,-114.258,-24.414,-50.781,-215.820,1.000
1626294644682448.000,-17.578,-27.344,-24.902,16.602,1.000
1626294644686354.250,75.684,-36.621,-27.344,181.641,1.000
1626294644690260.500,1.465,-37.109,-35.156,-11.719,1.000
1626294644694166.750,-133.301,-39.551,-42.480,-242.188,1.000
1626294644698073.000,-97.168,-43.457,-41.992,-104.492,1.000
1626294644701979.250,-11.230,-27.832,-12.207,13.672,1.000
1626294644705885.500,76.660,-38.574,-11.719,187.012,1.000
1626294644709791.750,-13.672,-55.664,-32.227,-24.414,1.000
1626294644713698.000,-130.371,-27.832,-36.133,-250.977,1.000
1626294644717604.250,-95.215,-18.555,-38.086,-114.746,1.000
1626294644721510.500,31.738,-29.297,-31.738,140.625,1.000
1626294644725416.750,18.066,-50.293,-57.129,57.617,1.000
1626294644729323.000,-99.121,-51.758,-54.199,-203.125,1.000
1626294644733229.250,-74.707,-34.180,-18.066,-147.949,1.000
1626294644737135.500,45.898,-24.902,-13.672,118.164,1.000
1626294644741041.750,48.340,-20.020,-5.859,127.930,1.000
1626294644744948.000,-78.613,-46.387,-26.367,-157.715,1.000
1626294644748854.250,-132.324,-46.387,-52.246,1.000,1.000
1626294644752760.500,-14.648,-18.555,-41.504,1.000,1.000
1626294644756666.750,79.590,2.441,-25.391,1.000,1.000
1626294644760573.000,-39.062,-26.367,-37.109,1.000,1.000
1626294644764479.250,-164.551,-98.145,-41.992,1.000,1.000
1626294644768385.500,-66.406,-51.758,-25.879,1.000,1.000
1626294644772291.750,65.430,2.441,-8.789,1.000,1.000
1626294644776198.000,20.020,-40.039,-1.465,1.000,1.000
1626294644780104.250,-99.121,-74.707,-13.184,1.000,1.000
1626294644784010.500,-87.891,-55.664,-32.715,1.000,1.000
1626294644787916.750,41.504,-9.277,-24.414,1.000,1.000
1626294644791823.000,37.598,-19.531,-29.785,1.000,1.000
1626294644795729.250,-69.824,-18.066,-41.016,1.000,1.000
1626294644799635.500,-94.238,-19.043,-33.691,1.000,1.000
1626294644803541.750,-6.836,-35.156,-35.156,1.000,1.000
1626294644807448.000,62.988,-10.742,-36.621,1.000,1.000
1626294644811354.250,-39.062,-26.855,-46.875,1.000,1.000
1626294644815260.500,-113.281,-58.594,-31.738,1.000,1.000
1626294644819166.750,-20.996,-81.543,-18.555,1.000,1.000
1626294644823073.000,58.105,-47.852,-26.367,1.000,1.000
1626294644826979.250,-8.301,-20.020,-23.926,1.000,1.000
1626294644830885.500,-103.027,-18.066,-21.484,1.000,1.000
1626294644834791.750,-61.523,-11.719,-24.414,1.000,1.000
1626294644838698.000,45.898,-26.367,-24.414,1.000,1.000
1626294644842604.250,28.320,-18.555,-36.133,1.000,1.000
1626294644846510.500,-100.586,-33.203,-50.781,1.000,1.000
1626294644850416.750,-94.727,-38.086,-19.043,1.000,1.000
1626294644854323.000,18.066,-7.812,-18.066,1.000,1.000
1626294644858229.250,26.367,-26.855,-48.828,1.000,1.000
1626294644862135.500,-81.055,-63.477,-22.461,1.000,1.000
1626294644866041.750,-122.559,-50.781,-20.996,1.000,1.000
1626294644869948.000,10.742,-10.742,-15.625,1.000,1.000
1626294644873854.250,84.473,17.090,0.977,1.000,1.000
1626294644877760.500,-41.992,13.672,-37.598,1.000,1.000
1626294644881666.750,-124.023,-36.133,-39.551,1.000,1.000
1626294644885573.000,-30.273,-49.316,-9.277,1.000,1.000
1626294644889479.250,50.781,-23.926,-20.020,170.410,1.000
1626294644893385.500,-28.809,-31.250,-47.852,-42.480,1.000
1626294644897291.750,-124.512,-37.598,-49.316,-238.770,1.000
1626294644901198.000,-76.660,-36.133,-49.316,-67.871,1.000
1626294644905104.250,41.992,-33.691,-33.691,164.551,1.000
1626294644909010.500,47.852,-27.832,-10.254,68.848,1.000
1626294644912916.750,-83.008,-26.367,-18.066,-190.918,1.000
1626294644916823.000,-105.469,-35.156,-27.344,-156.250,1.000
1626294644920729.250,14.648,-29.297,-23.438,105.957,1.000
1626294644924635.500,47.363,-24.414,-25.879,107.910,1.000
1626294644928541.750,-66.895,-24.902,-28.320,-147.949,1.000
1626294644932448.000,-130.859,-21.484,-37.598,-190.430,1.000
1626294644936354.250,-88.867,-18.555,-7.324,-131.836,1.000
1626294644940260.500,38.086,-38.574,-15.625,125.488,1.000
1626294644944166.750,59.570,-63.477,-54.688,134.766,1.000
1626294644948073.000,-41.992,-38.086,-65.918,-114.746,1.000
1626294644951979.250,-104.492,-52.246,-53.711,-179.199,1.000
1626294644955885.500,5.371,-41.992,-8.789,83.496,1.000
1626294644959791.750,99.121,-44.434,2.930,202.637,1.000
1626294644963698.000,-15.137,-86.426,-30.273,-59.082,1.000
1626294644967604.250,-106.445,-43.945,-38.574,-215.820,1.000
1626294644971510.500,-17.578,1.953,-36.621,-1.465,1.000
1626294644975416.750,74.219,-4.883,-28.809,183.105,1.000
1626294644979323.000,-2.441,-94.238,-31.250,0.488,1.000
1626294644983229.250,-110.840,-85.938,-24.414,1.000,1.000
1626294644987135.500,-71.289,-44.434,-36.133,1.000,1.000
1626294644991041.750,48.828,-9.277,-30.273,1.000,1.000
1626294644994948.000,27.344,-8.301,-20.020,1.000,1.000
1626294644998854.250,-99.609,-78.125,-52.246,1.000,1.000
1626294645002760.500,-108.887,-44.434,-52.246,1.000,1.000
1626294645006666.750,6.348,-19.043,-24.414,1.000,1.000
1626294645010573.000,43.457,-24.414,-30.273,1.000,1.000
1626294645014479.250,-71.777,-58.105,-54.199,1.000,1.000
1626294645018385.500,-116.211,-104.980,-41.016,1.000,1.000
1626294645022291.750,-1.465,-24.902,-2.441,1.000,1.000
1626294645026198.000,48.828,-11.230,-3.906,1.000,1.000
1626294645030104.250,-51.758,-33.691,-34.668,-66.406,1.000
1626294645034010.500,-142.090,-52.734,-67.383,-242.188,1.000
1626294645037916.750,-71.777,-62.988,-40.527,-41.016,1.000
1626294645041823.000,48.340,-21.973,6.348,186.035,1.000
1626294645045729.250,-6.348,-45.898,-20.508,18.555,1.000
1626294645049635.500,-138.672,-72.266,-48.828,-234.863,1.000
1626294645053541.750,-123.535,-83.008,-45.898,-142.090,1.000
1626294645057448.000,12.695,-43.945,-43.457,129.883,1.000
1626294645061354.250,29.785,-15.137,-53.223,90.820,1.000
1626294645065260.500,-101.074,-30.762,-58.594,-189.941,1.000
1626294645069166.750,-128.418,-20.996,-48.828,-202.148,1.000
1626294645073073.000,-8.789,-65.430,-33.203,65.918,1.000
1626294645076979.250,34.668,5.371,-22.949,137.695,1.000
1626294645080885.500,45.898,-13.184,-49.805,107.910,1.000
1626294645084791.750,-91.797,-45.410,-67.383,-192.871,1.000
1626294645088698.000,-117.676,-31.250,-42.969,-218.262,1.000
1626294645092604.250,2.441,-17.578,-27.832,59.570,1.000
1626294645096510.500,68.359,-19.043,-22.461,152.832,1.000
1626294645100416.750,-53.223,-53.223,-44.434,-117.676,1.000
1626294645104323.000,-144.531,-61.035,-39.551,-251.953,1.000
1626294645108229.250,-19.531,-14.648,6.836,9.277,1.000
1626294645112135.500,93.750,14.160,19.043,201.660,1.000
1626294645116041.750,24.414,9.766,-12.695,21.973,1.000
1626294645119948.000,-124.512,-31.250,-70.312,-228.516,1.000
1626294645123854.250,-107.910,-45.410,-44.434,-107.910,1.000
1626294645127760.500,-49.316,-29.785,-40.527,141.602,1.000
1626294645131666.750,29.785,-28.809,-41.016,44.434,1.000
1626294645135573.000,1.953,-26.367,-42.480,-227.539,1.000
1626294645139479.250,-104.492,-42.480,-52.734,-194.336,1.000
1626294645143385.500,-68.359,-42.969,-21.973,107.910,1.000
1626294645147291.750,51.758,-56.641,-24.414,131.348,1.000
1626294645151198.000,32.227,-58.105,-41.016,-142.578,1.000
1626294645155104.250,-82.031,-37.109,-32.227,-212.891,1.000
1626294645159010.500,-103.027,-26.855,-41.016,31.738,1.000
1626294645162916.750,27.344,-15.137,-12.695,160.156,1.000
1626294645166823.000,56.641,-49.805,-30.273,-67.871,1.000
1626294645170729.250,-74.707,-42.969,-46.875,1.000,1.000
1626294645174635.500,-129.395,-27.344,-31.738,1.000,1.000
1626294645178541.750,-5.859,-14.160,-16.602,1.000,1.000
1626294645182448.000,66.406,-7.324,-19.043,1.000,1.000
1626294645186354.250,-55.664,-63.965,-59.082,1.000,1.000
1626294645190260.500,-147.461,-55.664,-55.664,1.000,1.000
1626294645194166.750,-52.246,-24.902,-18.555,1.000,1.000
1626294645198073.000,79.102,7.812,6.836,1.000,1.000
1626294645201979.250,13.184,-20.020,-24.902,1.000,1.000
1626294645205885.500,-146.973,-86.426,-61.523,1.000,1.000
1626294645209791.750,-106.445,-50.293,-50.781,1.000,1.000
1626294645213698.000,42.480,-25.879,-47.852,1.000,1.000
1626294645217604.250,40.527,-31.250,-46.875,95.215,1.000
1626294645221510.500,-95.215,-46.875,-27.832,-185.059,1.000
1626294645225416.750,-146.973,-58.594,-25.391,-209.961,1.000
1626294645229323.000,-2.441,-15.137,-18.555,74.219,1.000
1626294645233229.250,63.965,-10.742,-10.742,125.977,1.000
1626294645237135.500,-42.969,-34.668,-14.648,-109.375,1.000
1626294645241041.750,-131.836,-50.293,-40.527,-214.355,1.000
1626294645244948.000,-52.246,-35.645,-36.621,-3.906,1.000
1626294645248854.250,52.246,5.859,-11.719,167.480,1.000
1626294645252760.500,3.906,-0.977,-15.625,-14.160,1.000
1626294645256666.750,-100.586,-30.762,-21.973,-224.121,1.000
1626294645260573.000,-92.285,-74.707,-42.969,-99.121,1.000
1626294645264479.250,-39.551,-17.090,-19.531,4.395,1.000
1626294645268385.500,59.570,-24.414,-20.996,176.758,1.000
1626294645272291.750,-13.672,-63.477,-35.645,-17.578,1.000
1626294645276198.000,-116.211,-48.828,-40.527,-220.215,1.000
1626294645280104.250,-59.570,-16.602,-23.926,-59.082,1.000
1626294645284010.500,75.684,-0.977,-7.324,210.938,1.000
1626294645287916.750,52.734,-21.973,-21.973,104.492,1.000
1626294645291823.000,-82.031,-44.922,-36.133,-184.082,1.000
1626294645295729.250,-103.516,-45.410,-34.180,-154.785,1.000
1626294645299635.500,18.555,-18.066,-17.578,115.234,1.000
1626294645303541.750,61.035,-12.207,-14.160,138.184,1.000
1626294645307448.000,-46.875,-20.508,-28.320,-120.117,1.000
1626294645311354.250,-100.586,-49.805,-40.527,-199.707,1.000
1626294645315260.500,-124.512,-49.316,-47.363,-177.734,1.000
1626294645319166.750,17.578,-31.250,-45.898,101.562,1.000
1626294645323073.000,69.824,-21.484,-35.156,150.391,1.000
1626294645326979.250,-35.156,-35.645,-36.621,-113.770,1.000
1626294645330885.500,-87.891,-40.039,-41.016,-188.477,1.000
1626294645334791.750,16.113,-12.207,-37.109,71.777,1.000
1626294645338698.000,71.777,-7.812,-35.156,173.340,1.000
1626294645342604.250,-27.344,-29.785,-20.508,-61.523,1.000
1626294645346510.500,-121.094,-43.945,-22.949,-230.469,1.000
1626294645350416.750,-57.617,-36.133,-27.344,-50.781,1.000
1626294645354323.000,45.898,-61.523,-39.062,162.109,1.000
1626294645358229.250,2.930,-72.754,-63.965,1.000,1.000
1626294645362135.500,-94.238,-54.688,-46.875,1.000,1.000
1626294645366041.750,-51.758,-19.043,-29.297,1.000,1.000
1626294645369948.000,58.594,2.930,-33.203,1.000,1.000
1626294645373854.250,34.180,-43.457,-32.715,1.000,1.000
1626294645377760.500,-80.566,-41.504,-17.578,1.000,1.000
1626294645381666.750,-126.953,-36.133,-20.020,1.000,1.000
1626294645385573.000,-21.484,-29.785,-28.809,1.000,1.000
1626294645389479.250,45.410,-31.738,-30.273,1.000,1.000
1626294645393385.500,-73.730,-60.059,-45.410,1.000,1.000
1626294645397291.750,-144.531,-56.641,-38.574,1.000,1.000
1626294645401198.000,-36.133,-35.645,-25.391,1.000,1.000
1626294645405104.250,68.359,-25.391,-32.715,162.109,1.000
1626294645409010.500,-12.695,-52.734,-51.270,-56.641,1.000
1626294645412916.750,-131.348,-70.312,-46.387,-245.117,1.000
1626294645416823.000,-74.219,-48.340,-29.297,-62.500,1.000
1626294645420729.250,39.062,-28.320,-20.020,142.578,1.000
1626294645424635.500,5.371,-20.508,-34.668,15.625,1.000
1626294645428541.750,-106.934,-37.109,-47.852,-219.727,1.000
1626294645432448.000,-78.613,-22.461,-22.949,-126.953,1.000
1626294645436354.250,32.227,-16.113,-10.254,137.207,1.000
1626294645440260.500,28.320,-29.785,-18.066,87.402,1.000
1626294645444166.750,-81.543,-22.949,-20.996,-173.340,1.000
1626294645448073.000,-101.562,-29.785,-19.531,-176.270,1.000
1626294645451979.250,-113.770,-22.949,-44.922,-157.715,1.000
1626294645455885.500,2.930,-28.320,-34.180,112.305,1.000
1626294645459791.750,40.039,-45.898,-32.715,125.000,1.000
1626294645463698.000,-72.266,-43.945,-66.895,-162.598,1.000
1626294645467604.250,-116.211,-24.902,-62.500,-217.285,1.000
1626294645471510.500,-2.930,-8.789,-31.250,62.988,1.000
1626294645475416.750,45.410,-36.621,-31.250,150.391,1.000
1626294645479323.000,-55.176,-46.387,-35.156,-105.957,1.000
1626294645483229.250,-122.559,-25.391,-46.387,-239.746,1.000
1626294645487135.500,-48.828,-38.086,-49.805,-33.691,1.000
1626294645491041.750,42.480,-44.434,-41.992,151.367,1.000
1626294645494948.000,-18.066,-85.449,-58.594,-18.066,1.000
1626294645498854.250,-129.395,-69.336,-51.758,1.000,1.000
1626294645502760.500,-88.379,-22.461,-32.715,1.000,1.000
1626294645506666.750,30.762,-8.789,-33.203,1.000,1.000
1626294645510573.000,12.695,-24.414,-47.363,1.000,1.000
1626294645514479.250,-97.656,-62.012,-63.477,1.000,1.000
1626294645518385.500,-82.031,-45.898,-15.625,1.000,1.000
1626294645522291.750,42.969,-13.672,5.371,1.000,1.000
1626294645526198.000,51.270,-19.531,-20.996,1.000,1.000
1626294645530104.250,-75.195,-46.387,-48.340,1.000,1.000
1626294645534010.500,-133.301,-55.176,-61.523,1.000,1.000
1626294645537916.750,-12.695,-21.484,-23.438,1.000,1.000
1626294645541823.000,79.590,-10.742,-13.184,1.000,1.000
1626294645545729.250,-9.766,-36.621,-40.039,-34.180,1.000
1626294645549635.500,-104.004,-31.250,-46.875,-215.332,1.000
1626294645553541.750,-43.457,-21.973,-33.203,7.812,1.000
1626294645557448.000,59.082,-30.762,-31.250,197.754,1.000
1626294645561354.250,6.348,-30.762,-45.410,33.203,1.000
1626294645565260.500,-104.980,-32.227,-47.852,-194.336,1.000
1626294645569166.750,-71.289,-33.691,-37.598,-94.727,1.000
1626294645573073.000,31.738,-20.996,-15.625,130.371,1.000
1626294645576979.250,15.625,6.348,-16.113,49.316,1.000
1626294645580885.500,-92.773,-4.395,-34.180,-218.262,1.000
1626294645584791.750,-105.469,-17.578,-26.855,-187.500,1.000
1626294645588698.000,20.508,-25.879,-20.020,104.004,1.000
1626294645592604.250,16.602,-50.781,-31.250,116.211,1.000
1626294645596510.500,14.648,-62.988,-24.902,73.730,1.000
1626294645600416.750,-104.980,-58.594,-36.133,-197.754,1.000
1626294645604323.000,-111.816,-41.504,-36.133,-207.520,1.000
1626294645608229.250,-16.602,-24.902,-16.602,64.941,1.000
1626294645612135.500,36.133,-10.254,-28.809,145.020,1.000
1626294645616041.750,-78.125,-52.734,-48.340,-117.188,1.000
1626294645619948.000,-155.273,-70.801,-30.273,-249.512,1.000
1626294645623854.250,-35.156,-36.133,-4.395,-12.207,1.000
1626294645627760.500,55.176,-29.785,-7.812,160.156,1.000
1626294645631666.750,-32.715,-42.969,-44.922,-46.875,1.000
1626294645635573.000,-157.715,-75.684,-85.449,-268.555,1.000
1626294645639479.250,-108.398,-32.715,-26.855,-101.562,1.000
1626294645643385.500,-30.273,-36.133,-11.230,156.250,1.000
1626294645647291.750,53.711,-28.809,-14.648,40.527,1.000
1626294645651198.000,-2.930,-19.043,-20.996,-247.559,1.000
1626294645655104.250,-101.562,-38.086,-19.043,-208.496,1.000
1626294645659010.500,-57.617,-51.758,-2.930,94.727,1.000
1626294645662916.750,55.664,-43.945,-16.602,119.629,1.000
1626294645666823.000,41.016,-23.926,-43.457,-139.160,1.000
1626294645670729.250,-89.844,-41.992,-62.012,-194.336,1.000
1626294645674635.500,-105.469,-43.457,-61.523,43.457,1.000
1626294645678541.750,34.180,-7.324,-43.945,145.508,1.000
1626294645682448.000,52.734,-19.043,-35.156,-86.426,1.000
1626294645686354.250,-75.195,-36.133,-13.672,1.000,1.000
1626294645690260.500,-116.699,-38.086,-11.230,1.000,1.000
1626294645694166.750,2.930,-48.340,-12.695,1.000,1.000
1626294645698073.000,75.684,-39.062,-7.812,1.000,1.000
1626294645701979.250,-33.691,-20.508,-28.320,1.000,1.000
1626294645705885.500,-116.211,-21.973,-32.715,1.000,1.000
1626294645709791.750,-21.484,-18.555,-19.043,1.000,1.000
1626294645713698.000,92.285,-8.789,-24.414,1.000,1.000
1626294645717604.250,18.066,-20.508,-46.387,1.000,1.000
1626294645721510.500,-117.676,-41.992,-59.082,1.000,1.000
1626294645725416.750,-77.637,-59.082,-44.434,1.000,1.000
1626294645729323.000,53.711,-27.344,-24.414,1.000,1.000
1626294645733229.250,46.387,1.465,-41.016,83.496,1.000
1626294645737135.500,-97.656,-38.086,-66.895,-207.031,1.000
1626294645741041.750,-135.742,-59.082,-71.777,-210.938,1.000
1626294645744948.000,4.883,-33.203,-46.387,79.102,1.000
1626294645748854.250,62.500,-10.254,-38.086,132.812,1.000
1626294645752760.500,-48.340,-11.230,-42.969,-125.488,1.000
1626294645756666.750,-108.398,-30.762,-37.598,-210.449,1.000
1626294645760573.000,-3.906,-28.809,-21.973,31.738,1.000
1626294645764479.250,85.449,-20.508,-11.230,173.340,1.000
1626294645768385.500,10.742,-20.996,-27.344,-32.715,1.000
1626294645772291.750,-107.422,-52.734,-30.762,-228.027,1.000
1626294645776198.000,-80.078,-73.242,-28.320,-81.543,1.000
1626294645780104.250,-48.340,14.648,-32.715,-19.043,1.000
1626294645784010.500,31.738,-1.953,-29.297,150.879,1.000
1626294645787916.750,-41.992,-31.250,-29.297,-59.082,1.000
1626294645791823.000,-153.809,-12.207,-31.738,-279.297,1.000
1626294645795729.250,-124.023,2.441,-30.273,-131.836,1.000
1626294645799635.500,-2.930,17.090,-15.625,112.793,1.000
1626294645803541.750,-40.039,-7.324,-19.043,-5.371,1.000
1626294645807448.000,-194.336,-41.504,-33.691,-297.363,1.000
1626294645811354.250,-172.363,-29.785,-16.602,-222.168,1.000
1626294645815260.500,-33.203,5.371,1.465,65.918,1.000
1626294645819166.750,-46.387,3.418,-7.324,28.320,1.000
1626294645823073.000,-200.195,-40.039,-31.250,-278.809,1.000
1626294645826979.250,-250.488,-15.625,-31.738,1.000,1.000
1626294645830885.500,-140.625,18.066,-24.414,1.000,1.000
1626294645834791.750,-79.102,16.602,-17.578,1.000,1.000
1626294645838698.000,-176.758,7.812,-25.391,1.000,1.000
1626294645842604.250,-251.465,-24.902,-24.414,1.000,1.000
1626294645846510.500,-157.715,-19.531,-9.766,1.000,1.000
1626294645850416.750,-68.848,-0.977,-12.207,1.000,1.000
1626294645854323.000,-142.090,0.977,-43.457,1.000,1.000
1626294645858229.250,-253.906,11.230,-41.016,1.000,1.000
1626294645862135.500,-200.684,5.371,-2.930,1.000,1.000
1626294645866041.750,-76.660,-8.789,13.672,1.000,1.000
1626294645869948.000,-110.840,-22.949,-10.254,1.000,1.000
1626294645873854.250,-242.188,-30.762,-26.855,-329.102,1.000
1626294645877760.500,-229.980,-41.992,-16.113,-271.973,1.000
1626294645881666.750,-90.332,-47.363,-19.531,19.043,1.000
1626294645885573.000,-47.363,-0.977,-38.574,43.945,1.000
1626294645889479.250,-166.992,-1.953,-24.902,-231.934,1.000
1626294645893385.500,-213.867,-21.973,4.395,-291.016,1.000
1626294645897291.750,-99.121,-18.555,-16.602,-30.273,1.000
1626294645901198.000,-23.438,-13.672,-39.551,78.613,1.000
1626294645905104.250,-96.191,-2.930,-36.133,-142.090,1.000
1626294645909010.500,-165.527,-10.742,-35.645,-279.785,1.000
1626294645912916.750,-83.984,-48.340,-22.461,-62.988,1.000
1626294645916823.000,25.879,-39.551,-12.695,138.672,1.000
1626294645920729.250,0.977,-15.137,-17.090,-5.859,1.000
1626294645924635.500,-85.449,-23.926,-20.508,-216.797,1.000
1626294645928541.750,-45.410,-33.691,0.488,-83.008,1.000
1626294645932448.000,70.801,-29.297,-20.020,171.875,1.000
1626294645936354.250,29.297,-45.898,-95.703,66.895,1.000
1626294645940260.500,-83.496,-48.828,-74.219,-188.965,1.000
1626294645944166.750,-71.289,-32.715,-24.414,-143.555,1.000
1626294645948073.000,43.457,-26.367,-32.227,118.164,1.000
1626294645951979.250,75.195,-29.785,-47.852,142.578,1.000
1626294645955885.500,-32.227,-41.504,-51.270,-120.605,1.000
1626294645959791.750,-78.125,-53.711,-41.992,-187.500,1.000
1626294645963698.000,33.691,-54.688,-25.879,81.055,1.000
1626294645967604.250,115.234,-36.621,-20.020,216.309,1.000
1626294645971510.500,31.250,-43.945,-36.621,-9.277,1.000
1626294645975416.750,-48.828,-51.758,-46.875,-171.875,1.000
1626294645979323.000,17.090,-41.504,-38.086,19.531,1.000
1626294645983229.250,108.887,-39.551,-35.645,219.727,1.000
1626294645987135.500,64.453,-49.316,-42.969,68.848,1.000
1626294645991041.750,-50.293,-76.660,-45.410,-170.410,1.000
1626294645994948.000,-28.320,-65.918,-33.691,-62.988,1.000
1626294645998854.250,106.445,-14.648,-32.227,208.008,1.000
1626294646002760.500,118.652,-7.324,-64.453,165.039,1.000
1626294646006666.750,-7.812,-48.828,-76.172,-113.281,1.000
1626294646010573.000,-41.504,-96.191,-55.664,-125.488,1.000
1626294646014479.250,-27.832,-64.941,-41.992,143.066,1.000
1626294646018385.500,102.051,-38.086,-16.113,202.637,1.000
1626294646022291.750,112.793,-27.832,-28.809,-55.664,1.000
1626294646026198.000,-7.812,-30.273,-43.457,-181.152,1.000
1626294646030104.250,-57.617,-39.062,-39.062,54.199,1.000
1626294646034010.500,46.387,-43.945,-20.996,215.332,1.000
1626294646037916.750,115.234,-34.668,-10.742,22.461,1.000
1626294646041823.000,17.578,-47.852,-30.273,-167.969,1.000
1626294646045729.250,-63.477,-54.688,-33.203,8.789,1.000
1626294646049635.500,24.902,-34.668,-10.254,235.840,1.000
1626294646053541.750,125.977,-4.395,-8.301,113.281,1.000
1626294646057448.000,36.621,-16.113,-54.199,-135.254,1.000
1626294646061354.250,-99.121,-48.828,-73.730,1.000,1.000
1626294646065260.500,-54.199,-52.246,-46.875,1.000,1.000
1626294646069166.750,83.984,-25.879,-25.879,1.000,1.000
1626294646073073.000,72.754,-18.555,-20.020,1.000,1.000
1626294646076979.250,-75.195,-60.059,-40.039,1.000,1.000
1626294646080885.500,-90.820,-66.406,-61.035,1.000,1.000
1626294646084791.750,30.762,-44.922,-55.176,1.000,1.000
1626294646088698.000,73.730,-22.461,-31.738,1.000,1.000
1626294646092604.250,-33.691,-39.062,-19.043,1.000,1.000
1626294646096510.500,-104.492,-70.801,-37.109,1.000,1.000
1626294646100416.750,0.000,-45.410,-37.598,1.000,1.000
1626294646104323.000,74.219,-28.320,-28.320,1.000,1.000
1626294646108229.250,-17.090,-38.086,-44.922,-59.570,1.000
1626294646112135.500,-106.934,-44.922,-66.406,-216.797,1.000
1626294646116041.750,-24.902,-39.062,-36.621,-1.465,1.000
1626294646119948.000,83.496,-34.180,-11.230,196.777,1.000
1626294646123854.250,18.066,-43.457,-32.715,16.113,1.000
1626294646127760.500,-95.215,-40.527,-37.598,-209.473,1.000
1626294646131666.750,-63.965,-29.297,-36.133,-82.520,1.000
1626294646135573.000,46.875,-26.367,-33.203,155.273,1.000
1626294646139479.250,37.109,-20.508,-32.715,76.172,1.000
1626294646143385.500,-81.055,-37.598,-40.527,-198.242,1.000
1626294646147291.750,-85.449,-62.500,-34.180,-167.969,1.000
1626294646151198.000,40.039,-35.645,-20.020,135.254,1.000
1626294646155104.250,69.336,-34.180,7.812,181.641,1.000
1626294646159010.500,85.938,-43.945,4.395,133.301,1.000
1626294646162916.750,-38.574,-19.531,-17.090,-145.508,1.000
1626294646166823.000,-89.844,-16.602,-37.109,-164.062,1.000
1626294646170729.250,28.809,-26.855,-26.855,108.887,1.000
1626294646174635.500,103.516,-19.043,-9.766,184.570,1.000
1626294646178541.750,-1.465,-31.738,-37.109,-76.172,1.000
1626294646182448.000,-104.492,-54.199,-70.801,-209.961,1.000
1626294646186354.250,-22.949,-35.156,-52.734,21.484,1.000
1626294646190260.500,73.730,-23.926,-23.438,181.152,1.000
1626294646194166.750,-26.367,-41.504,-32.715,-33.691,1.000
1626294646198073.000,-123.535,-30.273,-31.738,-224.609,1.000
1626294646201979.250,-122.559,-42.969,-29.785,-237.793,1.000
1626294646205885.500,-40.039,-22.461,-28.809,-5.859,1.000
1626294646209791.750,66.406,-14.648,-39.551,172.363,1.000
1626294646213698.000,-22.461,-61.523,-58.105,-42.969,1.000
1626294646217604.250,-136.230,-61.523,-46.387,-236.328,1.000
1626294646221510.500,-66.406,-38.086,-43.945,-60.547,1.000
1626294646225416.750,57.129,-28.809,-51.270,161.133,1.000
1626294646229323.000,13.672,-46.387,-45.898,33.203,1.000
1626294646233229.250,-126.465,-58.594,-38.574,-230.957,1.000
1626294646237135.500,-111.816,-36.133,-22.949,-166.992,1.000
1626294646241041.750,7.324,-23.438,-27.344,91.309,1.000
1626294646244948.000,30.273,-49.316,-44.434,103.516,1.000
1626294646248854.250,-69.824,-54.688,-54.688,1.000,1.000
1626294646252760.500,-118.164,-34.668,-43.457,1.000,1.000
1626294646256666.750,-12.207,-39.551,-32.227,1.000,1.000
1626294646260573.000,65.430,-47.363,-26.367,1.000,1.000
1626294646264479.250,-32.227,-29.785,-25.879,1.000,1.000
1626294646268385.500,-117.188,-30.762,-28.809,1.000,1.000
1626294646272291.750,-19.531,-32.715,-16.113,1.000,1.000
1626294646276198.000,74.707,-50.293,-18.555,1.000,1.000
1626294646280104.250,6.836,-55.176,-35.645,1.000,1.000
1626294646284010.500,-94.727,-13.184,-31.738,1.000,1.000
1626294646287916.750,-63.477,-13.672,-28.320,1.000,1.000
1626294646291823.000,66.406,-13.672,-16.602,1.000,1.000
1626294646295729.250,60.059,-16.113,-13.672,85.449,1.000
1626294646299635.500,-67.871,-36.621,-22.461,-176.270,1.000
1626294646303541.750,-63.965,-24.902,-38.574,-133.301,1.000
1626294646307448.000,49.316,-25.879,-56.641,130.371,1.000
1626294646311354.250,62.988,-37.109,-38.086,134.277,1.000
1626294646315260.500,-62.012,-34.180,-25.391,-124.023,1.000
1626294646319166.750,-128.906,-31.250,-41.992,-221.680,1.000
1626294646323073.000,-17.090,-47.852,-34.180,15.137,1.000
1626294646326979.250,74.707,-49.805,-14.648,155.762,1.000
1626294646330885.500,-14.648,-34.180,-25.879,-60.547,1.000
1626294646334791.750,-103.516,-20.996,-33.691,-212.402,1.000
1626294646338698.000,-30.762,-9.277,-13.184,-14.648,1.000
1626294646342604.250,-19.531,-27.344,-31.738,34.668,1.000
1626294646346510.500,79.590,-12.695,-18.066,186.523,1.000
1626294646350416.750,-6.836,-32.715,-30.762,-36.621,1.000
1626294646354323.000,-113.281,-56.641,-41.016,-222.168,1.000
1626294646358229.250,-41.016,-45.410,-22.461,-33.203,1.000
1626294646362135.500,68.359,-22.461,-20.508,191.406,1.000
1626294646366041.750,24.902,-70.312,-31.250,53.223,1.000
1626294646369948.000,-81.543,-62.012,-20.020,-196.289,1.000
1626294646373854.250,-96.191,-22.949,-35.645,-143.066,1.000
1626294646377760.500,-3.418,-9.277,-43.945,98.145,1.000
1626294646381666.750,0.977,-12.695,-43.457,77.637,1.000
1626294646385573.000,-128.906,-47.852,-68.359,-214.355,1.000
1626294646389479.250,-135.254,-48.340,-52.734,1.000,1.000
1626294646393385.500,0.977,-45.410,-34.668,1.000,1.000
1626294646397291.750,79.590,-37.109,-9.277,1.000,1.000
1626294646401198.000,-8.789,-37.109,-10.254,1.000,1.000
1626294646405104.250,-126.465,-66.406,-43.945,1.000,1.000
1626294646409010.500,-57.129,-41.504,-32.227,1.000,1.000
1626294646412916.750,42.969,-15.625,-29.785,1.000,1.000
1626294646416823.000,-22.461,-18.066,-51.758,1.000,1.000
1626294646420729.250,-130.859,-41.992,-52.246,1.000,1.000
1626294646424635.500,-69.336,-68.848,-40.527,1.000,1.000
1626294646428541.750,71.289,-33.691,-26.367,1.000,1.000
1626294646432448.000,38.574,-26.855,-26.367,1.000,1.000
1626294646436354.250,-99.609,-28.320,-53.223,-215.332,1.000
1626294646440260.500,-94.238,-20.508,-48.828,-136.230,1.000
1626294646444166.750,25.879,-37.109,-20.020,131.348,1.000
1626294646448073.000,46.875,-45.898,-27.344,111.328,1.000
1626294646451979.250,-79.590,-37.598,-45.410,-164.062,1.000
1626294646455885.500,-115.723,-13.672,-41.016,-187.500,1.000
1626294646459791.750,0.000,-18.066,-33.203,92.773,1.000
1626294646463698.000,62.500,-23.438,-22.461,184.570,1.000
1626294646467604.250,-37.109,-30.762,-25.391,-79.102,1.000
1626294646471510.500,-128.906,-47.363,-28.320,-233.398,1.000
1626294646475416.750,-40.039,-27.832,-11.719,-6.836,1.000
1626294646479323.000,45.410,-48.340,-33.691,169.434,1.000
1626294646483229.250,-12.695,-53.711,-43.945,-14.648,1.000
1626294646487135.500,-110.840,-50.781,-33.203,-232.422,1.000
1626294646491041.750,-78.613,-37.109,-39.551,-92.773,1.000
1626294646494948.000,27.344,-13.672,-47.363,145.996,1.000
1626294646498854.250,15.137,-46.387,-59.570,48.828,1.000
1626294646502760.500,-96.191,-51.758,-50.781,-205.566,1.000
1626294646506666.750,-108.398,-34.668,-24.414,-175.781,1.000
1626294646510573.000,22.461,-7.324,-10.742,112.305,1.000
1626294646514479.250,58.105,-34.180,-35.645,136.230,1.000
1626294646518385.500,-73.242,-88.867,-55.176,-158.691,1.000
1626294646522291.750,-129.395,-49.316,-26.367,-214.355,1.000
1626294646526198.000,-7.324,-6.348,-10.742,58.594,1.000
1626294646530104.250,87.891,7.812,-14.648,195.312,1.000
1626294646534010.500,-19.043,-29.297,-23.438,-65.430,1.000
1626294646537916.750,-130.859,-70.801,-39.551,-252.930,1.000
1626294646541823.000,-45.410,-51.270,-38.086,-20.996,1.000
1626294646545729.250,68.848,-29.785,-33.691,184.570,1.000
1626294646549635.500,24.414,-13.184,-16.602,21.484,1.000
1626294646553541.750,-112.305,-47.852,-14.160,-221.191,1.000
1626294646557448.000,-89.844,-51.758,-18.066,-108.398,1.000
1626294646561354.250,48.340,-2.441,-16.602,161.621,1.000
1626294646565260.500,40.039,2.441,-20.020,95.703,1.000
1626294646569166.750,-89.844,-17.090,-29.785,-179.688,1.000
1626294646573073.000,-129.883,-46.875,-56.641,-178.223,1.000
1626294646576979.250,-74.219,-18.066,-34.668,108.887,1.000
1626294646580885.500,56.152,-17.090,-30.762,156.738,1.000
1626294646584791.750,56.152,-23.438,-24.902,-130.859,1.000
1626294646588698.000,-68.359,-31.738,-33.691,-219.727,1.000
1626294646592604.250,-92.773,-43.945,-35.156,30.762,1.000
1626294646596510.500,26.855,-31.738,-24.902,132.324,1.000
1626294646600416.750,72.266,-32.227,-30.273,-62.500,1.000
1626294646604323.000,-38.574,-61.523,-43.457,-222.656,1.000
1626294646608229.250,-114.746,-32.227,-60.059,-68.359,1.000
1626294646612135.500,-9.277,15.625,-52.246,145.020,1.000
1626294646616041.750,86.426,12.695,-33.691,20.996,1.000
1626294646619948.000,0.488,-10.742,-35.156,-215.332,1.000
1626294646623854.250,-110.840,-28.320,-38.574,1.000,1.000
1626294646627760.500,-54.688,-10.254,-33.691,1.000,1.000
1626294646631666.750,68.359,4.395,-14.648,1.000,1.000
1626294646635573.000,40.039,-22.461,-32.715,1.000,1.000
1626294646639479.250,-99.609,-45.898,-60.059,1.000,1.000
1626294646643385.500,-99.121,-41.016,-38.086,1.000,1.000
1626294646647291.750,28.809,-36.621,-26.367,1.000,1.000
1626294646651198.000,46.875,-51.270,-39.551,1.000,1.000
1626294646655104.250,-83.984,-60.547,-59.570,1.000,1.000
1626294646659010.500,-134.277,-54.199,-59.570,1.000,1.000
1626294646662916.750,-14.648,-20.508,-34.668,1.000,1.000
1626294646666823.000,60.059,-12.207,-21.484,1.000,1.000
1626294646670729.250,-43.945,-29.297,-39.551,-90.820,1.000
1626294646674635.500,-137.207,-36.621,-48.340,-245.117,1.000
1626294646678541.750,-44.434,-31.738,-22.949,-0.488,1.000
1626294646682448.000,71.289,-4.883,-10.742,203.613,1.000
1626294646686354.250,20.508,-14.648,-19.043,26.367,1.000
1626294646690260.500,-110.352,-57.129,-44.922,-216.797,1.000
1626294646694166.750,-83.496,-69.336,-49.805,-95.215,1.000
1626294646698073.000,40.527,-32.715,-36.621,177.734,1.000
1626294646701979.250,25.391,-15.137,-48.340,104.004,1.000
1626294646705885.500,-104.004,-41.016,-75.684,-203.125,1.000
1626294646709791.750,-123.535,-50.781,-65.430,-171.875,1.000
1626294646713698.000,-16.113,-59.082,-24.902,126.465,1.000
1626294646717604.250,41.016,-7.324,-52.246,158.691,1.000
1626294646721510.500,33.203,-13.184,-61.523,64.941,1.000
1626294646725416.750,-115.723,-55.176,-64.453,-205.566,1.000
1626294646729323.000,-112.305,-37.598,-36.133,-160.156,1.000
1626294646733229.250,23.438,-26.855,2.930,129.395,1.000
1626294646737135.500,63.477,-28.809,-8.301,167.480,1.000
1626294646741041.750,-51.270,-52.246,-41.016,-128.418,1.000
1626294646744948.000,-128.418,-45.898,-43.945,-217.773,1.000
1626294646748854.250,-23.926,-17.090,-33.203,49.316,1.000
1626294646752760.500,53.711,-20.508,-27.344,169.922,1.000
1626294646756666.750,-41.016,-36.133,-28.809,-76.660,1.000
1626294646760573.000,-139.648,-87.891,-44.434,-264.160,1.000
1626294646764479.250,-117.188,-43.457,-34.180,-48.828,1.000
1626294646768385.500,-4.883,-19.531,-31.250,185.547,1.000
1626294646772291.750,72.266,1.953,-16.602,41.016,1.000
1626294646776198.000,-17.090,-20.020,-29.297,-198.730,1.000
1626294646780104.250,-135.742,-40.039,-44.434,-128.906,1.000
1626294646784010.500,-78.613,-9.277,-39.062,145.996,1.000
1626294646787916.750,41.016,5.371,-21.484,136.230,1.000
1626294646791823.000,23.926,-16.602,-12.207,-159.668,1.000
1626294646795729.250,-102.051,-24.414,-11.719,-205.078,1.000
1626294646799635.500,-114.258,-29.297,-8.789,68.359,1.000
1626294646803541.750,33.203,-36.621,0.488,138.672,1.000
1626294646807448.000,56.641,-61.035,-1.953,-112.305,1.000
1626294646811354.250,-70.801,-39.062,-16.602,1.000,1.000
1626294646815260.500,-115.723,-25.879,-41.504,1.000,1.000
1626294646819166.750,-10.254,-35.645,-40.527,1.000,1.000
1626294646823073.000,52.734,-18.555,-44.922,1.000,1.000
1626294646826979.250,-71.289,-53.711,-65.918,1.000,1.000
1626294646830885.500,-143.066,-57.617,-50.293,1.000,1.000
1626294646834791.750,-37.109,-29.297,-35.156,1.000,1.000
1626294646838698.000,63.965,-19.043,-20.996,1.000,1.000
1626294646842604.250,2.930,-33.691,-37.109,1.000,1.000
1626294646846510.500,-114.258,-94.238,-62.500,1.000,1.000
1626294646850416.750,-63.477,-68.848,-18.066,1.000,1.000
1626294646854323.000,50.293,-30.273,-8.789,1.000,1.000
1626294646858229.250,21.973,-35.156,-46.387,51.758,1.000
1626294646862135.500,-125.977,-43.457,-55.176,-228.027,1.000
1626294646866041.750,-128.418,-48.828,-39.062,-188.965,1.000
1626294646869948.000,38.574,-41.992,-11.230,119.141,1.000
1626294646873854.250,70.801,-27.344,-10.254,125.977,1.000
1626294646877760.500,-62.012,-18.066,-34.180,-158.203,1.000
1626294646881666.750,-131.836,-41.016,-53.711,-225.098,1.000
1626294646885573.000,-14.648,-35.645,-33.691,41.992,1.000
1626294646889479.250,83.496,-1.465,-7.812,173.828,1.000
1626294646893385.500,-24.414,-9.277,-24.902,-86.914,1.000
1626294646897291.750,-116.211,-33.203,-28.320,-236.328,1.000
1626294646901198.000,-51.758,-85.938,-41.504,-26.855,1.000
1626294646905104.250,29.297,-4.395,-15.625,54.688,1.000
1626294646909010.500,103.027,-36.621,-14.160,197.754,1.000
1626294646912916.750,-25.879,-90.332,-58.594,-58.105,1.000
1626294646916823.000,-109.375,-26.855,-37.109,-220.215,1.000
1626294646920729.250,-20.020,14.648,-3.418,-8.301,1.000
1626294646924635.500,68.359,2.930,-19.531,182.129,1.000
1626294646928541.750,11.230,-41.992,-30.273,8.789,1.000
1626294646932448.000,-92.285,-58.105,-35.645,-226.562,1.000
1626294646936354.250,-61.523,-17.090,-34.180,-111.816,1.000
1626294646940260.500,66.406,-15.625,-20.996,152.832,1.000
1626294646944166.750,65.430,-31.738,-33.203,103.516,1.000
1626294646948073.000,-59.082,-55.664,-41.016,-171.387,1.000
1626294646951979.250,-75.684,-29.785,-23.926,1.000,1.000
1626294646955885.500,46.875,-20.996,-12.695,1.000,1.000
1626294646959791.750,98.145,-32.715,-38.574,1.000,1.000
1626294646963698.000,-10.742,-39.062,-42.480,1.000,1.000
1626294646967604.250,-104.980,-71.289,-29.297,1.000,1.000
1626294646971510.500,-22.461,-26.855,-17.090,1.000,1.000
1626294646975416.750,71.289,-4.883,-4.883,1.000,1.000
1626294646979323.000,-14.648,-28.320,-26.855,1.000,1.000
1626294646983229.250,-119.141,-37.598,-61.523,1.000,1.000
1626294646987135.500,-53.711,-62.988,-47.852,1.000,1.000
1626294646991041.750,62.988,-30.273,-25.879,1.000,1.000
1626294646994948.000,28.809,-12.695,-46.875,1.000,1.000
1626294646998854.250,-95.703,-20.996,-48.340,-212.402,1.000
1626294647002760.500,-83.984,-30.273,-28.320,-127.441,1.000
1626294647006666.750,38.574,-53.711,-37.109,134.766,1.000
1626294647010573.000,52.734,-39.062,-32.227,106.934,1.000
1626294647014479.250,-62.012,-40.039,-29.785,-160.645,1.000
1626294647018385.500,-97.656,-37.109,-43.457,-175.293,1.000
1626294647022291.750,7.324,-53.711,-30.762,93.750,1.000
1626294647026198.000,54.688,-75.684,-24.414,149.902,1.000
1626294647030104.250,-37.598,-22.461,-31.250,-103.027,1.000
1626294647034010.500,-121.582,-9.277,-40.527,-237.793,1.000
1626294647037916.750,-40.527,-50.293,-32.715,-13.672,1.000
1626294647041823.000,64.453,-81.543,-25.391,173.340,1.000
1626294647045729.250,47.852,-24.414,-48.828,163.574,1.000
1626294647049635.500,-27.344,-38.574,-57.617,-61.523,1.000
1626294647053541.750,-117.188,-43.457,-52.246,-203.613,1.000
1626294647057448.000,-49.805,-18.066,-37.109,-6.836,1.000
1626294647061354.250,56.152,-14.160,-8.301,177.246,1.000
1626294647065260.500,-1.465,-17.578,-14.648,3.418,1.000
1626294647069166.750,-114.746,-57.129,-18.555,-218.750,1.000
1626294647073073.000,-82.031,-46.875,-18.066,-85.938,1.000
1626294647076979.250,39.062,-1.953,-25.391,165.039,1.000
1626294647080885.500,25.391,-13.184,-25.391,76.660,1.000
1626294647084791.750,-102.051,-22.949,-32.227,-194.824,1.000
1626294647088698.000,-110.840,-46.387,-28.320,-164.551,1.000
1626294647092604.250,-58.594,-23.926,-20.996,119.629,1.000
1626294647096510.500,57.617,-2.441,-18.555,149.902,1.000
1626294647100416.750,55.176,9.766,-32.227,-137.207,1.000
1626294647104323.000,-61.523,-15.137,-33.203,-216.309,1.000
1626294647108229.250,-97.656,-50.781,-46.387,46.387,1.000
1626294647112135.500,11.719,-20.020,-47.852,180.176,1.000
1626294647116041.750,59.570,14.648,-35.156,-65.918,1.000
1626294647119948.000,-47.852,-10.254,-36.621,-245.605,1.000
1626294647123854.250,-107.422,-37.109,-32.227,-40.527,1.000
1626294647127760.500,-5.371,-31.738,-26.367,167.969,1.000
1626294647131666.750,76.660,-45.898,-29.785,21.484,1.000
1626294647135573.000,5.859,-36.621,-28.320,-224.609,1.000
1626294647139479.250,-94.238,-19.531,-18.555,-215.820,1.000
1626294647143385.500,-57.617,-19.043,-25.879,-55.176,1.000
1626294647147291.750,41.992,-12.695,-37.598,154.297,1.000
1626294647151198.000,1.465,-26.855,-61.035,11.719,1.000
1626294647155104.250,-101.562,-23.438,-57.129,-232.422,1.000
1626294647159010.500,-74.219,-35.156,-28.809,-127.930,1.000
1626294647162916.750,30.762,-29.297,-25.879,126.953,1.000
1626294647166823.000,30.762,-17.090,-45.410,79.102,1.000
1626294647170729.250,-69.336,-12.207,-54.199,-188.965,1.000
1626294647174635.500,-97.656,6.348,-45.410,-199.219,1.000
1626294647178541.750,9.277,-41.016,-39.551,71.777,1.000
1626294647182448.000,78.125,-50.781,-41.016,142.578,1.000
1626294647186354.250,-35.645,-68.848,-51.270,-131.348,1.000
1626294647190260.500,-131.348,-73.242,-44.434,-251.465,1.000
1626294647194166.750,-28.320,-4.395,-33.691,-0.488,1.000
1626294647198073.000,76.172,2.441,-33.691,165.039,1.000
1626294647201979.250,18.555,-22.949,-35.645,-23.926,1.000
1626294647205885.500,-105.469,-38.574,-47.363,-230.957,1.000
1626294647209791.750,-76.660,-34.668,-49.316,-84.473,1.000
1626294647213698.000,45.410,-26.855,-30.273,154.785,1.000
1626294647217604.250,20.996,-35.645,-21.484,41.504,1.000
1626294647221510.500,-97.656,-39.062,-25.391,-210.449,1.000
1626294647225416.750,-92.285,-18.555,-31.738,-138.184,1.000
1626294647229323.000,22.949,-4.883,-22.949,133.789,1.000
1626294647233229.250,57.617,-6.348,-17.090,173.828,1.000
1626294647237135.500,53.711,-13.184,-16.113,77.637,1.000
1626294647241041.750,-86.914,-44.434,-39.062,-208.496,1.000
1626294647244948.000,-91.309,-42.969,-35.156,-149.902,1.000
1626294647248854.250,31.738,-20.020,-5.859,140.137,1.000
1626294647252760.500,52.734,-18.066,-11.230,137.207,1.000
1626294647256666.750,-80.566,-57.129,-41.504,-155.762,1.000
1626294647260573.000,-145.020,-59.570,-49.316,-244.629,1.000
1626294647264479.250,-32.715,-29.785,-19.531,35.156,1.000
1626294647268385.500,56.641,-32.715,-11.719,184.570,1.000
1626294647272291.750,-26.855,-82.031,-26.367,-56.641,1.000
1626294647276198.000,-129.883,-119.141,-30.273,-229.492,1.000
1626294647280104.250,-48.340,-58.594,-17.578,1.000,1.000
1626294647284010.500,47.852,-21.973,-23.438,1.000,1.000
1626294647287916.750,-16.602,-37.598,-34.668,1.000,1.000
1626294647291823.000,-134.277,-49.805,-41.016,1.000,1.000
1626294647295729.250,-108.887,-54.199,-39.551,1.000,1.000
1626294647299635.500,25.391,-19.043,-18.066,1.000,1.000
1626294647303541.750,37.598,-10.254,-18.555,1.000,1.000
1626294647307448.000,-80.566,-37.598,-41.016,1.000,1.000
1626294647311354.250,-100.098,-43.457,-34.668,1.000,1.000
1626294647315260.500,9.766,-29.297,-12.695,1.000,1.000
1626294647319166.750,45.410,-28.320,-21.484,1.000,1.000
1626294647323073.000,-66.895,-57.617,-39.062,1.000,1.000
1626294647326979.250,-128.418,-54.688,-32.227,-229.492,1.000
1626294647330885.500,-20.020,-23.926,-21.973,20.508,1.000
1626294647334791.750,53.223,-14.648,-26.367,149.414,1.000
1626294647338698.000,-41.992,-55.664,-35.645,-76.172,1.000
1626294647342604.250,-117.676,-59.570,-29.297,-228.027,1.000
1626294647346510.500,-33.691,-9.766,-19.531,-30.762,1.000
1626294647350416.750,44.434,-27.344,-21.973,171.875,1.000
1626294647354323.000,-16.602,-54.688,-44.434,14.160,1.000
1626294647358229.250,-104.004,-32.227,-69.824,-240.723,1.000
1626294647362135.500,-90.820,-14.648,-63.965,-134.766,1.000
1626294647366041.750,29.785,10.254,-32.715,151.855,1.000
1626294647369948.000,53.223,-26.367,-15.625,114.746,1.000
1626294647373854.250,-75.684,-46.387,-25.391,1.000,1.000
1626294647377760.500,-95.215,-19.043,-30.762,1.000,1.000
1626294647381666.750,-1.953,-3.906,-20.020,1.000,1.000
1626294647385573.000,76.660,-19.531,-20.020,1.000,1.000
1626294647389479.250,8.301,-67.383,-12.695,1.000,1.000
1626294647393385.500,-101.562,-54.199,-20.508,1.000,1.000
1626294647397291.750,-37.109,-24.414,-26.855,1.000,1.000
1626294647401198.000,46.387,-14.648,-25.391,1.000,1.000
1626294647405104.250,-31.738,-42.969,-27.344,1.000,1.000
1626294647409010.500,-132.812,-83.008,-40.527,1.000,1.000
1626294647412916.750,-72.754,-46.387,-43.457,1.000,1.000
1626294647416823.000,22.461,-4.883,-25.391,1.000,1.000
1626294647420729.250,18.555,11.230,-8.301,64.941,1.000
1626294647424635.500,-90.820,-29.297,-13.672,-189.941,1.000
1626294647428541.750,-98.145,-76.172,-33.203,-111.816,1.000
1626294647432448.000,33.203,-29.785,-34.180,127.930,1.000
1626294647436354.250,32.715,-8.789,-41.992,80.566,1.000
1626294647440260.500,-91.797,-11.719,-46.875,-178.223,1.000
1626294647444166.750,-115.234,-42.969,-37.598,-200.195,1.000
1626294647448073.000,-1.953,-90.820,-35.156,73.730,1.000
1626294647451979.250,41.504,-52.734,-31.250,165.039,1.000
1626294647455885.500,-30.762,-18.555,-35.645,-89.355,1.000
1626294647459791.750,-88.867,-14.160,-39.062,-216.309,1.000
1626294647463698.000,-1.953,-34.180,-19.531,26.855,1.000
1626294647467604.250,11.719,26.855,0.977,90.820,1.000
1626294647471510.500,68.359,-14.160,-22.949,195.801,1.000
1626294647475416.750,-33.203,-78.613,-75.684,-78.613,1.000
1626294647479323.000,-89.844,-46.875,-52.734,-220.703,1.000
1626294647483229.250,-35.156,-41.992,-14.160,-14.160,1.000
1626294647487135.500,57.617,-0.977,-22.461,182.617,1.000
1626294647491041.750,9.277,-14.160,-44.434,22.949,1.000
1626294647494948.000,-87.891,-49.805,-38.574,-199.707,1.000
1626294647498854.250,-45.410,-13.184,-19.043,-69.336,1.000
1626294647502760.500,67.383,-21.484,-19.531,180.176,1.000
1626294647506666.750,40.039,-8.301,-29.785,90.820,1.000
1626294647510573.000,-94.238,-56.152,-43.945,-209.473,1.000
1626294647514479.250,-102.539,-42.480,-46.875,1.000,1.000
1626294647518385.500,46.875,-1.465,-20.996,1.000,1.000
1626294647522291.750,98.633,-8.789,-0.977,1.000,1.000
