timestamps,TP9,AF7,AF8,TP10,Right AUX
1626294679670729.250,7.812,11.230,-48.340,31.250,1.000
1626294679674635.500,-88.379,1.465,-42.480,-161.133,1.000
1626294679678541.750,-97.168,-27.344,-38.086,-125.977,1.000
1626294679682448.000,-6.836,-55.176,-42.480,73.730,1.000
1626294679686354.250,27.832,-18.555,-36.133,90.820,1.000
1626294679690260.500,-66.406,-34.180,-51.758,-119.629,1.000
1626294679694166.750,-110.840,-50.293,-52.246,-172.852,1.000
1626294679698073.000,-29.297,-47.363,-31.738,23.926,1.000
1626294679701979.250,25.391,-49.805,-14.160,105.469,1.000
1626294679705885.500,-38.574,-30.762,-8.789,-63.965,1.000
1626294679709791.750,-110.352,-38.086,-29.785,-184.570,1.000
1626294679713698.000,-56.152,-28.809,-25.391,-34.668,1.000
1626294679717604.250,-0.488,-20.996,-22.461,124.512,1.000
1626294679721510.500,43.945,-0.488,-38.574,-9.277,1.000
1626294679725416.750,-21.484,-11.230,-47.852,-191.406,1.000
1626294679729323.000,-92.773,-33.203,-47.363,-102.539,1.000
1626294679733229.250,-35.645,-1.465,-37.598,85.449,1.000
1626294679737135.500,58.594,0.977,-12.207,31.250,1.000
1626294679741041.750,16.602,-15.137,-15.625,-169.434,1.000
1626294679744948.000,-98.633,-40.527,-39.062,-150.391,1.000
1626294679748854.250,-91.797,-48.828,-40.039,71.777,1.000
1626294679752760.500,23.438,-20.020,-35.645,102.539,1.000
1626294679756666.750,50.781,-25.879,-29.785,-105.469,1.000
1626294679760573.000,-57.129,-20.996,-29.297,-152.832,1.000
1626294679764479.250,-61.523,-23.926,-33.691,-142.578,1.000
1626294679768385.500,-57.129,-5.371,-15.625,-89.844,1.000
1626294679772291.750,18.066,-6.836,-31.250,96.191,1.000
1626294679776198.000,15.625,-48.828,-45.898,50.781,1.000
1626294679780104.250,-76.660,-39.062,-43.457,-155.273,1.000
1626294679784010.500,-102.539,-28.809,-44.922,-169.434,1.000
1626294679787916.750,4.883,-0.488,-31.250,40.039,1.000
1626294679791823.000,33.691,-24.902,-39.551,98.145,1.000
1626294679795729.250,-58.594,-67.871,-62.988,-101.562,1.000
1626294679799635.500,-94.727,-34.180,-40.527,-185.059,1.000
1626294679803541.750,-24.414,-21.484,-26.367,-9.766,1.000
1626294679807448.000,47.363,0.000,-12.695,129.395,1.000
1626294679811354.250,53.223,-3.906,-18.555,112.793,1.000
1626294679815260.500,-24.414,-3.906,-17.090,-66.895,1.000
1626294679819166.750,-95.703,-27.832,-26.855,-179.688,1.000
1626294679823073.000,-29.785,-45.410,-28.809,-17.578,1.000
1626294679826979.250,72.754,-5.859,-27.832,154.297,1.000
1626294679830885.500,-19.043,-18.066,-42.480,-14.648,1.000
1626294679834791.750,-155.273,-36.621,-27.832,-226.074,1.000
1626294679838698.000,-116.699,-53.223,-8.789,-119.629,1.000
1626294679842604.250,-27.832,-78.125,-3.906,63.477,1.000
1626294679846510.500,-64.453,-54.199,-8.301,-19.531,1.000
1626294679850416.750,-176.270,-52.734,-53.711,-232.422,1.000
1626294679854323.000,-190.918,-64.453,-47.852,-210.938,1.000
1626294679858229.250,-237.793,-123.535,29.785,0.488,1.000
1626294679862135.500,-133.301,-130.371,8.789,20.508,1.000
1626294679866041.750,-112.793,-130.859,27.344,-202.148,1.000
1626294679869948.000,-201.660,-135.254,62.012,-281.738,1.000
1626294679873854.250,-222.168,-125.000,64.941,-85.449,1.000
1626294679877760.500,-108.887,-118.652,73.730,-1.953,1.000
1626294679881666.750,-37.109,-93.262,58.594,-186.035,1.000
1626294679885573.000,-112.305,-99.121,21.973,-308.105,1.000
1626294679889479.250,-173.828,-127.441,15.625,-155.273,1.000
1626294679893385.500,-89.355,-110.840,17.578,20.508,1.000
1626294679897291.750,10.742,-90.332,25.391,-75.195,1.000
1626294679901198.000,-48.340,-105.957,15.137,-251.465,1.000
1626294679905104.250,55.176,-12.207,-36.621,-65.430,1.000
1626294679909010.500,4.395,-11.719,-37.598,-171.387,1.000
1626294679912916.750,-36.133,-24.414,-24.902,-0.977,1.000
1626294679916823.000,3.906,-34.668,-39.551,156.250,1.000
1626294679920729.250,52.246,-30.762,-62.500,7.812,1.000
1626294679924635.500,5.371,-21.484,-35.156,-166.016,1.000
1626294679928541.750,-88.379,-33.691,-7.324,-56.641,1.000
1626294679932448.000,-60.059,-63.477,-0.977,123.047,1.000
1626294679936354.250,31.738,-46.875,-10.254,63.477,1.000
1626294679940260.500,17.578,-19.043,-16.113,-142.578,1.000
1626294679944166.750,-64.453,-8.789,-28.809,-116.211,1.000
1626294679948073.000,-91.797,-35.156,-45.410,108.887,1.000
1626294679951979.250,-118.164,-55.176,-34.668,-115.723,1.000
1626294679955885.500,-16.602,-31.250,-50.293,80.566,1.000
1626294679959791.750,5.859,-45.898,-25.391,58.594,1.000
1626294679963698.000,-105.469,-76.172,-31.250,-159.668,1.000
1626294679967604.250,-141.113,-56.641,-48.828,-182.617,1.000
1626294679971510.500,-24.414,-14.648,-37.598,44.922,1.000
1626294679975416.750,36.133,-3.418,-26.855,107.422,1.000
1626294679979323.000,-57.129,-89.844,-35.645,-108.398,1.000
1626294679983229.250,-113.770,-93.750,-33.691,-191.406,1.000
1626294679987135.500,-27.832,-25.879,-13.672,9.766,1.000
1626294679991041.750,45.410,1.465,-11.230,138.184,1.000
1626294679994948.000,-17.578,-6.348,-29.785,-22.461,1.000
1626294679998854.250,-32.715,-39.062,-51.758,-76.172,1.000
1626294680002760.500,-91.309,-34.668,-55.664,-169.922,1.000
1626294680006666.750,-37.109,-34.668,-35.156,-9.766,1.000
1626294680010573.000,42.969,-34.668,-27.344,120.605,1.000
1626294680014479.250,9.766,-20.996,-14.160,-7.812,1.000
1626294680018385.500,-89.844,-27.832,-33.203,-179.199,1.000
1626294680022291.750,-62.988,-26.367,-35.645,-77.148,1.000
1626294680026198.000,31.250,-36.133,-4.883,108.887,1.000
1626294680030104.250,37.109,-42.480,15.137,55.664,1.000
1626294680034010.500,-48.340,-37.109,16.113,-132.812,1.000
1626294680037916.750,-70.801,-24.902,-13.184,-111.328,1.000
1626294680041823.000,-0.488,-43.457,-42.480,78.125,1.000
1626294680045729.250,38.574,-5.371,-29.785,133.301,1.000
1626294680049635.500,45.410,12.207,-15.137,86.426,1.000
1626294680053541.750,-68.848,-28.809,-9.277,-139.648,1.000
1626294680057448.000,-95.703,-26.367,-8.301,-132.812,1.000
1626294680061354.250,-8.301,-1.465,-19.531,70.312,1.000
1626294680065260.500,24.414,-10.742,-20.508,89.355,1.000
1626294680069166.750,-59.082,-37.598,-21.973,-111.328,1.000
1626294680073073.000,-98.633,-46.875,-23.926,-164.551,1.000
1626294680076979.250,-4.883,-23.926,-10.254,41.992,1.000
1626294680080885.500,37.109,-37.109,-22.461,122.559,1.000
1626294680084791.750,-26.855,-40.039,-39.062,-52.734,1.000
1626294680088698.000,-90.820,-36.621,-70.801,-175.293,1.000
1626294680092604.250,-112.305,-33.203,-23.438,-187.012,1.000
1626294680096510.500,-32.227,-6.348,-22.461,7.812,1.000
1626294680100416.750,41.992,-23.438,-25.879,129.883,1.000
1626294680104323.000,-7.812,-44.922,-34.180,-28.809,1.000
1626294680108229.250,-83.984,-15.137,-28.809,-177.246,1.000
1626294680112135.500,-44.434,0.488,-13.672,-49.316,1.000
1626294680116041.750,42.969,-19.043,-28.809,118.164,1.000
1626294680119948.000,9.766,-52.734,-58.594,7.324,1.000
1626294680123854.250,-67.383,-42.969,-20.508,-166.504,1.000
1626294680127760.500,-54.199,-25.879,2.441,-97.168,1.000
1626294680131666.750,30.273,-3.906,-9.766,101.562,1.000
1626294680135573.000,39.062,-10.742,-31.738,74.707,1.000
1626294680139479.250,39.062,-8.789,-6.348,58.594,1.000
1626294680143385.500,-49.316,-6.836,-16.113,-149.414,1.000
1626294680147291.750,-79.590,-51.758,-33.203,-123.535,1.000
1626294680151198.000,15.625,-46.875,0.000,102.051,1.000
1626294680155104.250,60.059,-7.324,-16.602,118.652,1.000
1626294680159010.500,-50.293,-10.254,-59.082,-99.121,1.000
1626294680162916.750,-115.723,-28.809,-48.340,-165.527,1.000
1626294680166823.000,-44.434,-83.496,-43.945,14.648,1.000
1626294680170729.250,32.227,-58.105,-18.066,119.141,1.000
1626294680174635.500,-14.160,-14.160,-11.230,-40.527,1.000
1626294680178541.750,-92.773,-21.973,-60.059,-173.828,1.000
1626294680182448.000,-48.828,-35.645,-58.594,-29.785,1.000
1626294680186354.250,-17.578,-21.973,-6.836,127.930,1.000
1626294680190260.500,43.457,-16.602,-9.277,11.230,1.000
1626294680194166.750,-38.574,-70.801,-44.434,-170.410,1.000
1626294680198073.000,-101.562,-63.965,-41.504,-73.730,1.000
1626294680201979.250,-23.438,-7.324,-0.488,118.164,1.000
1626294680205885.500,74.707,-7.324,16.602,54.199,1.000
1626294680209791.750,32.227,-16.113,-20.508,-146.484,1.000
1626294680213698.000,-105.469,-61.035,-70.312,-125.000,1.000
1626294680217604.250,-87.402,-41.992,-47.852,71.777,1.000
1626294680221510.500,18.555,-12.207,-22.949,95.703,1.000
1626294680225416.750,3.906,-24.414,-44.434,-96.680,1.000
1626294680229323.000,-86.914,-32.227,-54.199,-164.551,1.000
1626294680233229.250,-64.453,-13.672,-43.945,-153.809,1.000
1626294680237135.500,-58.105,-36.133,-65.918,-95.215,1.000
1626294680241041.750,24.414,-46.875,-99.121,93.750,1.000
1626294680244948.000,51.758,-15.625,-50.781,83.984,1.000
1626294680248854.250,-25.879,-25.391,-0.977,-108.398,1.000
1626294680252760.500,-57.617,-22.949,3.906,-126.465,1.000
1626294680256666.750,25.879,6.348,15.625,78.613,1.000
1626294680260573.000,42.969,-28.320,-26.367,102.051,1.000
1626294680264479.250,-25.391,-29.297,-42.969,-87.891,1.000
1626294680268385.500,-74.219,-9.766,-25.879,-165.039,1.000
1626294680272291.750,-16.113,-14.648,-28.320,4.395,1.000
1626294680276198.000,69.824,-13.184,-34.668,145.508,1.000
1626294680280104.250,35.645,-20.508,-28.809,112.305,1.000
1626294680284010.500,-27.832,-33.203,-28.320,-65.430,1.000
1626294680287916.750,-116.211,-59.082,-45.898,-192.871,1.000
1626294680291823.000,-40.039,-36.621,-23.926,-12.207,1.000
1626294680295729.250,69.336,4.883,-4.883,155.273,1.000
1626294680299635.500,-5.371,-30.762,-44.922,-12.695,1.000
1626294680303541.750,-111.328,-62.012,-57.617,-212.402,1.000
1626294680307448.000,-75.195,-47.852,-35.645,-94.238,1.000
1626294680311354.250,11.719,-20.020,-44.922,104.492,1.000
1626294680315260.500,11.719,-14.648,-67.871,39.062,1.000
1626294680319166.750,-63.965,-31.250,-41.992,-146.973,1.000
1626294680323073.000,-72.754,-40.527,-16.602,-124.023,1.000
1626294680326979.250,-52.734,-31.250,-23.926,-59.082,1.000
1626294680330885.500,39.062,-8.301,-15.137,139.160,1.000
1626294680334791.750,-4.395,-40.039,-44.434,43.457,1.000
1626294680338698.000,-114.258,-54.199,-70.312,-191.895,1.000
1626294680342604.250,-103.516,-9.277,-35.645,-159.668,1.000
1626294680346510.500,-10.254,-5.859,-20.508,54.199,1.000
1626294680350416.750,23.926,-1.953,-28.809,81.055,1.000
1626294680354323.000,-69.824,-45.410,-39.062,-129.883,1.000
1626294680358229.250,-102.539,-54.688,-20.508,-183.594,1.000
1626294680362135.500,-25.391,-31.738,-29.297,12.695,1.000
1626294680366041.750,34.668,-8.789,-58.594,111.816,1.000
1626294680369948.000,-22.461,-12.207,-67.383,-57.129,1.000
1626294680373854.250,-38.574,-31.738,-57.129,-85.938,1.000
1626294680377760.500,-83.496,-32.227,-31.250,-166.504,1.000
1626294680381666.750,-10.254,-23.926,-24.414,18.555,1.000
1626294680385573.000,74.219,-1.465,-37.109,152.344,1.000
1626294680389479.250,16.602,-9.766,-23.438,-9.766,1.000
1626294680393385.500,-92.285,-35.156,2.441,-188.477,1.000
1626294680397291.750,-58.594,-15.137,-2.441,-79.590,1.000
1626294680401198.000,51.270,0.977,-10.254,116.699,1.000
1626294680405104.250,22.949,-14.160,-23.926,20.996,1.000
1626294680409010.500,-78.613,-37.109,-24.902,-184.570,1.000
1626294680412916.750,-73.242,-16.113,-31.738,-127.441,1.000
1626294680416823.000,30.762,0.000,-41.504,86.914,1.000
1626294680420729.250,26.855,-31.250,10.254,90.332,1.000
1626294680424635.500,9.766,-46.387,1.953,-125.000,1.000
1626294680428541.750,-88.867,-70.801,-27.832,-163.086,1.000
1626294680432448.000,-83.008,-43.945,-22.949,62.500,1.000
1626294680436354.250,-4.395,-22.949,-28.809,124.512,1.000
1626294680440260.500,20.020,-4.883,-64.941,-92.773,1.000
1626294680444166.750,-43.457,11.230,-47.363,-192.383,1.000
1626294680448073.000,-105.957,-33.691,-18.555,-18.066,1.000
1626294680451979.250,-38.086,-55.664,-13.184,133.301,1.000
1626294680455885.500,19.043,-49.316,-20.508,-8.301,1.000
1626294680459791.750,-45.410,-32.227,-31.250,-191.406,1.000
1626294680463698.000,-116.211,-32.227,-31.250,-86.914,1.000
1626294680467604.250,-84.961,-30.273,-62.988,-155.273,1.000
1626294680471510.500,-11.719,-30.273,-33.203,30.762,1.000
1626294680475416.750,38.574,-52.734,-30.273,125.488,1.000
1626294680479323.000,-40.527,-49.805,-44.434,-62.012,1.000
1626294680483229.250,-100.098,-21.484,-27.832,-192.383,1.000
1626294680487135.500,-15.137,-8.789,-20.020,-26.855,1.000
1626294680491041.750,87.891,3.418,-31.738,157.715,1.000
1626294680494948.000,27.832,-15.625,-33.203,25.391,1.000
1626294680498854.250,-69.336,-10.742,-10.254,-174.805,1.000
1626294680502760.500,-60.059,-9.766,-9.766,-97.168,1.000
1626294680506666.750,39.551,-11.719,-15.137,111.328,1.000
1626294680510573.000,31.250,-29.785,-35.645,68.359,1.000
1626294680514479.250,25.879,-26.855,-14.648,1.000,1.000
1626294680518385.500,-77.148,-31.250,-25.391,1.000,1.000
1626294680522291.750,-91.797,-41.016,-37.598,1.000,1.000
1626294680526198.000,12.695,-43.457,-34.668,1.000,1.000
1626294680530104.250,56.641,-25.391,-18.555,1.000,1.000
1626294680534010.500,-41.504,-46.875,-26.367,1.000,1.000
1626294680537916.750,-78.125,-32.715,-30.762,1.000,1.000
1626294680541823.000,-17.090,-36.133,-40.039,1.000,1.000
1626294680545729.250,35.156,-27.832,-19.531,1.000,1.000
1626294680549635.500,-28.809,-12.207,-4.395,1.000,1.000
1626294680553541.750,-95.215,-16.113,-17.578,1.000,1.000
1626294680557448.000,-7.812,-8.301,-7.812,1.000,1.000
1626294680561354.250,-23.438,-16.602,-16.113,27.832,1.000
1626294680565260.500,33.691,-34.668,-28.320,112.793,1.000
1626294680569166.750,-55.664,-61.523,-54.199,-96.191,1.000
1626294680573073.000,-102.539,-44.434,-19.043,-189.453,1.000
1626294680576979.250,-10.742,-15.137,32.715,10.254,1.000
1626294680580885.500,31.738,-43.457,-14.160,134.766,1.000
1626294680584791.750,-13.184,-44.434,-54.688,3.418,1.000
1626294680588698.000,-96.191,-65.430,-54.199,-169.922,1.000
1626294680592604.250,-77.148,-45.410,-22.461,-80.566,1.000
1626294680596510.500,26.855,-15.625,13.672,122.559,1.000
1626294680600416.750,27.344,-23.926,21.973,70.801,1.000
1626294680604323.000,-77.148,-24.902,-1.953,-141.602,1.000
1626294680608229.250,-101.074,-23.926,-27.344,-188.477,1.000
1626294680612135.500,-68.359,-6.836,-20.508,-92.285,1.000
1626294680616041.750,46.387,-34.180,-21.973,131.348,1.000
1626294680619948.000,52.246,-41.016,-15.137,91.797,1.000
1626294680623854.250,-41.016,-44.922,-25.879,-123.047,1.000
1626294680627760.500,-86.426,-60.059,-46.875,-149.902,1.000
1626294680631666.750,-23.926,-21.484,-33.691,35.156,1.000
1626294680635573.000,25.391,-13.184,-10.742,95.703,1.000
1626294680639479.250,-42.480,-36.621,-10.742,-92.773,1.000
1626294680643385.500,-76.660,-6.348,-7.812,-163.574,1.000
1626294680647291.750,-8.301,-1.465,-21.973,18.066,1.000
1626294680651198.000,35.645,-20.020,-43.457,126.953,1.000
1626294680655104.250,54.199,-23.926,-22.949,1.000,1.000
1626294680659010.500,-31.738,-19.531,-15.137,1.000,1.000
1626294680662916.750,-112.305,-33.203,-36.133,1.000,1.000
1626294680666823.000,-41.992,-33.203,-32.715,1.000,1.000
1626294680670729.250,49.316,-19.531,-8.301,1.000,1.000
1626294680674635.500,-0.488,-48.340,-27.344,1.000,1.000
1626294680678541.750,-92.285,-55.176,-32.715,1.000,1.000
1626294680682448.000,-48.828,-24.902,-13.672,1.000,1.000
1626294680686354.250,66.895,5.371,-32.227,1.000,1.000
1626294680690260.500,30.762,-13.672,-43.457,1.000,1.000
1626294680694166.750,-86.914,-28.320,-33.691,1.000,1.000
1626294680698073.000,-89.355,-28.320,-27.344,1.000,1.000
1626294680701979.250,-64.453,-18.066,-39.551,-81.055,1.000
1626294680705885.500,15.137,-11.719,-5.859,96.191,1.000
1626294680709791.750,8.789,-65.918,-20.020,25.391,1.000
1626294680713698.000,-67.871,-71.289,-26.855,-166.016,1.000
1626294680717604.250,-78.613,-43.457,-30.762,-129.395,1.000
1626294680721510.500,4.883,-42.969,-16.602,79.102,1.000
1626294680725416.750,29.785,-18.555,-13.672,90.820,1.000
1626294680729323.000,-76.660,-52.246,-54.199,-139.648,1.000
1626294680733229.250,-114.746,-39.551,-60.059,-193.359,1.000
1626294680737135.500,-3.906,10.742,-50.781,38.574,1.000
1626294680741041.750,57.129,0.977,-50.293,130.859,1.000
1626294680744948.000,-15.625,-13.672,-24.902,-56.152,1.000
1626294680748854.250,-29.785,-12.207,-12.695,-83.496,1.000
1626294680752760.500,-95.703,-26.855,-25.879,-173.828,1.000
1626294680756666.750,-31.250,-50.293,-38.574,2.441,1.000
1626294680760573.000,47.852,-53.223,-48.828,137.695,1.000
1626294680764479.250,4.395,-45.898,-53.711,-16.113,1.000
1626294680768385.500,-92.773,-52.246,-25.879,-185.059,1.000
1626294680772291.750,-77.148,-31.250,-18.066,-71.777,1.000
1626294680776198.000,7.324,-40.039,-38.086,101.074,1.000
1626294680780104.250,-13.672,-42.480,-49.316,7.812,1.000
1626294680784010.500,-93.262,-16.113,-29.297,-177.246,1.000
1626294680787916.750,-72.266,-33.691,-10.254,-102.539,1.000
1626294680791823.000,20.508,-43.457,-25.879,110.352,1.000
1626294680795729.250,54.688,-6.836,-14.648,85.449,1.000
1626294680799635.500,48.828,-7.324,-19.531,-131.348,1.000
1626294680803541.750,-94.727,-35.645,-52.734,-166.992,1.000
1626294680807448.000,-110.840,-56.152,-57.129,55.176,1.000
1626294680811354.250,2.441,-29.785,-31.738,122.070,1.000
1626294680815260.500,11.230,-23.438,-18.555,-97.656,1.000
1626294680819166.750,-76.660,-31.738,-29.297,-187.500,1.000
1626294680823073.000,-115.723,-39.551,-35.645,18.555,1.000
1626294680826979.250,-15.137,-24.902,-11.230,150.879,1.000
1626294680830885.500,42.480,-17.090,-13.672,-32.227,1.000
1626294680834791.750,-26.855,-28.320,-36.621,-203.125,1.000
1626294680838698.000,-89.355,-24.414,-28.809,-57.129,1.000
1626294680842604.250,-94.727,-29.785,-23.438,-158.203,1.000
1626294680846510.500,-41.504,-10.742,-27.344,14.648,1.000
1626294680850416.750,21.484,-28.809,-22.461,118.164,1.000
1626294680854323.000,-22.461,-32.715,-27.344,-43.945,1.000
1626294680858229.250,-108.398,-42.969,-40.527,-195.801,1.000
1626294680862135.500,-56.152,-36.621,-30.273,-34.668,1.000
1626294680866041.750,62.988,1.953,-10.742,169.434,1.000
1626294680869948.000,3.418,-20.020,-33.203,14.160,1.000
1626294680873854.250,-103.516,-35.156,-39.062,-199.219,1.000
1626294680877760.500,-70.312,-20.020,-24.414,-91.797,1.000
1626294680881666.750,27.832,-14.160,-39.551,121.582,1.000
1626294680885573.000,42.969,-7.812,-29.785,89.355,1.000
1626294680889479.250,54.199,-19.043,2.930,1.000,1.000
1626294680893385.500,-61.523,-51.270,-13.184,1.000,1.000
1626294680897291.750,-92.773,-62.500,-44.922,1.000,1.000
1626294680901198.000,12.207,-4.395,-37.109,1.000,1.000
1626294680905104.250,23.926,4.395,-43.457,1.000,1.000
1626294680909010.500,-71.777,-22.949,-43.457,1.000,1.000
1626294680912916.750,-89.355,-21.973,-29.785,1.000,1.000
1626294680916823.000,-13.184,-33.691,-64.453,1.000,1.000
1626294680920729.250,64.453,-29.297,-47.363,1.000,1.000
1626294680924635.500,26.367,-46.875,-16.602,1.000,1.000
1626294680928541.750,-69.336,-51.758,-41.504,1.000,1.000
1626294680932448.000,-46.387,-14.160,-45.898,1.000,1.000
1626294680936354.250,-15.137,-20.996,-26.367,23.926,1.000
1626294680940260.500,39.551,-29.297,-31.738,104.004,1.000
1626294680944166.750,-30.273,-57.617,-54.199,-82.520,1.000
1626294680948073.000,-97.656,-63.477,-59.082,-196.777,1.000
1626294680951979.250,-35.156,-39.062,-42.969,-25.391,1.000
1626294680955885.500,46.387,-24.414,-19.531,130.859,1.000
1626294680959791.750,17.090,-18.066,-13.672,7.812,1.000
1626294680963698.000,-72.754,-58.105,-25.879,-166.504,1.000
1626294680967604.250,-53.223,-50.781,-30.273,-65.918,1.000
1626294680971510.500,32.227,-7.324,-22.461,123.535,1.000
1626294680975416.750,14.648,-15.625,-23.438,44.434,1.000
1626294680979323.000,-85.449,-40.527,-39.551,-170.898,1.000
1626294680983229.250,-169.922,-23.438,-17.090,-257.812,1.000
1626294680987135.500,-163.086,-27.344,-7.812,-180.664,1.000
1626294680991041.750,-79.102,9.277,13.672,3.906,1.000
1626294680994948.000,-102.539,0.977,0.000,-75.195,1.000
1626294680998854.250,-202.637,-16.602,-32.715,-292.969,1.000
1626294681002760.500,-220.703,-12.207,-30.762,-287.598,1.000
1626294681006666.750,-128.906,-8.789,-11.230,-83.496,1.000
1626294681010573.000,-86.426,-20.020,-12.695,-34.180,1.000
1626294681014479.250,-157.715,-15.625,-33.691,-216.309,1.000
1626294681018385.500,-215.332,-5.371,-35.645,-295.898,1.000
1626294681022291.750,-136.719,13.184,0.977,-107.910,1.000
1626294681026198.000,-75.684,-8.789,-10.254,0.000,1.000
1626294681030104.250,52.246,-17.578,-38.574,1.000,1.000
1626294681034010.500,-18.066,-27.832,-50.293,1.000,1.000
1626294681037916.750,-88.379,-59.570,-64.941,1.000,1.000
1626294681041823.000,-15.625,-64.941,-73.730,1.000,1.000
1626294681045729.250,123.535,-24.902,-25.391,1.000,1.000
1626294681049635.500,98.145,-4.883,-4.395,1.000,1.000
1626294681053541.750,-40.039,-14.648,-58.105,1.000,1.000
1626294681057448.000,-61.035,-40.039,-83.984,1.000,1.000
1626294681061354.250,47.363,-29.297,-44.922,1.000,1.000
1626294681065260.500,55.176,-27.832,-32.715,1.000,1.000
1626294681069166.750,-27.344,-56.152,-37.109,1.000,1.000
1626294681073073.000,-26.367,-35.156,-30.273,1.000,1.000
1626294681076979.250,-9.277,-41.992,-20.996,-20.020,1.000
1626294681080885.500,106.445,-18.066,-9.277,192.383,1.000
1626294681084791.750,84.961,-71.289,-22.949,110.352,1.000
1626294681088698.000,-37.109,-69.824,-47.852,-117.188,1.000
1626294681092604.250,-30.273,-1.465,-54.688,-66.895,1.000
1626294681096510.500,82.031,20.020,-33.691,160.645,1.000
1626294681100416.750,89.844,-27.344,-41.992,145.020,1.000
1626294681104323.000,-27.832,-75.684,-63.965,-86.426,1.000
1626294681108229.250,-68.848,-50.781,-43.945,-135.254,1.000
1626294681112135.500,14.160,-38.086,-52.734,60.547,1.000
1626294681116041.750,66.895,-37.109,-52.734,154.785,1.000
1626294681119948.000,0.000,-38.086,-40.039,-22.949,1.000
1626294681123854.250,-29.297,-26.855,-40.527,-86.914,1.000
1626294681127760.500,-56.641,-27.344,-15.137,-124.512,1.000
1626294681131666.750,5.859,-34.180,-15.137,51.758,1.000
1626294681135573.000,48.340,-46.387,-29.785,135.742,1.000
1626294681139479.250,-20.020,-69.336,-39.062,-34.180,1.000
1626294681143385.500,-92.285,-74.707,-44.922,-165.527,1.000
1626294681147291.750,-26.855,-27.344,-24.902,-2.930,1.000
1626294681151198.000,52.246,-5.859,-28.320,159.180,1.000
1626294681155104.250,6.348,-29.785,-40.039,30.273,1.000
1626294681159010.500,-91.797,-38.574,-27.832,-169.922,1.000
1626294681162916.750,-64.941,-23.438,-5.859,-80.566,1.000
1626294681166823.000,44.434,-13.672,-17.578,141.602,1.000
1626294681170729.250,31.250,-6.348,-38.574,90.820,1.000
1626294681174635.500,8.789,-13.184,-43.457,-142.578,1.000
1626294681178541.750,-111.816,-52.734,-63.965,-152.832,1.000
1626294681182448.000,-100.098,-58.594,-51.758,60.547,1.000
1626294681186354.250,31.250,-12.695,-8.301,88.867,1.000
1626294681190260.500,46.387,-12.207,-23.926,-117.676,1.000
1626294681194166.750,-39.062,-21.973,-26.367,-171.875,1.000
1626294681198073.000,-80.078,-39.062,-43.945,39.062,1.000
1626294681201979.250,-7.812,-53.223,-55.664,175.781,1.000
1626294681205885.500,46.387,-66.895,-32.227,-42.480,1.000
1626294681209791.750,-2.441,-34.668,-21.484,-227.539,1.000
1626294681213698.000,-72.754,-5.859,-29.785,-59.570,1.000
1626294681217604.250,-76.660,-30.273,-25.879,-157.715,1.000
1626294681221510.500,-4.883,-35.645,-33.203,37.109,1.000
1626294681225416.750,40.527,-52.246,-40.039,118.652,1.000
1626294681229323.000,-7.812,-36.621,-38.086,-43.457,1.000
1626294681233229.250,-75.195,-11.719,-26.855,-162.109,1.000
1626294681237135.500,-42.480,-19.531,-18.066,-20.020,1.000
1626294681241041.750,51.758,-0.488,-20.508,144.043,1.000
1626294681244948.000,25.391,-13.184,-12.695,23.438,1.000
1626294681248854.250,-83.008,-41.016,-30.273,-178.711,1.000
1626294681252760.500,-54.688,-18.066,-32.715,-78.613,1.000
1626294681256666.750,46.875,-13.184,-21.484,130.859,1.000
1626294681260573.000,46.875,-28.320,-27.832,80.078,1.000
1626294681264479.250,20.996,-21.973,-9.277,1.000,1.000
1626294681268385.500,-107.422,-62.012,-20.020,1.000,1.000
1626294681272291.750,-92.773,-47.852,-28.320,1.000,1.000
1626294681276198.000,13.672,-20.020,-11.719,1.000,1.000
1626294681280104.250,13.672,-13.672,-12.207,1.000,1.000
1626294681284010.500,-71.289,-18.555,-15.625,1.000,1.000
1626294681287916.750,-99.609,-38.086,-26.367,1.000,1.000
1626294681291823.000,-2.441,-64.453,-14.648,1.000,1.000
1626294681295729.250,48.340,-50.293,-14.160,1.000,1.000
1626294681299635.500,-35.645,-44.922,-34.668,1.000,1.000
1626294681303541.750,-92.773,-51.270,-48.340,1.000,1.000
1626294681307448.000,-24.414,-18.066,-44.922,1.000,1.000
1626294681311354.250,1.465,-38.086,-19.043,43.945,1.000
1626294681315260.500,66.895,-28.320,-10.254,121.094,1.000
1626294681319166.750,-20.508,-21.973,-40.039,-74.707,1.000
1626294681323073.000,-104.004,-40.039,-51.758,-200.684,1.000
1626294681326979.250,-45.410,-17.578,-26.367,-38.086,1.000
1626294681330885.500,52.246,-3.418,-16.113,129.883,1.000
1626294681334791.750,4.395,-28.320,-46.387,-16.602,1.000
1626294681338698.000,-91.797,-37.109,-37.598,-190.430,1.000
1626294681342604.250,-68.848,-35.645,-30.762,-75.195,1.000
1626294681346510.500,12.695,-20.996,-37.598,102.539,1.000
1626294681350416.750,-2.441,-18.555,-34.180,17.090,1.000
1626294681354323.000,-98.145,-36.133,-44.434,-195.312,1.000
1626294681358229.250,-47.852,-38.086,13.184,-145.020,1.000
1626294681362135.500,-23.438,-43.945,-0.977,-57.129,1.000
1626294681366041.750,20.996,-39.062,-66.406,98.633,1.000
1626294681369948.000,-12.695,-46.387,-84.473,21.973,1.000
1626294681373854.250,-105.957,-52.734,-52.246,-178.711,1.000
1626294681377760.500,-108.398,-45.898,-49.805,-145.020,1.000
1626294681381666.750,-14.160,-28.809,-41.016,62.500,1.000
1626294681385573.000,10.254,-38.086,-19.043,76.660,1.000
1626294681389479.250,-63.477,-46.387,-23.926,-127.930,1.000
1626294681393385.500,-93.750,-32.227,-23.438,-177.734,1.000
1626294681397291.750,-8.789,-15.137,-13.672,28.809,1.000
1626294681401198.000,62.500,-14.648,-11.719,139.648,1.000
1626294681405104.250,26.367,-15.137,-39.551,1.000,1.000
1626294681409010.500,-49.316,-38.086,-56.641,1.000,1.000
1626294681412916.750,-108.398,-62.988,-20.996,1.000,1.000
1626294681416823.000,-43.457,-33.691,-20.020,1.000,1.000
1626294681420729.250,26.855,-12.695,-25.391,1.000,1.000
1626294681424635.500,-14.648,-16.113,-35.156,1.000,1.000
1626294681428541.750,-67.383,-21.484,-30.273,1.000,1.000
1626294681432448.000,-32.227,-32.715,-19.043,1.000,1.000
1626294681436354.250,41.016,-27.344,-15.625,1.000,1.000
1626294681440260.500,12.695,-13.672,-22.461,1.000,1.000
1626294681444166.750,-113.281,-43.457,-67.871,1.000,1.000
1626294681448073.000,-106.934,-61.523,-53.223,1.000,1.000
1626294681451979.250,-64.941,-39.551,-36.621,-67.871,1.000
1626294681455885.500,35.156,-22.461,-25.391,132.324,1.000
1626294681459791.750,28.809,-30.273,-35.645,58.594,1.000
1626294681463698.000,-76.172,-44.922,-42.480,-158.203,1.000
1626294681467604.250,-73.730,-22.461,-12.207,-110.352,1.000
1626294681471510.500,23.438,4.395,-4.395,105.957,1.000
1626294681475416.750,31.738,-9.766,-21.973,87.891,1.000
1626294681479323.000,-41.504,-17.578,-10.742,-108.887,1.000
1626294681483229.250,-86.426,-13.184,-18.555,-152.344,1.000
1626294681487135.500,-11.719,-11.230,-31.250,38.086,1.000
1626294681491041.750,35.156,-21.484,-42.480,113.770,1.000
1626294681494948.000,-43.945,-34.668,-50.293,-80.078,1.000
1626294681498854.250,-54.199,-13.672,-55.664,-114.746,1.000
1626294681502760.500,-108.887,-39.062,-55.176,-180.176,1.000
1626294681506666.750,-23.926,-56.152,-29.297,26.855,1.000
1626294681510573.000,36.621,-66.406,-44.434,121.094,1.000
1626294681514479.250,-23.926,-25.391,-28.809,-48.828,1.000
1626294681518385.500,-109.863,0.488,-10.254,-196.289,1.000
1626294681522291.750,-74.219,-16.602,-19.043,-64.941,1.000
1626294681526198.000,30.273,-38.574,-15.625,121.582,1.000
1626294681530104.250,0.488,-49.805,-30.273,5.371,1.000
1626294681534010.500,-88.379,-34.180,-47.363,-183.105,1.000
1626294681537916.750,-69.336,-28.809,-48.828,-94.238,1.000
1626294681541823.000,17.578,-35.645,-36.621,104.004,1.000
1626294681545729.250,21.973,-9.766,-32.227,114.746,1.000
1626294681549635.500,0.488,-24.902,-15.137,13.672,1.000
1626294681553541.750,-90.332,-68.359,-16.113,-182.129,1.000
1626294681557448.000,-103.027,-54.688,-42.969,-138.184,1.000
1626294681561354.250,-4.395,-8.789,-46.875,74.707,1.000
1626294681565260.500,18.066,-11.719,-35.645,62.500,1.000
1626294681569166.750,-82.520,-35.645,-44.434,-157.715,1.000
1626294681573073.000,-93.750,-55.664,-37.109,-154.785,1.000
1626294681576979.250,7.324,-38.574,-23.926,72.266,1.000
1626294681580885.500,61.523,-8.301,-12.207,139.160,1.000
1626294681584791.750,-25.391,-16.113,-27.344,-67.383,1.000
1626294681588698.000,-113.770,-37.109,-57.129,-197.266,1.000
1626294681592604.250,-89.844,-5.371,-4.395,-154.297,1.000
1626294681596510.500,-16.113,-28.809,-23.438,39.551,1.000
1626294681600416.750,38.086,-25.879,-39.062,117.188,1.000
1626294681604323.000,-30.762,-10.742,-40.039,-71.777,1.000
1626294681608229.250,-107.422,-25.391,-42.969,-202.148,1.000
1626294681612135.500,-31.738,-9.766,-19.531,-9.277,1.000
1626294681616041.750,57.617,-7.324,-27.344,153.809,1.000
1626294681619948.000,-7.812,-41.992,-59.082,-12.207,1.000
1626294681623854.250,-113.770,-63.477,-62.988,-208.984,1.000
1626294681627760.500,-86.426,-56.641,-46.875,-105.469,1.000
1626294681631666.750,10.254,-48.340,-39.062,102.051,1.000
1626294681635573.000,12.207,-39.551,-30.762,41.504,1.000
1626294681639479.250,9.277,-32.715,-18.066,1.000,1.000
1626294681643385.500,-70.801,-37.109,-19.043,1.000,1.000
1626294681647291.750,-64.941,-42.969,-27.832,1.000,1.000
1626294681651198.000,28.809,-20.508,-34.668,1.000,1.000
1626294681655104.250,39.062,-19.043,-22.949,1.000,1.000
1626294681659010.500,-65.918,-42.480,-36.621,1.000,1.000
1626294681662916.750,-77.637,-39.551,-55.664,1.000,1.000
1626294681666823.000,21.484,-52.734,-44.922,1.000,1.000
1626294681670729.250,45.898,-44.922,-30.273,1.000,1.000
1626294681674635.500,-46.387,-33.203,-13.672,1.000,1.000
1626294681678541.750,-117.188,-34.668,-20.996,1.000,1.000
1626294681682448.000,-34.668,-26.855,-28.320,1.000,1.000
1626294681686354.250,12.695,-30.762,-16.113,64.941,1.000
1626294681690260.500,60.059,-49.805,-31.250,121.094,1.000
1626294681694166.750,-34.180,-53.711,-57.129,-93.262,1.000
1626294681698073.000,-119.141,-42.969,-58.105,-214.355,1.000
1626294681701979.250,-32.227,-13.184,-38.574,-14.648,1.000
1626294681705885.500,61.523,-3.906,-24.414,145.508,1.000
1626294681709791.750,-5.859,-35.156,-41.504,-18.555,1.000
1626294681713698.000,-104.004,-60.059,-41.992,-194.824,1.000
1626294681717604.250,-58.594,-40.039,-19.531,-63.477,1.000
1626294681721510.500,54.688,-13.184,-9.277,142.090,1.000
1626294681725416.750,34.180,-29.785,-9.766,48.828,1.000
1626294681729323.000,-93.750,-49.316,-40.039,-181.641,1.000
1626294681733229.250,-113.281,-31.250,-39.551,-188.965,1.000
1626294681737135.500,-68.359,-8.301,-42.480,-74.707,1.000
1626294681741041.750,38.574,-14.648,-35.645,125.488,1.000
1626294681744948.000,44.922,-16.602,-13.672,76.660,1.000
1626294681748854.250,-65.430,-24.902,-11.230,-142.578,1.000
1626294681752760.500,-79.590,-29.785,-34.668,-120.117,1.000
1626294681756666.750,35.645,-32.715,-27.344,97.656,1.000
1626294681760573.000,82.520,-36.621,9.277,127.441,1.000
1626294681764479.250,-31.250,-57.129,-23.438,-101.074,1.000
1626294681768385.500,-108.398,-51.270,-51.758,-185.547,1.000
1626294681772291.750,-16.602,-20.020,-24.414,19.043,1.000
1626294681776198.000,57.617,-8.789,-22.461,126.953,1.000
1626294681780104.250,45.898,-27.344,-5.371,-65.430,1.000
1626294681784010.500,-44.434,-40.039,-31.738,-208.984,1.000
1626294681787916.750,-121.582,-57.617,-70.801,-42.969,1.000
1626294681791823.000,-55.176,-54.688,-60.547,144.043,1.000
1626294681795729.250,19.531,-29.297,-22.461,41.016,1.000
1626294681799635.500,-41.992,-27.832,-18.555,-162.598,1.000
1626294681803541.750,-108.398,-35.645,-42.969,-106.934,1.000
1626294681807448.000,-69.824,-56.641,-64.453,97.168,1.000
1626294681811354.250,27.344,-60.547,-44.922,55.176,1.000
1626294681815260.500,12.695,-46.875,-13.184,-158.691,1.000
1626294681819166.750,-83.984,-22.949,-16.113,-145.996,1.000
1626294681823073.000,-81.543,-34.180,-29.785,69.336,1.000
1626294681826979.250,-48.828,-6.348,-6.348,-39.062,1.000
1626294681830885.500,39.062,2.930,-10.254,141.113,1.000
1626294681834791.750,-4.395,-67.871,-41.992,23.926,1.000
1626294681838698.000,-99.609,-86.426,-50.293,-176.270,1.000
1626294681842604.250,-65.430,-20.996,-22.949,-93.262,1.000
1626294681846510.500,31.250,4.883,-13.184,124.023,1.000
1626294681850416.750,27.832,-9.766,-35.156,94.238,1.000
1626294681854323.000,-80.566,-47.852,-58.105,-140.137,1.000
1626294681858229.250,-102.051,-38.574,-49.805,-150.391,1.000
1626294681862135.500,-4.395,-11.230,-45.898,70.312,1.000
1626294681866041.750,37.109,-1.953,-32.227,124.512,1.000
1626294681869948.000,-49.805,-30.273,-21.484,-85.449,1.000
1626294681873854.250,-66.406,-26.855,-29.785,-118.164,1.000
1626294681877760.500,-102.539,-19.043,-24.902,-164.062,1.000
1626294681881666.750,-30.273,-27.832,-23.438,26.855,1.000
1626294681885573.000,32.227,-26.855,-25.391,121.582,1.000
1626294681889479.250,-6.348,-15.625,-19.043,-37.109,1.000
1626294681893385.500,-87.891,-37.598,-26.855,-172.363,1.000
1626294681897291.750,-41.016,-44.922,-32.227,-22.461,1.000
1626294681901198.000,41.016,-27.344,-18.555,139.160,1.000
1626294681905104.250,-4.883,-23.926,-17.090,4.395,1.000
1626294681909010.500,-108.887,-47.363,-41.504,-200.195,1.000
1626294681912916.750,-88.379,-53.223,-39.551,-112.305,1.000
1626294681916823.000,15.137,-29.297,-21.973,95.215,1.000
1626294681920729.250,58.105,4.395,-27.832,135.742,1.000
1626294681924635.500,29.297,-9.766,-20.996,29.785,1.000
1626294681928541.750,-82.031,-50.293,-20.996,-176.758,1.000
1626294681932448.000,-61.523,-53.711,-12.695,-93.750,1.000
1626294681936354.250,41.016,-32.715,-14.160,115.723,1.000
1626294681940260.500,40.039,-25.391,-33.203,70.801,1.000
1626294681944166.750,-62.500,-21.973,-38.574,-144.043,1.000
1626294681948073.000,-105.469,-28.809,-48.828,-161.621,1.000
1626294681951979.250,-10.254,-25.879,-41.992,53.711,1.000
1626294681955885.500,38.086,-20.508,-23.438,110.840,1.000
1626294681959791.750,-50.293,-23.438,-27.344,-95.703,1.000
1626294681963698.000,-108.887,-14.648,-23.926,-184.082,1.000
1626294681967604.250,-2.441,-43.945,-29.297,-158.203,1.000
1626294681971510.500,-84.961,-51.270,-38.574,62.012,1.000
1626294681975416.750,-64.941,-53.223,-38.574,125.488,1.000
1626294681979323.000,42.480,-39.551,-26.855,-77.637,1.000
1626294681983229.250,44.922,-16.113,-41.992,-188.477,1.000
1626294681987135.500,-75.195,-18.555,-54.688,1.953,1.000
1626294681991041.750,-103.027,-22.461,-25.391,166.504,1.000
1626294681994948.000,-9.766,-27.832,-14.160,-9.766,1.000
1626294681998854.250,25.391,-24.902,-15.625,-211.426,1.000
1626294682002760.500,-56.641,-18.555,-19.531,-95.703,1.000
1626294682006666.750,-110.352,-24.414,-29.785,100.586,1.000
1626294682010573.000,-48.828,-45.410,-38.086,35.645,1.000
1626294682014479.250,-4.883,-15.625,-36.621,60.059,1.000
1626294682018385.500,52.734,-7.812,-30.273,128.418,1.000
1626294682022291.750,-35.156,-44.434,-30.273,-83.008,1.000
1626294682026198.000,-99.121,-43.945,-20.996,-176.270,1.000
1626294682030104.250,-22.461,-22.461,-19.531,20.508,1.000
1626294682034010.500,36.621,-28.320,-30.273,132.324,1.000
1626294682037916.750,-33.691,-47.363,-22.949,-38.574,1.000
1626294682041823.000,-122.559,-66.895,-45.898,-197.754,1.000
1626294682045729.250,-62.012,-31.738,-62.500,-54.688,1.000
1626294682049635.500,28.320,-0.977,-40.527,119.629,1.000
1626294682053541.750,-2.441,-15.625,-23.438,14.160,1.000
1626294682057448.000,-89.355,-44.434,-9.277,-176.270,1.000
1626294682061354.250,-95.703,-37.109,-57.129,-195.312,1.000
1626294682065260.500,-51.758,-10.254,-20.508,-62.988,1.000
1626294682069166.750,3.418,-42.480,-49.805,90.820,1.000
1626294682073073.000,-29.785,-49.805,-62.500,-8.789,1.000
1626294682076979.250,-87.402,-11.230,-38.086,-167.480,1.000
1626294682080885.500,-83.008,-7.812,-33.203,-115.234,1.000
1626294682084791.750,7.324,-24.414,-20.508,81.543,1.000
1626294682088698.000,32.227,-56.641,-19.043,82.520,1.000
1626294682092604.250,-55.664,-49.316,-36.133,-132.812,1.000
1626294682096510.500,-91.797,-22.949,-33.691,-168.945,1.000
1626294682100416.750,-9.766,-2.441,-31.250,44.922,1.000
1626294682104323.000,46.875,-9.277,-35.645,125.977,1.000
1626294682108229.250,35.156,-5.859,-39.551,-72.266,1.000
1626294682112135.500,-63.965,-29.785,-23.926,-183.105,1.000
1626294682116041.750,-98.145,-50.781,-18.066,-28.320,1.000
1626294682119948.000,-6.348,-44.922,-14.160,116.699,1.000
1626294682123854.250,29.297,-29.297,-30.273,-2.930,1.000
1626294682127760.500,-44.434,-20.508,-44.434,-190.918,1.000
1626294682131666.750,-93.262,-16.113,-46.387,-83.008,1.000
1626294682135573.000,-28.320,-42.969,-34.180,135.742,1.000
1626294682139479.250,53.223,-51.758,-33.203,69.336,1.000
1626294682143385.500,9.277,-43.945,-40.527,-177.246,1.000
1626294682147291.750,-81.055,-40.039,-33.691,-159.668,1.000
1626294682151198.000,-61.035,-36.133,-28.809,76.172,1.000
1626294682155104.250,-62.988,-32.227,-32.227,-70.801,1.000
1626294682159010.500,24.414,-25.879,-31.738,110.352,1.000
1626294682162916.750,-22.461,-75.195,-70.801,-6.348,1.000
1626294682166823.000,-120.605,-79.102,-79.102,-208.496,1.000
1626294682170729.250,-85.449,-38.086,-49.805,-111.816,1.000
1626294682174635.500,21.973,-39.062,-51.270,109.863,1.000
1626294682178541.750,38.086,-4.883,-31.738,83.984,1.000
1626294682182448.000,-59.082,-43.945,-11.230,-136.719,1.000
1626294682186354.250,-91.797,-62.500,-16.602,-153.320,1.000
1626294682190260.500,12.207,-6.836,-6.836,71.777,1.000
1626294682194166.750,77.148,14.648,14.160,147.949,1.000
1626294682198073.000,-32.227,-17.090,-21.973,-77.148,1.000
1626294682201979.250,-67.383,-10.254,-15.137,1.000,1.000
1626294682205885.500,-99.609,4.395,-23.438,1.000,1.000
1626294682209791.750,-30.762,-58.105,-31.250,1.000,1.000
1626294682213698.000,33.691,-84.473,-15.625,1.000,1.000
1626294682217604.250,-27.832,-39.062,-54.688,1.000,1.000
1626294682221510.500,-118.164,-30.273,-69.824,1.000,1.000
1626294682225416.750,-58.594,-20.020,-35.156,1.000,1.000
1626294682229323.000,27.344,-57.129,-36.621,1.000,1.000
1626294682233229.250,10.254,-46.875,-25.391,1.000,1.000
1626294682237135.500,-74.219,-11.230,-15.625,1.000,1.000
1626294682241041.750,-69.336,-7.812,-14.160,1.000,1.000
1626294682244948.000,21.973,-10.742,-10.742,1.000,1.000
1626294682248854.250,56.152,-1.465,1.465,148.926,1.000
1626294682252760.500,5.371,-18.555,-22.949,8.789,1.000
1626294682256666.750,-98.145,-52.734,-48.340,-187.012,1.000
1626294682260573.000,-58.594,-51.270,-28.809,-77.637,1.000
1626294682264479.250,36.133,-10.254,-12.695,130.859,1.000
1626294682268385.500,13.184,-11.719,-32.227,62.012,1.000
1626294682272291.750,-84.961,-15.137,-44.434,-150.879,1.000
1626294682276198.000,-120.117,-34.180,-46.387,-161.133,1.000
1626294682280104.250,-17.578,-20.508,-13.184,59.570,1.000
1626294682284010.500,52.246,-4.883,10.742,128.906,1.000
1626294682287916.750,-45.898,-34.180,-31.738,-91.797,1.000
1626294682291823.000,-111.328,-49.805,-39.551,-177.734,1.000
1626294682295729.250,-86.914,-52.734,-23.438,-145.508,1.000
1626294682299635.500,27.832,-9.277,13.672,88.867,1.000
1626294682303541.750,48.828,-21.484,-18.066,126.953,1.000
1626294682307448.000,-57.617,-50.781,-62.988,-101.074,1.000
1626294682311354.250,-112.793,-26.855,-54.688,-197.266,1.000
1626294682315260.500,-52.734,-8.301,-42.480,-21.973,1.000
1626294682319166.750,33.203,-8.789,-18.555,123.535,1.000
1626294682323073.000,-18.066,-36.133,-31.738,-30.762,1.000
1626294682326979.250,-103.516,-32.715,-34.180,-196.777,1.000
1626294682330885.500,-50.781,-43.945,-12.207,-56.641,1.000
1626294682334791.750,62.500,-57.617,0.488,154.785,1.000
1626294682338698.000,58.105,-18.066,7.324,75.195,1.000
1626294682342604.250,-11.230,-19.043,-25.391,-16.113,1.000
1626294682346510.500,-83.008,2.441,-15.625,-179.199,1.000
1626294682350416.750,-52.734,-29.785,-27.832,-63.965,1.000
1626294682354323.000,37.598,-56.152,-38.574,121.094,1.000
1626294682358229.250,36.621,-29.785,-16.602,61.523,1.000
1626294682362135.500,-70.312,-47.852,-27.832,-155.762,1.000
1626294682366041.750,-97.656,-37.109,-54.199,-144.043,1.000
1626294682369948.000,-16.113,-21.973,-57.617,58.594,1.000
1626294682373854.250,21.973,-15.137,-39.062,79.590,1.000
1626294682377760.500,-46.875,-9.277,-30.273,-108.887,1.000
1626294682381666.750,-82.520,-8.301,-41.992,-159.180,1.000
1626294682385573.000,-0.488,4.883,-18.066,35.156,1.000
1626294682389479.250,-9.766,-10.742,-28.320,54.688,1.000
1626294682393385.500,49.316,8.301,-20.508,104.980,1.000
1626294682397291.750,-30.762,-48.340,-34.180,-99.121,1.000
1626294682401198.000,-104.004,-85.449,-53.711,-187.012,1.000
1626294682405104.250,-24.414,-43.457,-42.969,10.254,1.000
1626294682409010.500,47.852,-40.527,-17.578,123.047,1.000
1626294682412916.750,-15.625,-34.668,-27.344,-47.852,1.000
1626294682416823.000,-103.027,-51.270,-35.645,-197.754,1.000
1626294682420729.250,-66.406,-41.504,-17.578,-57.129,1.000
1626294682424635.500,33.203,-7.324,-16.113,124.023,1.000
1626294682428541.750,3.906,-12.207,-44.434,10.254,1.000
1626294682432448.000,-94.238,-31.250,-54.688,-188.965,1.000
1626294682436354.250,-94.727,-5.859,-19.531,-173.340,1.000
1626294682440260.500,-41.504,3.418,-4.883,-37.109,1.000
1626294682444166.750,42.969,-25.391,-11.230,138.184,1.000
1626294682448073.000,-3.906,-41.992,-32.227,18.066,1.000
1626294682451979.250,-103.027,-27.832,-34.668,-188.477,1.000
1626294682455885.500,-95.703,-26.367,-22.461,-127.441,1.000
1626294682459791.750,16.113,-25.391,-8.789,93.262,1.000
1626294682463698.000,54.199,-16.602,-4.883,106.445,1.000
1626294682467604.250,-42.969,-3.418,-24.902,-104.492,1.000
1626294682471510.500,-98.145,-24.414,-27.344,-157.715,1.000
1626294682475416.750,-28.320,-49.316,-20.996,35.156,1.000
1626294682479323.000,19.043,-37.598,-27.832,107.422,1.000
1626294682483229.250,41.504,-36.621,-21.973,-74.707,1.000
1626294682487135.500,-45.410,-37.109,-49.805,-197.266,1.000
1626294682491041.750,-89.844,-57.617,-44.922,-27.832,1.000
1626294682494948.000,-9.277,-46.875,-30.762,141.113,1.000
1626294682498854.250,52.246,-13.184,-42.969,2.930,1.000
1626294682502760.500,-9.766,-41.504,-48.828,-158.203,1.000
1626294682506666.750,-85.938,-31.738,-29.785,-43.457,1.000
1626294682510573.000,-48.340,-28.320,-18.555,129.883,1.000
1626294682514479.250,30.273,-30.762,-29.785,36.621,1.000
1626294682518385.500,-8.301,-23.438,-54.199,-191.895,1.000
1626294682522291.750,-87.891,-41.504,-53.711,-163.086,1.000
1626294682526198.000,-54.199,-32.715,-16.602,77.148,1.000
1626294682530104.250,-65.430,-18.066,-34.180,-61.523,1.000
1626294682534010.500,31.250,9.766,-22.461,131.348,1.000
1626294682537916.750,10.742,-17.090,-36.133,24.414,1.000
1626294682541823.000,-89.355,-48.340,-54.199,-179.199,1.000
1626294682545729.250,-66.895,-21.973,-23.438,-94.727,1.000
1626294682549635.500,29.785,-9.766,-17.578,116.211,1.000
1626294682553541.750,6.348,-39.062,-48.340,49.805,1.000
1626294682557448.000,-70.801,-55.664,-39.062,-151.367,1.000
1626294682561354.250,-77.637,-71.777,-11.719,-137.695,1.000
1626294682565260.500,5.371,-47.852,-11.719,72.266,1.000
1626294682569166.750,57.129,21.484,-23.438,128.906,1.000
1626294682573073.000,-18.555,22.461,-33.691,-76.172,1.000
1626294682576979.250,-65.918,-31.250,-29.785,1.000,1.000
1626294682580885.500,-104.492,-54.688,-46.875,1.000,1.000
1626294682584791.750,-18.555,-56.641,-28.809,1.000,1.000
1626294682588698.000,46.875,-20.996,-42.480,1.000,1.000
1626294682592604.250,-29.785,-17.090,-50.781,1.000,1.000
1626294682596510.500,-89.844,-18.066,-12.207,1.000,1.000
1626294682600416.750,-18.555,-4.395,-2.930,1.000,1.000
1626294682604323.000,56.152,-25.391,-12.207,1.000,1.000
1626294682608229.250,-5.371,-41.016,-29.785,1.000,1.000
1626294682612135.500,-117.188,-52.246,-52.246,1.000,1.000
1626294682616041.750,-81.543,-45.898,-48.828,1.000,1.000
1626294682619948.000,34.668,-22.461,-23.926,1.000,1.000
1626294682623854.250,22.461,-13.184,-20.996,104.980,1.000
1626294682627760.500,-23.438,-12.695,-42.480,-35.156,1.000
1626294682631666.750,-100.586,-29.785,-34.180,-196.777,1.000
1626294682635573.000,-54.688,-14.648,-17.090,-73.242,1.000
1626294682639479.250,36.133,-7.324,-32.227,114.258,1.000
1626294682643385.500,15.625,-28.809,-33.691,35.156,1.000
1626294682647291.750,-83.984,-32.715,-39.062,-167.480,1.000
1626294682651198.000,-76.660,-40.039,-20.508,-121.582,1.000
1626294682655104.250,24.414,-38.086,-17.578,95.703,1.000
1626294682659010.500,37.109,-64.453,-31.250,107.910,1.000
1626294682662916.750,-51.758,-79.590,-43.457,-108.398,1.000
1626294682666823.000,-104.004,-36.133,-62.988,-186.523,1.000
1626294682670729.250,-128.418,-48.340,-39.551,-177.246,1.000
1626294682674635.500,-45.898,-43.457,-32.715,33.203,1.000
1626294682678541.750,26.855,-38.086,-21.973,103.027,1.000
1626294682682448.000,-44.922,-62.500,-30.273,-96.191,1.000
1626294682686354.250,-121.094,-60.059,-40.527,-203.613,1.000
1626294682690260.500,-41.016,-26.855,-37.598,-13.184,1.000
1626294682694166.750,42.480,-6.348,-46.875,112.305,1.000
1626294682698073.000,-8.301,-46.875,-23.926,-40.527,1.000
1626294682701979.250,-97.168,-59.570,-8.789,-195.801,1.000
1626294682705885.500,-47.852,-6.348,0.000,-58.105,1.000
1626294682709791.750,41.504,-2.441,-15.137,127.441,1.000
1626294682713698.000,-6.348,-39.551,-49.805,8.301,1.000
1626294682717604.250,1.953,-26.367,-30.273,1.000,1.000
1626294682721510.500,-80.078,-15.137,-14.160,1.000,1.000
1626294682725416.750,-44.434,-32.715,-8.789,1.000,1.000
1626294682729323.000,41.016,-30.762,-20.020,1.000,1.000
1626294682733229.250,28.320,2.930,-14.648,1.000,1.000
1626294682737135.500,-72.754,-20.508,-31.250,1.000,1.000
1626294682741041.750,-75.195,-23.438,-37.109,1.000,1.000
1626294682744948.000,34.668,-51.758,-19.043,1.000,1.000
1626294682748854.250,62.988,-32.715,-18.555,1.000,1.000
1626294682752760.500,-47.363,-1.953,-22.461,1.000,1.000
1626294682756666.750,-91.309,-35.156,-24.902,1.000,1.000
1626294682760573.000,2.441,-40.039,-28.809,1.000,1.000
1626294682764479.250,-1.465,-36.133,-22.949,74.707,1.000
1626294682768385.500,15.625,-28.809,-37.109,88.867,1.000
1626294682772291.750,-76.172,-61.035,-43.457,-127.930,1.000
1626294682776198.000,-111.328,-52.734,-30.762,-189.941,1.000
1626294682780104.250,-28.809,8.789,-23.926,14.648,1.000
1626294682784010.500,33.691,-2.441,-19.531,126.953,1.000
1626294682787916.750,-33.691,-30.273,-45.410,-54.199,1.000
1626294682791823.000,-118.164,-72.754,-60.547,-199.219,1.000
1626294682795729.250,-36.621,-63.477,-10.742,-20.508,1.000
1626294682799635.500,52.734,-34.668,-10.742,149.414,1.000
1626294682803541.750,-9.766,-15.625,-52.246,0.488,1.000
1626294682807448.000,-104.980,6.836,-56.641,-195.312,1.000
1626294682811354.250,-73.730,6.836,-25.391,-154.785,1.000
1626294682815260.500,-42.480,-7.324,-15.137,-31.250,1.000
1626294682819166.750,43.457,-41.016,-5.859,143.555,1.000
1626294682823073.000,15.625,-52.734,-23.926,37.109,1.000
1626294682826979.250,-85.449,-38.574,-27.344,-172.852,1.000
1626294682830885.500,-76.660,-38.086,-7.324,-101.074,1.000
1626294682834791.750,40.527,-27.832,-1.465,125.000,1.000
1626294682838698.000,53.223,-57.617,-23.438,100.586,1.000
1626294682842604.250,-68.359,-62.012,-57.617,-134.277,1.000
1626294682846510.500,-101.074,-22.461,-53.223,-161.621,1.000
1626294682850416.750,-1.953,-2.930,-30.273,59.570,1.000
1626294682854323.000,40.039,7.812,-26.855,121.094,1.000
1626294682858229.250,45.410,-8.301,-27.832,-84.961,1.000
1626294682862135.500,-57.129,-15.137,-58.594,-192.383,1.000
1626294682866041.750,-118.652,-43.945,-77.637,-15.137,1.000
1626294682869948.000,-31.738,-43.945,-47.852,127.441,1.000
1626294682873854.250,58.105,-9.766,-13.672,-27.344,1.000
1626294682877760.500,-20.020,-3.418,-27.344,-200.684,1.000
1626294682881666.750,-99.609,-15.625,-49.316,-85.938,1.000
1626294682885573.000,-43.457,-47.363,-37.598,104.492,1.000
1626294682889479.250,37.598,-36.621,-25.879,35.645,1.000
1626294682893385.500,8.301,-29.297,-33.691,-181.152,1.000
1626294682897291.750,-82.031,-23.926,-32.715,-137.207,1.000
1626294682901198.000,-64.453,-8.301,-25.879,103.516,1.000
1626294682905104.250,-52.246,-14.160,-63.477,-35.156,1.000
1626294682909010.500,31.738,-3.906,-37.598,128.418,1.000
1626294682912916.750,-7.324,-46.387,-21.973,3.418,1.000
1626294682916823.000,-99.609,-62.012,-22.949,-196.289,1.000
1626294682920729.250,-97.656,-18.066,-22.949,-123.047,1.000
1626294682924635.500,0.488,-21.484,-22.461,94.238,1.000
1626294682928541.750,20.508,-42.480,-22.461,60.547,1.000
1626294682932448.000,-57.617,-67.383,-45.410,-138.672,1.000
1626294682936354.250,-93.262,-26.367,-85.449,-145.508,1.000
1626294682940260.500,-32.227,8.301,-60.547,44.922,1.000
1626294682944166.750,4.883,-15.137,-15.625,81.543,1.000
1626294682948073.000,-70.801,-26.855,-27.832,-120.605,1.000
1626294682951979.250,-59.082,-33.691,-41.992,1.000,1.000
1626294682955885.500,-96.191,-36.133,-42.969,1.000,1.000
1626294682959791.750,-11.230,-51.758,-20.996,1.000,1.000
1626294682963698.000,41.016,-44.434,-12.695,1.000,1.000
1626294682967604.250,-53.223,-20.020,-41.504,1.000,1.000
1626294682971510.500,-132.324,-33.203,-58.594,1.000,1.000
1626294682975416.750,-61.523,-37.598,-42.969,1.000,1.000
1626294682979323.000,32.227,-38.086,-33.691,1.000,1.000
1626294682983229.250,-10.254,-40.527,-38.574,1.000,1.000
1626294682987135.500,-82.520,-38.086,-33.691,1.000,1.000
1626294682991041.750,-32.715,-32.715,-40.527,1.000,1.000
1626294682994948.000,43.945,-24.902,-30.273,1.000,1.000
1626294682998854.250,51.270,-1.465,-18.066,139.648,1.000
1626294683002760.500,1.465,-22.461,-34.180,-17.578,1.000
1626294683006666.750,-98.633,-55.176,-16.113,-205.566,1.000
1626294683010573.000,-67.871,-50.781,-10.742,-94.727,1.000
1626294683014479.250,29.785,-20.508,-15.625,104.492,1.000
1626294683018385.500,12.695,-26.855,-28.809,35.645,1.000
1626294683022291.750,-98.633,-47.852,-67.383,-188.477,1.000
1626294683026198.000,-92.285,-86.426,-56.152,-149.902,1.000
1626294683030104.250,22.949,-45.410,-26.367,81.543,1.000
1626294683034010.500,36.621,2.441,-38.574,86.426,1.000
1626294683037916.750,-77.148,-19.043,-44.922,-142.578,1.000
1626294683041823.000,-117.188,-13.672,-30.762,-202.637,1.000
1626294683045729.250,-83.008,-35.156,-35.156,-137.207,1.000
1626294683049635.500,12.695,-30.273,-34.180,77.637,1.000
1626294683053541.750,59.570,-41.504,-39.551,119.141,1.000
1626294683057448.000,-39.551,-63.965,-60.059,-109.863,1.000
1626294683061354.250,-107.422,-35.156,-52.246,-200.195,1.000
1626294683065260.500,-19.043,-4.883,-18.066,16.113,1.000
1626294683069166.750,44.922,9.766,-24.414,127.441,1.000
1626294683073073.000,-5.371,-27.832,-20.996,-41.504,1.000
1626294683076979.250,-97.656,-75.684,-21.973,-200.684,1.000
1626294683080885.500,-76.172,-62.012,-41.016,-78.613,1.000
1626294683084791.750,39.551,-25.391,-30.273,124.512,1.000
1626294683088698.000,38.086,-29.297,-23.438,45.898,1.000
1626294683092604.250,-2.441,8.301,-71.777,-172.852,1.000
1626294683096510.500,-78.613,20.020,-65.430,-126.953,1.000
1626294683100416.750,-35.156,-45.898,-66.895,105.469,1.000
1626294683104323.000,46.875,-58.105,-81.543,103.027,1.000
1626294683108229.250,14.160,-0.488,-79.590,-123.047,1.000
1626294683112135.500,-76.660,14.648,-84.961,-154.297,1.000
1626294683116041.750,-54.199,42.480,-77.148,54.199,1.000
1626294683119948.000,33.203,-22.461,-69.824,111.328,1.000
1626294683123854.250,48.340,-23.438,-66.406,-77.148,1.000
1626294683127760.500,-32.715,21.973,-51.758,-188.477,1.000
1626294683131666.750,-56.641,16.602,-31.738,-21.973,1.000
1626294683135573.000,30.273,25.391,-30.762,116.211,1.000
1626294683139479.250,8.789,-20.020,-33.691,78.613,1.000
1626294683143385.500,53.223,-2.441,-30.762,107.910,1.000
1626294683147291.750,-39.062,-54.688,-48.340,-109.375,1.000
1626294683151198.000,-80.566,-62.988,-39.551,-152.832,1.000
1626294683155104.250,9.766,4.395,-23.926,60.059,1.000
1626294683159010.500,60.547,9.277,-40.039,144.043,1.000
1626294683162916.750,-11.719,-15.625,-40.527,-48.340,1.000
1626294683166823.000,-98.145,-68.848,-53.223,-193.848,1.000
1626294683170729.250,-38.086,-56.152,-59.082,-34.180,1.000
1626294683174635.500,59.082,1.953,-50.781,137.207,1.000
1626294683178541.750,20.996,-1.953,-38.574,9.277,1.000
1626294683182448.000,-76.172,-19.531,-36.621,-182.129,1.000
1626294683186354.250,-76.172,-26.367,-16.602,-169.434,1.000
1626294683190260.500,-38.574,-10.254,-25.391,-28.320,1.000
1626294683194166.750,54.688,-31.738,-20.508,138.672,1.000
1626294683198073.000,16.602,-59.082,-26.855,17.578,1.000
1626294683201979.250,-86.426,-26.367,-41.504,-181.152,1.000
1626294683205885.500,-76.660,-32.715,-47.363,-113.770,1.000
1626294683209791.750,19.531,-25.391,-41.016,92.773,1.000
1626294683213698.000,35.156,-50.293,-44.922,74.219,1.000
1626294683217604.250,-64.941,-86.914,-51.758,-143.555,1.000
1626294683221510.500,-83.984,-42.480,-31.250,-143.066,1.000
1626294683225416.750,17.578,-1.953,-15.625,78.125,1.000
1626294683229323.000,47.363,0.488,-28.320,116.699,1.000
1626294683233229.250,62.988,3.906,-33.691,-88.867,1.000
1626294683237135.500,-67.383,-15.625,-59.082,-177.246,1.000
1626294683241041.750,-119.141,-75.195,-74.707,3.418,1.000
1626294683244948.000,-14.648,-85.449,-48.340,129.395,1.000
1626294683248854.250,49.316,-33.691,-23.926,-41.992,1.000
1626294683252760.500,-40.527,-27.832,-34.668,-210.938,1.000
1626294683256666.750,-106.934,-3.906,-27.832,-68.359,1.000
1626294683260573.000,-40.527,-11.719,-13.184,117.188,1.000
1626294683264479.250,49.316,7.324,-12.207,34.180,1.000
1626294683268385.500,9.766,15.137,-15.625,-163.086,1.000
1626294683272291.750,-92.285,-32.715,-23.438,-105.957,1.000
1626294683276198.000,-76.172,-40.039,-36.133,129.395,1.000
1626294683280104.250,-27.832,-26.855,-42.480,-22.461,1.000
1626294683284010.500,39.062,-40.527,-15.137,134.766,1.000
1626294683287916.750,-7.324,-34.180,-21.973,-2.441,1.000
1626294683291823.000,-114.746,-38.574,-50.781,-208.984,1.000
1626294683295729.250,-92.773,-31.738,-32.715,-114.746,1.000
1626294683299635.500,20.020,-28.809,-12.695,107.422,1.000
1626294683303541.750,20.020,-11.719,-21.484,55.664,1.000
1626294683307448.000,-80.078,-51.758,-35.156,-155.273,1.000
1626294683311354.250,-94.238,-54.199,-35.645,-136.719,1.000
1626294683315260.500,-6.348,-6.836,-37.109,68.848,1.000
1626294683319166.750,21.484,-9.277,-35.645,91.797,1.000
1626294683323073.000,-68.359,-31.738,-43.457,-116.211,1.000
1626294683326979.250,-80.078,-50.781,-4.395,1.000,1.000
1626294683330885.500,-110.840,-47.852,-1.953,1.000,1.000
1626294683334791.750,-36.133,-100.098,14.160,1.000,1.000
1626294683338698.000,9.766,-102.539,25.391,1.000,1.000
1626294683342604.250,-79.590,-54.688,16.113,1.000,1.000
1626294683346510.500,-146.484,-60.059,21.484,1.000,1.000
1626294683350416.750,-80.078,-58.105,20.508,1.000,1.000
1626294683354323.000,-21.973,-85.449,-1.953,1.000,1.000
1626294683358229.250,-57.129,-85.938,-3.418,1.000,1.000
1626294683362135.500,-113.281,-69.824,9.277,1.000,1.000
1626294683366041.750,-90.332,-86.426,2.930,1.000,1.000
1626294683369948.000,-17.090,-82.520,-6.348,1.000,1.000
1626294683373854.250,3.418,-26.855,-9.277,126.953,1.000
1626294683377760.500,-47.852,-30.762,-20.508,-26.367,1.000
1626294683381666.750,-118.652,-72.754,-20.996,-182.617,1.000
1626294683385573.000,-68.359,-83.496,-1.465,-50.781,1.000
1626294683389479.250,20.996,-44.922,-12.695,135.254,1.000
1626294683393385.500,9.766,-22.461,-33.203,55.664,1.000
1626294683397291.750,-83.008,-15.137,-35.645,-156.738,1.000
1626294683401198.000,-92.773,-56.152,-14.648,-128.418,1.000
1626294683405104.250,16.602,-64.453,10.742,94.727,1.000
1626294683409010.500,63.477,-25.879,0.000,126.465,1.000
1626294683412916.750,-27.344,-20.020,-22.949,-83.496,1.000
1626294683416823.000,-82.031,-25.879,-23.926,-143.555,1.000
1626294683420729.250,-112.793,-30.273,-23.438,-142.090,1.000
1626294683424635.500,1.465,-1.465,-15.625,89.355,1.000
1626294683428541.750,36.133,-39.062,-23.438,109.375,1.000
1626294683432448.000,-75.195,-80.566,-47.363,-127.930,1.000
1626294683436354.250,-110.352,-29.785,-59.082,-171.875,1.000
1626294683440260.500,18.555,4.883,-20.020,76.660,1.000
1626294683444166.750,87.891,-7.324,6.348,183.594,1.000
1626294683448073.000,-25.879,-69.824,-17.090,-39.551,1.000
1626294683451979.250,-117.188,-59.570,-28.320,-198.730,1.000
1626294683455885.500,-57.617,-32.227,-26.855,-42.480,1.000
1626294683459791.750,26.855,-35.645,-26.855,128.906,1.000
1626294683463698.000,-1.953,-17.090,-32.227,16.113,1.000
1626294683467604.250,5.859,-20.996,-8.301,-179.199,1.000
1626294683471510.500,-99.121,-30.273,-26.367,-88.379,1.000
1626294683475416.750,-65.430,-53.223,-53.223,132.812,1.000
1626294683479323.000,41.016,-64.941,-84.961,87.402,1.000
1626294683483229.250,7.324,-36.621,-62.500,-143.066,1.000
1626294683487135.500,-111.816,-34.180,-36.133,-154.785,1.000
1626294683491041.750,-83.008,-15.137,-23.438,70.312,1.000
1626294683494948.000,11.719,-27.832,-21.484,112.793,1.000
1626294683498854.250,10.742,-39.551,-29.297,-108.398,1.000
1626294683502760.500,-56.152,-44.922,-26.367,-201.660,1.000
1626294683506666.750,-63.965,-34.180,-20.020,-6.348,1.000
1626294683510573.000,1.465,-2.930,-30.273,148.926,1.000
1626294683514479.250,32.227,-26.855,-57.129,97.168,1.000
1626294683518385.500,56.641,-22.949,-27.344,100.586,1.000
1626294683522291.750,-62.988,-69.336,-16.113,-141.113,1.000
1626294683526198.000,-119.629,-73.730,-18.066,-198.242,1.000
1626294683530104.250,-26.855,-24.902,-13.184,19.531,1.000
1626294683534010.500,30.762,-28.320,-24.902,109.863,1.000
1626294683537916.750,-35.156,-14.648,-34.668,-77.637,1.000
1626294683541823.000,-111.816,-47.363,-51.270,-206.055,1.000
1626294683545729.250,-37.598,-25.391,-30.762,-19.043,1.000
1626294683549635.500,55.176,0.488,-13.672,145.996,1.000
1626294683553541.750,1.465,-19.043,-24.902,-8.301,1.000
1626294683557448.000,-91.309,-31.738,-39.551,-191.895,1.000
1626294683561354.250,-87.891,-18.555,-5.371,1.000,1.000
1626294683565260.500,-36.621,4.883,8.301,1.000,1.000
1626294683569166.750,20.508,-44.434,-9.277,1.000,1.000
1626294683573073.000,-8.301,-51.270,-20.020,1.000,1.000
1626294683576979.250,-79.102,-22.461,-18.066,1.000,1.000
1626294683580885.500,-71.289,-37.598,-37.109,1.000,1.000
1626294683584791.750,18.555,-11.230,-31.738,1.000,1.000
1626294683588698.000,20.508,-56.641,-29.785,1.000,1.000
1626294683592604.250,-68.359,-57.617,-33.691,1.000,1.000
1626294683596510.500,-92.285,-2.441,-34.668,1.000,1.000
1626294683600416.750,-4.395,18.066,-35.645,1.000,1.000
1626294683604323.000,51.758,26.855,-34.180,1.000,1.000
1626294683608229.250,46.875,49.316,-76.172,69.336,1.000
1626294683612135.500,-50.781,33.691,-56.152,-145.996,1.000
1626294683616041.750,-101.562,-25.879,-41.992,-177.734,1.000
1626294683619948.000,-21.973,-37.109,-38.574,29.297,1.000
1626294683623854.250,36.133,3.418,-37.109,92.285,1.000
1626294683627760.500,-41.992,-0.488,-39.551,-104.980,1.000
1626294683631666.750,-99.609,-0.488,-43.457,-192.871,1.000
1626294683635573.000,-30.762,-22.949,-40.039,-17.090,1.000
1626294683639479.250,39.062,-32.227,-44.922,122.559,1.000
1626294683643385.500,7.324,-28.809,-47.852,-18.066,1.000
1626294683647291.750,-76.660,-33.691,-42.969,-185.547,1.000
1626294683651198.000,-62.500,3.906,-43.457,-73.242,1.000
1626294683655104.250,-43.457,-10.742,-38.574,-32.715,1.000
1626294683659010.500,49.805,18.555,-26.855,125.000,1.000
1626294683662916.750,10.254,5.859,-45.410,-2.930,1.000
1626294683666823.000,-95.703,-35.645,-65.918,-187.012,1.000
1626294683670729.250,-85.449,-42.969,-60.547,-93.262,1.000
1626294683674635.500,20.020,-26.367,-43.457,111.328,1.000
1626294683678541.750,30.273,-6.348,-18.555,56.152,1.000
1626294683682448.000,-99.121,-73.242,-54.199,-184.082,1.000
1626294683686354.250,-123.535,-80.078,-65.918,-167.969,1.000
1626294683690260.500,-4.395,-18.066,-26.855,73.730,1.000
1626294683694166.750,28.809,-1.465,-22.461,95.703,1.000
1626294683698073.000,-53.223,-15.137,-30.762,-112.305,1.000
1626294683701979.250,-62.012,-9.277,-16.602,1.000,1.000
1626294683705885.500,-104.004,-12.207,-39.551,1.000,1.000
1626294683709791.750,-25.879,-77.637,-43.945,1.000,1.000
1626294683713698.000,40.527,-85.449,-19.531,1.000,1.000
1626294683717604.250,-22.461,-15.625,-6.836,1.000,1.000
1626294683721510.500,-81.055,8.789,-13.672,1.000,1.000
1626294683725416.750,-11.719,6.836,-35.645,1.000,1.000
1626294683729323.000,45.410,-7.812,-36.133,1.000,1.000
1626294683733229.250,-18.555,-22.949,-20.996,1.000,1.000
1626294683737135.500,-92.285,-22.949,-15.137,1.000,1.000
1626294683741041.750,-35.156,-7.812,-7.812,1.000,1.000
1626294683744948.000,49.805,-4.883,-23.438,1.000,1.000
1626294683748854.250,27.832,-4.883,-13.184,119.141,1.000
1626294683752760.500,-10.254,-5.859,-40.039,-32.227,1.000
1626294683756666.750,-90.332,-26.855,-55.176,-187.988,1.000
1626294683760573.000,-71.289,-42.969,-50.293,-70.801,1.000
1626294683764479.250,23.438,-20.508,-24.902,121.094,1.000
1626294683768385.500,12.695,-19.043,0.000,46.875,1.000
1626294683772291.750,-102.539,-40.039,-2.441,-178.711,1.000
1626294683776198.000,-130.859,-73.242,-26.367,-151.855,1.000
1626294683780104.250,-30.762,-68.359,-21.973,69.824,1.000
1626294683784010.500,17.090,-44.434,-5.859,87.891,1.000
1626294683787916.750,-69.824,-57.129,-29.297,-123.047,1.000
1626294683791823.000,-106.445,-48.828,-21.973,-164.062,1.000
1626294683795729.250,-109.375,-56.641,-32.715,-148.926,1.000
1626294683799635.500,-20.996,-30.273,-23.438,65.430,1.000
1626294683803541.750,5.371,-49.805,-27.344,79.102,1.000
1626294683807448.000,-71.289,-68.359,-34.668,-125.977,1.000
1626294683811354.250,-101.074,-51.270,-34.180,-165.039,1.000
1626294683815260.500,-14.648,-46.387,-33.203,49.805,1.000
1626294683819166.750,44.434,-41.016,-12.695,147.461,1.000
1626294683823073.000,-11.230,-54.199,-24.414,-23.926,1.000
1626294683826979.250,-79.102,-30.273,-33.203,-148.926,1.000
1626294683830885.500,-27.344,-9.277,-17.090,-0.977,1.000
1626294683834791.750,48.340,-23.438,-31.738,146.973,1.000
1626294683838698.000,-1.953,-38.574,-31.738,7.324,1.000
1626294683842604.250,-30.273,-24.902,-34.180,-187.500,1.000
1626294683846510.500,-124.023,-25.391,-43.945,-113.770,1.000
1626294683850416.750,-76.660,-57.617,-25.391,81.543,1.000
1626294683854323.000,37.598,-54.688,-9.277,41.992,1.000
1626294683858229.250,32.227,-0.488,-16.602,-170.898,1.000
1626294683862135.500,-70.801,-16.113,-39.551,-153.809,1.000
1626294683866041.750,-59.570,-14.160,-19.043,83.008,1.000
1626294683869948.000,31.250,-51.270,-6.348,143.066,1.000
1626294683873854.250,20.020,-71.777,-30.273,-61.523,1.000
1626294683877760.500,-75.195,-47.363,-36.621,-172.852,1.000
1626294683881666.750,-109.375,-24.414,-36.621,-16.602,1.000
1626294683885573.000,-11.719,-9.766,-22.461,106.445,1.000
1626294683889479.250,1.465,-30.273,-41.504,86.426,1.000
1626294683893385.500,18.555,-37.598,-31.738,79.590,1.000
1626294683897291.750,-59.570,-69.336,-39.062,-121.094,1.000
1626294683901198.000,-90.332,-61.035,-44.434,-145.508,1.000
1626294683905104.250,-7.324,-9.277,-39.062,52.734,1.000
1626294683909010.500,47.852,-9.277,-21.973,133.301,1.000
1626294683912916.750,-15.625,0.000,-17.090,-49.316,1.000
1626294683916823.000,-87.402,-39.551,-34.180,-172.852,1.000
1626294683920729.250,-52.734,-50.293,-42.480,-23.926,1.000
1626294683924635.500,20.020,-21.484,-23.438,114.258,1.000
1626294683928541.750,-23.438,-28.809,-15.137,-25.391,1.000
1626294683932448.000,-112.305,-39.551,-39.551,-196.777,1.000
1626294683936354.250,-104.004,-22.949,-54.199,1.000,1.000
1626294683940260.500,-41.504,-41.504,-23.438,1.000,1.000
1626294683944166.750,51.758,-62.988,-10.742,1.000,1.000
1626294683948073.000,-2.930,-46.875,-32.715,1.000,1.000
1626294683951979.250,-100.586,1.953,-23.438,1.000,1.000
1626294683955885.500,-71.777,8.789,0.000,1.000,1.000
1626294683959791.750,18.555,-12.695,-21.973,1.000,1.000
1626294683963698.000,26.855,-52.734,-17.090,1.000,1.000
1626294683967604.250,-56.152,-49.316,-3.906,1.000,1.000
1626294683971510.500,-90.820,-28.809,-32.715,1.000,1.000
1626294683975416.750,-10.254,-32.227,-33.691,1.000,1.000
1626294683979323.000,23.926,-29.297,-36.621,1.000,1.000
1626294683983229.250,20.996,-23.438,-43.945,67.383,1.000
1626294683987135.500,-71.777,-50.293,-33.691,-146.973,1.000
1626294683991041.750,-75.684,-60.547,0.000,-130.859,1.000
1626294683994948.000,14.648,-41.504,-10.742,76.660,1.000
1626294683998854.250,46.387,-1.465,-30.762,112.305,1.000
1626294684002760.500,-42.480,-2.930,-26.367,-91.309,1.000
1626294684006666.750,-116.699,-10.742,-45.898,-191.406,1.000
1626294684010573.000,-37.598,-31.738,-26.855,1.953,1.000
1626294684014479.250,47.363,-35.156,-16.602,135.254,1.000
1626294684018385.500,-15.625,-26.367,-38.574,-34.668,1.000
1626294684022291.750,-115.723,-35.156,-44.434,-207.520,1.000
1626294684026198.000,-59.570,-19.043,-35.645,-62.500,1.000
1626294684030104.250,-31.250,-27.344,-39.062,-10.742,1.000
1626294684034010.500,58.594,0.977,-23.438,144.043,1.000
1626294684037916.750,15.137,-16.113,-17.578,2.930,1.000
1626294684041823.000,-83.984,-42.480,-20.508,-178.223,1.000
1626294684045729.250,-40.527,-16.113,6.348,-51.270,1.000
1626294684049635.500,58.105,-33.691,8.789,150.879,1.000
1626294684053541.750,31.250,-59.082,-22.949,60.547,1.000
1626294684057448.000,-83.008,-58.105,-45.410,-165.527,1.000
1626294684061354.250,-109.863,-53.711,-55.176,-148.926,1.000
1626294684065260.500,-10.742,-21.973,-40.527,66.406,1.000
1626294684069166.750,26.367,-4.883,-29.785,89.844,1.000
1626294684073073.000,-54.199,-12.207,-41.016,-117.188,1.000
1626294684076979.250,-88.379,-35.645,-30.273,1.000,1.000
1626294684080885.500,-120.117,-34.180,-31.738,1.000,1.000
1626294684084791.750,5.371,-50.293,-7.812,1.000,1.000
1626294684088698.000,52.246,-43.457,-0.488,1.000,1.000
1626294684092604.250,-42.969,-23.438,-26.367,1.000,1.000
1626294684096510.500,-110.352,-52.246,-45.898,1.000,1.000
1626294684100416.750,-28.809,-22.461,-40.039,1.000,1.000
1626294684104323.000,57.129,-18.066,-29.297,1.000,1.000
1626294684108229.250,-26.855,-41.992,-35.645,1.000,1.000
1626294684112135.500,-114.746,-46.387,-31.250,1.000,1.000
1626294684116041.750,-45.898,-38.574,-25.391,1.000,1.000
1626294684119948.000,35.156,-11.719,-27.344,1.000,1.000
1626294684123854.250,41.016,11.719,-20.020,130.859,1.000
1626294684127760.500,-17.578,7.812,-30.273,-35.645,1.000
1626294684131666.750,-104.980,-47.852,-38.574,-193.359,1.000
1626294684135573.000,-67.383,-68.848,-45.410,-59.082,1.000
1626294684139479.250,40.039,-34.668,-36.621,132.812,1.000
1626294684143385.500,26.367,-25.391,-36.621,43.457,1.000
1626294684147291.750,-83.984,-15.137,-29.785,-163.574,1.000
1626294684151198.000,-96.680,-52.246,-18.066,-124.023,1.000
1626294684155104.250,-2.930,-61.035,-14.160,80.566,1.000
1626294684159010.500,19.043,-36.621,-36.621,70.312,1.000
1626294684162916.750,-77.637,-39.062,-50.293,-141.113,1.000
1626294684166823.000,-103.516,-27.344,-22.949,-160.156,1.000
1626294684170729.250,-91.309,-26.367,-21.484,-129.883,1.000
1626294684174635.500,1.465,-39.551,-33.691,82.520,1.000
1626294684178541.750,28.809,-31.250,-24.414,88.867,1.000
1626294684182448.000,-65.918,-37.598,-29.297,-135.254,1.000
1626294684186354.250,-97.168,-14.160,-31.250,-161.133,1.000
1626294684190260.500,-22.461,-14.160,-35.645,43.457,1.000
1626294684194166.750,31.250,-19.043,-32.227,116.211,1.000
1626294684198073.000,-41.016,-64.453,-19.043,-78.125,1.000
1626294684201979.250,-109.375,-72.266,-21.973,-192.871,1.000
1626294684205885.500,-20.996,-8.789,-26.367,4.395,1.000
1626294684209791.750,61.523,14.648,-20.020,153.809,1.000
1626294684213698.000,-5.859,13.672,-25.879,-12.695,1.000
1626294684217604.250,-12.695,-34.180,-24.902,-217.285,1.000
1626294684221510.500,-111.328,-24.902,-39.062,-123.535,1.000
1626294684225416.750,-60.059,-27.344,-31.250,66.406,1.000
1626294684229323.000,42.969,-3.906,-35.156,24.414,1.000
1626294684233229.250,22.461,20.020,-55.176,-176.758,1.000
1626294684237135.500,-81.543,-2.441,-54.688,-171.387,1.000
1626294684241041.750,-67.383,-14.160,-22.949,45.410,1.000
1626294684244948.000,33.691,-9.277,-11.230,66.895,1.000
1626294684248854.250,45.410,13.184,-41.992,-130.859,1.000
1626294684252760.500,-43.945,10.254,-53.223,-189.941,1.000
1626294684256666.750,-82.031,-14.160,-27.344,6.836,1.000
1626294684260573.000,4.883,-27.832,-18.555,130.371,1.000
1626294684264479.250,14.648,-20.996,-38.574,72.754,1.000
1626294684268385.500,27.832,-7.812,-66.406,52.246,1.000
1626294684272291.750,-72.266,-61.523,-69.824,-161.133,1.000
1626294684276198.000,-104.492,-84.961,-45.898,-177.734,1.000
1626294684280104.250,0.488,-9.277,-16.113,57.129,1.000
1626294684284010.500,61.035,41.992,-20.020,131.348,1.000
1626294684287916.750,-20.020,22.949,-38.574,-75.684,1.000
1626294684291823.000,-120.117,-41.504,-52.246,-209.961,1.000
1626294684295729.250,-40.527,-43.945,-32.227,-16.602,1.000
1626294684299635.500,65.918,-25.391,-8.789,152.344,1.000
1626294684303541.750,-1.953,-33.203,-41.016,-14.160,1.000
1626294684307448.000,-90.332,-37.598,-38.574,-187.012,1.000
1626294684311354.250,-96.191,2.441,-47.363,1.000,1.000
1626294684315260.500,-62.988,-17.578,-33.691,1.000,1.000
1626294684319166.750,58.105,-41.016,-18.555,1.000,1.000
1626294684323073.000,38.574,-49.316,-14.648,1.000,1.000
1626294684326979.250,-86.914,-35.156,-9.766,1.000,1.000
1626294684330885.500,-70.801,-36.133,6.836,1.000,1.000
1626294684334791.750,20.020,-32.715,9.766,1.000,1.000
1626294684338698.000,19.531,-40.527,12.695,1.000,1.000
1626294684342604.250,-91.309,-45.410,-4.883,1.000,1.000
1626294684346510.500,-125.977,-61.035,-28.320,1.000,1.000
1626294684350416.750,-22.949,-65.918,-35.645,1.000,1.000
1626294684354323.000,40.039,-33.203,-6.348,1.000,1.000
1626294684358229.250,35.156,-41.992,-6.836,87.891,1.000
1626294684362135.500,-60.547,-29.297,-12.207,-128.906,1.000
1626294684366041.750,-88.379,-64.941,-33.691,-140.625,1.000
1626294684369948.000,3.906,-70.801,-29.297,71.777,1.000
1626294684373854.250,57.129,-29.297,4.883,118.164,1.000
1626294684377760.500,-35.156,-41.504,-1.953,-101.074,1.000
1626294684381666.750,-121.094,-50.293,-27.344,-201.172,1.000
1626294684385573.000,-22.949,-35.645,-8.789,15.137,1.000
1626294684389479.250,59.082,-27.344,-12.207,140.625,1.000
1626294684393385.500,-10.742,-27.344,-33.691,-41.016,1.000
1626294684397291.750,-75.684,-29.785,-16.602,-173.340,1.000
1626294684401198.000,-37.598,-36.133,-12.207,-33.203,1.000
1626294684405104.250,-61.035,-39.062,-37.598,-20.996,1.000
1626294684409010.500,36.621,-10.254,-12.695,131.348,1.000
1626294684412916.750,0.000,-41.016,-4.883,-5.859,1.000
1626294684416823.000,-99.121,-53.223,-26.855,-181.152,1.000
1626294684420729.250,-88.379,-29.297,-54.199,-86.914,1.000
1626294684424635.500,-0.488,-25.391,-40.527,101.074,1.000
1626294684428541.750,-17.578,-18.555,-44.434,12.695,1.000
1626294684432448.000,-111.816,-63.477,-50.781,-195.312,1.000
1626294684436354.250,-101.074,-73.730,-41.992,-133.301,1.000
1626294684440260.500,19.531,-34.668,-22.949,107.910,1.000
1626294684444166.750,43.945,-32.227,0.488,112.793,1.000
1626294684448073.000,-80.078,-45.410,-16.113,-137.695,1.000
1626294684451979.250,-93.750,-32.227,-48.340,-169.434,1.000
1626294684455885.500,-96.680,-12.695,-37.598,-136.230,1.000
1626294684459791.750,-7.812,-36.621,-11.719,72.754,1.000
1626294684463698.000,27.344,-52.734,-6.836,96.191,1.000
1626294684467604.250,-66.406,-36.621,-29.785,-122.070,1.000
1626294684471510.500,-109.375,-60.547,-35.645,-185.547,1.000
1626294684475416.750,-16.602,-52.246,-26.367,32.715,1.000
1626294684479323.000,49.805,-40.039,-27.344,139.648,1.000
1626294684483229.250,-33.203,-48.828,-42.480,-64.941,1.000
1626294684487135.500,-111.328,-34.180,-41.016,-201.660,1.000
1626294684491041.750,-54.199,-12.695,-28.320,-42.480,1.000
1626294684494948.000,34.180,1.465,3.906,123.535,1.000
1626294684498854.250,59.570,-0.488,-10.254,135.742,1.000
1626294684502760.500,-16.113,-10.254,-20.996,-51.758,1.000
1626294684506666.750,-98.633,-41.016,-21.484,-196.289,1.000
1626294684510573.000,-45.898,-23.438,-9.766,-43.457,1.000
1626294684514479.250,34.668,-8.301,-23.926,125.488,1.000
1626294684518385.500,2.930,-50.293,-51.270,15.137,1.000
1626294684522291.750,-86.914,-43.457,-52.246,-174.805,1.000
1626294684526198.000,-77.637,-15.625,-36.133,-103.516,1.000
1626294684530104.250,14.160,-6.348,-17.090,107.422,1.000
1626294684534010.500,18.555,-15.137,-13.184,68.848,1.000
1626294684537916.750,-68.359,-35.645,-20.508,-153.809,1.000
1626294684541823.000,-84.961,-50.781,-34.180,-158.203,1.000
1626294684545729.250,-93.750,-41.016,-57.617,-122.559,1.000
1626294684549635.500,-1.953,-23.926,-25.391,89.355,1.000
1626294684553541.750,16.602,-19.043,-23.926,76.660,1.000
1626294684557448.000,-72.266,-46.387,-17.090,-136.719,1.000
1626294684561354.250,-109.375,-38.086,-25.879,-175.293,1.000
1626294684565260.500,-20.508,-22.461,-25.879,24.902,1.000
1626294684569166.750,47.852,-6.348,-6.348,111.816,1.000
1626294684573073.000,-20.020,-18.066,-29.297,-74.707,1.000
1626294684576979.250,-85.938,-27.344,-49.316,-184.570,1.000
1626294684580885.500,-16.602,-12.207,-30.762,-8.789,1.000
1626294684584791.750,56.641,-16.113,-32.715,131.348,1.000
1626294684588698.000,-20.996,-43.457,-50.293,-29.297,1.000
1626294684592604.250,-29.297,-27.344,-29.297,-217.285,1.000
1626294684596510.500,-114.258,-14.160,-33.203,-101.074,1.000
1626294684600416.750,-51.758,-43.457,-14.648,112.305,1.000
1626294684604323.000,33.691,-47.363,-10.742,56.152,1.000
1626294684608229.250,-1.465,-20.020,-19.531,-158.203,1.000
1626294684612135.500,-89.844,-21.484,-26.367,-139.648,1.000
1626294684616041.750,-77.637,-7.812,-48.340,90.820,1.000
1626294684619948.000,25.879,-34.180,-36.621,100.586,1.000
1626294684623854.250,35.156,-49.316,-20.996,-106.445,1.000
1626294684627760.500,-51.270,-19.043,-22.949,-163.086,1.000
1626294684631666.750,-76.660,-28.320,-27.832,10.254,1.000
1626294684635573.000,0.488,-24.902,-20.996,113.281,1.000
1626294684639479.250,19.531,-19.531,-17.578,102.051,1.000
1626294684643385.500,40.527,6.836,-27.832,79.102,1.000
1626294684647291.750,-65.430,-46.875,-58.594,-154.297,1.000
1626294684651198.000,-95.215,-72.266,-70.801,-163.574,1.000
1626294684655104.250,9.277,-15.137,-38.086,65.430,1.000
1626294684659010.500,55.176,3.418,-9.766,124.023,1.000
1626294684662916.750,-37.109,-7.812,-25.391,-83.008,1.000
1626294684666823.000,-117.676,-49.805,-59.082,-196.289,1.000
1626294684670729.250,-28.320,-44.922,-31.738,2.930,1.000
1626294684674635.500,67.871,-27.832,-7.324,147.949,1.000
1626294684678541.750,-4.883,-47.363,-29.785,-24.414,1.000
1626294684682448.000,-97.168,-32.715,-22.949,-186.523,1.000
1626294684686354.250,-90.332,-24.414,-24.902,1.000,1.000
1626294684690260.500,-36.133,-28.320,-34.180,1.000,1.000
1626294684694166.750,22.949,-37.109,-24.902,1.000,1.000
1626294684698073.000,-25.391,-24.902,-29.785,1.000,1.000
1626294684701979.250,-102.051,-8.789,-33.203,1.000,1.000
1626294684705885.500,-71.777,-26.855,-25.391,1.000,1.000
1626294684709791.750,32.227,-24.902,-15.625,1.000,1.000
1626294684713698.000,12.695,-62.500,-20.508,1.000,1.000
1626294684717604.250,-74.707,-61.035,-22.949,1.000,1.000
1626294684721510.500,-68.359,-24.902,-19.043,1.000,1.000
1626294684725416.750,17.578,-26.855,-20.508,1.000,1.000
1626294684729323.000,35.156,-17.578,-20.508,1.000,1.000
1626294684733229.250,22.461,-19.531,-31.738,56.152,1.000
1626294684737135.500,-60.547,-0.977,-26.367,-149.414,1.000
1626294684741041.750,-91.309,-56.641,-35.156,-144.043,1.000
1626294684744948.000,-5.371,-80.078,-27.832,59.570,1.000
1626294684748854.250,51.270,-29.785,-16.602,105.469,1.000
1626294684752760.500,-33.691,-53.711,-29.297,-95.703,1.000
1626294684756666.750,-69.336,-38.574,-16.113,-144.531,1.000
1626294684760573.000,-8.301,-38.574,-35.645,32.715,1.000
1626294684764479.250,40.527,-17.578,-33.691,122.070,1.000
1626294684768385.500,-25.391,17.578,-13.672,-56.152,1.000
1626294684772291.750,-106.934,-7.324,-19.531,-202.148,1.000
1626294684776198.000,-54.199,-7.812,-23.926,-50.293,1.000
1626294684780104.250,-18.066,-5.859,-13.184,12.207,1.000
1626294684784010.500,55.664,-12.695,-11.719,145.508,1.000
1626294684787916.750,-19.043,-63.477,-44.434,-37.109,1.000
1626294684791823.000,-102.051,-81.543,-51.270,-202.637,1.000
1626294684795729.250,-25.391,-6.348,-19.043,-25.879,1.000
1626294684799635.500,47.363,3.418,-25.879,151.367,1.000
1626294684803541.750,5.859,-18.066,-37.109,35.156,1.000
1626294684807448.000,-87.402,-60.547,-51.270,-168.945,1.000
1626294684811354.250,-98.633,-76.660,-48.340,-125.977,1.000
1626294684815260.500,-3.906,-47.852,-24.414,85.938,1.000
1626294684819166.750,14.648,-30.273,-20.996,70.312,1.000
1626294684823073.000,-66.895,-23.438,-22.949,-134.277,1.000
1626294684826979.250,-61.035,-23.438,-21.484,-153.320,1.000
1626294684830885.500,-62.988,-18.066,-21.484,64.453,1.000
1626294684834791.750,8.789,-44.434,-24.902,131.836,1.000
1626294684838698.000,7.324,-48.340,-37.598,-74.707,1.000
1626294684842604.250,-67.871,-9.766,-27.832,-179.688,1.000
1626294684846510.500,-116.211,-24.902,-38.574,-11.230,1.000
1626294684850416.750,-32.715,-20.508,-31.738,131.348,1.000
1626294684854323.000,31.738,-60.059,-34.668,-15.625,1.000
1626294684858229.250,-19.043,-58.105,-26.855,-202.148,1.000
1626294684862135.500,-83.496,-13.672,-19.531,-96.191,1.000
1626294684866041.750,-43.457,-14.160,-35.156,104.004,1.000
1626294684869948.000,57.129,-1.953,-19.531,52.734,1.000
1626294684873854.250,46.875,-11.230,-7.324,129.883,1.000
1626294684877760.500,-19.531,-6.836,-13.184,-46.387,1.000
1626294684881666.750,-123.535,-68.848,-50.293,-213.867,1.000
1626294684885573.000,-72.754,-79.102,-60.547,-65.430,1.000
1626294684889479.250,55.664,-14.648,-20.020,140.625,1.000
1626294684893385.500,18.555,-18.066,-26.367,24.414,1.000
1626294684897291.750,-91.797,-31.738,-57.617,-181.152,1.000
1626294684901198.000,-92.285,-73.242,-54.199,-117.188,1.000
1626294684905104.250,24.414,-30.273,-17.578,109.375,1.000
1626294684909010.500,44.434,22.461,-19.531,83.984,1.000
1626294684912916.750,-71.777,-18.555,-44.922,-153.809,1.000
1626294684916823.000,-98.145,-22.949,-33.203,-165.039,1.000
1626294684920729.250,-78.125,-37.109,-25.879,-107.422,1.000
1626294684924635.500,11.719,-10.742,-19.531,104.492,1.000
1626294684928541.750,11.719,-63.965,-53.223,66.895,1.000
1626294684932448.000,-63.477,-74.219,-74.707,-131.348,1.000
1626294684936354.250,-84.961,-25.391,-28.809,-146.973,1.000
1626294684940260.500,-8.301,-34.180,3.418,57.617,1.000
1626294684944166.750,41.992,1.953,-4.395,119.141,1.000
1626294684948073.000,-56.641,-34.668,-24.414,-105.469,1.000
1626294684951979.250,-133.789,-52.734,-36.133,-216.797,1.000
1626294684955885.500,-54.688,-14.160,-23.926,-23.438,1.000
1626294684959791.750,43.945,0.977,-5.371,134.766,1.000
1626294684963698.000,-6.836,-10.254,-6.348,-15.625,1.000
1626294684967604.250,-10.254,-9.766,-31.250,-45.410,1.000
1626294684971510.500,-86.914,-14.160,-24.414,-173.828,1.000
1626294684975416.750,-41.504,-39.062,-51.758,-22.461,1.000
1626294684979323.000,36.621,-66.895,-40.039,129.395,1.000
1626294684983229.250,-6.348,-45.410,-11.719,-11.230,1.000
1626294684987135.500,-110.840,-39.062,-24.902,-206.543,1.000
1626294684991041.750,-79.590,-12.695,-6.836,-93.750,1.000
1626294684994948.000,13.672,-36.133,-18.555,111.328,1.000
1626294684998854.250,22.461,-43.945,-30.273,62.500,1.000
1626294685002760.500,-64.453,-13.184,-22.461,-140.137,1.000
1626294685006666.750,-80.078,-21.973,-40.527,-122.070,1.000
1626294685010573.000,25.391,-13.672,-28.809,105.469,1.000
1626294685014479.250,31.250,9.277,-31.738,109.375,1.000
1626294685018385.500,32.227,-5.371,-17.090,64.941,1.000
1626294685022291.750,-82.031,-74.219,-39.551,-162.598,1.000
1626294685026198.000,-106.445,-73.242,-46.875,-163.574,1.000
1626294685030104.250,3.906,-8.301,-24.414,67.871,1.000
1626294685034010.500,36.621,-9.766,-25.879,104.980,1.000
1626294685037916.750,-43.457,-14.648,-27.832,-98.145,1.000
1626294685041823.000,-105.957,-63.477,-39.551,-187.012,1.000
1626294685045729.250,-43.457,-57.617,-46.387,-8.789,1.000
1626294685049635.500,40.039,6.836,-17.578,125.000,1.000
1626294685053541.750,-19.043,-6.836,-13.184,-39.062,1.000
1626294685057448.000,-90.332,-23.926,-10.254,-184.082,1.000
1626294685061354.250,-86.426,-33.691,-3.418,1.000,1.000
1626294685065260.500,-28.809,-12.207,-13.672,1.000,1.000
1626294685069166.750,29.785,-48.340,-28.320,1.000,1.000
1626294685073073.000,-32.227,-66.406,-30.273,1.000,1.000
1626294685076979.250,-98.633,-23.438,-26.367,1.000,1.000
1626294685080885.500,-37.109,-20.020,-27.832,1.000,1.000
1626294685084791.750,55.176,3.418,-26.367,1.000,1.000
1626294685088698.000,9.277,-37.109,-39.062,1.000,1.000
1626294685092604.250,-83.984,-51.758,-44.922,1.000,1.000
1626294685096510.500,-76.172,-15.137,-42.480,1.000,1.000
1626294685100416.750,15.137,-11.719,-24.414,1.000,1.000
1626294685104323.000,41.504,-5.371,-10.742,1.000,1.000
1626294685108229.250,16.602,-16.113,-16.602,41.504,1.000
1626294685112135.500,-79.590,-21.973,-25.879,-168.457,1.000
1626294685116041.750,-93.750,-58.594,-44.922,-145.996,1.000
1626294685119948.000,-10.742,-69.824,-48.828,58.105,1.000
1626294685123854.250,34.668,-13.672,-33.691,85.449,1.000
1626294685127760.500,-50.293,-25.391,-43.945,-122.559,1.000
1626294685131666.750,-86.914,-17.090,-29.785,-162.598,1.000
1626294685135573.000,3.906,-36.621,-13.672,43.945,1.000
1626294685139479.250,55.664,-36.621,-6.348,128.906,1.000
1626294685143385.500,-35.156,-26.855,-23.926,-70.312,1.000
1626294685147291.750,-105.469,-29.297,-34.668,-198.730,1.000
1626294685151198.000,-46.387,-10.742,-24.902,-37.598,1.000
1626294685155104.250,-13.672,1.953,-35.645,34.668,1.000
1626294685159010.500,35.645,15.625,-28.320,132.324,1.000
1626294685162916.750,-32.227,-23.438,-44.434,-41.016,1.000
1626294685166823.000,-107.910,-56.641,-80.566,-198.242,1.000
1626294685170729.250,-44.922,-23.926,-46.387,-46.387,1.000
1626294685174635.500,49.316,5.371,2.930,146.973,1.000
1626294685178541.750,25.391,1.953,-6.348,37.109,1.000
1626294685182448.000,-82.031,-64.453,-29.785,-176.270,1.000
1626294685186354.250,-93.262,-60.547,-43.945,-121.094,1.000
1626294685190260.500,13.672,-9.766,-50.293,99.121,1.000
1626294685194166.750,37.109,0.488,-26.855,82.031,1.000
1626294685198073.000,-68.359,-5.371,-50.293,-148.926,1.000
1626294685201979.250,-76.660,-5.859,-14.648,-187.988,1.000
1626294685205885.500,-77.637,-29.297,-7.812,35.645,1.000
1626294685209791.750,2.930,-58.105,-13.672,106.934,1.000
1626294685213698.000,7.812,-55.664,-32.227,-78.125,1.000
1626294685217604.250,-77.148,-16.113,-52.246,-174.316,1.000
1626294685221510.500,-55.176,-21.484,-27.832,-9.766,1.000
1626294685225416.750,55.664,-25.879,3.906,137.207,1.000
1626294685229323.000,15.137,-40.039,-38.574,-6.836,1.000
1626294685233229.250,-99.609,-26.367,-57.617,-184.082,1.000
1626294685237135.500,-97.168,-32.227,-35.156,-73.730,1.000
1626294685241041.750,17.578,-40.039,-29.785,125.000,1.000
1626294685244948.000,31.738,-44.922,-47.363,48.340,1.000
1626294685248854.250,55.664,-1.465,-24.902,82.520,1.000
1626294685252760.500,-67.383,-27.832,-51.270,-158.691,1.000
1626294685256666.750,-104.492,-81.055,-50.293,-161.133,1.000
1626294685260573.000,15.625,-42.480,-31.738,81.055,1.000
1626294685264479.250,43.457,-29.785,-43.457,107.422,1.000
1626294685268385.500,-60.547,-24.414,-42.969,-119.141,1.000
1626294685272291.750,-111.816,-20.996,-26.855,-186.523,1.000
1626294685276198.000,-38.574,-58.105,-29.785,11.230,1.000
1626294685280104.250,41.016,-28.809,-15.625,134.277,1.000
1626294685284010.500,-17.578,-0.488,-6.348,-31.250,1.000
1626294685287916.750,-107.422,-30.762,-30.762,-189.453,1.000
1626294685291823.000,-61.035,-41.504,-62.012,-44.922,1.000
1626294685295729.250,-4.883,-2.930,0.488,27.344,1.000
1626294685299635.500,70.801,-0.488,-25.879,155.273,1.000
1626294685303541.750,-18.066,-78.613,-71.777,-41.504,1.000
1626294685307448.000,-100.098,-47.363,-52.246,-194.824,1.000
1626294685311354.250,-44.922,-8.789,-15.137,-46.387,1.000
1626294685315260.500,25.391,-8.301,-17.090,121.094,1.000
1626294685319166.750,0.488,-15.137,-34.180,23.926,1.000
1626294685323073.000,-67.871,-46.387,-26.367,-152.832,1.000
1626294685326979.250,-51.270,-41.504,-10.742,-80.078,1.000
1626294685330885.500,39.551,-24.902,-21.484,121.094,1.000
1626294685334791.750,38.574,-10.742,-37.109,87.891,1.000
1626294685338698.000,-84.473,-31.250,-50.293,-148.438,1.000
1626294685342604.250,-73.730,-8.789,-50.781,-170.410,1.000
1626294685346510.500,-78.125,-18.066,-46.875,-132.812,1.000
1626294685350416.750,7.812,-68.848,-29.785,82.031,1.000
1626294685354323.000,33.203,-33.691,-22.461,89.355,1.000
1626294685358229.250,-60.059,-32.227,-34.180,-127.930,1.000
1626294685362135.500,-91.797,-27.832,-24.414,-159.668,1.000
1626294685366041.750,3.906,-21.484,-14.648,60.547,1.000
1626294685369948.000,38.574,-69.824,-35.156,120.117,1.000
1626294685373854.250,-25.391,-28.809,-39.551,-66.406,1.000
1626294685377760.500,-85.449,-21.484,-33.691,-181.152,1.000
1626294685381666.750,-31.250,-24.414,-30.762,-21.973,1.000
1626294685385573.000,52.246,-9.277,-17.090,134.277,1.000
1626294685389479.250,30.762,-18.066,-42.480,111.328,1.000
1626294685393385.500,-39.062,-20.508,-67.871,-67.383,1.000
1626294685397291.750,-104.980,-80.566,-60.059,-195.801,1.000
1626294685401198.000,-30.273,-42.969,-32.227,-22.949,1.000
1626294685405104.250,71.777,8.301,3.906,158.691,1.000
1626294685409010.500,36.133,2.930,11.719,35.645,1.000
1626294685412916.750,-71.777,-24.414,-11.230,-166.992,1.000
1626294685416823.000,-62.012,-57.617,-23.926,-91.797,1.000
1626294685420729.250,23.926,-47.363,-33.203,104.980,1.000
1626294685424635.500,8.301,-49.316,-54.688,41.016,1.000
1626294685428541.750,-80.566,-55.664,-52.734,-172.852,1.000
1626294685432448.000,-97.656,-46.875,-41.992,-164.551,1.000
1626294685436354.250,-77.637,-28.320,-41.504,1.000,1.000
1626294685440260.500,11.719,-29.297,-34.180,1.000,1.000
1626294685444166.750,6.348,-75.195,-49.805,1.000,1.000
1626294685448073.000,-76.660,-35.645,-29.297,1.000,1.000
1626294685451979.250,-97.168,-18.555,-13.672,1.000,1.000
1626294685455885.500,8.301,-21.973,-14.160,1.000,1.000
1626294685459791.750,46.387,-45.410,-24.902,1.000,1.000
1626294685463698.000,-57.617,-85.938,-55.664,1.000,1.000
1626294685467604.250,-107.910,-42.480,-48.828,1.000,1.000
1626294685471510.500,-33.691,-16.113,-28.320,1.000,1.000
1626294685475416.750,39.062,-20.508,-29.297,1.000,1.000
1626294685479323.000,-4.395,-42.480,-36.621,1.000,1.000
1626294685483229.250,-38.574,-43.945,-37.109,-81.055,1.000
1626294685487135.500,-112.793,-13.672,-50.781,-199.707,1.000
1626294685491041.750,-50.781,-40.039,-31.250,-21.973,1.000
1626294685494948.000,47.363,-14.160,-16.602,143.555,1.000
1626294685498854.250,10.254,-8.789,-29.297,5.859,1.000
1626294685502760.500,-79.102,-27.344,-20.996,-169.434,1.000
1626294685506666.750,-59.570,-28.809,-11.719,-74.707,1.000
1626294685510573.000,24.414,-34.668,-17.578,114.746,1.000
1626294685514479.250,17.090,-19.531,-13.672,62.012,1.000
1626294685518385.500,-79.590,-33.203,-35.645,-152.344,1.000
1626294685522291.750,-82.520,-25.391,-68.848,-127.930,1.000
1626294685526198.000,8.301,-26.855,-51.270,82.520,1.000
1626294685530104.250,43.457,-23.926,-13.184,136.230,1.000
1626294685534010.500,28.320,-27.832,-28.320,77.148,1.000
1626294685537916.750,-81.543,-63.965,-48.340,-152.832,1.000
1626294685541823.000,-104.492,-44.922,-26.367,-159.668,1.000
1626294685545729.250,-14.160,-18.555,-20.020,50.293,1.000
1626294685549635.500,36.133,-14.160,-19.043,98.633,1.000
1626294685553541.750,-37.109,-50.293,-16.113,-93.262,1.000
1626294685557448.000,-102.051,-101.562,-29.297,-178.223,1.000
1626294685561354.250,-31.250,-33.203,-41.016,10.254,1.000
1626294685565260.500,45.898,0.977,-56.641,129.883,1.000
1626294685569166.750,-6.348,-13.672,-42.969,-29.785,1.000
1626294685573073.000,-99.609,-38.574,-34.668,-191.895,1.000
1626294685576979.250,-118.652,-33.203,-47.363,-60.059,1.000
1626294685580885.500,-41.504,-61.523,-30.762,132.324,1.000
1626294685584791.750,37.598,-89.844,-22.461,18.066,1.000
1626294685588698.000,-10.254,-38.574,-29.297,-177.734,1.000
1626294685592604.250,-100.098,-13.184,-36.133,-105.957,1.000
1626294685596510.500,-60.547,5.859,-40.527,107.910,1.000
1626294685600416.750,43.457,9.766,-42.969,90.332,1.000
1626294685604323.000,23.926,-46.875,-26.367,-136.719,1.000
1626294685608229.250,-84.473,-41.992,-7.324,-156.738,1.000
1626294685612135.500,-89.355,-20.508,-7.812,58.594,1.000
1626294685616041.750,8.301,-12.207,-18.066,104.004,1.000
1626294685619948.000,26.855,-42.480,-21.484,-111.816,1.000
1626294685623854.250,-3.418,-37.109,-41.504,38.574,1.000
1626294685627760.500,-96.191,-43.945,-65.430,-175.293,1.000
1626294685631666.750,-96.680,-65.918,-28.809,-139.160,1.000
1626294685635573.000,-11.230,-17.578,-23.438,71.777,1.000
1626294685639479.250,16.602,-4.883,-41.992,92.285,1.000
1626294685643385.500,-61.035,-24.414,-21.973,-109.863,1.000
1626294685647291.750,-103.027,-38.086,-13.672,-159.668,1.000
1626294685651198.000,-33.203,-83.496,-21.484,32.227,1.000
1626294685655104.250,33.691,-50.293,-18.066,131.348,1.000
1626294685659010.500,-23.438,-13.184,-31.738,-47.363,1.000
1626294685662916.750,-115.234,-21.484,-52.246,-205.078,1.000
1626294685666823.000,-52.734,-21.973,-50.293,-41.992,1.000
1626294685670729.250,-35.645,-8.301,-19.531,1.000,1.000
1626294685674635.500,36.621,-18.555,-10.254,1.000,1.000
1626294685678541.750,-18.555,-88.379,-20.020,1.000,1.000
1626294685682448.000,-97.168,-77.148,-33.203,1.000,1.000
1626294685686354.250,-51.270,-40.527,-30.273,1.000,1.000
1626294685690260.500,53.711,4.883,-20.508,1.000,1.000
1626294685694166.750,20.508,-5.859,-39.551,1.000,1.000
1626294685698073.000,-86.914,-52.734,-56.641,1.000,1.000
1626294685701979.250,-74.707,-19.043,-50.293,1.000,1.000
1626294685705885.500,22.949,9.766,-28.320,1.000,1.000
1626294685709791.750,34.180,-5.859,-23.438,1.000,1.000
1626294685713698.000,-63.477,-38.574,-31.250,1.000,1.000
1626294685717604.250,-81.055,-20.996,-42.480,-166.016,1.000
1626294685721510.500,-73.730,-36.133,-35.645,-116.211,1.000
1626294685725416.750,25.391,-36.133,-34.180,102.051,1.000
1626294685729323.000,41.016,-13.672,-35.645,99.121,1.000
1626294685733229.250,-54.688,-35.156,-21.973,-120.117,1.000
1626294685737135.500,-83.496,-56.152,-19.531,-151.855,1.000
1626294685741041.750,-13.184,-42.480,-28.809,43.457,1.000
1626294685744948.000,26.367,-48.828,-19.043,102.539,1.000
1626294685748854.250,-21.484,-19.043,-4.883,-66.406,1.000
1626294685752760.500,-83.496,-1.465,-24.414,-168.945,1.000
1626294685756666.750,-40.527,-26.855,-33.691,-16.602,1.000
1626294685760573.000,48.828,-20.508,-20.020,136.230,1.000
1626294685764479.250,47.363,-13.672,-22.949,120.605,1.000
1626294685768385.500,-7.812,-20.508,-20.020,-49.316,1.000
1626294685772291.750,-105.469,-64.941,-48.340,-194.824,1.000
1626294685776198.000,-45.898,-29.297,-35.156,-32.715,1.000
1626294685780104.250,57.617,-8.301,-3.906,144.043,1.000
1626294685784010.500,8.301,-30.273,-18.066,0.977,1.000
1626294685787916.750,-105.957,-65.918,-41.992,-207.520,1.000
1626294685791823.000,-85.449,-61.035,-34.668,-116.211,1.000
1626294685795729.250,30.273,-4.883,-11.230,105.469,1.000
1626294685799635.500,25.879,-4.883,-34.668,54.688,1.000
1626294685803541.750,-77.637,-15.137,-67.871,-161.133,1.000
1626294685807448.000,-98.633,-28.320,-65.918,-157.715,1.000
1626294685811354.250,-72.754,-17.090,-39.062,1.000,1.000
1626294685815260.500,-7.812,-37.109,-41.016,1.000,1.000
1626294685819166.750,0.000,-100.586,-30.762,1.000,1.000
1626294685823073.000,-57.617,-54.688,-17.578,1.000,1.000
1626294685826979.250,-82.520,1.465,-28.320,1.000,1.000
1626294685830885.500,-5.371,-1.465,-31.738,1.000,1.000
1626294685834791.750,26.855,-42.969,-50.293,1.000,1.000
1626294685838698.000,-55.176,-79.102,-94.727,1.000,1.000
1626294685842604.250,-106.445,-63.965,-79.102,1.000,1.000
1626294685846510.500,-41.504,-42.480,-25.879,1.000,1.000
1626294685850416.750,38.574,-0.977,4.395,1.000,1.000
1626294685854323.000,0.488,-2.930,7.324,1.000,1.000
1626294685858229.250,-26.367,-1.953,-21.973,-57.617,1.000
1626294685862135.500,-116.699,-36.133,-30.273,-183.105,1.000
1626294685866041.750,-61.523,-96.191,-38.086,-23.926,1.000
1626294685869948.000,25.391,-61.035,-43.457,125.488,1.000
1626294685873854.250,-10.742,-23.438,-61.035,-13.672,1.000
1626294685877760.500,-86.426,-10.742,-55.176,-179.199,1.000
1626294685881666.750,-55.664,-35.156,-31.738,-67.383,1.000
1626294685885573.000,31.738,-71.289,-23.438,122.070,1.000
1626294685889479.250,24.414,-13.672,-11.230,62.500,1.000
1626294685893385.500,-77.637,-24.902,-15.137,-161.621,1.000
1626294685897291.750,-84.961,-36.621,-17.578,-136.719,1.000
1626294685901198.000,12.695,-23.438,-13.184,88.379,1.000
1626294685905104.250,29.297,-9.766,-32.227,115.234,1.000
1626294685909010.500,20.996,-11.230,-23.926,61.035,1.000
1626294685912916.750,-94.727,-85.449,-64.453,-168.945,1.000
1626294685916823.000,-93.750,-50.781,-62.500,-148.926,1.000
1626294685920729.250,6.348,-7.812,-41.504,74.707,1.000
1626294685924635.500,43.945,-2.441,-30.273,113.770,1.000
1626294685928541.750,-45.410,-41.016,-29.297,-101.074,1.000
1626294685932448.000,-98.633,-92.773,-29.297,-182.129,1.000
1626294685936354.250,-14.160,-26.367,-6.348,18.066,1.000
1626294685940260.500,37.598,4.395,-18.555,116.211,1.000
1626294685944166.750,-18.066,-10.742,-39.062,-43.945,1.000
1626294685948073.000,-84.961,-36.621,-34.668,-176.270,1.000
1626294685951979.250,-131.836,-41.992,-52.246,-41.992,1.000
1626294685955885.500,-42.969,-36.621,-45.898,122.559,1.000
1626294685959791.750,43.945,-87.891,-48.828,17.578,1.000
1626294685963698.000,-6.348,-43.457,-45.410,-165.039,1.000
1626294685967604.250,-107.422,-34.180,-25.879,-82.520,1.000
1626294685971510.500,-68.359,-22.949,-13.672,121.094,1.000
1626294685975416.750,41.504,11.719,-7.324,69.824,1.000
1626294685979323.000,27.344,-17.090,-12.207,-150.391,1.000
1626294685983229.250,-79.102,-12.207,-43.457,-166.504,1.000
1626294685987135.500,-83.008,-7.324,-45.410,33.691,1.000
1626294685991041.750,29.297,4.883,-10.254,102.539,1.000
1626294685994948.000,41.992,-20.508,-30.273,-112.793,1.000
1626294685998854.250,18.066,-10.742,-56.152,41.992,1.000
1626294686002760.500,-69.336,-35.156,-37.598,-154.297,1.000
1626294686006666.750,-89.355,-83.984,-34.180,-135.254,1.000
1626294686010573.000,11.719,-22.461,-21.484,79.102,1.000
1626294686014479.250,56.641,6.836,-16.602,100.098,1.000
1626294686018385.500,-37.109,-25.879,-30.762,-109.863,1.000
1626294686022291.750,-99.609,-28.809,-33.203,-175.781,1.000
1626294686026198.000,-11.230,-18.555,-17.578,27.832,1.000
1626294686030104.250,76.660,10.742,-23.926,141.602,1.000
1626294686034010.500,-12.207,-16.602,-55.664,-56.152,1.000
1626294686037916.750,-111.328,-49.805,-68.848,-197.754,1.000
1626294686041823.000,-55.664,-39.551,-55.176,-31.738,1.000
1626294686045729.250,-32.227,-38.574,-55.176,1.000,1.000
1626294686049635.500,48.340,-27.832,-23.438,1.000,1.000
1626294686053541.750,-29.785,-79.102,-32.227,1.000,1.000
1626294686057448.000,-114.258,-33.691,-41.504,1.000,1.000
1626294686061354.250,-67.871,-5.859,-20.996,1.000,1.000
1626294686065260.500,24.902,-17.090,-8.789,1.000,1.000
1626294686069166.750,3.906,-11.230,-21.973,1.000,1.000
1626294686073073.000,-85.938,-29.297,-51.758,1.000,1.000
1626294686076979.250,-72.266,-37.109,-40.527,1.000,1.000
1626294686080885.500,2.441,-41.504,-26.367,1.000,1.000
1626294686084791.750,11.230,-24.414,-29.785,1.000,1.000
1626294686088698.000,-69.824,-36.133,-38.574,1.000,1.000
1626294686092604.250,-63.477,-14.160,-25.391,-152.832,1.000
1626294686096510.500,-77.148,-21.973,-46.875,-115.234,1.000
1626294686100416.750,3.418,-41.992,-73.730,81.543,1.000
1626294686104323.000,42.969,-24.902,-28.320,88.867,1.000
1626294686108229.250,-57.129,-39.062,-13.672,-137.695,1.000
1626294686112135.500,-96.191,-52.246,-32.715,-168.945,1.000
1626294686116041.750,-5.859,-42.969,-29.785,54.199,1.000
1626294686119948.000,27.832,-53.711,-38.086,103.027,1.000
1626294686123854.250,-42.969,-31.250,-43.945,-90.820,1.000
1626294686127760.500,-95.703,-11.719,-29.785,-183.105,1.000
1626294686131666.750,-10.254,5.371,5.859,11.230,1.000
1626294686135573.000,65.918,-1.465,0.488,149.902,1.000
1626294686139479.250,34.180,-15.625,-26.855,115.234,1.000
1626294686143385.500,-39.551,-34.180,-61.523,-79.102,1.000
1626294686147291.750,-110.840,-90.820,-81.543,-197.754,1.000
1626294686151198.000,-36.133,-67.383,-28.809,-17.090,1.000
1626294686155104.250,48.340,-22.949,10.254,141.602,1.000
1626294686159010.500,8.301,1.465,-0.977,12.207,1.000
1626294686162916.750,-91.309,-34.668,-25.391,-177.246,1.000
1626294686166823.000,-71.777,-72.266,-30.273,-83.496,1.000
1626294686170729.250,31.250,-21.973,-31.250,122.559,1.000
1626294686174635.500,21.973,-14.160,-49.316,51.758,1.000
1626294686178541.750,-66.406,-20.020,-48.828,-155.273,1.000
1626294686182448.000,-72.754,-34.180,-28.809,-123.047,1.000
1626294686186354.250,-88.867,-34.180,-40.039,95.703,1.000
1626294686190260.500,-7.324,-44.434,-40.039,113.281,1.000
1626294686194166.750,16.113,-50.781,-21.973,-109.375,1.000
1626294686198073.000,-82.520,-35.645,-35.156,-177.734,1.000
1626294686201979.250,-114.258,-23.438,-41.504,36.621,1.000
1626294686205885.500,-5.859,-17.578,-18.555,144.043,1.000
1626294686209791.750,36.621,-37.109,-21.973,-30.762,1.000
1626294686213698.000,-53.711,-69.336,-42.480,-166.016,1.000
1626294686217604.250,-102.539,-54.688,-38.574,-28.809,1.000
1626294686221510.500,-20.996,-28.809,-38.086,143.066,1.000
1626294686225416.750,42.480,-13.672,-36.133,41.992,1.000
1626294686229323.000,-36.621,-48.340,-37.109,-147.461,1.000
1626294686233229.250,-35.156,-10.742,-44.922,-79.590,1.000
1626294686237135.500,-119.141,-13.184,-33.203,-203.125,1.000
1626294686241041.750,-67.871,-58.594,-25.879,-36.621,1.000
1626294686244948.000,31.738,-24.414,-19.043,120.117,1.000
1626294686248854.250,-16.602,-20.996,-39.551,-30.762,1.000
1626294686252760.500,-113.281,-30.273,-53.223,-204.102,1.000
1626294686256666.750,-86.426,-33.691,-27.832,-94.727,1.000
1626294686260573.000,11.719,-49.316,-0.977,100.586,1.000
1626294686264479.250,25.391,-27.832,-0.488,38.574,1.000
1626294686268385.500,-93.750,-33.203,-53.711,-188.965,1.000
1626294686272291.750,-105.469,-17.578,-44.434,-144.043,1.000
1626294686276198.000,-3.418,-14.648,-18.555,81.543,1.000
1626294686280104.250,28.809,-5.371,0.000,115.234,1.000
1626294686284010.500,19.531,-2.441,-12.695,49.805,1.000
1626294686287916.750,-92.773,-58.105,-32.715,-170.410,1.000
1626294686291823.000,-92.285,-40.527,-20.508,-142.578,1.000
1626294686295729.250,2.930,-5.371,-15.625,75.195,1.000
1626294686299635.500,30.762,-7.812,-34.668,89.844,1.000
1626294686303541.750,-44.922,-29.297,-41.016,-111.328,1.000
1626294686307448.000,-87.402,-55.176,-23.926,-167.969,1.000
1626294686311354.250,-26.855,-37.598,-37.109,13.672,1.000
1626294686315260.500,20.508,-33.691,-62.012,95.215,1.000
1626294686319166.750,-35.156,-27.832,-50.781,-80.078,1.000
1626294686323073.000,-119.141,-36.133,-43.457,-220.215,1.000
1626294686326979.250,-99.609,-23.438,-24.902,-186.035,1.000
1626294686330885.500,-19.531,-13.672,-20.996,16.113,1.000
1626294686334791.750,56.641,-39.551,-3.418,145.996,1.000
1626294686338698.000,-35.645,-37.598,-31.250,-56.641,1.000
1626294686342604.250,-124.512,-29.297,-37.598,-217.285,1.000
1626294686346510.500,-64.941,-26.367,-38.574,-56.641,1.000
1626294686350416.750,36.621,-23.438,-28.809,131.836,1.000
1626294686354323.000,25.879,-56.152,0.977,37.109,1.000
1626294686358229.250,-74.707,-41.504,-12.695,-162.109,1.000
1626294686362135.500,-89.844,-49.805,-35.156,-117.188,1.000
1626294686366041.750,16.113,-32.715,-26.855,99.609,1.000
1626294686369948.000,39.551,-8.789,-16.113,94.238,1.000
1626294686373854.250,43.457,9.766,-17.578,65.430,1.000
1626294686377760.500,-85.938,-32.715,-54.199,-172.852,1.000
1626294686381666.750,-130.859,-128.906,-72.266,-169.434,1.000
1626294686385573.000,2.441,-71.289,-30.762,80.566,1.000
1626294686389479.250,60.547,-6.836,-12.207,118.652,1.000
1626294686393385.500,-48.340,-1.953,-25.879,-106.934,1.000
1626294686397291.750,-99.609,-32.715,-40.527,-169.434,1.000
1626294686401198.000,-21.973,-96.680,-58.594,34.180,1.000
1626294686405104.250,40.527,-45.410,-50.293,130.371,1.000
1626294686409010.500,-29.785,-24.414,-40.527,-67.871,1.000
1626294686412916.750,-93.262,-7.812,-21.484,-188.965,1.000
1626294686416823.000,-46.387,-14.648,-19.043,-32.715,1.000
1626294686420729.250,3.906,14.648,0.977,1.000,1.000
1626294686424635.500,72.266,25.879,-11.230,1.000,1.000
1626294686428541.750,-17.578,-36.621,-46.387,1.000,1.000
1626294686432448.000,-110.840,-34.180,-47.852,1.000,1.000
1626294686436354.250,-62.988,-34.180,-31.250,1.000,1.000
1626294686440260.500,25.391,-48.828,-19.043,1.000,1.000
1626294686444166.750,-1.465,-42.969,-28.809,1.000,1.000
1626294686448073.000,-105.469,-102.051,-46.387,1.000,1.000
1626294686451979.250,-83.984,-41.992,-34.668,1.000,1.000
1626294686455885.500,53.711,19.043,-13.184,1.000,1.000
1626294686459791.750,65.918,6.836,2.441,1.000,1.000
1626294686463698.000,-75.195,-33.203,-22.949,1.000,1.000
1626294686467604.250,-81.055,6.836,-27.344,-170.410,1.000
1626294686471510.500,-59.082,4.395,-15.625,-91.309,1.000
1626294686475416.750,5.371,-111.328,-59.570,86.914,1.000
1626294686479323.000,-6.348,-89.844,-64.453,40.039,1.000
1626294686483229.250,-80.078,-35.156,-26.855,-153.320,1.000
1626294686487135.500,-84.961,-16.113,-16.113,-143.066,1.000
1626294686491041.750,-4.395,-24.414,-24.414,56.152,1.000
1626294686494948.000,34.668,-76.172,-52.734,97.168,1.000
1626294686498854.250,-23.926,-32.227,-37.598,-85.938,1.000
1626294686502760.500,-92.285,-11.230,-18.066,-181.152,1.000
1626294686506666.750,-38.574,0.488,-22.949,-5.859,1.000
1626294686510573.000,50.293,-7.324,-18.555,145.020,1.000
1626294686514479.250,24.414,15.137,-35.645,105.469,1.000
1626294686518385.500,-46.875,-0.488,-24.902,-83.496,1.000
1626294686522291.750,-105.469,-85.449,-38.086,-187.012,1.000
1626294686526198.000,-42.480,-41.504,-41.016,-14.160,1.000
1626294686530104.250,26.367,2.441,-35.645,114.746,1.000
1626294686534010.500,-7.812,-14.648,-23.438,-20.996,1.000
1626294686537916.750,-101.074,-45.898,-32.227,-186.523,1.000
1626294686541823.000,-75.684,-97.168,-43.457,-83.984,1.000
1626294686545729.250,51.758,-30.762,-18.555,134.277,1.000
1626294686549635.500,37.109,3.418,-13.184,62.500,1.000
1626294686553541.750,-82.520,-8.301,-14.160,-168.457,1.000
1626294686557448.000,-101.074,-22.461,-29.785,-148.438,1.000
1626294686561354.250,-73.242,-26.367,-29.785,-89.355,1.000
1626294686565260.500,9.766,-50.293,-27.832,104.004,1.000
1626294686569166.750,8.789,-75.684,-24.902,55.176,1.000
1626294686573073.000,-79.590,-47.852,-44.922,-149.414,1.000
1626294686576979.250,-96.680,-29.297,-63.965,-147.461,1.000
1626294686580885.500,1.465,-1.953,-40.039,75.684,1.000
1626294686584791.750,29.297,-11.719,-42.969,108.398,1.000
1626294686588698.000,-73.730,-61.035,-60.547,-124.512,1.000
1626294686592604.250,-106.934,-29.785,-29.297,-185.059,1.000
1626294686596510.500,-15.625,-7.812,-4.883,23.438,1.000
1626294686600416.750,61.035,-3.906,-13.672,143.555,1.000
1626294686604323.000,-0.977,-28.809,-37.598,-32.227,1.000
1626294686608229.250,-21.484,-18.066,-26.855,-73.730,1.000
1626294686612135.500,-81.055,-18.066,-26.367,-162.598,1.000
1626294686616041.750,-19.531,-37.598,-24.414,21.484,1.000
1626294686619948.000,52.246,-24.902,-46.875,151.855,1.000
1626294686623854.250,-12.695,-31.250,-70.801,-18.555,1.000
1626294686627760.500,-95.215,-41.504,-48.340,-175.781,1.000
1626294686631666.750,-49.805,-34.668,-9.766,-46.875,1.000
1626294686635573.000,26.367,-34.180,-18.066,119.629,1.000
1626294686639479.250,13.184,-12.207,-25.391,34.180,1.000
1626294686643385.500,-74.707,-26.367,-28.809,-162.598,1.000
1626294686647291.750,-72.266,-31.250,-30.762,-103.027,1.000
1626294686651198.000,19.043,-37.109,-14.648,100.586,1.000
1626294686655104.250,34.668,-25.391,-8.789,125.488,1.000
1626294686659010.500,17.578,-43.457,-46.875,47.363,1.000
1626294686662916.750,-93.262,-135.254,-65.430,-178.223,1.000
1626294686666823.000,-83.984,-71.289,-45.898,-136.230,1.000
1626294686670729.250,30.273,18.066,-24.414,100.586,1.000
1626294686674635.500,62.012,8.301,-23.926,122.559,1.000
1626294686678541.750,-24.414,-26.367,-31.738,-89.844,1.000
1626294686682448.000,-94.727,-70.801,-33.203,-175.293,1.000
1626294686686354.250,-32.715,-26.367,-9.277,17.090,1.000
1626294686690260.500,23.438,-7.812,-12.695,113.281,1.000
1626294686694166.750,-41.504,-35.645,-34.180,-73.730,1.000
1626294686698073.000,-103.516,-40.039,-32.715,-189.941,1.000
1626294686701979.250,-92.773,0.977,-41.992,-170.410,1.000
1626294686705885.500,-34.180,-10.742,-36.621,11.230,1.000
1626294686709791.750,27.344,-80.078,-38.574,116.211,1.000
1626294686713698.000,-38.086,-62.012,-53.711,-63.965,1.000
1626294686717604.250,-114.746,-20.508,-49.316,-203.613,1.000
1626294686721510.500,-49.805,-1.953,-18.555,-39.551,1.000
1626294686725416.750,42.969,-1.953,-2.441,139.648,1.000
1626294686729323.000,-1.465,-60.547,-31.738,6.348,1.000
1626294686733229.250,-102.051,-48.340,-46.387,-196.777,1.000
1626294686737135.500,-80.078,-24.414,-32.715,-104.492,1.000
1626294686741041.750,32.227,7.324,-27.832,120.605,1.000
1626294686744948.000,32.715,-21.973,-45.898,75.195,1.000
1626294686748854.250,20.508,-19.531,-28.809,35.645,1.000
1626294686752760.500,-42.480,-17.090,-15.625,-135.254,1.000
1626294686756666.750,-65.430,-104.492,-46.387,-105.469,1.000
1626294686760573.000,4.883,-60.547,-51.758,85.449,1.000
1626294686764479.250,37.109,3.906,-29.297,92.773,1.000
1626294686768385.500,-57.129,-6.348,-28.809,-124.512,1.000
1626294686772291.750,-103.516,-6.348,-24.902,-165.527,1.000
1626294686776198.000,-15.625,-51.270,-20.996,42.969,1.000
1626294686780104.250,48.340,-32.227,-18.066,125.488,1.000
1626294686784010.500,-21.973,-0.977,-16.602,-64.941,1.000
1626294686787916.750,-99.121,-7.324,-31.250,-195.312,1.000
1626294686791823.000,-40.527,-36.621,-34.668,-35.156,1.000
1626294686795729.250,-22.461,-28.320,-28.809,1.000,1.000
1626294686799635.500,44.922,-33.691,-30.762,1.000,1.000
1626294686803541.750,-32.227,-102.539,-61.035,1.000,1.000
1626294686807448.000,-102.051,-76.660,-47.363,1.000,1.000
1626294686811354.250,-48.828,-34.180,-34.180,1.000,1.000
1626294686815260.500,31.250,-26.855,-39.551,1.000,1.000
1626294686819166.750,13.672,-0.488,-20.508,1.000,1.000
1626294686823073.000,-71.289,-29.785,-8.789,1.000,1.000
1626294686826979.250,-72.266,-42.969,-20.508,1.000,1.000
1626294686830885.500,27.344,-20.508,-16.602,1.000,1.000
1626294686834791.750,24.902,-22.949,-53.711,1.000,1.000
1626294686838698.000,-79.590,-47.363,-71.777,1.000,1.000
1626294686842604.250,-92.773,-14.648,-16.602,-179.688,1.000
1626294686846510.500,-90.820,-31.738,-28.809,-121.094,1.000
1626294686850416.750,11.719,-44.922,-20.508,92.285,1.000
1626294686854323.000,41.016,-2.930,-20.020,83.496,1.000
1626294686858229.250,-60.547,-3.906,-34.668,-137.207,1.000
1626294686862135.500,-106.934,-42.969,-40.527,-166.504,1.000
1626294686866041.750,-7.324,-44.434,-16.602,62.988,1.000
1626294686869948.000,37.598,-60.547,-13.184,112.305,1.000
1626294686873854.250,-57.617,-52.734,-41.504,-110.840,1.000
1626294686877760.500,-115.723,-33.203,-44.434,-194.336,1.000
1626294686881666.750,-41.016,-18.066,-35.156,-4.395,1.000
1626294686885573.000,36.621,-27.344,-19.043,125.488,1.000
1626294686889479.250,28.809,-52.246,-20.020,93.262,1.000
1626294686893385.500,-49.805,-51.758,-24.902,-99.121,1.000
1626294686897291.750,-101.074,-60.059,-29.785,-189.941,1.000
1626294686901198.000,-27.344,-20.996,-20.996,-13.672,1.000
1626294686905104.250,40.527,-11.230,-21.484,120.117,1.000
1626294686909010.500,-17.090,-8.301,-40.527,-33.203,1.000
1626294686912916.750,-92.773,-15.625,-31.250,-190.430,1.000
1626294686916823.000,-56.641,-65.918,-22.461,-76.172,1.000
1626294686920729.250,23.926,-42.480,-40.527,109.375,1.000
1626294686924635.500,19.531,-44.434,-47.852,42.969,1.000
1626294686928541.750,-75.195,-62.500,-67.871,-167.480,1.000
1626294686932448.000,-69.824,-30.273,-51.758,-114.746,1.000
1626294686936354.250,-60.547,-25.879,-26.367,104.980,1.000
1626294686940260.500,66.895,-32.715,-6.348,71.289,1.000
1626294686944166.750,72.266,-80.566,-3.418,-145.508,1.000
1626294686948073.000,-71.289,-44.434,-32.227,-166.504,1.000
1626294686951979.250,-107.422,-1.953,-37.598,44.434,1.000
1626294686955885.500,1.953,14.160,-32.227,126.953,1.000
1626294686959791.750,37.109,-26.855,-22.461,-62.012,1.000
1626294686963698.000,-52.246,-92.773,-18.555,-189.941,1.000
1626294686967604.250,-110.840,-54.688,-42.969,-33.203,1.000
1626294686971510.500,-19.531,-20.508,-31.250,139.648,1.000
1626294686975416.750,54.199,7.324,-19.043,6.836,1.000
1626294686979323.000,-20.996,-20.020,-53.711,-191.406,1.000
1626294686983229.250,-51.758,-30.762,-38.086,-107.910,1.000
1626294686987135.500,-106.445,-23.438,-39.551,-189.941,1.000
1626294686991041.750,-19.043,-55.176,-10.254,20.020,1.000
1626294686994948.000,34.668,-53.711,-19.531,123.047,1.000
1626294686998854.250,-23.926,-32.715,-40.039,-46.387,1.000
1626294687002760.500,-88.867,-19.531,-41.016,-180.664,1.000
1626294687006666.750,-46.875,-20.996,-31.250,-41.504,1.000
1626294687010573.000,29.297,-53.711,-10.742,126.953,1.000
1626294687014479.250,-17.090,-61.523,-21.973,9.277,1.000
1626294687018385.500,-97.168,-40.039,-41.504,-179.199,1.000
1626294687022291.750,-88.379,-35.156,-50.293,-121.582,1.000
1626294687026198.000,-7.324,-50.293,-59.082,75.195,1.000
1626294687030104.250,10.742,-16.113,-40.039,103.027,1.000
1626294687034010.500,4.395,-30.762,-61.523,26.367,1.000
1626294687037916.750,-70.312,-39.062,-45.898,-148.438,1.000
1626294687041823.000,-79.102,-20.020,-31.250,-107.422,1.000
1626294687045729.250,16.113,1.953,-18.555,107.422,1.000
1626294687049635.500,36.133,-15.625,-17.090,109.863,1.000
1626294687053541.750,-54.688,-57.617,-15.137,-104.004,1.000
1626294687057448.000,-84.961,-83.496,-4.883,-137.695,1.000
1626294687061354.250,-2.930,-29.297,-20.020,58.105,1.000
1626294687065260.500,56.641,-12.207,-35.645,140.137,1.000
1626294687069166.750,-25.391,-21.973,-42.480,-57.617,1.000
1626294687073073.000,-125.000,-34.180,-53.223,-206.055,1.000
1626294687076979.250,-93.262,-12.695,-47.852,-169.434,1.000
1626294687080885.500,-14.160,-11.719,-52.246,27.344,1.000
1626294687084791.750,48.340,-23.926,-36.133,129.883,1.000
1626294687088698.000,-12.695,-20.508,-16.602,-42.969,1.000
1626294687092604.250,-71.777,-32.227,3.418,-157.715,1.000
1626294687096510.500,-37.598,-46.875,1.953,-18.066,1.000
1626294687100416.750,36.621,-28.320,-5.859,132.324,1.000
1626294687104323.000,16.113,-30.762,-21.484,28.809,1.000
1626294687108229.250,-104.492,-46.387,-69.824,-187.988,1.000
1626294687112135.500,-102.539,-50.781,-66.406,-124.512,1.000
1626294687116041.750,16.602,-13.672,-23.926,101.074,1.000
1626294687119948.000,18.555,-38.574,-33.691,62.988,1.000
1626294687123854.250,-5.859,-17.578,-43.945,20.996,1.000
1626294687127760.500,-111.816,-36.133,-57.129,-191.895,1.000
1626294687131666.750,-94.238,-79.102,-47.363,-119.629,1.000
1626294687135573.000,27.832,-54.688,-15.625,111.816,1.000
1626294687139479.250,55.176,-35.156,0.000,94.238,1.000
1626294687143385.500,-47.363,-55.176,-20.508,-128.418,1.000
1626294687147291.750,-95.703,-43.457,-39.551,-162.109,1.000
1626294687151198.000,-22.949,-33.203,-49.805,34.668,1.000
1626294687155104.250,40.527,-5.371,-45.410,110.840,1.000
1626294687159010.500,-20.508,9.766,-36.133,-74.707,1.000
1626294687162916.750,-102.051,-14.160,-42.969,-187.500,1.000
1626294687166823.000,-57.617,-56.641,-60.547,-30.273,1.000
1626294687170729.250,4.883,-51.270,-28.809,1.000,1.000
1626294687174635.500,80.078,-22.949,-6.348,1.000,1.000
1626294687178541.750,-16.602,-41.992,-41.504,1.000,1.000
1626294687182448.000,-116.699,-44.922,-70.801,1.000,1.000
1626294687186354.250,-45.898,-28.809,-21.484,1.000,1.000
1626294687190260.500,36.621,9.766,4.883,1.000,1.000
1626294687194166.750,-12.695,-10.254,-48.828,1.000,1.000
1626294687198073.000,-121.094,-67.383,-79.102,1.000,1.000
1626294687201979.250,-83.496,-23.926,-28.809,1.000,1.000
1626294687205885.500,32.715,-1.465,-0.488,1.000,1.000
1626294687209791.750,30.273,-18.555,-13.184,1.000,1.000
1626294687213698.000,-71.289,-50.293,-23.926,1.000,1.000
1626294687217604.250,-88.867,-10.254,-44.922,-191.406,1.000
1626294687221510.500,-79.590,-30.762,-22.949,-107.422,1.000
1626294687225416.750,26.855,-83.496,-14.648,110.352,1.000
1626294687229323.000,45.898,-50.781,-36.133,78.613,1.000
1626294687233229.250,-56.641,-29.297,-61.523,-138.184,1.000
1626294687237135.500,-83.008,-19.531,-52.246,-142.578,1.000
1626294687241041.750,20.508,-23.926,-22.461,79.102,1.000
1626294687244948.000,61.035,-74.219,-25.391,125.488,1.000
1626294687248854.250,-45.898,-28.320,-49.316,-99.121,1.000
1626294687252760.500,-116.699,-3.418,-38.086,-188.477,1.000
1626294687256666.750,-36.133,-9.766,-28.809,16.602,1.000
1626294687260573.000,38.086,-9.277,-34.668,136.230,1.000
1626294687264479.250,6.348,-8.789,-30.273,90.332,1.000
1626294687268385.500,-57.129,-27.344,-16.113,-100.586,1.000
1626294687272291.750,-104.492,-105.957,-15.625,-187.500,1.000
1626294687276198.000,-33.203,-52.246,-22.949,1.465,1.000
1626294687280104.250,45.898,6.836,-8.789,139.648,1.000
1626294687284010.500,1.953,-19.531,-17.090,-7.812,1.000
1626294687287916.750,-83.984,-18.066,-30.762,-170.410,1.000
1626294687291823.000,-25.391,-11.230,2.930,-22.949,1.000
1626294687295729.250,77.148,-21.484,-7.812,170.898,1.000
1626294687299635.500,32.715,-31.250,-41.992,58.105,1.000
1626294687303541.750,-94.238,-32.227,-65.918,-181.152,1.000
1626294687307448.000,-106.934,-56.641,-44.434,-149.414,1.000
1626294687311354.250,-44.922,-19.043,-2.930,93.262,1.000
1626294687315260.500,39.062,-10.742,-28.809,98.145,1.000
1626294687319166.750,49.316,-22.461,-17.578,-118.652,1.000
1626294687323073.000,-54.688,-23.438,-34.180,-155.273,1.000
1626294687326979.250,-99.121,-32.227,-51.758,57.129,1.000
1626294687330885.500,4.883,-16.602,-28.809,148.438,1.000
1626294687334791.750,53.223,-19.043,-32.227,-50.293,1.000
1626294687338698.000,-37.109,-69.824,-53.711,-184.082,1.000
1626294687342604.250,-99.609,-49.805,-43.457,-14.648,1.000
1626294687346510.500,-17.090,-8.301,-14.648,140.137,1.000
1626294687350416.750,59.570,7.324,-19.043,-13.184,1.000
1626294687354323.000,-22.949,-23.438,-43.457,-178.711,1.000
1626294687358229.250,-29.785,-13.672,-13.672,-83.984,1.000
1626294687362135.500,-71.777,-41.504,-14.648,-150.391,1.000
1626294687366041.750,-23.438,-96.680,-22.949,21.973,1.000
1626294687369948.000,28.809,-38.574,-43.945,120.117,1.000
1626294687373854.250,-13.184,-21.484,-46.387,-33.203,1.000
1626294687377760.500,-74.707,-11.719,-45.410,-165.527,1.000
1626294687381666.750,-52.246,-26.855,-46.875,-43.945,1.000
1626294687385573.000,21.484,-55.176,-14.160,125.488,1.000
1626294687389479.250,3.906,-2.441,-10.742,28.320,1.000
1626294687393385.500,-110.352,-16.113,-39.551,-185.547,1.000
1626294687397291.750,-103.027,-18.555,-39.551,-121.094,1.000
1626294687401198.000,8.789,-21.973,-30.762,98.633,1.000
1626294687405104.250,51.270,3.906,-38.086,145.020,1.000
1626294687409010.500,30.273,-7.812,-20.020,59.570,1.000
1626294687412916.750,-78.125,-111.816,-7.812,-156.250,1.000
1626294687416823.000,-83.984,-108.887,-24.902,-119.629,1.000
1626294687420729.250,17.090,-24.902,-27.832,99.121,1.000
1626294687424635.500,25.391,4.395,-43.457,77.637,1.000
1626294687428541.750,-75.195,-2.930,-56.152,-144.043,1.000
1626294687432448.000,-93.750,-26.855,-42.480,-162.109,1.000
1626294687436354.250,-2.930,-9.766,-35.645,46.875,1.000
1626294687440260.500,45.410,-4.883,-30.762,121.582,1.000
1626294687444166.750,-34.180,-7.812,-43.457,-71.289,1.000
1626294687448073.000,-101.562,-51.270,-44.922,-187.012,1.000
1626294687451979.250,-120.605,-34.180,-64.453,-196.289,1.000
1626294687455885.500,-21.973,-37.598,-34.180,24.414,1.000
1626294687459791.750,89.844,-34.180,17.090,167.969,1.000
1626294687463698.000,2.441,-32.715,-23.926,-39.062,1.000
1626294687467604.250,-102.539,-22.461,-57.129,-202.148,1.000
1626294687471510.500,-55.664,-7.324,-41.504,-49.316,1.000
1626294687475416.750,39.551,-8.301,-32.715,122.559,1.000
1626294687479323.000,23.926,-52.734,-36.133,20.508,1.000
1626294687483229.250,-68.359,-58.105,-41.016,-169.434,1.000
1626294687487135.500,-51.758,-36.133,-18.066,-83.496,1.000
1626294687491041.750,40.039,-3.906,-10.254,117.676,1.000
1626294687494948.000,22.461,-17.090,-39.551,53.711,1.000
1626294687498854.250,40.527,-33.691,-19.531,50.293,1.000
1626294687502760.500,-94.727,-52.734,-35.645,-180.664,1.000
1626294687506666.750,-103.027,-59.570,-37.109,-127.441,1.000
1626294687510573.000,1.465,-20.020,-36.621,87.402,1.000
1626294687514479.250,-2.441,-28.809,-49.316,48.828,1.000
1626294687518385.500,-104.004,-34.180,-51.270,-168.457,1.000
1626294687522291.750,-109.863,-29.297,-29.297,-164.551,1.000
1626294687526198.000,-5.859,-56.641,-2.441,64.941,1.000
1626294687530104.250,17.090,-32.227,-30.273,99.121,1.000
1626294687534010.500,-56.641,-19.043,-54.199,-101.562,1.000
1626294687537916.750,-104.004,-31.250,-38.086,-181.641,1.000
1626294687541823.000,-48.828,-50.781,-16.113,-8.789,1.000
1626294687545729.250,0.000,-0.488,-26.367,1.000,1.000
1626294687549635.500,43.457,-25.879,-36.621,1.000,1.000
1626294687553541.750,-56.152,-102.539,-50.293,1.000,1.000
1626294687557448.000,-107.910,-58.105,-44.434,1.000,1.000
1626294687561354.250,-42.969,1.465,-25.391,1.000,1.000
1626294687565260.500,28.320,8.301,-10.742,1.000,1.000
1626294687569166.750,-13.184,-34.180,-25.391,1.000,1.000
1626294687573073.000,-119.629,-98.633,-65.918,1.000,1.000
1626294687576979.250,-79.102,-40.527,-60.059,1.000,1.000
1626294687580885.500,37.109,-28.809,-54.688,1.000,1.000
1626294687584791.750,34.668,-1.953,-38.086,1.000,1.000
1626294687588698.000,-77.148,-3.906,-13.184,1.000,1.000
1626294687592604.250,-99.121,-14.648,-79.590,-183.594,1.000
1626294687596510.500,-73.242,-11.719,-50.781,-87.891,1.000
1626294687600416.750,1.953,-101.562,-30.762,102.051,1.000
1626294687604323.000,13.672,-73.730,-17.090,64.941,1.000
1626294687608229.250,-48.340,-25.391,3.906,-120.117,1.000
1626294687612135.500,-83.984,-35.156,-13.184,-134.766,1.000
1626294687616041.750,-16.602,-44.922,-29.297,58.105,1.000
1626294687619948.000,3.906,-75.195,-47.852,76.660,1.000
1626294687623854.250,-76.660,-12.207,-56.641,-125.488,1.000
1626294687627760.500,-110.840,5.371,-50.293,-182.129,1.000
1626294687631666.750,-13.184,-13.184,-45.898,30.762,1.000
1626294687635573.000,56.152,-25.391,-53.223,146.973,1.000
1626294687639479.250,31.738,-37.598,-19.043,102.051,1.000
1626294687643385.500,-39.062,-21.973,-41.504,-94.238,1.000
1626294687647291.750,-123.047,-62.012,-51.758,-214.355,1.000
1626294687651198.000,-38.086,-26.855,-19.531,-19.043,1.000
1626294687655104.250,47.852,11.230,-4.883,119.629,1.000
1626294687659010.500,-17.578,-12.695,-32.715,-39.551,1.000
1626294687662916.750,-108.398,-53.711,-62.500,-205.566,1.000
1626294687666823.000,-82.520,-74.219,-51.758,-85.449,1.000
1626294687670729.250,30.273,-15.625,-33.691,123.047,1.000
1626294687674635.500,29.785,-10.742,-41.016,45.898,1.000
1626294687678541.750,-81.055,-20.508,-53.711,-167.480,1.000
1626294687682448.000,-90.332,-32.227,-27.832,-124.512,1.000
1626294687686354.250,-64.941,-23.438,-29.297,77.148,1.000
1626294687690260.500,41.016,-20.996,-31.250,103.516,1.000
1626294687694166.750,28.320,-58.594,-41.992,-105.957,1.000
1626294687698073.000,-71.777,-40.527,-58.105,-171.875,1.000
1626294687701979.250,-74.707,-13.184,-45.898,41.504,1.000
1626294687705885.500,29.297,-15.137,-15.625,123.535,1.000
1626294687709791.750,58.105,-38.574,-17.090,-66.406,1.000
1626294687713698.000,-29.785,-68.848,-32.227,-161.133,1.000
1626294687717604.250,-82.520,-43.457,-21.973,11.719,1.000
1626294687721510.500,-22.461,-20.508,-8.301,113.281,1.000
1626294687725416.750,39.551,1.465,-0.488,-33.691,1.000
1626294687729323.000,-30.273,-38.086,-28.320,-187.500,1.000
1626294687733229.250,-46.387,-23.926,-31.738,-104.004,1.000
