timestamps,TP9,AF7,AF8,TP10,Right AUX
1626202957976014.000,-224.121,6.836,-50.293,-267.090,1.000
1626202957979920.250,-51.270,14.160,-30.762,-20.020,1.000
1626202957983826.500,126.953,-11.230,-32.227,175.293,1.000
1626202957987732.750,1.953,-14.648,-44.922,-20.020,1.000
1626202957991639.000,-162.598,-15.625,-34.180,-216.797,1.000
1626202957995545.250,-69.336,-47.852,-32.715,-61.035,1.000
1626202957999451.500,109.863,-36.621,-41.016,180.664,1.000
1626202958003357.750,40.039,-0.488,-41.504,53.711,1.000
1626202958007264.000,-147.461,-10.254,-44.434,-227.539,1.000
1626202958011170.250,-128.906,-33.691,-35.645,-154.785,1.000
1626202958015076.500,83.496,-49.805,-13.184,144.043,1.000
1626202958018982.750,109.863,-49.316,-5.859,140.137,1.000
1626202958022889.000,136.719,-8.789,-6.348,191.895,1.000
1626202958026795.250,22.461,-35.156,-9.277,16.113,1.000
1626202958030701.500,-185.547,-59.570,-24.902,-244.141,1.000
1626202958034607.750,-100.098,-43.457,-25.879,-106.445,1.000
1626202958038514.000,120.605,-39.551,-33.203,181.641,1.000
1626202958042420.250,91.309,-41.992,-55.176,111.816,1.000
1626202958046326.500,-128.906,-40.039,-67.383,-196.289,1.000
1626202958050232.750,-160.645,-20.020,-52.246,-203.613,1.000
1626202958054139.000,52.246,-5.859,-39.062,91.797,1.000
1626202958058045.250,117.676,3.418,-41.504,144.531,1.000
1626202958061951.500,-72.266,5.859,-49.316,-134.766,1.000
1626202958065857.750,-142.578,3.906,-56.641,-225.586,1.000
1626202958069764.000,55.664,4.883,-47.363,1.000,1.000
1626202958073670.250,180.664,16.602,-43.457,1.000,1.000
1626202958077576.500,14.648,21.973,-59.570,1.000,1.000
1626202958081482.750,-142.090,14.648,-68.359,1.000,1.000
1626202958085389.000,-7.324,15.137,-62.988,1.000,1.000
1626202958089295.250,186.035,28.809,-53.223,1.000,1.000
1626202958093201.500,93.262,28.320,-60.547,1.000,1.000
1626202958097107.750,-111.328,13.184,-72.754,1.000,1.000
1626202958101014.000,-59.082,17.090,-76.660,1.000,1.000
1626202958104920.250,144.043,43.457,-80.566,1.000,1.000
1626202958108826.500,145.996,44.922,-80.078,1.000,1.000
1626202958112732.750,-62.500,31.738,-90.332,1.000,1.000
1626202958116639.000,-92.773,20.020,-84.961,1.000,1.000
1626202958120545.250,131.836,4.395,-73.242,1.000,1.000
1626202958124451.500,202.148,-0.488,-84.473,1.000,1.000
1626202958128357.750,-0.977,15.625,-113.770,1.000,1.000
1626202958132264.000,-114.258,53.223,-106.934,1.000,1.000
1626202958136170.250,62.012,65.430,-68.848,1.000,1.000
1626202958140076.500,201.172,49.316,-64.453,1.000,1.000
1626202958143982.750,68.848,21.973,-70.312,1.000,1.000
1626202958147889.000,-99.121,15.625,-59.082,1.000,1.000
1626202958151795.250,-1.465,22.949,-60.059,1.000,1.000
1626202958155701.500,197.754,26.367,-61.035,1.000,1.000
1626202958159607.750,161.621,36.133,-48.828,1.000,1.000
1626202958163514.000,-51.758,3.906,-34.668,-151.855,1.000
1626202958167420.250,-58.105,-12.207,-34.180,-107.422,1.000
1626202958171326.500,160.156,-23.438,-47.363,192.383,1.000
1626202958175232.750,159.180,-9.766,-59.570,175.293,1.000
1626202958179139.000,-60.547,-6.836,-61.523,-135.742,1.000
1626202958183045.250,-90.332,-26.367,-46.387,-182.129,1.000
1626202958186951.500,112.305,-41.504,-37.109,104.980,1.000
1626202958190857.750,180.664,-24.902,-38.574,205.078,1.000
1626202958194764.000,-10.254,-15.137,-43.457,-70.801,1.000
1626202958198670.250,-135.742,-41.016,-52.246,-219.727,1.000
1626202958202576.500,25.391,-37.109,-50.293,14.160,1.000
1626202958206482.750,169.922,-2.441,-47.852,199.219,1.000
1626202958210389.000,145.020,3.418,-24.902,187.012,1.000
1626202958214295.250,-22.461,-11.230,-28.320,-62.012,1.000
1626202958218201.500,-176.758,-33.203,-34.668,-243.164,1.000
1626202958222107.750,-13.184,-31.738,-25.879,-6.836,1.000
1626202958226014.000,163.086,-9.277,-43.457,214.844,1.000
1626202958229920.250,51.270,-7.324,-56.152,40.039,1.000
1626202958233826.500,-132.324,-36.621,-44.922,-199.219,1.000
1626202958237732.750,-81.543,-41.992,-48.828,-95.703,1.000
1626202958241639.000,91.797,-44.922,-48.828,145.996,1.000
1626202958245545.250,63.965,-37.109,-38.086,84.473,1.000
1626202958249451.500,-119.141,-15.625,-19.043,-173.340,1.000
1626202958253357.750,-137.695,-35.156,-0.977,-166.016,1.000
1626202958257264.000,67.383,-36.621,-2.930,113.770,1.000
1626202958261170.250,115.723,-23.926,-15.625,151.367,1.000
1626202958265076.500,-94.727,-33.691,-32.227,-138.672,1.000
1626202958268982.750,-179.199,-38.086,-36.133,-234.375,1.000
1626202958272889.000,1.953,-31.738,-34.180,23.926,1.000
1626202958276795.250,127.441,-31.738,-29.785,173.340,1.000
1626202958280701.500,-24.414,-35.156,-36.133,-54.199,1.000
1626202958284607.750,-184.082,-26.855,-41.992,-242.676,1.000
1626202958288514.000,-39.551,-7.324,-33.691,-28.809,1.000
1626202958292420.250,135.742,-27.832,-40.039,192.871,1.000
1626202958296326.500,22.461,-52.734,-40.039,30.762,1.000
1626202958300232.750,-171.875,-44.922,-23.926,-221.680,1.000
1626202958304139.000,-96.680,-34.180,-20.996,-115.723,1.000
1626202958308045.250,94.238,-37.598,-36.133,156.250,1.000
1626202958311951.500,69.336,-42.480,-42.969,116.211,1.000
1626202958315857.750,-135.254,-44.922,-42.969,-163.574,1.000
1626202958319764.000,-153.320,-51.270,-31.738,-171.387,1.000
1626202958323670.250,79.590,-25.879,-11.230,129.395,1.000
1626202958327576.500,124.023,-43.457,-25.391,171.875,1.000
1626202958331482.750,-79.590,-80.566,-38.574,-110.352,1.000
1626202958335389.000,-187.500,-75.684,-49.805,-228.027,1.000
1626202958339295.250,-9.277,-54.199,-37.598,27.832,1.000
1626202958343201.500,158.691,-13.184,-18.555,219.238,1.000
1626202958347107.750,-5.859,-30.762,-47.852,-17.090,1.000
1626202958351014.000,-192.871,-29.297,-57.129,1.000,1.000
1626202958354920.250,-72.754,13.672,-41.504,1.000,1.000
1626202958358826.500,114.258,12.207,-39.551,1.000,1.000
1626202958362732.750,30.762,-18.066,-39.062,1.000,1.000
1626202958366639.000,-180.664,-39.062,-33.691,1.000,1.000
1626202958370545.250,-138.184,-37.598,-25.391,1.000,1.000
1626202958374451.500,97.656,-20.996,-8.301,1.000,1.000
1626202958378357.750,121.094,-33.691,-4.395,1.000,1.000
1626202958382264.000,-118.164,-62.988,-31.250,1.000,1.000
1626202958386170.250,-183.594,-46.875,-39.062,1.000,1.000
1626202958390076.500,43.945,-16.602,-18.066,1.000,1.000
1626202958393982.750,131.348,-14.648,-21.484,1.000,1.000
1626202958397889.000,82.520,-26.367,-44.434,119.141,1.000
1626202958401795.250,-117.676,-47.363,-56.641,-163.086,1.000
1626202958405701.500,-170.898,-27.344,-36.133,-218.262,1.000
1626202958409607.750,23.926,0.000,-22.461,53.223,1.000
1626202958413514.000,128.418,-14.160,-33.203,172.852,1.000
1626202958417420.250,-33.691,-26.367,-40.527,-63.477,1.000
1626202958421326.500,-202.148,-29.297,-48.828,-250.488,1.000
1626202958425232.750,-65.918,-32.227,-20.996,-40.039,1.000
1626202958429139.000,100.586,-30.762,6.348,170.410,1.000
1626202958433045.250,-57.617,-48.828,-19.531,-41.992,1.000
1626202958436951.500,-280.273,-65.430,-24.902,-320.312,1.000
1626202958440857.750,-223.145,-63.477,11.719,-205.078,1.000
1626202958444764.000,-36.133,-53.711,26.855,1.000,1.000
1626202958448670.250,-103.027,-58.594,17.578,1.000,1.000
1626202958452576.500,-361.328,-74.219,11.719,1.000,1.000
1626202958456482.750,-386.719,-89.844,18.555,1.000,1.000
1626202958460389.000,-182.129,-97.656,28.320,1.000,1.000
1626202958464295.250,-143.066,-84.473,26.367,1.000,1.000
1626202958468201.500,-360.352,-88.867,11.719,1.000,1.000
1626202958472107.750,-450.684,-88.867,6.348,1.000,1.000
1626202958476014.000,-256.348,-83.984,17.090,1.000,1.000
1626202958479920.250,-156.738,-122.559,8.789,1.000,1.000
1626202958483826.500,-300.293,-170.410,10.742,1.000,1.000
1626202958487732.750,-446.777,-146.484,24.414,1.000,1.000
1626202958491639.000,-317.383,-104.492,13.184,1.000,1.000
1626202958495545.250,-119.629,-102.051,23.438,1.000,1.000
1626202958499451.500,-218.750,-98.633,20.020,1.000,1.000
1626202958503357.750,-395.020,-76.172,19.531,1.000,1.000
1626202958507264.000,-298.828,-82.031,31.738,1.000,1.000
1626202958511170.250,-95.703,-130.371,14.160,1.000,1.000
1626202958515076.500,-98.145,-162.109,-9.766,1.000,1.000
1626202958518982.750,-282.227,-120.605,4.883,1.000,1.000
1626202958522889.000,-284.668,-68.359,28.809,1.000,1.000
1626202958526795.250,-55.664,-64.941,6.836,1.000,1.000
1626202958530701.500,5.371,-75.195,-1.465,1.000,1.000
1626202958534607.750,-162.598,-77.148,4.883,1.000,1.000
1626202958538514.000,-248.535,-58.594,-5.371,-250.488,1.000
1626202958542420.250,-58.105,-65.430,-17.090,26.855,1.000
1626202958546326.500,125.000,-46.875,4.883,226.562,1.000
1626202958550232.750,-28.809,-46.387,-0.488,-13.184,1.000
1626202958554139.000,-240.723,-49.316,-31.250,-260.254,1.000
1626202958558045.250,-103.516,-20.508,-17.578,-66.406,1.000
1626202958561951.500,105.469,-15.137,-16.602,197.754,1.000
1626202958565857.750,18.066,-51.758,-30.762,60.547,1.000
1626202958569764.000,-186.035,-79.102,-32.227,-212.891,1.000
1626202958573670.250,-128.906,-72.754,-7.324,-125.488,1.000
1626202958577576.500,104.492,-41.504,12.695,175.781,1.000
1626202958581482.750,96.680,-18.066,-3.906,129.883,1.000
1626202958585389.000,67.871,-30.762,-23.926,91.797,1.000
1626202958589295.250,-164.062,-57.129,-25.879,-205.566,1.000
1626202958593201.500,-140.625,-36.133,-11.719,-143.066,1.000
1626202958597107.750,86.914,-4.883,5.371,154.785,1.000
1626202958601014.000,84.961,-23.926,-6.836,139.648,1.000
1626202958604920.250,-141.113,-41.016,-20.020,-172.363,1.000
1626202958608826.500,-205.078,-39.551,-16.113,-243.652,1.000
1626202958612732.750,-22.461,-26.367,-19.531,18.066,1.000
1626202958616639.000,54.199,-2.441,-24.414,112.305,1.000
1626202958620545.250,-139.648,-14.160,-28.320,-157.715,1.000
1626202958624451.500,-273.438,8.789,-27.344,-320.801,1.000
1626202958628357.750,-138.672,7.812,-10.254,-107.422,1.000
1626202958632264.000,-41.016,-44.434,-22.461,37.109,1.000
1626202958636170.250,-188.965,-20.508,-46.875,-187.500,1.000
1626202958640076.500,-367.188,-30.273,-54.199,-425.781,1.000
1626202958643982.750,-260.742,-52.734,-39.551,-262.695,1.000
1626202958647889.000,-48.340,-30.762,-16.602,10.254,1.000
1626202958651795.250,-83.008,-4.395,-11.719,-67.383,1.000
1626202958655701.500,-273.438,-8.789,-28.809,-343.262,1.000
1626202958659607.750,-253.418,11.230,-43.945,-298.340,1.000
1626202958663514.000,-57.617,33.691,-45.410,-4.883,1.000
1626202958667420.250,-36.133,-2.441,-25.391,9.277,1.000
1626202958671326.500,-223.145,-66.406,-5.859,-265.625,1.000
1626202958675232.750,-310.547,-69.336,-16.113,-353.516,1.000
1626202958679139.000,-107.910,-13.184,-18.066,1.000,1.000
1626202958683045.250,30.273,-0.977,-15.625,1.000,1.000
1626202958686951.500,-113.281,-13.184,-34.180,1.000,1.000
1626202958690857.750,-239.258,-25.879,-36.621,1.000,1.000
1626202958694764.000,-83.496,-15.625,-22.949,1.000,1.000
1626202958698670.250,130.859,4.395,-11.230,1.000,1.000
1626202958702576.500,38.574,-19.043,-19.531,1.000,1.000
1626202958706482.750,-164.062,-32.715,-28.809,1.000,1.000
1626202958710389.000,-79.102,-32.715,-33.203,1.000,1.000
1626202958714295.250,134.277,-54.688,-41.992,1.000,1.000
1626202958718201.500,98.633,-73.242,-57.617,1.000,1.000
1626202958722107.750,-116.699,-64.941,-66.895,1.000,1.000
1626202958726014.000,-108.398,-31.738,-49.805,1.000,1.000
1626202958729920.250,134.277,-16.113,-31.738,1.000,1.000
1626202958733826.500,202.637,-20.020,-30.273,1.000,1.000
1626202958737732.750,19.531,-19.531,-44.434,1.000,1.000
1626202958741639.000,-62.500,-26.855,-46.875,1.000,1.000
1626202958745545.250,121.582,-14.648,-9.277,1.000,1.000
1626202958749451.500,227.051,-32.715,-18.555,1.000,1.000
1626202958753357.750,61.523,-70.312,-50.781,1.000,1.000
1626202958757264.000,-82.031,-60.547,-30.762,1.000,1.000
1626202958761170.250,41.504,-35.156,-20.508,1.000,1.000
1626202958765076.500,217.773,-38.086,-35.156,1.000,1.000
1626202958768982.750,125.000,-66.895,-41.504,1.000,1.000
1626202958772889.000,43.457,-37.598,-39.551,-144.531,1.000
1626202958776795.250,-125.488,-32.715,-38.086,-64.941,1.000
1626202958780701.500,-5.859,-24.902,-32.227,218.750,1.000
1626202958784607.750,192.871,-38.086,-32.227,187.988,1.000
1626202958788514.000,105.469,-60.547,-30.273,-107.910,1.000
1626202958792420.250,-106.934,-46.387,-18.555,-100.586,1.000
1626202958796326.500,-87.891,-43.945,-33.691,204.590,1.000
1626202958800232.750,123.047,-56.152,-50.781,257.812,1.000
1626202958804139.000,167.969,-41.504,-45.410,-40.527,1.000
1626202958808045.250,-55.176,-37.109,-47.852,-188.477,1.000
1626202958811951.500,-139.160,-24.414,-40.527,71.289,1.000
1626202958815857.750,68.848,-15.625,-14.648,268.066,1.000
1626202958819764.000,141.113,-33.203,-20.996,211.426,1.000
1626202958823670.250,-50.781,-36.133,-29.297,-66.406,1.000
1626202958827576.500,-166.016,-31.738,-18.555,-215.332,1.000
1626202958831482.750,-7.812,-40.039,-19.531,17.578,1.000
1626202958835389.000,148.926,-35.156,-31.738,220.215,1.000
1626202958839295.250,32.715,-47.363,-49.316,33.691,1.000
1626202958843201.500,-152.344,-47.852,-68.848,-213.379,1.000
1626202958847107.750,-66.895,-30.273,-53.223,-66.895,1.000
1626202958851014.000,136.719,-22.461,-20.020,204.102,1.000
1626202958854920.250,88.379,-40.527,-2.930,110.352,1.000
1626202958858826.500,-141.602,-53.223,-12.695,-201.660,1.000
1626202958862732.750,-139.648,-29.297,-34.180,-171.387,1.000
1626202958866639.000,90.332,-20.996,-32.715,140.625,1.000
1626202958870545.250,123.535,-20.996,-23.926,161.621,1.000
1626202958874451.500,-84.473,-34.668,-23.926,-136.719,1.000
1626202958878357.750,-162.598,-57.129,-29.297,-225.586,1.000
1626202958882264.000,37.598,-43.457,-25.879,62.500,1.000
1626202958886170.250,152.832,-40.039,-14.160,204.590,1.000
1626202958890076.500,-27.832,-51.270,-16.602,-58.594,1.000
1626202958893982.750,-166.504,-26.855,-11.719,-231.445,1.000
1626202958897889.000,-18.066,-4.883,-16.602,-9.766,1.000
1626202958901795.250,138.672,-16.113,-38.574,207.520,1.000
1626202958905701.500,14.160,-33.203,-60.547,19.043,1.000
1626202958909607.750,-166.504,-15.625,-75.684,-232.910,1.000
1626202958913514.000,-70.801,-13.672,-76.172,-88.867,1.000
1626202958917420.250,125.000,-41.016,-38.574,186.523,1.000
1626202958921326.500,60.059,-51.758,-5.371,102.051,1.000
1626202958925232.750,-159.180,-60.059,-16.113,-200.684,1.000
1626202958929139.000,-162.598,-57.617,-6.836,-188.965,1.000
1626202958933045.250,52.734,-27.832,-13.672,109.863,1.000
1626202958936951.500,108.398,-9.766,-48.340,156.738,1.000
1626202958940857.750,-82.031,-32.715,-42.969,-125.000,1.000
1626202958944764.000,-174.805,-41.504,-42.969,-236.816,1.000
1626202958948670.250,14.160,-21.973,-56.641,33.203,1.000
1626202958952576.500,145.996,5.371,-53.223,213.379,1.000
1626202958956482.750,-21.973,-14.648,-46.387,-28.320,1.000
1626202958960389.000,-182.617,-62.500,-30.762,-248.047,1.000
1626202958964295.250,-52.246,-42.480,-30.273,-53.711,1.000
1626202958968201.500,129.395,-9.277,-24.902,179.688,1.000
1626202958972107.750,34.668,-12.207,-14.160,31.738,1.000
1626202958976014.000,-175.293,-27.344,-27.832,-243.164,1.000
1626202958979920.250,-105.957,-28.809,-12.207,-136.719,1.000
1626202958983826.500,112.793,-32.715,-4.395,160.156,1.000
1626202958987732.750,89.355,-45.898,-20.508,121.094,1.000
1626202958991639.000,-105.957,-36.621,-22.949,-153.809,1.000
1626202958995545.250,-128.418,-42.969,-57.129,-160.156,1.000
1626202958999451.500,76.172,-50.781,-68.848,128.418,1.000
1626202959003357.750,122.070,-42.480,-40.039,171.387,1.000
1626202959007264.000,99.121,-36.621,-46.875,153.320,1.000
1626202959011170.250,-121.094,-41.016,-35.645,-160.156,1.000
1626202959015076.500,-139.648,-27.832,-32.715,-194.336,1.000
1626202959018982.750,79.590,1.465,-24.414,129.395,1.000
1626202959022889.000,159.180,24.414,-3.906,234.375,1.000
1626202959026795.250,-26.855,-2.441,0.977,-54.199,1.000
1626202959030701.500,-179.199,-37.109,-24.902,-220.703,1.000
1626202959034607.750,-17.578,-35.156,-29.785,8.789,1.000
1626202959038514.000,135.742,-56.641,-20.996,205.078,1.000
1626202959042420.250,23.438,-70.801,-26.855,32.715,1.000
1626202959046326.500,-134.277,-46.875,-28.320,-186.035,1.000
1626202959050232.750,-74.707,-35.645,-32.227,-55.176,1.000
1626202959054139.000,124.512,-12.695,-25.879,1.000,1.000
1626202959058045.250,68.848,-10.254,-42.480,1.000,1.000
1626202959061951.500,-148.438,-41.992,-59.570,1.000,1.000
1626202959065857.750,-133.789,-15.137,-32.715,1.000,1.000
1626202959069764.000,58.594,0.000,-8.301,1.000,1.000
1626202959073670.250,99.609,-17.578,-2.441,1.000,1.000
1626202959077576.500,-122.070,-38.086,-29.297,1.000,1.000
1626202959081482.750,-204.102,-59.082,-36.621,1.000,1.000
1626202959085389.000,14.648,-45.410,-23.438,1.000,1.000
1626202959089295.250,136.230,-16.602,-49.316,1.000,1.000
1626202959093201.500,-32.227,-16.113,-60.547,1.000,1.000
1626202959097107.750,-195.312,-36.621,-53.223,1.000,1.000
1626202959101014.000,-46.387,-22.461,-42.480,1.000,1.000
1626202959104920.250,119.629,-20.996,-25.391,1.000,1.000
1626202959108826.500,15.137,-29.785,-4.395,1.000,1.000
1626202959112732.750,-163.086,-17.578,-6.836,1.000,1.000
1626202959116639.000,-93.262,-40.039,-25.391,1.000,1.000
1626202959120545.250,119.629,-38.086,-30.762,1.000,1.000
1626202959124451.500,69.336,-15.625,-57.129,1.000,1.000
1626202959128357.750,-135.742,-15.625,-49.316,1.000,1.000
1626202959132264.000,-144.043,-30.762,-23.926,1.000,1.000
1626202959136170.250,46.875,-20.996,-20.996,1.000,1.000
1626202959140076.500,107.422,-8.301,-13.184,1.000,1.000
1626202959143982.750,-89.844,-31.738,-21.484,1.000,1.000
1626202959147889.000,-178.223,-38.086,-27.832,-228.516,1.000
1626202959151795.250,15.625,-1.953,-9.277,52.734,1.000
1626202959155701.500,137.695,-5.859,2.441,208.496,1.000
1626202959159607.750,-27.832,-34.180,-20.020,-47.852,1.000
1626202959163514.000,-187.988,-47.363,-39.062,-253.906,1.000
1626202959167420.250,-30.273,-30.273,-14.160,-22.461,1.000
1626202959171326.500,141.113,-46.387,-13.672,213.379,1.000
1626202959175232.750,28.809,-68.848,-36.621,49.316,1.000
1626202959179139.000,-157.715,-22.461,-35.156,-206.543,1.000
1626202959183045.250,-115.234,-8.789,-32.227,-119.141,1.000
1626202959186951.500,102.539,-21.484,-25.391,176.270,1.000
1626202959190857.750,103.027,-9.766,-37.109,138.672,1.000
1626202959194764.000,55.176,-15.137,-1.465,54.688,1.000
1626202959198670.250,-156.738,-31.250,-36.621,-228.516,1.000
1626202959202576.500,-108.398,-24.414,-50.781,-138.184,1.000
1626202959206482.750,87.402,-26.855,-33.203,139.160,1.000
1626202959210389.000,92.773,-57.129,-28.320,118.652,1.000
1626202959214295.250,-110.840,-65.918,-33.691,-170.410,1.000
1626202959218201.500,-158.691,-44.434,-56.152,-212.402,1.000
1626202959222107.750,62.012,-23.438,-56.641,92.285,1.000
1626202959226014.000,121.094,-27.344,-47.852,168.457,1.000
1626202959229920.250,-93.262,-46.875,-40.527,-130.859,1.000
1626202959233826.500,-202.148,-41.016,-9.277,-270.996,1.000
1626202959237732.750,-7.812,-16.602,13.184,-2.441,1.000
1626202959241639.000,140.137,-18.555,-6.348,185.547,1.000
1626202959245545.250,-3.418,-17.090,-31.250,-25.391,1.000
1626202959249451.500,-168.457,-23.438,-17.090,-244.629,1.000
1626202959253357.750,-78.125,-44.922,-32.227,-102.051,1.000
1626202959257264.000,122.559,-17.090,-44.434,168.945,1.000
1626202959261170.250,64.453,-22.461,-41.016,73.730,1.000
1626202959265076.500,-160.156,-41.016,-59.082,-235.352,1.000
1626202959268982.750,-143.066,-31.250,-54.688,-187.500,1.000
1626202959272889.000,87.402,-15.625,-33.203,128.906,1.000
1626202959276795.250,117.676,-12.695,-13.184,146.973,1.000
1626202959280701.500,-102.539,-24.414,-10.742,-153.809,1.000
1626202959284607.750,-184.570,-27.344,-23.926,-237.305,1.000
1626202959288514.000,22.461,-18.066,-27.832,1.000,1.000
1626202959292420.250,147.461,-42.969,-21.973,1.000,1.000
1626202959296326.500,-22.949,-51.270,-36.133,1.000,1.000
1626202959300232.750,-176.758,-33.691,-58.594,1.000,1.000
1626202959304139.000,-54.688,-40.527,-49.316,1.000,1.000
1626202959308045.250,112.305,-12.695,-38.574,1.000,1.000
1626202959311951.500,4.395,-2.441,-27.832,1.000,1.000
1626202959315857.750,-173.828,-32.227,-9.766,1.000,1.000
1626202959319764.000,-84.473,-35.156,-21.484,1.000,1.000
1626202959323670.250,110.352,-36.133,-44.434,1.000,1.000
1626202959327576.500,46.387,-52.734,-45.410,1.000,1.000
1626202959331482.750,-163.086,-50.293,-25.391,1.000,1.000
1626202959335389.000,-162.109,-50.781,-20.996,1.000,1.000
1626202959339295.250,55.176,-33.691,-23.438,1.000,1.000
1626202959343201.500,99.121,-45.410,-21.484,1.000,1.000
1626202959347107.750,-108.887,-49.316,-26.855,1.000,1.000
1626202959351014.000,-183.594,-36.133,-40.527,1.000,1.000
1626202959354920.250,8.301,-41.992,-55.176,1.000,1.000
1626202959358826.500,138.184,-26.855,-41.992,1.000,1.000
1626202959362732.750,-5.859,-36.621,-28.809,1.000,1.000
1626202959366639.000,-166.992,-36.621,-24.902,1.000,1.000
1626202959370545.250,-69.336,-24.902,-28.809,1.000,1.000
1626202959374451.500,94.727,-25.391,-40.527,1.000,1.000
1626202959378357.750,16.602,-23.438,-51.758,1.000,1.000
1626202959382264.000,91.797,-47.363,-53.223,-53.223,1.000
1626202959386170.250,-87.891,-62.012,-20.020,-270.020,1.000
1626202959390076.500,-181.641,-53.223,2.441,-70.312,1.000
1626202959393982.750,-4.395,-39.551,0.488,176.758,1.000
1626202959397889.000,132.812,-24.414,-20.996,42.969,1.000
1626202959401795.250,-25.879,-13.672,-38.086,-235.840,1.000
1626202959405701.500,-194.336,-22.949,-37.109,-145.996,1.000
1626202959409607.750,-88.379,-16.113,-36.133,152.832,1.000
1626202959413514.000,104.492,-13.184,-46.387,114.258,1.000
1626202959417420.250,69.336,-22.461,-39.551,-169.434,1.000
1626202959421326.500,-113.770,-20.020,-28.809,-192.383,1.000
1626202959425232.750,-125.488,-34.180,-43.945,82.520,1.000
1626202959429139.000,52.246,-61.523,-55.176,1.000,1.000
1626202959433045.250,87.402,-57.129,-37.109,1.000,1.000
1626202959436951.500,-117.188,-32.715,-25.879,1.000,1.000
1626202959440857.750,-175.293,-22.949,-22.461,1.000,1.000
1626202959444764.000,33.203,-42.969,-24.414,1.000,1.000
1626202959448670.250,121.582,-47.852,-26.367,1.000,1.000
1626202959452576.500,-53.223,-26.855,-31.250,1.000,1.000
1626202959456482.750,-185.059,-23.926,-25.879,1.000,1.000
1626202959460389.000,-17.578,-10.254,-18.066,1.000,1.000
1626202959464295.250,154.297,-11.719,-41.992,1.000,1.000
1626202959468201.500,17.090,-45.410,-47.852,1.000,1.000
1626202959472107.750,-181.152,-53.223,-27.344,1.000,1.000
1626202959476014.000,-100.586,-34.668,-17.090,-102.539,1.000
1626202959479920.250,88.867,-23.926,-28.809,158.203,1.000
1626202959483826.500,41.016,-24.414,-41.992,67.383,1.000
1626202959487732.750,-163.574,-41.992,-37.598,-221.191,1.000
1626202959491639.000,-152.344,-23.926,-27.344,-189.453,1.000
1626202959495545.250,71.777,-10.254,-30.762,113.770,1.000
1626202959499451.500,111.816,-23.438,-31.738,147.949,1.000
1626202959503357.750,-94.727,-45.410,-33.203,-146.484,1.000
1626202959507264.000,-165.527,-56.641,-27.832,-229.004,1.000
1626202959511170.250,39.551,-58.594,-23.926,60.059,1.000
1626202959515076.500,140.137,-20.020,-32.715,193.848,1.000
1626202959518982.750,-39.551,-13.672,-44.434,-61.035,1.000
1626202959522889.000,43.945,-44.434,-30.273,85.938,1.000
1626202959526795.250,-180.664,-64.453,-44.434,-223.633,1.000
1626202959530701.500,-192.871,-42.969,-47.363,-227.539,1.000
1626202959534607.750,36.133,-19.531,-26.367,88.379,1.000
1626202959538514.000,113.770,-7.812,-14.648,179.199,1.000
1626202959542420.250,-62.012,-12.207,-9.277,-91.309,1.000
1626202959546326.500,-179.688,-29.785,-4.883,-232.422,1.000
1626202959550232.750,-30.762,-23.926,-22.949,-0.488,1.000
1626202959554139.000,138.672,-6.348,-31.738,202.637,1.000
1626202959558045.250,10.254,-33.203,-15.625,-2.930,1.000
1626202959561951.500,-183.105,-61.035,-21.484,-255.371,1.000
1626202959565857.750,-88.379,-63.477,-28.320,-92.773,1.000
1626202959569764.000,104.004,-40.039,-19.043,166.016,1.000
1626202959573670.250,29.785,-26.855,-33.203,34.668,1.000
1626202959577576.500,-190.918,-27.832,-47.852,-253.906,1.000
1626202959581482.750,-156.738,-17.578,-25.391,-172.363,1.000
1626202959585389.000,75.684,-6.836,-1.953,145.996,1.000
1626202959589295.250,101.074,-17.090,-18.555,143.555,1.000
1626202959593201.500,-114.746,-31.738,-33.203,-164.551,1.000
1626202959597107.750,-173.828,-43.945,-19.531,-220.215,1.000
1626202959601014.000,28.320,-44.434,-25.391,66.406,1.000
1626202959604920.250,104.980,-33.691,-43.457,168.457,1.000
1626202959608826.500,-65.430,-36.621,-31.738,-85.938,1.000
1626202959612732.750,-184.570,-28.809,-49.805,-244.629,1.000
1626202959616639.000,-42.480,-13.184,-64.453,1.000,1.000
1626202959620545.250,98.145,-27.344,-43.457,1.000,1.000
1626202959624451.500,-23.926,-50.781,-23.438,1.000,1.000
1626202959628357.750,-190.430,-32.715,-4.395,1.000,1.000
1626202959632264.000,-84.961,-23.926,2.930,1.000,1.000
1626202959636170.250,115.234,-31.738,-12.695,1.000,1.000
1626202959640076.500,45.898,-39.551,-45.410,1.000,1.000
1626202959643982.750,-158.203,-35.156,-44.922,1.000,1.000
1626202959647889.000,-149.414,-29.297,-31.250,1.000,1.000
1626202959651795.250,60.547,-39.062,-29.785,1.000,1.000
1626202959655701.500,102.539,-26.367,-30.762,1.000,1.000
1626202959659607.750,-99.609,-33.691,-16.113,1.000,1.000
1626202959663514.000,-174.316,-80.566,-17.090,-218.262,1.000
1626202959667420.250,11.719,-49.805,-51.758,54.688,1.000
1626202959671326.500,106.934,-26.855,-54.199,171.875,1.000
1626202959675232.750,-52.246,-26.367,-23.926,-75.684,1.000
1626202959679139.000,-173.340,-24.902,-6.836,-234.863,1.000
1626202959683045.250,-41.016,-23.438,-12.207,-25.391,1.000
1626202959686951.500,107.422,-29.297,-26.855,185.547,1.000
1626202959690857.750,-5.859,-21.484,-32.227,18.555,1.000
1626202959694764.000,-194.336,-23.438,-36.621,-251.465,1.000
1626202959698670.250,-124.512,-46.875,-27.832,-138.672,1.000
1626202959702576.500,90.332,-62.988,0.977,165.527,1.000
1626202959706482.750,66.895,-53.711,5.859,114.746,1.000
1626202959710389.000,54.688,-18.555,-12.695,62.012,1.000
1626202959714295.250,-150.879,0.977,-35.645,-215.820,1.000
1626202959718201.500,-119.141,-1.465,-48.340,-134.766,1.000
1626202959722107.750,106.445,-23.438,-30.273,166.016,1.000
1626202959726014.000,95.703,-35.156,-47.852,128.906,1.000
1626202959729920.250,-132.324,-34.668,-54.199,-181.152,1.000
1626202959733826.500,-171.387,-50.781,-34.180,-210.938,1.000
1626202959737732.750,47.363,-41.992,-12.207,92.773,1.000
1626202959741639.000,132.324,-8.789,-0.977,187.500,1.000
1626202959745545.250,-65.430,-4.883,-17.578,-90.820,1.000
1626202959749451.500,-160.156,-7.812,-25.391,-224.609,1.000
1626202959753357.750,4.395,-28.320,-22.461,19.531,1.000
1626202959757264.000,114.746,-41.016,-34.180,1.000,1.000
1626202959761170.250,-17.578,-17.090,-42.969,1.000,1.000
1626202959765076.500,-196.777,-29.297,-34.180,1.000,1.000
1626202959768982.750,-89.355,-40.527,-21.484,1.000,1.000
1626202959772889.000,106.445,-35.156,-27.344,1.000,1.000
1626202959776795.250,51.758,-41.992,-39.551,1.000,1.000
1626202959780701.500,-168.457,-49.805,-38.086,1.000,1.000
1626202959784607.750,-137.695,-12.695,-30.762,1.000,1.000
1626202959788514.000,74.707,-9.766,-41.992,1.000,1.000
1626202959792420.250,64.453,-46.875,-49.316,1.000,1.000
1626202959796326.500,-117.188,-41.016,-20.996,1.000,1.000
1626202959800232.750,-181.641,-34.180,-22.461,1.000,1.000
1626202959804139.000,13.672,-27.832,-16.113,1.000,1.000
1626202959808045.250,125.000,-21.973,4.395,1.000,1.000
1626202959811951.500,-69.336,-51.270,-12.207,1.000,1.000
1626202959815857.750,-193.359,-56.152,-19.043,1.000,1.000
1626202959819764.000,-19.531,-43.457,-25.391,1.000,1.000
1626202959823670.250,140.625,-26.367,-26.855,1.000,1.000
1626202959827576.500,13.672,-31.250,-35.645,1.000,1.000
1626202959831482.750,-179.199,-39.551,-40.527,1.000,1.000
1626202959835389.000,-74.707,-36.133,-16.113,1.000,1.000
1626202959839295.250,134.277,-19.043,-18.555,1.000,1.000
1626202959843201.500,93.750,-4.395,-28.809,1.000,1.000
1626202959847107.750,-131.348,-19.043,-34.180,1.000,1.000
1626202959851014.000,-146.973,-39.062,-32.715,1.000,1.000
1626202959854920.250,60.547,-43.945,-20.996,1.000,1.000
1626202959858826.500,97.168,-38.086,-16.602,1.000,1.000
1626202959862732.750,-101.562,-36.621,-31.250,1.000,1.000
1626202959866639.000,-172.852,-42.480,-38.574,1.000,1.000
1626202959870545.250,24.902,-20.996,-16.113,1.000,1.000
1626202959874451.500,133.789,7.812,-9.766,1.000,1.000
1626202959878357.750,-42.969,-12.695,-34.668,1.000,1.000
1626202959882264.000,-182.617,-36.133,-37.598,1.000,1.000
1626202959886170.250,-14.648,-38.574,-21.484,1.000,1.000
1626202959890076.500,131.836,-42.480,-25.391,1.000,1.000
1626202959893982.750,9.277,-21.973,-26.855,1.000,1.000
1626202959897889.000,-28.809,-55.664,-50.781,-42.969,1.000
1626202959901795.250,-198.730,-53.223,-48.828,-248.535,1.000
1626202959905701.500,-64.453,-35.645,-20.508,-49.805,1.000
1626202959909607.750,130.371,-12.207,-2.930,197.754,1.000
1626202959913514.000,35.645,-8.789,-18.066,43.457,1.000
1626202959917420.250,-167.480,-25.879,-34.668,-228.027,1.000
1626202959921326.500,-95.215,-19.531,-16.113,-109.375,1.000
1626202959925232.750,131.836,4.883,-13.184,188.965,1.000
1626202959929139.000,91.797,-14.160,-31.250,123.535,1.000
1626202959933045.250,-152.344,-35.645,-39.551,-195.801,1.000
1626202959936951.500,-192.871,-38.574,-48.828,-219.238,1.000
1626202959940857.750,18.555,-42.480,-45.898,74.219,1.000
1626202959944764.000,107.422,-39.551,-28.809,1.000,1.000
1626202959948670.250,-95.215,-42.969,-32.227,1.000,1.000
1626202959952576.500,-199.707,-50.293,-32.715,1.000,1.000
1626202959956482.750,-10.254,-47.363,-15.137,1.000,1.000
1626202959960389.000,135.254,-26.855,-20.020,1.000,1.000
1626202959964295.250,2.441,-5.371,-34.180,1.000,1.000
1626202959968201.500,-177.734,-3.418,-41.992,1.000,1.000
1626202959972107.750,-65.918,1.465,-27.832,1.000,1.000
1626202959976014.000,132.812,-13.184,-28.809,1.000,1.000
1626202959979920.250,55.176,-31.738,-36.621,1.000,1.000
1626202959983826.500,-146.973,-26.367,-24.902,1.000,1.000
1626202959987732.750,-110.840,-41.504,-14.648,1.000,1.000
1626202959991639.000,100.586,-20.020,-16.113,1.000,1.000
1626202959995545.250,78.125,-14.160,-38.086,1.000,1.000
1626202959999451.500,-132.324,-48.828,-43.945,1.000,1.000
1626202960003357.750,-145.508,-33.203,-53.711,1.000,1.000
1626202960007264.000,68.359,-30.273,-46.875,1.000,1.000
1626202960011170.250,144.531,-34.180,-7.324,1.000,1.000
1626202960015076.500,-57.129,-26.855,-13.184,1.000,1.000
1626202960018982.750,-189.453,-30.273,-39.062,1.000,1.000
1626202960022889.000,-4.883,-22.949,-36.133,1.000,1.000
1626202960026795.250,133.789,-32.715,-28.809,1.000,1.000
1626202960030701.500,0.977,-20.508,-39.062,1.000,1.000
1626202960034607.750,-173.828,-28.809,-53.223,1.000,1.000
1626202960038514.000,-80.566,-19.531,-38.574,-114.258,1.000
1626202960042420.250,-173.828,-60.059,-72.754,-222.168,1.000
1626202960046326.500,-7.812,-64.453,-55.664,46.387,1.000
1626202960050232.750,105.957,-12.207,-11.230,196.289,1.000
1626202960054139.000,-61.523,-15.137,-24.414,-63.965,1.000
1626202960058045.250,-212.891,-24.414,-20.020,-261.230,1.000
1626202960061951.500,-64.941,-41.016,-7.812,-55.176,1.000
1626202960065857.750,131.348,-53.711,-7.812,181.152,1.000
1626202960069764.000,24.902,-33.691,-17.578,41.992,1.000
1626202960073670.250,-186.035,-34.668,-36.133,-238.281,1.000
1626202960077576.500,-128.418,-37.598,-40.039,-142.578,1.000
1626202960081482.750,83.984,-27.344,-29.785,156.250,1.000
1626202960085389.000,70.312,-32.715,-20.996,1.000,1.000
1626202960089295.250,-145.020,-50.293,-32.227,1.000,1.000
1626202960093201.500,-171.875,-53.711,-30.762,1.000,1.000
1626202960097107.750,49.316,-42.480,-28.320,1.000,1.000
1626202960101014.000,120.605,-34.180,-47.363,1.000,1.000
1626202960104920.250,-87.402,-18.555,-36.133,1.000,1.000
1626202960108826.500,-195.312,-6.836,-16.602,1.000,1.000
1626202960112732.750,-8.301,-54.688,-15.137,1.000,1.000
1626202960116639.000,162.109,-65.430,-7.324,1.000,1.000
1626202960120545.250,1.953,-34.180,-22.461,1.000,1.000
1626202960124451.500,-215.820,-34.668,-40.039,1.000,1.000
1626202960128357.750,-103.027,-38.574,-36.133,1.000,1.000
1626202960132264.000,107.910,-23.926,-27.832,1.000,1.000
1626202960136170.250,56.152,-7.812,-16.113,1.000,1.000
1626202960140076.500,-152.832,-24.902,-29.297,1.000,1.000
1626202960143982.750,-138.184,-38.086,-41.504,1.000,1.000
1626202960147889.000,61.523,-34.180,-41.016,1.000,1.000
1626202960151795.250,72.266,-22.949,-30.273,1.000,1.000
1626202960155701.500,-138.672,-29.785,-30.762,1.000,1.000
1626202960159607.750,-186.523,-52.246,-45.898,1.000,1.000
1626202960163514.000,34.668,-50.293,-45.898,1.000,1.000
1626202960167420.250,146.484,-34.668,-31.738,1.000,1.000
1626202960171326.500,-62.012,-50.781,-36.621,1.000,1.000
1626202960175232.750,-210.938,-64.941,-43.457,1.000,1.000
1626202960179139.000,-40.039,-48.828,-36.621,1.000,1.000
1626202960183045.250,118.652,-44.922,-30.273,1.000,1.000
1626202960186951.500,16.602,-34.180,-11.719,1.000,1.000
1626202960190857.750,-154.297,-21.484,-13.184,1.000,1.000
1626202960194764.000,-89.355,-13.184,-51.270,1.000,1.000
1626202960198670.250,114.746,10.742,-53.711,1.000,1.000
1626202960202576.500,52.734,-20.508,-36.133,1.000,1.000
1626202960206482.750,-171.875,-90.332,-33.691,1.000,1.000
1626202960210389.000,-128.418,-69.336,-30.273,1.000,1.000
1626202960214295.250,91.797,-19.043,-21.973,1.000,1.000
1626202960218201.500,103.516,-1.953,-23.926,1.000,1.000
1626202960222107.750,-115.234,-22.461,-50.293,1.000,1.000
1626202960226014.000,32.715,-16.113,-32.715,12.695,1.000
1626202960229920.250,-166.504,-35.156,-36.621,-257.812,1.000
1626202960233826.500,-109.863,-60.059,-42.969,-155.273,1.000
1626202960237732.750,101.562,-67.871,-52.734,130.371,1.000
1626202960241639.000,82.520,-31.250,-56.641,90.332,1.000
1626202960245545.250,-107.910,-6.836,-47.852,-181.152,1.000
1626202960249451.500,-132.324,-37.598,-41.016,-183.105,1.000
1626202960253357.750,73.730,-42.969,-26.367,113.770,1.000
1626202960257264.000,126.953,-22.949,-25.879,161.621,1.000
1626202960261170.250,-99.121,-41.016,-38.086,-154.785,1.000
1626202960265076.500,-208.984,-56.152,-41.992,-274.902,1.000
1626202960268982.750,-15.137,-41.504,-44.434,-5.859,1.000
1626202960272889.000,148.438,-20.996,-27.832,1.000,1.000
1626202960276795.250,6.348,-23.926,-17.578,1.000,1.000
1626202960280701.500,-188.965,-52.246,-30.273,1.000,1.000
1626202960284607.750,-86.426,-39.551,-34.180,1.000,1.000
1626202960288514.000,100.098,-25.391,-25.879,1.000,1.000
1626202960292420.250,18.066,-43.457,-33.691,1.000,1.000
1626202960296326.500,-179.199,-53.711,-43.945,1.000,1.000
1626202960300232.750,-124.023,-63.965,-34.180,1.000,1.000
1626202960304139.000,107.910,-35.156,-30.762,1.000,1.000
1626202960308045.250,97.168,-16.113,-42.480,1.000,1.000
1626202960311951.500,-104.980,-40.039,-28.809,1.000,1.000
1626202960315857.750,-131.348,-28.320,-8.789,1.000,1.000
1626202960319764.000,51.270,-11.230,-12.207,1.000,1.000
1626202960323670.250,127.441,-23.926,-28.320,1.000,1.000
1626202960327576.500,-63.477,-38.086,-40.039,1.000,1.000
1626202960331482.750,-210.449,-51.758,-34.668,1.000,1.000
1626202960335389.000,-38.574,-41.504,-15.625,1.000,1.000
1626202960339295.250,139.648,-16.113,-13.184,1.000,1.000
1626202960343201.500,4.395,-30.273,-44.922,1.000,1.000
1626202960347107.750,-174.316,-62.012,-46.875,1.000,1.000
1626202960351014.000,-67.383,-50.781,-15.137,1.000,1.000
1626202960354920.250,120.117,-30.273,-8.301,1.000,1.000
1626202960358826.500,62.988,-30.762,-12.207,1.000,1.000
1626202960362732.750,-147.949,-54.199,-26.367,1.000,1.000
1626202960366639.000,-129.395,-37.598,-56.152,1.000,1.000
1626202960370545.250,86.914,-8.301,-52.246,1.000,1.000
1626202960374451.500,92.773,-11.230,-21.484,1.000,1.000
1626202960378357.750,-120.117,-27.344,-22.461,1.000,1.000
1626202960382264.000,-183.105,-30.762,-33.203,1.000,1.000
1626202960386170.250,29.297,-34.180,-21.973,1.000,1.000
1626202960390076.500,134.766,-33.691,-28.320,1.000,1.000
1626202960393982.750,-45.410,-17.090,-31.738,1.000,1.000
1626202960397889.000,-179.688,-24.902,-32.715,1.000,1.000
1626202960401795.250,-34.668,-35.645,-41.992,1.000,1.000
1626202960405701.500,142.578,-28.809,-15.137,1.000,1.000
1626202960409607.750,27.344,-34.668,-13.672,1.000,1.000
1626202960413514.000,-45.410,-23.438,-43.945,-70.801,1.000
1626202960417420.250,-201.172,-20.508,-52.734,-261.719,1.000
1626202960421326.500,-58.105,-10.742,-45.410,-49.805,1.000
1626202960425232.750,129.883,-6.348,-13.672,198.730,1.000
1626202960429139.000,5.859,-26.367,-2.441,19.531,1.000
1626202960433045.250,-196.777,-35.645,-23.438,-251.953,1.000
1626202960436951.500,-123.047,-31.738,-37.598,-132.324,1.000
1626202960440857.750,107.422,-13.184,-31.738,167.969,1.000
1626202960444764.000,98.145,-6.348,-20.020,124.023,1.000
1626202960448670.250,-132.812,-53.711,-29.785,-193.848,1.000
1626202960452576.500,-155.273,-93.750,-47.852,-203.125,1.000
1626202960456482.750,49.316,-54.199,-44.434,91.797,1.000
1626202960460389.000,97.656,-3.906,-29.297,1.000,1.000
1626202960464295.250,-125.488,-22.461,-24.414,1.000,1.000
1626202960468201.500,-223.145,-29.297,-24.902,1.000,1.000
1626202960472107.750,-26.855,-26.367,-37.109,1.000,1.000
1626202960476014.000,88.867,-38.086,-37.109,1.000,1.000
1626202960479920.250,-56.152,-24.902,-25.879,1.000,1.000
1626202960483826.500,-190.918,-37.109,-19.043,1.000,1.000
1626202960487732.750,-79.102,-44.434,-6.348,1.000,1.000
1626202960491639.000,100.098,-34.180,-3.418,1.000,1.000
1626202960495545.250,38.574,-38.086,-15.625,1.000,1.000
1626202960499451.500,-149.414,-29.297,-24.414,1.000,1.000
1626202960503357.750,-125.977,-50.781,-32.227,1.000,1.000
1626202960507264.000,78.125,-47.363,-23.926,1.000,1.000
1626202960511170.250,77.148,-17.090,-41.992,1.000,1.000
1626202960515076.500,-135.254,-20.508,-67.871,1.000,1.000
1626202960518982.750,-182.129,-27.832,-46.875,1.000,1.000
1626202960522889.000,19.531,-13.184,-23.926,1.000,1.000
1626202960526795.250,103.516,-5.859,-22.461,1.000,1.000
1626202960530701.500,-80.078,-29.785,-36.621,1.000,1.000
1626202960534607.750,-186.035,-41.016,-41.016,1.000,1.000
1626202960538514.000,7.812,-20.020,-21.484,1.000,1.000
1626202960542420.250,162.598,-11.719,-16.113,1.000,1.000
1626202960546326.500,5.859,-28.809,-33.203,1.000,1.000
1626202960550232.750,-179.199,-62.500,-36.133,1.000,1.000
1626202960554139.000,-78.613,-44.922,-20.508,-83.984,1.000
1626202960558045.250,121.094,-47.363,-6.836,184.570,1.000
1626202960561951.500,60.547,-50.781,-12.695,75.195,1.000
1626202960565857.750,-154.297,-26.367,-27.344,-224.121,1.000
1626202960569764.000,-136.230,-22.949,-29.785,-171.387,1.000
1626202960573670.250,77.637,-18.555,-37.598,133.301,1.000
1626202960577576.500,95.215,-8.789,-45.410,132.324,1.000
1626202960581482.750,-112.305,-20.020,-44.434,-168.945,1.000
1626202960585389.000,-170.898,-20.996,-36.621,-222.168,1.000
1626202960589295.250,27.344,-27.832,-35.645,60.547,1.000
1626202960593201.500,129.883,-64.453,-25.879,180.664,1.000
1626202960597107.750,-33.691,-54.688,-5.371,-71.777,1.000
1626202960601014.000,-111.816,-27.344,-15.625,-158.691,1.000
1626202960604920.250,-208.984,-24.902,-57.617,-254.395,1.000
1626202960608826.500,-8.789,-27.344,-64.941,36.621,1.000
1626202960612732.750,107.910,-28.320,-38.086,176.270,1.000
1626202960616639.000,-76.660,-25.391,-46.387,-88.867,1.000
1626202960620545.250,-226.074,-20.508,-36.621,-267.090,1.000
1626202960624451.500,-83.008,-26.367,-25.879,-51.758,1.000
1626202960628357.750,98.633,-41.992,-23.438,176.758,1.000
1626202960632264.000,16.602,-32.715,-35.645,31.738,1.000
1626202960636170.250,-175.781,-20.996,-63.477,-229.980,1.000
1626202960640076.500,-122.559,-59.082,-46.387,-129.883,1.000
1626202960643982.750,98.145,-44.434,-6.836,162.109,1.000
1626202960647889.000,74.219,-16.602,-3.418,108.398,1.000
1626202960651795.250,-150.391,-46.387,-26.367,-202.637,1.000
1626202960655701.500,-162.109,-38.574,-37.598,-205.078,1.000
1626202960659607.750,50.293,-24.902,-43.457,96.191,1.000
1626202960663514.000,99.609,-17.090,-25.391,147.461,1.000
1626202960667420.250,-88.379,-0.977,-17.578,-129.883,1.000
1626202960671326.500,-187.988,-17.090,-41.992,-248.535,1.000
1626202960675232.750,-16.602,-48.340,-42.480,1.465,1.000
1626202960679139.000,125.488,-33.203,-29.297,168.457,1.000
1626202960683045.250,-27.832,-14.648,-34.180,-56.641,1.000
1626202960686951.500,-204.590,-23.438,-35.645,-260.742,1.000
1626202960690857.750,-73.730,-28.809,-23.926,-65.918,1.000
1626202960694764.000,131.836,-29.785,-23.438,1.000,1.000
1626202960698670.250,39.062,-33.203,-31.250,1.000,1.000
1626202960702576.500,-181.641,-38.086,-52.734,1.000,1.000
1626202960706482.750,-149.902,-40.039,-51.270,1.000,1.000
1626202960710389.000,58.594,-37.109,-42.480,1.000,1.000
1626202960714295.250,72.754,-24.902,-41.016,1.000,1.000
1626202960718201.500,-147.949,-28.809,-41.504,1.000,1.000
1626202960722107.750,-191.406,-36.133,-35.645,1.000,1.000
1626202960726014.000,28.809,-22.461,-30.273,1.000,1.000
1626202960729920.250,102.539,-11.719,-17.090,1.000,1.000
1626202960733826.500,-94.238,-19.531,-20.996,1.000,1.000
1626202960737732.750,-231.934,-41.992,-34.668,1.000,1.000
1626202960741639.000,-60.547,-34.180,-33.691,1.000,1.000
1626202960745545.250,83.496,-15.625,-19.531,1.000,1.000
1626202960749451.500,-81.055,-30.273,-25.391,1.000,1.000
1626202960753357.750,-249.023,-39.551,-29.785,1.000,1.000
1626202960757264.000,-147.949,-24.902,-23.926,1.000,1.000
1626202960761170.250,16.602,-14.648,-20.020,1.000,1.000
1626202960765076.500,-92.285,-21.484,-30.762,1.000,1.000
1626202960768982.750,-310.547,-18.555,-39.062,1.000,1.000
1626202960772889.000,-270.020,12.207,-24.902,1.000,1.000
1626202960776795.250,-76.172,6.348,-14.160,1.000,1.000
1626202960780701.500,-78.613,-22.461,-5.859,1.000,1.000
1626202960784607.750,-290.039,-32.227,-13.672,1.000,1.000
1626202960788514.000,-365.234,-21.484,-29.785,-402.344,1.000
1626202960792420.250,-164.551,-44.434,-23.438,-108.887,1.000
1626202960796326.500,-44.922,-53.711,-11.230,16.602,1.000
1626202960800232.750,-221.191,-49.805,-19.043,-245.117,1.000
1626202960804139.000,-361.328,-49.316,-43.945,-402.832,1.000
1626202960808045.250,-147.461,-31.250,-20.020,-125.488,1.000
1626202960811951.500,36.621,-24.902,-6.836,78.613,1.000
1626202960815857.750,-146.484,-20.996,-30.273,-145.020,1.000
1626202960819764.000,-344.238,-23.438,-25.391,-385.742,1.000
1626202960823670.250,-233.398,-44.434,-10.254,-214.355,1.000
1626202960827576.500,7.324,-42.480,-0.977,78.125,1.000
1626202960831482.750,-48.828,-24.414,-4.883,-13.184,1.000
1626202960835389.000,37.109,-24.414,-39.551,41.016,1.000
1626202960839295.250,-161.133,-26.855,-49.805,-206.543,1.000
1626202960843201.500,-87.402,-40.039,-35.156,-81.543,1.000
1626202960847107.750,149.902,-36.621,-16.602,211.914,1.000
1626202960851014.000,107.422,-39.551,-22.949,149.902,1.000
1626202960854920.250,-116.211,-53.223,-34.668,-138.672,1.000
1626202960858826.500,-109.863,-59.570,-31.738,-123.535,1.000
1626202960862732.750,99.609,-65.430,-25.879,170.898,1.000
1626202960866639.000,140.625,-33.203,-27.344,208.008,1.000
1626202960870545.250,-42.969,-31.738,-29.297,-71.289,1.000
1626202960874451.500,-119.141,-48.828,-41.504,-164.062,1.000
1626202960878357.750,68.848,-26.367,-45.410,104.004,1.000
1626202960882264.000,188.965,-21.973,-29.785,253.906,1.000
1626202960886170.250,26.855,-28.320,-39.551,2.441,1.000
1626202960890076.500,-131.836,-25.879,-34.668,-189.941,1.000
1626202960893982.750,-4.883,-20.996,-24.902,13.184,1.000
1626202960897889.000,166.992,-37.598,-30.273,246.094,1.000
1626202960901795.250,76.660,-60.547,-27.832,101.074,1.000
1626202960905701.500,-133.789,-73.242,-48.828,-179.688,1.000
1626202960909607.750,-65.918,-75.195,-45.410,-75.195,1.000
1626202960913514.000,166.016,-27.344,-18.066,231.445,1.000
1626202960917420.250,142.090,-15.625,-16.113,193.359,1.000
1626202960921326.500,-90.332,-54.199,-38.574,-123.047,1.000
1626202960925232.750,-136.719,-43.457,-63.965,-170.410,1.000
1626202960929139.000,82.031,-7.324,-36.133,1.000,1.000
1626202960933045.250,154.785,-24.902,-7.324,1.000,1.000
1626202960936951.500,-49.316,-51.270,-31.250,1.000,1.000
1626202960940857.750,-152.832,-68.848,-40.527,1.000,1.000
1626202960944764.000,53.711,-80.566,-13.184,1.000,1.000
1626202960948670.250,189.941,-65.430,-16.602,1.000,1.000
1626202960952576.500,27.344,-52.734,-36.133,1.000,1.000
1626202960956482.750,-130.859,-40.039,-28.809,1.000,1.000
1626202960960389.000,-27.344,-35.156,-35.156,1.000,1.000
1626202960964295.250,152.344,-43.945,-48.828,1.000,1.000
1626202960968201.500,90.820,-37.109,-45.410,1.000,1.000
1626202960972107.750,-117.676,-45.898,-48.340,1.000,1.000
1626202960976014.000,-163.086,-52.734,-51.270,-214.355,1.000
1626202960979920.250,-58.594,-48.340,-44.922,-57.617,1.000
1626202960983826.500,154.297,-45.898,-20.020,212.402,1.000
1626202960987732.750,97.168,-45.410,-3.418,114.258,1.000
1626202960991639.000,-128.418,-33.203,-22.461,-189.453,1.000
1626202960995545.250,-120.117,-30.762,-35.645,-141.113,1.000
1626202960999451.500,99.609,-48.340,-34.668,168.457,1.000
1626202961003357.750,130.371,-34.668,-34.668,175.293,1.000
1626202961007264.000,-77.637,-7.324,-32.715,-130.371,1.000
1626202961011170.250,-152.344,-5.371,-37.598,-201.172,1.000
1626202961015076.500,55.664,-20.508,-27.832,103.516,1.000
1626202961018982.750,179.688,-47.363,-4.395,239.746,1.000
1626202961022889.000,-17.090,-62.012,-16.602,1.000,1.000
1626202961026795.250,-179.688,-41.504,-46.875,1.000,1.000
1626202961030701.500,-11.230,-14.648,-61.035,1.000,1.000
1626202961034607.750,154.297,4.883,-34.180,1.000,1.000
1626202961038514.000,27.344,-15.625,-16.602,1.000,1.000
1626202961042420.250,-175.781,-60.547,-32.715,1.000,1.000
1626202961046326.500,-100.586,-70.312,-33.691,1.000,1.000
1626202961050232.750,122.559,-54.199,-22.949,1.000,1.000
1626202961054139.000,101.074,-21.484,-26.367,1.000,1.000
1626202961058045.250,-92.773,-40.039,-34.180,1.000,1.000
1626202961061951.500,-87.891,-67.871,-25.879,1.000,1.000
1626202961065857.750,104.980,-27.344,-10.742,1.000,1.000
1626202961069764.000,138.184,-14.160,3.906,1.000,1.000
1626202961073670.250,-78.613,-21.484,-26.855,1.000,1.000
1626202961077576.500,-186.035,-20.020,-42.480,1.000,1.000
1626202961081482.750,-0.977,-19.043,-24.902,1.000,1.000
1626202961085389.000,129.883,-24.902,-27.344,1.000,1.000
1626202961089295.250,-11.230,-28.809,-19.531,1.000,1.000
1626202961093201.500,-109.375,-36.133,-20.020,1.000,1.000
1626202961097107.750,76.660,-53.711,-21.973,1.000,1.000
1626202961101014.000,144.531,-57.129,-23.926,1.000,1.000
1626202961104920.250,-57.129,-35.156,-31.250,1.000,1.000
1626202961108826.500,-170.410,-20.020,-19.531,1.000,1.000
1626202961112732.750,0.977,-32.715,-12.695,1.000,1.000
1626202961116639.000,156.738,-45.898,-10.742,1.000,1.000
1626202961120545.250,-3.906,-48.340,-42.480,1.000,1.000
1626202961124451.500,-187.988,-23.926,-55.176,1.000,1.000
1626202961128357.750,-47.363,-4.395,-26.855,1.000,1.000
1626202961132264.000,135.742,-12.695,-6.836,1.000,1.000
1626202961136170.250,49.316,-28.320,-2.441,1.000,1.000
1626202961140076.500,-135.254,-40.527,-10.254,1.000,1.000
1626202961143982.750,-93.262,-25.879,-16.602,1.000,1.000
1626202961147889.000,111.816,-34.668,-34.668,1.000,1.000
1626202961151795.250,80.566,-66.406,-46.387,1.000,1.000
1626202961155701.500,-141.113,-59.082,-50.781,1.000,1.000
1626202961159607.750,-150.879,-33.203,-49.805,1.000,1.000
1626202961163514.000,-167.969,-24.902,-41.016,-148.926,1.000
1626202961167420.250,-85.938,-43.457,-54.688,146.973,1.000
1626202961171326.500,134.277,-33.203,-43.457,133.789,1.000
1626202961175232.750,108.887,-12.207,-28.809,-152.344,1.000
1626202961179139.000,-100.098,-36.621,-33.203,-199.707,1.000
1626202961183045.250,-113.281,-52.734,-48.340,89.355,1.000
1626202961186951.500,82.520,-22.461,-43.945,190.918,1.000
1626202961190857.750,122.559,-15.137,-34.180,-85.449,1.000
1626202961194764.000,-73.242,-44.434,-38.086,-241.699,1.000
1626202961198670.250,-134.766,-38.086,-35.156,2.441,1.000
1626202961202576.500,57.129,-2.441,-21.484,198.242,1.000
1626202961206482.750,138.672,10.742,-24.902,0.000,1.000
1626202961210389.000,-42.480,0.977,-35.645,-91.797,1.000
1626202961214295.250,-170.898,-19.531,-27.344,-264.160,1.000
1626202961218201.500,-20.996,-21.973,-26.367,-32.227,1.000
1626202961222107.750,127.441,-19.043,-25.391,184.570,1.000
1626202961226014.000,5.371,-39.062,-35.156,7.324,1.000
1626202961229920.250,-183.594,-57.617,-52.734,-246.582,1.000
1626202961233826.500,-108.887,-32.227,-45.898,-124.512,1.000
1626202961237732.750,95.215,-20.020,-29.785,154.297,1.000
1626202961241639.000,55.664,-48.340,-37.109,80.566,1.000
1626202961245545.250,-146.484,-44.434,-54.688,-206.543,1.000
1626202961249451.500,-143.555,-13.672,-51.758,-179.688,1.000
1626202961253357.750,71.777,-11.719,-25.391,114.258,1.000
1626202961257264.000,104.980,-34.180,-7.324,1.000,1.000
1626202961261170.250,-105.469,-45.410,-21.973,1.000,1.000
1626202961265076.500,-188.477,-40.527,-41.504,1.000,1.000
1626202961268982.750,2.441,-31.738,-30.273,1.000,1.000
1626202961272889.000,141.602,-21.484,1.953,1.000,1.000
1626202961276795.250,-22.461,-20.020,-8.789,1.000,1.000
1626202961280701.500,-196.777,-32.715,-34.180,1.000,1.000
1626202961284607.750,-60.059,-37.109,-18.555,1.000,1.000
1626202961288514.000,112.305,-62.500,-27.344,1.000,1.000
1626202961292420.250,21.484,-75.195,-41.992,1.000,1.000
1626202961296326.500,-176.758,-53.711,-39.062,1.000,1.000
1626202961300232.750,-134.766,-26.367,-41.016,1.000,1.000
1626202961304139.000,81.055,-14.648,-30.273,1.000,1.000
1626202961308045.250,69.824,-21.484,-12.695,1.000,1.000
1626202961311951.500,-134.766,-32.715,-23.438,1.000,1.000
1626202961315857.750,-157.715,-41.992,-37.598,1.000,1.000
1626202961319764.000,52.734,-23.438,-24.902,1.000,1.000
1626202961323670.250,132.324,-5.859,-11.719,1.000,1.000
1626202961327576.500,-67.871,-20.996,-18.066,1.000,1.000
1626202961331482.750,-197.266,-24.414,-35.156,1.000,1.000
1626202961335389.000,-29.785,-32.715,-32.715,1.000,1.000
1626202961339295.250,107.910,-47.363,-29.297,1.000,1.000
1626202961343201.500,-41.016,-57.617,-52.734,1.000,1.000
1626202961347107.750,-216.797,-52.246,-57.617,1.000,1.000
1626202961351014.000,-75.195,-27.832,-50.781,-250.488,1.000
1626202961354920.250,-151.367,-30.762,-77.637,-13.672,1.000
1626202961358826.500,47.363,0.488,-46.875,204.590,1.000
1626202961362732.750,137.207,-20.020,-29.785,13.672,1.000
1626202961366639.000,-36.133,-53.223,-21.973,-247.070,1.000
1626202961370545.250,-166.504,-43.945,-12.695,-106.934,1.000
1626202961374451.500,-40.039,-35.156,-26.855,172.363,1.000
1626202961378357.750,114.258,-22.461,-41.016,83.008,1.000
1626202961382264.000,0.488,-19.043,-55.664,-210.938,1.000
1626202961386170.250,-179.688,-23.926,-43.457,-163.086,1.000
1626202961390076.500,-93.750,-21.973,-29.785,144.043,1.000
1626202961393982.750,117.188,-26.367,-13.184,161.133,1.000
1626202961397889.000,72.754,-40.039,-49.805,1.000,1.000
1626202961401795.250,-156.250,-35.645,-82.031,1.000,1.000
1626202961405701.500,-167.480,-39.551,-37.598,1.000,1.000
1626202961409607.750,52.246,-44.434,-11.719,1.000,1.000
1626202961413514.000,105.957,-35.645,-14.160,1.000,1.000
1626202961417420.250,-90.332,-35.645,-20.020,1.000,1.000
1626202961421326.500,-175.293,-32.715,-25.391,1.000,1.000
1626202961425232.750,3.906,-33.691,-33.203,1.000,1.000
1626202961429139.000,118.164,-25.879,-31.250,1.000,1.000
1626202961433045.250,-23.438,-13.672,-20.996,1.000,1.000
1626202961436951.500,-172.852,-24.414,-19.531,1.000,1.000
1626202961440857.750,-62.012,-28.320,-27.832,1.000,1.000
1626202961444764.000,-170.898,-43.945,-34.180,-215.332,1.000
1626202961448670.250,-128.906,-13.184,-43.945,-151.367,1.000
1626202961452576.500,87.891,-15.625,-47.363,135.742,1.000
1626202961456482.750,94.727,-23.926,-37.598,132.812,1.000
1626202961460389.000,-121.094,-41.016,-23.926,-164.062,1.000
1626202961464295.250,-179.688,-49.316,-17.090,-221.191,1.000
1626202961468201.500,33.691,-29.785,-12.695,64.453,1.000
1626202961472107.750,130.859,-41.504,-17.578,177.734,1.000
1626202961476014.000,-57.617,-62.012,-29.297,-81.055,1.000
1626202961479920.250,-193.359,-58.105,-34.180,-258.789,1.000
1626202961483826.500,-20.996,-16.113,-37.109,-22.949,1.000
1626202961487732.750,139.160,-9.277,-45.898,185.547,1.000
1626202961491639.000,0.000,-37.109,-48.340,1.000,1.000
1626202961495545.250,-189.941,-41.504,-28.809,1.000,1.000
1626202961499451.500,-99.121,-36.621,-11.719,1.000,1.000
1626202961503357.750,114.258,-21.973,-2.930,1.000,1.000
1626202961507264.000,61.035,-28.320,-10.742,1.000,1.000
1626202961511170.250,-159.180,-25.879,-27.832,1.000,1.000
1626202961515076.500,-145.996,-12.695,-21.484,1.000,1.000
1626202961518982.750,73.242,-14.648,-8.789,1.000,1.000
1626202961522889.000,120.117,-18.555,-15.625,1.000,1.000
1626202961526795.250,-83.496,-45.898,-40.527,1.000,1.000
1626202961530701.500,-183.594,-65.918,-40.527,1.000,1.000
1626202961534607.750,7.324,-46.387,-22.949,1.000,1.000
1626202961538514.000,141.113,-23.438,-13.184,1.000,1.000
1626202961542420.250,-38.574,-36.621,-15.625,1.000,1.000
1626202961546326.500,-209.961,-34.180,-20.508,1.000,1.000
1626202961550232.750,-57.617,-20.020,-8.789,1.000,1.000
1626202961554139.000,116.699,-26.855,-15.625,1.000,1.000
1626202961558045.250,-0.488,-27.832,-38.086,1.000,1.000
1626202961561951.500,-195.801,-25.391,-48.340,1.000,1.000
1626202961565857.750,-124.023,-30.273,-41.992,1.000,1.000
1626202961569764.000,103.027,-41.992,-26.367,1.000,1.000
1626202961573670.250,96.680,-40.527,-16.113,1.000,1.000
1626202961577576.500,-133.789,-54.199,-35.645,1.000,1.000
1626202961581482.750,-178.223,-50.293,-50.781,1.000,1.000
1626202961585389.000,-173.828,-26.855,-28.320,-136.719,1.000
1626202961589295.250,-82.031,-55.664,-32.715,158.203,1.000
1626202961593201.500,90.820,-32.227,-60.547,110.352,1.000
1626202961597107.750,27.344,-17.090,-48.828,-187.012,1.000
1626202961601014.000,-171.387,-32.715,-17.578,-205.078,1.000
1626202961604920.250,-150.879,-36.133,-20.508,81.543,1.000
1626202961608826.500,52.246,-33.691,-35.156,157.227,1.000
1626202961612732.750,81.543,-41.504,-41.016,-135.742,1.000
1626202961616639.000,-108.398,-68.359,-34.180,-281.250,1.000
1626202961620545.250,-159.668,-49.805,-23.926,-22.461,1.000
1626202961624451.500,41.992,-12.695,-21.484,179.688,1.000
1626202961628357.750,123.535,-6.836,-30.273,-24.902,1.000
1626202961632264.000,-77.637,-30.273,-45.898,-96.680,1.000
1626202961636170.250,-213.867,-58.594,-49.316,-266.113,1.000
1626202961640076.500,-20.508,-33.691,-25.391,-10.254,1.000
1626202961643982.750,156.738,-32.715,-13.672,219.238,1.000
1626202961647889.000,19.531,-60.547,-29.297,16.602,1.000
1626202961651795.250,-164.062,-50.293,-44.434,-233.398,1.000
1626202961655701.500,-81.055,-36.621,-36.133,-90.332,1.000
1626202961659607.750,106.934,-20.020,-21.973,164.062,1.000
1626202961663514.000,55.664,-15.625,-29.785,66.895,1.000
1626202961667420.250,-145.996,-19.531,-26.367,-216.309,1.000
1626202961671326.500,-130.371,-29.297,-27.344,-170.410,1.000
1626202961675232.750,84.961,-29.297,-32.715,124.023,1.000
1626202961679139.000,121.582,-9.277,-37.109,1.000,1.000
1626202961683045.250,-102.539,-17.578,-45.898,1.000,1.000
1626202961686951.500,-187.012,-31.738,-28.809,1.000,1.000
1626202961690857.750,26.855,-34.180,-19.531,1.000,1.000
1626202961694764.000,145.508,-33.691,-20.020,1.000,1.000
1626202961698670.250,-23.438,-28.809,-19.043,1.000,1.000
1626202961702576.500,-168.457,-44.434,-24.902,1.000,1.000
1626202961706482.750,-33.691,-47.363,-23.926,1.000,1.000
1626202961710389.000,130.371,-28.809,-24.902,1.000,1.000
1626202961714295.250,32.227,-14.648,-34.180,1.000,1.000
1626202961718201.500,-168.457,-14.648,-50.781,1.000,1.000
1626202961722107.750,-116.699,-28.809,-51.758,1.000,1.000
1626202961726014.000,91.309,-18.066,-31.250,1.000,1.000
1626202961729920.250,64.941,1.953,-18.555,1.000,1.000
1626202961733826.500,-135.742,-16.602,-21.973,1.000,1.000
1626202961737732.750,-151.855,-44.434,-31.738,1.000,1.000
1626202961741639.000,59.570,-54.688,-20.508,1.000,1.000
1626202961745545.250,139.648,-15.625,-13.184,1.000,1.000
1626202961749451.500,-86.914,-31.738,-29.785,1.000,1.000
1626202961753357.750,-219.727,-70.801,-35.645,1.000,1.000
1626202961757264.000,-23.438,-26.367,-34.180,1.000,1.000
1626202961761170.250,117.188,14.160,-36.133,1.000,1.000
1626202961765076.500,-23.926,-1.465,-33.203,1.000,1.000
1626202961768982.750,-166.504,-36.133,-16.602,1.000,1.000
1626202961772889.000,-142.090,-62.988,-21.973,-225.586,1.000
1626202961776795.250,-184.082,-48.828,-29.785,30.762,1.000
1626202961780701.500,40.527,-33.203,-10.254,202.637,1.000
1626202961784607.750,129.883,-44.922,-13.672,-30.273,1.000
1626202961788514.000,-55.664,-22.949,-31.738,-253.418,1.000
1626202961792420.250,-182.617,5.859,-30.762,-62.012,1.000
1626202961796326.500,-43.945,-12.207,-18.555,196.777,1.000
1626202961800232.750,106.445,-32.715,-20.996,74.707,1.000
1626202961804139.000,-30.273,-49.805,-39.062,-202.148,1.000
1626202961808045.250,-226.074,-51.758,-41.992,-145.020,1.000
1626202961811951.500,-102.539,-31.738,-26.367,153.320,1.000
1626202961815857.750,109.375,-17.090,-32.715,148.926,1.000
1626202961819764.000,37.109,-31.738,-45.410,1.000,1.000
1626202961823670.250,-180.176,-44.922,-34.668,1.000,1.000
1626202961827576.500,-149.902,-27.344,-20.996,1.000,1.000
1626202961831482.750,87.402,-27.344,-0.488,1.000,1.000
1626202961835389.000,117.188,-31.738,-16.602,1.000,1.000
1626202961839295.250,-99.609,-14.648,-52.734,1.000,1.000
1626202961843201.500,-181.641,-13.184,-36.621,1.000,1.000
1626202961847107.750,13.672,-18.066,-20.996,1.000,1.000
1626202961851014.000,133.301,-10.742,-25.391,1.000,1.000
1626202961854920.250,-48.828,-40.039,-32.715,1.000,1.000
1626202961858826.500,-200.195,-54.199,-37.109,1.000,1.000
1626202961862732.750,-62.500,-34.668,-22.949,1.000,1.000
1626202961866639.000,-164.062,-19.531,-41.504,-227.539,1.000
1626202961870545.250,-132.812,-29.785,-36.621,-151.855,1.000
1626202961874451.500,82.520,-21.973,-18.555,145.020,1.000
1626202961878357.750,99.121,-4.883,-16.602,137.207,1.000
1626202961882264.000,-104.492,-36.621,-37.598,-153.320,1.000
1626202961886170.250,-141.113,-68.848,-37.598,-202.148,1.000
1626202961890076.500,50.293,-34.668,-18.066,94.238,1.000
1626202961893982.750,123.047,-3.906,-20.020,188.965,1.000
1626202961897889.000,-52.246,-3.906,-24.902,-81.055,1.000
1626202961901795.250,-173.340,-22.949,-25.391,-237.305,1.000
1626202961905701.500,1.953,-32.715,-26.367,0.488,1.000
1626202961909607.750,156.738,-16.113,-28.809,209.961,1.000
1626202961913514.000,24.414,-13.672,-36.133,1.000,1.000
1626202961917420.250,-157.227,-29.297,-30.273,1.000,1.000
1626202961921326.500,-54.688,-18.555,-28.809,1.000,1.000
1626202961925232.750,135.742,-30.762,-26.855,1.000,1.000
1626202961929139.000,53.711,-56.152,-41.992,1.000,1.000
1626202961933045.250,-166.504,-35.156,-65.918,1.000,1.000
1626202961936951.500,-153.809,-19.043,-58.594,1.000,1.000
1626202961940857.750,77.637,-11.230,-27.344,1.000,1.000
1626202961944764.000,107.422,-20.020,-12.207,1.000,1.000
1626202961948670.250,-101.562,-27.832,-33.691,1.000,1.000
1626202961952576.500,-173.828,-25.879,-38.086,1.000,1.000
1626202961956482.750,29.297,-35.645,-12.207,1.000,1.000
1626202961960389.000,152.832,-41.504,-11.719,1.000,1.000
1626202961964295.250,-43.945,-32.715,-42.969,1.000,1.000
1626202961968201.500,-186.523,-33.203,-45.898,1.000,1.000
1626202961972107.750,-26.855,-43.945,-28.809,1.000,1.000
1626202961976014.000,150.879,-31.738,-34.180,1.000,1.000
1626202961979920.250,35.156,-17.090,-48.828,1.000,1.000
1626202961983826.500,-166.016,-26.855,-47.363,1.000,1.000
1626202961987732.750,-95.215,-43.945,-29.785,1.000,1.000
1626202961991639.000,101.562,-42.969,-25.879,1.000,1.000
1626202961995545.250,61.523,-41.504,-45.410,1.000,1.000
1626202961999451.500,-144.531,-35.645,-49.805,1.000,1.000
1626202962003357.750,-146.973,-26.367,-38.574,1.000,1.000
1626202962007264.000,-169.434,-19.043,-9.766,-111.816,1.000
1626202962011170.250,-46.875,-41.016,-9.766,166.504,1.000
1626202962015076.500,137.207,-58.594,-5.371,120.117,1.000
1626202962018982.750,56.152,-52.246,-17.090,-159.180,1.000
1626202962022889.000,-143.066,-17.578,-44.434,-195.801,1.000
1626202962026795.250,-107.910,-5.859,-53.223,89.355,1.000
1626202962030701.500,103.027,-10.742,-36.133,169.434,1.000
1626202962034607.750,99.121,-12.695,-20.020,-113.281,1.000
1626202962038514.000,-124.023,-23.438,-23.438,-241.211,1.000
1626202962042420.250,-175.781,-32.715,-21.973,20.996,1.000
1626202962046326.500,55.664,-13.184,-2.441,192.871,1.000
1626202962050232.750,147.949,-17.578,-13.184,-35.156,1.000
1626202962054139.000,-71.289,-53.711,-40.527,-107.910,1.000
1626202962058045.250,-203.125,-45.410,-43.945,-270.508,1.000
1626202962061951.500,-41.504,-41.016,-40.039,-37.598,1.000
1626202962065857.750,112.305,-72.754,-28.809,167.969,1.000
1626202962069764.000,-17.578,-84.961,-19.531,-39.062,1.000
1626202962073670.250,-175.293,-39.062,-21.484,-239.746,1.000
1626202962077576.500,-62.988,0.488,-18.555,-59.570,1.000
1626202962081482.750,112.305,7.324,-16.602,167.480,1.000
1626202962085389.000,46.875,-13.672,-36.133,58.594,1.000
1626202962089295.250,-158.691,-36.133,-49.805,-207.031,1.000
1626202962093201.500,-145.020,-35.645,-48.828,-156.250,1.000
1626202962097107.750,47.363,-38.574,-35.645,107.422,1.000
1626202962101014.000,74.219,-36.621,-24.902,1.000,1.000
1626202962104920.250,-121.582,-44.922,-30.273,1.000,1.000
1626202962108826.500,-187.012,-68.848,-26.855,1.000,1.000
1626202962112732.750,19.043,-57.617,-20.996,1.000,1.000
1626202962116639.000,136.230,-27.344,-31.738,1.000,1.000
1626202962120545.250,-43.457,-31.250,-32.715,1.000,1.000
1626202962124451.500,-186.523,-31.250,-17.578,1.000,1.000
1626202962128357.750,-41.016,-18.066,-23.926,1.000,1.000
1626202962132264.000,122.070,-22.461,-38.086,1.000,1.000
1626202962136170.250,17.578,-42.969,-46.387,1.000,1.000
1626202962140076.500,-170.410,-54.688,-36.621,1.000,1.000
1626202962143982.750,-103.027,-37.109,-7.324,1.000,1.000
1626202962147889.000,105.469,-18.066,3.906,1.000,1.000
1626202962151795.250,69.336,-36.133,-9.277,1.000,1.000
1626202962155701.500,-163.086,-58.594,-39.062,1.000,1.000
1626202962159607.750,-171.875,-50.781,-41.992,1.000,1.000
1626202962163514.000,62.500,-30.273,-21.973,1.000,1.000
1626202962167420.250,95.703,-29.785,-25.391,1.000,1.000
1626202962171326.500,-119.141,-42.969,-39.062,1.000,1.000
1626202962175232.750,-191.406,-39.551,-38.574,1.000,1.000
1626202962179139.000,17.090,-34.668,-23.926,1.000,1.000
1626202962183045.250,137.695,-50.293,-15.625,1.000,1.000
1626202962186951.500,-31.250,-57.129,-28.320,1.000,1.000
1626202962190857.750,-169.922,-33.691,-20.020,1.000,1.000
1626202962194764.000,-192.871,-56.152,-42.480,-245.605,1.000
1626202962198670.250,-11.719,-32.715,-9.766,20.508,1.000
1626202962202576.500,138.672,-0.488,-8.301,202.148,1.000
1626202962206482.750,-11.719,-21.484,-15.625,-28.320,1.000
1626202962210389.000,-177.246,-27.344,-20.020,-235.840,1.000
1626202962214295.250,-58.594,1.953,-28.320,-52.734,1.000
1626202962218201.500,108.887,-0.488,-33.203,181.152,1.000
1626202962222107.750,17.578,-27.832,-38.086,35.156,1.000
1626202962226014.000,-178.711,-38.574,-39.551,-237.793,1.000
1626202962229920.250,-133.301,-51.270,-31.738,-154.297,1.000
1626202962233826.500,82.520,-50.293,-27.344,132.812,1.000
1626202962237732.750,83.984,-24.414,-40.039,108.398,1.000
1626202962241639.000,-131.836,-13.184,-44.434,1.000,1.000
1626202962245545.250,-180.664,-13.672,-29.297,1.000,1.000
1626202962249451.500,34.180,-5.859,-17.578,1.000,1.000
1626202962253357.750,126.953,-19.531,-20.508,1.000,1.000
1626202962257264.000,-66.406,-46.387,-30.762,1.000,1.000
1626202962261170.250,-192.871,-44.434,-38.574,1.000,1.000
1626202962265076.500,-20.508,-30.762,-34.668,1.000,1.000
1626202962268982.750,159.180,-18.555,-17.090,1.000,1.000
1626202962272889.000,28.809,-36.621,-22.461,1.000,1.000
1626202962276795.250,-166.992,-45.410,-43.457,1.000,1.000
1626202962280701.500,-69.824,-28.809,-29.297,1.000,1.000
1626202962284607.750,118.164,-28.320,-3.418,1.000,1.000
1626202962288514.000,52.246,-20.508,-11.719,1.000,1.000
1626202962292420.250,-155.762,-28.809,-33.203,1.000,1.000
1626202962296326.500,-139.160,-47.363,-41.504,1.000,1.000
1626202962300232.750,67.871,-29.297,-55.664,1.000,1.000
1626202962304139.000,79.102,-21.973,-57.617,1.000,1.000
1626202962308045.250,-121.582,-26.367,-38.086,1.000,1.000
1626202962311951.500,-175.781,-31.738,-27.344,1.000,1.000
1626202962315857.750,34.668,-44.922,-12.695,1.000,1.000
1626202962319764.000,143.066,-36.133,-21.484,1.000,1.000
1626202962323670.250,-60.547,-34.668,-49.316,1.000,1.000
1626202962327576.500,-202.637,-26.855,-44.922,1.000,1.000
1626202962331482.750,-35.645,-6.836,-26.367,1.000,1.000
1626202962335389.000,-251.953,-20.996,-20.996,-320.312,1.000
1626202962339295.250,-223.145,0.000,-20.996,-245.117,1.000
1626202962343201.500,-41.016,0.977,-23.926,19.531,1.000
1626202962347107.750,-66.895,-9.766,-32.715,-30.273,1.000
1626202962351014.000,-286.621,-11.230,-40.527,-332.031,1.000
1626202962354920.250,-337.402,-11.230,-42.480,-376.953,1.000
1626202962358826.500,-111.816,-2.930,-24.902,-78.613,1.000
1626202962362732.750,-21.484,-3.906,-12.695,21.973,1.000
1626202962366639.000,-236.328,-29.297,-42.480,-276.855,1.000
1626202962370545.250,-359.863,-37.598,-57.129,-425.781,1.000
1626202962374451.500,-182.617,-29.785,-33.203,-167.969,1.000
1626202962378357.750,-28.809,-25.879,-3.906,31.250,1.000
1626202962382264.000,-165.527,-15.137,-14.648,-167.969,1.000
1626202962386170.250,-351.074,-8.789,-54.199,-406.250,1.000
1626202962390076.500,-240.234,-1.465,-37.598,-235.352,1.000
1626202962393982.750,-45.410,-11.230,-18.066,26.855,1.000
1626202962397889.000,-98.145,-8.789,-29.785,-81.543,1.000
1626202962401795.250,-285.156,-2.930,-29.297,-347.168,1.000
1626202962405701.500,-270.508,-25.391,-33.691,-302.734,1.000
1626202962409607.750,-37.109,-20.020,-18.555,9.277,1.000
1626202962413514.000,-14.160,-45.898,-23.926,17.578,1.000
1626202962417420.250,-211.914,-76.172,-46.387,-276.367,1.000
1626202962421326.500,-248.047,-29.785,-48.828,-308.105,1.000
1626202962425232.750,-35.645,16.113,-37.598,-2.930,1.000
1626202962429139.000,77.148,28.809,-26.855,1.000,1.000
1626202962433045.250,-76.660,28.320,-23.438,1.000,1.000
1626202962436951.500,-207.031,-3.906,-20.508,1.000,1.000
1626202962440857.750,-75.195,-31.250,-28.809,1.000,1.000
1626202962444764.000,104.980,-28.809,-38.574,1.000,1.000
1626202962448670.250,-2.930,-37.598,-43.945,1.000,1.000
1626202962452576.500,-205.078,-64.453,-51.270,1.000,1.000
1626202962456482.750,-94.238,-67.383,-28.809,1.000,1.000
1626202962460389.000,133.301,-38.574,-17.578,1.000,1.000
1626202962464295.250,78.125,-34.180,-37.109,1.000,1.000
1626202962468201.500,-134.277,-37.109,-57.129,1.000,1.000
1626202962472107.750,-124.512,-27.832,-67.871,1.000,1.000
1626202962476014.000,-144.043,-66.895,-38.574,-65.430,1.000
1626202962479920.250,-15.137,-51.270,-47.852,216.797,1.000
1626202962483826.500,155.762,-40.039,-32.715,149.902,1.000
1626202962487732.750,52.734,-46.875,-24.414,-153.809,1.000
1626202962491639.000,-129.883,-52.734,-26.367,-147.949,1.000
1626202962495545.250,-63.965,-41.504,-26.855,157.715,1.000
1626202962499451.500,145.508,-30.273,-20.996,206.055,1.000
1626202962503357.750,131.348,-27.344,-13.184,-67.383,1.000
1626202962507264.000,-75.195,-40.527,-23.438,-184.570,1.000
1626202962511170.250,-85.938,-20.996,-21.973,79.102,1.000
1626202962515076.500,94.727,-25.879,-22.461,265.625,1.000
1626202962518982.750,152.832,-57.617,-26.855,38.086,1.000
1626202962522889.000,-20.020,-47.852,-29.297,-39.062,1.000
1626202962526795.250,-144.043,-40.039,-52.246,-183.594,1.000
1626202962530701.500,24.414,-38.086,-55.176,72.266,1.000
1626202962534607.750,197.266,-29.297,-29.785,283.691,1.000
1626202962538514.000,41.504,-27.344,-40.039,52.246,1.000
1626202962542420.250,-181.641,-34.668,-67.871,-220.703,1.000
1626202962546326.500,-61.035,-28.809,-50.781,-57.617,1.000
1626202962550232.750,146.484,-29.297,-26.367,206.055,1.000
1626202962554139.000,56.152,-48.828,-22.461,82.031,1.000
1626202962558045.250,-139.160,-46.875,-21.484,-190.918,1.000
1626202962561951.500,-96.191,-29.785,-7.324,-108.887,1.000
1626202962565857.750,130.371,-31.738,-6.348,196.289,1.000
1626202962569764.000,144.043,-49.316,-20.508,1.000,1.000
1626202962573670.250,-71.289,-50.293,-24.902,1.000,1.000
1626202962577576.500,-120.117,-48.828,-20.020,1.000,1.000
1626202962581482.750,93.262,-52.246,-17.578,1.000,1.000
1626202962585389.000,140.625,-39.551,-31.738,1.000,1.000
1626202962589295.250,-68.848,-16.602,-45.410,1.000,1.000
1626202962593201.500,-193.359,-19.043,-52.246,1.000,1.000
1626202962597107.750,-37.598,-33.203,-43.457,1.000,1.000
1626202962601014.000,138.184,-44.434,-36.133,1.000,1.000
1626202962604920.250,17.578,-42.969,-26.855,1.000,1.000
1626202962608826.500,-183.594,-46.875,-15.137,1.000,1.000
1626202962612732.750,-87.402,-58.594,-7.812,1.000,1.000
1626202962616639.000,137.207,-34.180,-1.465,214.355,1.000
1626202962620545.250,90.820,-25.879,-18.555,118.652,1.000
1626202962624451.500,-122.070,-32.227,-20.508,-175.293,1.000
1626202962628357.750,-95.703,-20.508,-15.137,-139.160,1.000
1626202962632264.000,106.445,-8.301,-11.719,159.668,1.000
1626202962636170.250,111.816,-10.742,-9.766,176.270,1.000
1626202962640076.500,-109.863,-33.691,-35.645,-139.160,1.000
1626202962643982.750,-183.594,-33.203,-44.922,-222.656,1.000
1626202962647889.000,39.062,-29.297,-40.527,57.617,1.000
1626202962651795.250,143.555,-31.738,-38.574,195.312,1.000
1626202962655701.500,-55.176,-42.969,-38.086,-58.594,1.000
1626202962659607.750,-207.520,-63.965,-37.598,-250.488,1.000
1626202962663514.000,-192.871,-26.855,-38.574,-226.074,1.000
1626202962667420.250,13.184,-22.461,-9.766,52.734,1.000
1626202962671326.500,125.488,-40.527,-7.324,194.336,1.000
1626202962675232.750,-41.016,-42.969,-24.414,-60.059,1.000
1626202962679139.000,-208.496,-31.738,-33.691,-261.230,1.000
1626202962683045.250,-63.965,-29.297,-45.410,-59.082,1.000
1626202962686951.500,151.855,-33.691,-38.574,186.035,1.000
1626202962690857.750,57.617,-21.484,-41.504,56.641,1.000
1626202962694764.000,-152.832,0.000,-62.500,-217.773,1.000
1626202962698670.250,-136.719,-9.766,-43.945,-154.297,1.000
1626202962702576.500,59.082,-30.273,-18.066,125.488,1.000
1626202962706482.750,55.664,-35.645,-19.531,90.332,1.000
1626202962710389.000,-143.555,-25.391,-20.508,1.000,1.000
1626202962714295.250,-176.270,-29.297,-27.832,1.000,1.000
1626202962718201.500,29.785,-41.992,-35.156,1.000,1.000
1626202962722107.750,106.934,-31.738,-33.691,1.000,1.000
1626202962726014.000,-92.285,-36.621,-38.574,1.000,1.000
1626202962729920.250,-192.871,-43.457,-30.762,1.000,1.000
1626202962733826.500,-14.648,-42.480,-29.785,1.000,1.000
1626202962737732.750,161.621,-31.738,-22.949,1.000,1.000
1626202962741639.000,5.859,-14.160,-34.180,1.000,1.000
1626202962745545.250,-181.641,-5.859,-31.738,1.000,1.000
1626202962749451.500,-36.133,-20.508,-21.973,1.000,1.000
1626202962753357.750,142.090,-37.598,-29.785,1.000,1.000
1626202962757264.000,65.430,-47.363,-30.762,1.000,1.000
1626202962761170.250,-174.805,-55.176,-41.504,1.000,1.000
1626202962765076.500,-165.527,-27.832,-24.414,1.000,1.000
1626202962768982.750,66.406,-5.371,-18.066,1.000,1.000
1626202962772889.000,89.844,-0.488,-31.250,1.000,1.000
1626202962776795.250,-120.117,-26.855,-40.527,1.000,1.000
1626202962780701.500,-158.691,-47.852,-29.785,1.000,1.000
1626202962784607.750,69.824,-57.129,3.418,1.000,1.000
1626202962788514.000,134.277,-57.617,-6.348,1.000,1.000
1626202962792420.250,-71.289,-20.996,-29.297,1.000,1.000
1626202962796326.500,-196.777,-12.695,-25.391,1.000,1.000
1626202962800232.750,-39.551,-35.156,-16.113,1.000,1.000
1626202962804139.000,-152.832,-43.457,-38.574,-233.398,1.000
1626202962808045.250,-89.844,-54.199,-16.113,-122.070,1.000
1626202962811951.500,114.746,-16.113,-25.879,184.082,1.000
1626202962815857.750,101.562,-23.926,-48.340,147.461,1.000
1626202962819764.000,-125.000,-53.223,-62.500,-181.152,1.000
1626202962823670.250,-151.855,-52.734,-52.734,-206.055,1.000
1626202962827576.500,55.664,-26.367,-27.344,94.727,1.000
1626202962831482.750,137.695,3.906,0.977,177.246,1.000
1626202962835389.000,-70.801,-12.207,-4.883,-108.887,1.000
1626202962839295.250,-189.941,-37.109,-31.250,-251.953,1.000
1626202962843201.500,1.465,-26.367,-33.691,13.184,1.000
1626202962847107.750,130.371,-13.184,-32.715,201.660,1.000
1626202962851014.000,-4.883,-18.555,-21.484,1.000,1.000
1626202962854920.250,-167.480,-43.945,-6.348,1.000,1.000
1626202962858826.500,-53.223,-70.312,3.906,1.000,1.000
1626202962862732.750,137.207,-46.387,-1.953,1.000,1.000
1626202962866639.000,46.387,-20.996,-23.438,1.000,1.000
1626202962870545.250,-156.250,-36.133,-51.758,1.000,1.000
1626202962874451.500,-123.535,-57.129,-69.824,1.000,1.000
1626202962878357.750,82.520,-31.250,-34.180,1.000,1.000
1626202962882264.000,64.941,-26.367,-29.297,1.000,1.000
1626202962886170.250,-135.742,-31.738,-33.691,1.000,1.000
1626202962890076.500,-156.738,-22.949,-12.207,1.000,1.000
1626202962893982.750,28.320,-15.137,-25.879,1.000,1.000
1626202962897889.000,131.836,-18.066,-39.062,1.000,1.000
1626202962901795.250,-57.129,-41.992,-44.434,1.000,1.000
1626202962905701.500,-204.590,-45.410,-45.410,1.000,1.000
1626202962909607.750,-29.297,-33.203,-33.691,1.000,1.000
1626202962913514.000,127.441,-28.809,-26.855,1.000,1.000
1626202962917420.250,-1.465,-30.762,-29.297,1.000,1.000
1626202962921326.500,-189.941,-42.480,-41.016,1.000,1.000
1626202962925232.750,-68.848,-39.062,-20.508,1.000,1.000
1626202962929139.000,151.367,-35.645,-20.020,1.000,1.000
1626202962933045.250,48.340,-46.387,-61.035,1.000,1.000
1626202962936951.500,-170.410,-59.570,-67.871,1.000,1.000
1626202962940857.750,-132.812,-37.598,-44.434,1.000,1.000
1626202962944764.000,-70.801,-58.105,-26.855,125.000,1.000
1626202962948670.250,114.746,-49.316,-31.250,123.047,1.000
1626202962952576.500,52.246,-19.043,-41.992,-174.316,1.000
1626202962956482.750,-157.715,-16.113,-49.316,-240.234,1.000
1626202962960389.000,-153.809,-27.832,-43.457,57.617,1.000
1626202962964295.250,64.941,-22.949,-31.738,187.012,1.000
1626202962968201.500,116.211,-26.367,-37.109,-92.773,1.000
1626202962972107.750,-83.496,-31.738,-40.527,-281.738,1.000
1626202962976014.000,-183.105,-48.340,-28.809,-41.504,1.000
1626202962979920.250,17.090,-38.574,-12.207,199.219,1.000
1626202962983826.500,152.344,-24.902,-22.461,18.066,1.000
1626202962987732.750,-22.949,-49.316,-27.832,-230.957,1.000
1626202962991639.000,-194.824,-75.684,-14.160,-265.137,1.000
1626202962995545.250,-70.312,-66.895,-29.785,-66.895,1.000
1626202962999451.500,110.352,-32.715,-41.504,167.480,1.000
1626202963003357.750,14.160,-46.875,-43.457,11.230,1.000
1626202963007264.000,-175.781,-29.785,-33.691,-244.141,1.000
1626202963011170.250,-100.098,2.441,-22.949,-123.047,1.000
1626202963015076.500,95.703,-42.969,-28.809,154.297,1.000
1626202963018982.750,71.777,-62.500,-27.344,91.309,1.000
1626202963022889.000,-139.160,-39.062,-30.762,-207.031,1.000
1626202963026795.250,-158.203,-5.371,-41.504,-208.008,1.000
1626202963030701.500,62.988,-0.977,-35.156,99.121,1.000
1626202963034607.750,117.676,-24.902,-30.273,161.621,1.000
1626202963038514.000,-76.172,-33.691,-47.852,-122.559,1.000
1626202963042420.250,-174.316,-31.250,-43.945,-245.605,1.000
1626202963046326.500,19.531,-32.715,-12.695,27.344,1.000
1626202963050232.750,150.391,-37.598,-19.043,193.848,1.000
1626202963054139.000,-30.273,-27.832,-38.574,-62.500,1.000
1626202963058045.250,-192.383,-30.273,-36.621,-273.438,1.000
1626202963061951.500,-62.988,-36.621,-38.574,-79.102,1.000
1626202963065857.750,143.555,-6.836,-19.531,188.965,1.000
1626202963069764.000,57.129,0.488,-7.812,55.664,1.000
1626202963073670.250,-183.105,-20.508,-28.809,-246.582,1.000
1626202963077576.500,-133.301,-19.531,-32.715,-160.645,1.000
1626202963081482.750,97.656,-12.207,-34.668,146.484,1.000
1626202963085389.000,72.266,-32.227,-46.387,102.051,1.000
1626202963089295.250,-155.762,-58.594,-51.270,-214.844,1.000
1626202963093201.500,-177.734,-44.922,-40.039,-235.840,1.000
1626202963097107.750,51.758,-34.668,-26.367,79.102,1.000
1626202963101014.000,124.023,-28.320,-25.879,172.852,1.000
1626202963104920.250,-76.660,-11.230,-34.180,-109.375,1.000
1626202963108826.500,-208.496,-22.949,-42.969,-265.625,1.000
1626202963112732.750,-33.691,-34.180,-45.898,-13.672,1.000
1626202963116639.000,134.277,-21.973,-54.199,192.383,1.000
1626202963120545.250,14.160,-21.484,-36.621,-9.766,1.000
1626202963124451.500,-159.180,-31.250,-30.273,-242.676,1.000
1626202963128357.750,-81.055,-22.461,-44.922,-93.262,1.000
1626202963132264.000,109.863,-8.301,-20.020,167.969,1.000
1626202963136170.250,58.105,-18.555,1.465,63.965,1.000
1626202963140076.500,-152.344,-50.781,-10.254,-227.051,1.000
1626202963143982.750,-130.371,-51.270,-27.344,-174.316,1.000
1626202963147889.000,94.238,-34.180,-28.320,132.324,1.000
1626202963151795.250,123.535,-33.203,-31.738,145.508,1.000
1626202963155701.500,-71.777,-33.203,-44.922,-136.719,1.000
1626202963159607.750,-130.859,-35.645,-41.016,-192.383,1.000
1626202963163514.000,53.711,-20.508,-19.043,73.730,1.000
1626202963167420.250,143.066,-6.836,-11.719,182.129,1.000
1626202963171326.500,-40.527,-19.043,-34.668,-83.984,1.000
1626202963175232.750,-192.383,-27.832,-40.527,-262.695,1.000
1626202963179139.000,-162.598,-42.969,-31.250,-226.074,1.000
1626202963183045.250,29.785,-22.949,-25.879,52.246,1.000
1626202963186951.500,137.695,-21.484,-38.574,194.824,1.000
1626202963190857.750,-38.086,-11.230,-37.109,-53.711,1.000
1626202963194764.000,-196.289,-0.488,-24.414,-247.559,1.000
1626202963198670.250,-52.246,-10.742,-17.578,-31.250,1.000
1626202963202576.500,140.625,-27.832,-17.090,212.402,1.000
1626202963206482.750,27.344,-48.828,-21.973,36.133,1.000
1626202963210389.000,-182.129,-62.012,-30.762,-233.887,1.000
1626202963214295.250,-118.164,-41.992,-30.762,-117.188,1.000
1626202963218201.500,86.426,-18.555,-32.227,163.574,1.000
1626202963222107.750,54.199,-30.273,-39.062,93.750,1.000
1626202963226014.000,-156.738,-24.902,-44.434,1.000,1.000
1626202963229920.250,-170.410,-17.090,-36.621,1.000,1.000
1626202963233826.500,42.969,-40.527,-26.367,1.000,1.000
1626202963237732.750,121.582,-36.133,-7.324,1.000,1.000
1626202963241639.000,-72.754,-31.738,-8.789,1.000,1.000
1626202963245545.250,-193.848,-35.156,-28.809,1.000,1.000
1626202963249451.500,-10.742,-13.184,-26.855,1.000,1.000
1626202963253357.750,131.348,-2.930,-31.738,1.000,1.000
1626202963257264.000,-31.250,-11.230,-50.781,1.000,1.000
1626202963261170.250,-205.078,-26.855,-48.340,1.000,1.000
1626202963265076.500,-73.242,-37.109,-53.223,1.000,1.000
1626202963268982.750,131.348,-38.574,-51.758,1.000,1.000
1626202963272889.000,47.852,-39.551,-28.320,1.000,1.000
1626202963276795.250,-173.828,-37.598,-27.344,1.000,1.000
1626202963280701.500,-142.090,-27.832,-33.203,1.000,1.000
1626202963284607.750,76.172,-15.625,-24.902,1.000,1.000
1626202963288514.000,83.984,-6.836,-17.578,1.000,1.000
1626202963292420.250,-126.953,-17.578,-37.109,1.000,1.000
1626202963296326.500,-172.363,-29.297,-41.992,1.000,1.000
1626202963300232.750,37.598,-28.320,-27.832,1.000,1.000
1626202963304139.000,125.977,-42.969,-15.137,1.000,1.000
1626202963308045.250,-58.594,-62.012,-15.137,1.000,1.000
1626202963311951.500,-181.152,-43.945,-34.668,1.000,1.000
1626202963315857.750,-10.742,-17.578,-29.297,1.000,1.000
1626202963319764.000,-134.766,-32.715,-16.113,75.195,1.000
1626202963323670.250,70.801,-33.203,-26.367,200.684,1.000
1626202963327576.500,104.492,-43.945,-41.504,-78.613,1.000
1626202963331482.750,-111.328,-52.246,-41.016,-246.094,1.000
1626202963335389.000,-187.988,-23.438,-28.320,-12.695,1.000
1626202963339295.250,21.973,-31.250,-20.020,200.684,1.000
1626202963343201.500,123.535,-78.125,-20.508,7.812,1.000
1626202963347107.750,-46.875,-58.105,-24.902,-251.953,1.000
1626202963351014.000,-192.871,-14.160,-21.973,-105.957,1.000
1626202963354920.250,-71.289,-15.625,-32.715,177.246,1.000
1626202963358826.500,99.121,-30.273,-33.203,90.820,1.000
1626202963362732.750,20.020,-37.109,-19.531,-197.754,1.000
1626202963366639.000,-179.688,-35.156,-31.738,-237.305,1.000
1626202963370545.250,-126.465,-24.414,-49.805,-131.348,1.000
1626202963374451.500,96.191,-28.320,-36.621,157.715,1.000
1626202963378357.750,57.129,-56.641,-25.879,82.520,1.000
1626202963382264.000,-163.574,-48.828,-30.273,-214.844,1.000
1626202963386170.250,-159.180,-21.484,-25.391,-198.242,1.000
1626202963390076.500,68.848,-26.367,-20.020,104.492,1.000
1626202963393982.750,105.469,-50.781,-36.133,147.461,1.000
1626202963397889.000,-105.957,-72.266,-38.086,-148.438,1.000
1626202963401795.250,-195.312,-70.312,-23.438,-253.906,1.000
1626202963405701.500,0.000,-28.809,-11.230,31.738,1.000
1626202963409607.750,127.930,-10.742,-20.508,193.359,1.000
1626202963413514.000,-45.898,-18.555,-36.133,1.000,1.000
1626202963417420.250,-205.078,-7.812,-39.062,1.000,1.000
1626202963421326.500,-62.500,0.488,-32.715,1.000,1.000
1626202963425232.750,136.719,-1.953,-27.344,1.000,1.000
1626202963429139.000,56.152,-14.160,-25.391,1.000,1.000
1626202963433045.250,-145.020,-19.043,-25.879,1.000,1.000
1626202963436951.500,-114.258,-29.297,-34.668,1.000,1.000
1626202963440857.750,96.191,-36.621,-24.414,1.000,1.000
1626202963444764.000,95.703,-35.645,-2.441,1.000,1.000
1626202963448670.250,-152.832,-59.570,-26.367,1.000,1.000
1626202963452576.500,-205.566,-93.262,-48.828,1.000,1.000
1626202963456482.750,33.691,-79.590,-21.973,1.000,1.000
1626202963460389.000,116.211,-14.648,-19.531,1.000,1.000
1626202963464295.250,-77.148,6.836,-43.457,1.000,1.000
1626202963468201.500,-200.684,-8.301,-59.570,1.000,1.000
1626202963472107.750,-28.809,-8.301,-51.758,1.000,1.000
1626202963476014.000,122.070,-10.742,-42.969,1.000,1.000
1626202963479920.250,-26.855,-10.742,-48.340,1.000,1.000
1626202963483826.500,-194.336,-24.414,-31.738,1.000,1.000
1626202963487732.750,-95.703,-47.363,-28.320,1.000,1.000
1626202963491639.000,97.168,-40.039,-34.180,1.000,1.000
1626202963495545.250,36.621,-14.648,-24.414,1.000,1.000
1626202963499451.500,-177.734,-24.902,-30.762,1.000,1.000
1626202963503357.750,-149.414,-74.707,-45.898,1.000,1.000
1626202963507264.000,-217.773,-36.621,-34.668,-254.883,1.000
1626202963511170.250,-82.520,-17.578,-32.227,-51.758,1.000
1626202963515076.500,93.262,-8.789,-21.973,178.223,1.000
1626202963518982.750,-21.484,-22.461,-25.879,-1.465,1.000
1626202963522889.000,-215.820,-27.832,-30.762,-261.230,1.000
1626202963526795.250,-139.160,-27.344,-33.691,-132.812,1.000
1626202963530701.500,71.289,-22.461,-20.996,145.020,1.000
1626202963534607.750,25.879,-18.066,-21.973,59.570,1.000
1626202963538514.000,-211.426,-22.949,-32.715,-251.953,1.000
1626202963542420.250,-233.887,-19.531,-20.020,-248.535,1.000
1626202963546326.500,-7.812,0.000,-23.438,41.016,1.000
1626202963550232.750,26.367,0.000,-32.227,64.453,1.000
1626202963554139.000,-224.121,-15.137,-36.621,1.000,1.000
1626202963558045.250,-323.730,-1.953,-27.832,1.000,1.000
1626202963561951.500,-129.883,14.160,-12.207,1.000,1.000
1626202963565857.750,10.742,-6.348,-21.973,1.000,1.000
1626202963569764.000,-192.383,-23.438,-35.645,1.000,1.000
1626202963573670.250,-382.324,-31.738,-26.855,1.000,1.000
1626202963577576.500,-236.816,-38.574,-17.578,1.000,1.000
1626202963581482.750,-81.055,-34.668,-16.602,1.000,1.000
1626202963585389.000,-168.457,-47.852,-19.043,1.000,1.000
1626202963589295.250,-355.957,-35.156,-34.668,1.000,1.000
1626202963593201.500,-299.805,-14.648,-41.504,1.000,1.000
1626202963597107.750,-70.801,-18.066,-32.715,1.000,1.000
1626202963601014.000,59.570,-35.645,-12.207,-42.969,1.000
1626202963604920.250,8.789,-60.059,0.977,-317.871,1.000
1626202963608826.500,-195.801,-51.270,-20.508,-354.004,1.000
1626202963612732.750,-171.387,-25.879,-36.621,-64.453,1.000
1626202963616639.000,70.312,-21.484,-18.555,39.062,1.000
1626202963620545.250,92.285,-21.484,-25.391,-232.910,1.000
1626202963624451.500,-117.188,-25.879,-34.180,-362.305,1.000
1626202963628357.750,-165.039,-34.180,-19.043,-96.191,1.000
1626202963632264.000,55.176,-49.316,-23.926,89.844,1.000
1626202963636170.250,148.438,-62.988,-47.852,-127.441,1.000
1626202963640076.500,-9.766,-42.969,-49.316,-335.938,1.000
1626202963643982.750,-127.441,-19.531,-23.438,-134.766,1.000
1626202963647889.000,-130.371,-55.176,-23.438,-165.039,1.000
1626202963651795.250,73.242,-26.367,-18.066,117.676,1.000
1626202963655701.500,200.684,-16.113,-21.484,249.512,1.000
1626202963659607.750,11.719,-32.715,-34.668,-17.090,1.000
1626202963663514.000,-151.367,-53.711,-40.527,-211.914,1.000
1626202963667420.250,12.207,-53.223,-44.434,17.578,1.000
1626202963671326.500,183.105,-31.250,-59.570,247.070,1.000
1626202963675232.750,78.613,-27.344,-47.363,71.777,1.000
1626202963679139.000,-114.258,-45.898,-28.320,-185.059,1.000
1626202963683045.250,-55.664,-53.711,-33.203,-66.895,1.000
1626202963686951.500,150.879,-41.992,-32.227,215.332,1.000
1626202963690857.750,116.211,-46.387,-31.738,148.926,1.000
1626202963694764.000,-88.379,-69.336,-28.320,1.000,1.000
1626202963698670.250,-83.008,-76.660,-19.531,1.000,1.000
1626202963702576.500,125.000,-52.734,-11.230,1.000,1.000
1626202963706482.750,157.715,-54.688,-14.160,1.000,1.000
1626202963710389.000,-33.691,-78.613,-29.297,1.000,1.000
1626202963714295.250,-117.188,-37.109,-19.531,1.000,1.000
1626202963718201.500,54.199,-15.625,-32.227,1.000,1.000
1626202963722107.750,188.477,-29.297,-33.691,1.000,1.000
1626202963726014.000,20.020,-44.922,-24.414,1.000,1.000
1626202963729920.250,-137.695,-41.504,-21.973,1.000,1.000
1626202963733826.500,0.488,-17.578,-21.973,1.000,1.000
1626202963737732.750,169.922,-14.648,-35.645,1.000,1.000
1626202963741639.000,81.543,-38.574,-27.832,1.000,1.000
1626202963745545.250,-117.676,-67.383,-27.832,1.000,1.000
1626202963749451.500,-63.965,-41.992,-28.809,1.000,1.000
1626202963753357.750,161.621,-10.254,-7.324,1.000,1.000
1626202963757264.000,146.484,-23.438,-17.090,1.000,1.000
1626202963761170.250,-83.984,-32.715,-47.363,1.000,1.000
1626202963765076.500,-124.512,-47.363,-37.598,1.000,1.000
1626202963768982.750,89.844,-50.293,-23.926,1.000,1.000
1626202963772889.000,152.344,-33.691,-42.480,1.000,1.000
1626202963776795.250,-30.762,-31.250,-45.898,1.000,1.000
1626202963780701.500,-157.227,-31.738,-36.133,1.000,1.000
1626202963784607.750,8.301,-33.691,-16.113,1.000,1.000
1626202963788514.000,40.527,-44.922,-4.883,241.699,1.000
1626202963792420.250,121.582,-49.805,-45.410,0.488,1.000
1626202963796326.500,-76.172,-53.223,-60.059,-236.328,1.000
1626202963800232.750,-190.430,-34.668,-35.156,-43.457,1.000
1626202963804139.000,-19.531,-12.207,-27.344,228.027,1.000
1626202963808045.250,170.410,1.465,-43.945,102.539,1.000
1626202963811951.500,32.715,-40.039,-57.617,-200.684,1.000
1626202963815857.750,-179.199,-55.176,-38.574,-141.602,1.000
1626202963819764.000,-74.707,-36.133,-12.207,159.668,1.000
1626202963823670.250,113.281,-36.133,-3.418,149.902,1.000
1626202963827576.500,54.688,-15.137,-16.602,-143.555,1.000
1626202963831482.750,-168.457,-12.207,-39.062,-199.219,1.000
1626202963835389.000,-132.324,-18.555,-36.133,-158.691,1.000
1626202963839295.250,111.328,-30.762,-22.461,147.461,1.000
1626202963843201.500,133.789,-55.664,-7.812,179.688,1.000
1626202963847107.750,-69.824,-43.457,-40.527,-116.699,1.000
1626202963851014.000,-147.949,-29.297,-86.426,-199.707,1.000
1626202963854920.250,58.594,-22.949,-44.434,82.520,1.000
1626202963858826.500,168.457,-17.578,0.000,211.426,1.000
1626202963862732.750,-46.875,-22.461,-26.367,-59.082,1.000
1626202963866639.000,-201.172,-21.484,-47.852,-245.117,1.000
1626202963870545.250,-39.551,-22.461,-27.344,-21.973,1.000
1626202963874451.500,140.137,-27.344,-5.371,212.402,1.000
1626202963878357.750,27.344,-35.645,-10.742,36.133,1.000
1626202963882264.000,-150.879,-28.809,-33.203,-227.539,1.000
1626202963886170.250,-67.871,-31.250,-38.086,-101.074,1.000
1626202963890076.500,140.137,-15.137,-14.648,193.848,1.000
1626202963893982.750,123.535,1.465,-27.344,133.301,1.000
1626202963897889.000,-125.000,-27.832,-46.875,-186.523,1.000
1626202963901795.250,-158.203,-39.062,-20.508,-171.387,1.000
1626202963905701.500,100.098,-26.367,-2.441,144.043,1.000
1626202963909607.750,163.086,-14.160,-14.648,188.477,1.000
1626202963913514.000,-62.988,-21.973,-34.668,-116.699,1.000
1626202963917420.250,-153.320,-28.809,-25.879,-206.055,1.000
1626202963921326.500,55.176,-22.949,0.977,80.078,1.000
1626202963925232.750,153.809,-27.832,-6.836,198.242,1.000
1626202963929139.000,-30.762,-32.227,-33.691,1.000,1.000
1626202963933045.250,-189.453,-49.805,-38.086,1.000,1.000
1626202963936951.500,-41.016,-48.828,-41.504,1.000,1.000
1626202963940857.750,151.367,-33.203,-41.016,1.000,1.000
1626202963944764.000,47.852,-27.832,-30.273,1.000,1.000
1626202963948670.250,-145.020,-16.113,-25.391,1.000,1.000
1626202963952576.500,-93.262,-16.113,-30.273,1.000,1.000
1626202963956482.750,108.887,-18.555,-30.273,1.000,1.000
1626202963960389.000,94.727,-16.602,-36.621,1.000,1.000
1626202963964295.250,-102.539,-22.949,-35.156,1.000,1.000
1626202963968201.500,-126.465,-30.762,-24.902,1.000,1.000
1626202963972107.750,55.176,-27.832,-30.273,1.000,1.000
1626202963976014.000,118.652,-23.926,-21.484,1.000,1.000
1626202963979920.250,-83.984,-43.457,-31.738,1.000,1.000
1626202963983826.500,-176.758,-33.691,-26.367,1.000,1.000
1626202963987732.750,28.320,-12.207,-6.348,1.000,1.000
1626202963991639.000,145.508,-19.531,-24.414,1.000,1.000
1626202963995545.250,-14.648,-36.133,-41.016,1.000,1.000
1626202963999451.500,-179.199,-53.711,-35.645,1.000,1.000
1626202964003357.750,-68.359,-37.109,-41.016,1.000,1.000
1626202964007264.000,111.328,-27.344,-53.223,1.000,1.000
1626202964011170.250,29.785,-35.156,-51.270,1.000,1.000
1626202964015076.500,-179.199,-51.758,-63.965,1.000,1.000
1626202964018982.750,-140.625,-40.039,-53.711,1.000,1.000
1626202964022889.000,-79.590,-29.297,-35.156,-86.914,1.000
1626202964026795.250,107.910,-26.367,-31.250,157.227,1.000
1626202964030701.500,48.828,-8.301,-23.438,48.828,1.000
1626202964034607.750,-170.898,-21.484,-46.387,-233.887,1.000
1626202964038514.000,-154.785,-45.898,-41.992,-182.617,1.000
1626202964042420.250,78.613,-64.941,-2.930,128.418,1.000
1626202964046326.500,104.980,-70.801,-2.441,138.184,1.000
1626202964050232.750,-86.914,-13.672,-17.090,-144.531,1.000
1626202964054139.000,-154.785,17.578,-28.320,-214.844,1.000
1626202964058045.250,37.109,17.090,-22.949,64.453,1.000
1626202964061951.500,132.812,-14.160,-33.203,183.105,1.000
1626202964065857.750,-54.688,-41.992,-62.988,-90.820,1.000
1626202964069764.000,-181.641,-34.668,-52.734,1.000,1.000
1626202964073670.250,-33.203,-27.832,-31.738,1.000,1.000
1626202964077576.500,125.000,-34.668,-26.855,1.000,1.000
1626202964081482.750,-2.441,-52.734,-42.480,1.000,1.000
1626202964085389.000,-194.336,-50.293,-51.758,1.000,1.000
1626202964089295.250,-89.844,-18.066,-22.949,1.000,1.000
1626202964093201.500,114.746,-26.367,-14.648,1.000,1.000
1626202964097107.750,62.988,-51.270,-33.203,1.000,1.000
1626202964101014.000,-145.996,-44.922,-44.922,1.000,1.000
1626202964104920.250,-139.648,-29.297,-35.645,1.000,1.000
1626202964108826.500,89.355,-2.930,-18.555,1.000,1.000
1626202964112732.750,118.652,-7.812,-32.227,1.000,1.000
1626202964116639.000,-94.727,-17.090,-43.945,1.000,1.000
1626202964120545.250,-180.664,-25.879,-54.199,1.000,1.000
1626202964124451.500,4.395,-58.105,-53.223,1.000,1.000
1626202964128357.750,128.418,-62.012,-37.598,1.000,1.000
1626202964132264.000,-37.109,-41.992,-35.645,1.000,1.000
1626202964136170.250,-207.520,-24.902,-31.250,1.000,1.000
1626202964140076.500,-63.477,-9.277,-29.785,1.000,1.000
1626202964143982.750,134.277,-10.254,-33.691,1.000,1.000
1626202964147889.000,35.156,-22.949,-36.621,1.000,1.000
1626202964151795.250,-178.711,-25.391,-41.992,1.000,1.000
1626202964155701.500,-118.652,-25.391,-37.109,1.000,1.000
1626202964159607.750,97.168,-29.297,-23.438,1.000,1.000
1626202964163514.000,-186.523,-57.129,-32.715,-247.070,1.000
1626202964167420.250,6.348,-61.523,-21.484,32.227,1.000
1626202964171326.500,125.488,-10.742,-3.906,171.875,1.000
1626202964175232.750,-44.922,-14.160,-7.324,-79.590,1.000
1626202964179139.000,-209.473,-41.504,-29.297,-268.066,1.000
1626202964183045.250,-59.570,-32.227,-34.180,-36.621,1.000
1626202964186951.500,122.070,-25.391,-23.438,187.012,1.000
1626202964190857.750,12.207,-28.809,-10.254,5.859,1.000
1626202964194764.000,-166.504,-28.809,-11.230,-232.910,1.000
1626202964198670.250,-66.895,-55.176,-8.301,-80.078,1.000
1626202964202576.500,122.070,-59.570,-20.020,181.152,1.000
1626202964206482.750,62.500,-26.367,-29.785,85.938,1.000
1626202964210389.000,-139.648,-18.555,-27.832,1.000,1.000
1626202964214295.250,-160.156,-31.250,-42.480,1.000,1.000
1626202964218201.500,41.992,-24.902,-36.621,1.000,1.000
1626202964222107.750,90.332,-32.227,-21.973,1.000,1.000
1626202964226014.000,-105.469,-50.293,-20.020,1.000,1.000
1626202964229920.250,-168.457,-36.621,-17.090,1.000,1.000
1626202964233826.500,14.160,-31.250,-17.578,1.000,1.000
1626202964237732.750,124.512,-35.156,-20.996,1.000,1.000
1626202964241639.000,-45.898,-48.828,-57.129,1.000,1.000
1626202964245545.250,-214.844,-48.828,-68.359,1.000,1.000
1626202964249451.500,-62.500,-24.902,-25.391,1.000,1.000
1626202964253357.750,126.465,-28.320,-5.859,1.000,1.000
1626202964257264.000,27.344,-29.785,-10.254,1.000,1.000
1626202964261170.250,-179.688,-49.805,-24.902,1.000,1.000
1626202964265076.500,-108.887,-54.199,-24.902,1.000,1.000
1626202964268982.750,117.676,-33.691,-13.672,1.000,1.000
1626202964272889.000,72.266,-47.363,-34.668,1.000,1.000
1626202964276795.250,-161.621,-42.480,-59.570,1.000,1.000
1626202964280701.500,-171.387,-16.602,-53.711,1.000,1.000
1626202964284607.750,56.641,8.301,-37.598,1.000,1.000
1626202964288514.000,99.609,-1.953,-41.016,1.000,1.000
1626202964292420.250,-111.816,-54.199,-55.664,1.000,1.000
1626202964296326.500,-189.453,-68.359,-44.434,1.000,1.000
1626202964300232.750,10.742,-41.504,-27.344,1.000,1.000
1626202964304139.000,-125.488,-40.039,-19.043,75.684,1.000
1626202964308045.250,87.891,-30.273,-23.438,165.039,1.000
1626202964311951.500,77.637,-29.297,-45.410,-113.770,1.000
1626202964315857.750,-126.465,-43.945,-52.246,-236.328,1.000
1626202964319764.000,-181.152,-48.828,-43.945,13.184,1.000
1626202964323670.250,22.949,-28.809,-28.809,193.848,1.000
1626202964327576.500,113.281,-22.949,-28.320,-10.254,1.000
1626202964331482.750,-73.242,-20.020,-46.875,-243.652,1.000
1626202964335389.000,-192.871,-30.273,-51.270,-85.938,1.000
1626202964339295.250,-27.832,-25.391,-25.391,175.293,1.000
1626202964343201.500,149.414,3.418,1.953,49.316,1.000
1626202964347107.750,20.020,-10.742,-13.672,-229.492,1.000
1626202964351014.000,-202.637,-43.945,-51.758,-252.930,1.000
1626202964354920.250,-121.582,-42.480,-58.594,-118.164,1.000
1626202964358826.500,92.773,-28.809,-34.668,172.363,1.000
1626202964362732.750,56.152,-33.203,-22.949,86.426,1.000
1626202964366639.000,-151.855,-58.105,-38.086,-215.820,1.000
1626202964370545.250,-145.996,-61.035,-43.945,-173.828,1.000
1626202964374451.500,73.242,-47.363,-26.855,134.277,1.000
1626202964378357.750,114.258,-32.227,-34.180,159.180,1.000
1626202964382264.000,-91.309,-8.301,-42.480,-139.160,1.000
1626202964386170.250,-166.992,8.789,-20.996,-224.121,1.000
1626202964390076.500,20.996,2.441,-12.207,52.734,1.000
1626202964393982.750,127.930,-25.879,-8.789,187.988,1.000
1626202964397889.000,-61.035,-41.504,-34.668,1.000,1.000
1626202964401795.250,-233.398,-53.711,-71.777,1.000,1.000
1626202964405701.500,-82.031,-53.711,-53.223,1.000,1.000
1626202964409607.750,118.164,-37.598,-16.602,1.000,1.000
1626202964413514.000,24.414,-51.758,-14.648,1.000,1.000
1626202964417420.250,-178.223,-45.410,-48.828,1.000,1.000
1626202964421326.500,-94.727,-16.113,-36.133,1.000,1.000
1626202964425232.750,120.605,-2.441,-5.371,1.000,1.000
1626202964429139.000,67.383,-12.695,-22.949,1.000,1.000
1626202964433045.250,-153.320,-26.855,-31.250,1.000,1.000
1626202964436951.500,-145.020,-21.973,-21.973,1.000,1.000
1626202964440857.750,93.262,-21.484,-14.160,1.000,1.000
1626202964444764.000,145.020,-21.484,-15.137,1.000,1.000
1626202964448670.250,-90.332,-48.340,-38.086,1.000,1.000
1626202964452576.500,-193.848,-48.340,-41.016,1.000,1.000
1626202964456482.750,5.859,-7.324,-26.855,1.000,1.000
1626202964460389.000,131.348,-4.883,-17.578,1.000,1.000
1626202964464295.250,-32.227,-10.254,-29.785,1.000,1.000
1626202964468201.500,-200.195,-25.879,-57.129,1.000,1.000
1626202964472107.750,-60.059,-34.180,-43.945,1.000,1.000
1626202964476014.000,127.441,-23.438,-20.996,1.000,1.000
1626202964479920.250,17.090,-28.809,-31.738,1.000,1.000
1626202964483826.500,-180.664,-29.785,-23.926,1.000,1.000
1626202964487732.750,-112.793,-28.320,-6.836,1.000,1.000
1626202964491639.000,-161.621,-7.324,-13.184,-165.527,1.000
1626202964495545.250,18.066,3.418,-0.977,85.938,1.000
1626202964499451.500,-65.918,8.301,-14.648,-45.410,1.000
1626202964503357.750,-315.430,-16.602,-36.621,-364.746,1.000
1626202964507264.000,-306.641,-30.273,-38.086,-321.777,1.000
1626202964511170.250,-73.730,-14.648,-21.973,-12.207,1.000
1626202964515076.500,-51.758,-22.949,-23.926,-25.391,1.000
1626202964518982.750,-284.180,-28.320,-21.973,-329.590,1.000
1626202964522889.000,-368.652,-12.695,-16.602,-375.488,1.000
1626202964526795.250,-145.996,-8.301,-9.766,-85.449,1.000
1626202964530701.500,-45.898,-17.578,-1.465,17.578,1.000
1626202964534607.750,-244.629,-34.668,-21.973,-253.906,1.000
1626202964538514.000,-381.836,-35.645,-28.809,1.000,1.000
1626202964542420.250,-209.473,-21.484,-11.230,1.000,1.000
1626202964546326.500,-35.156,-16.113,-9.766,1.000,1.000
1626202964550232.750,-138.184,-25.879,-23.926,1.000,1.000
1626202964554139.000,-323.242,-31.250,-11.230,1.000,1.000
1626202964558045.250,-228.027,-5.371,9.766,1.000,1.000
1626202964561951.500,-8.301,-1.465,-12.207,1.000,1.000
1626202964565857.750,-65.918,-21.484,-26.367,1.000,1.000
1626202964569764.000,-285.156,-43.945,-38.574,1.000,1.000
1626202964573670.250,-264.160,-34.668,-26.855,1.000,1.000
1626202964577576.500,5.859,-18.066,3.418,1.000,1.000
1626202964581482.750,6.348,-47.363,-12.695,1.000,1.000
1626202964585389.000,-224.609,-65.430,-25.879,1.000,1.000
1626202964589295.250,-267.090,-50.781,-34.180,1.000,1.000
1626202964593201.500,-48.340,-21.484,-19.043,1.000,1.000
1626202964597107.750,79.102,-18.555,-7.812,1.000,1.000
1626202964601014.000,-106.445,-37.109,-28.809,1.000,1.000
1626202964604920.250,-230.957,-30.762,-26.855,1.000,1.000
1626202964608826.500,-64.941,-35.156,-25.879,1.000,1.000
1626202964612732.750,104.004,-41.504,-26.855,1.000,1.000
1626202964616639.000,13.672,-28.809,-22.949,1.000,1.000
1626202964620545.250,-187.988,-29.785,-29.785,1.000,1.000
1626202964624451.500,-125.977,-36.621,-24.414,1.000,1.000
1626202964628357.750,92.285,-28.809,-19.531,1.000,1.000
1626202964632264.000,157.227,-14.160,-30.273,106.445,1.000
1626202964636170.250,42.969,-37.109,-41.992,-186.523,1.000
1626202964640076.500,-148.926,-35.645,-39.062,-164.062,1.000
1626202964643982.750,-61.523,-20.996,-41.992,134.766,1.000
1626202964647889.000,171.387,-16.602,-41.992,182.617,1.000
1626202964651795.250,176.758,-20.020,-42.480,-95.215,1.000
1626202964655701.500,-60.547,-45.410,-45.898,-198.730,1.000
1626202964659607.750,-116.211,-62.012,-41.504,67.871,1.000
1626202964663514.000,103.027,-47.363,-36.133,216.309,1.000
1626202964667420.250,156.250,-44.922,-31.738,-7.812,1.000
1626202964671326.500,-40.039,-47.363,-36.621,-200.684,1.000
1626202964675232.750,-145.020,-61.035,-32.227,-7.324,1.000
1626202964679139.000,-111.816,-60.547,-23.926,-155.762,1.000
1626202964683045.250,110.840,-24.414,-31.250,144.531,1.000
1626202964686951.500,208.984,-11.230,-5.859,256.836,1.000
1626202964690857.750,-10.742,-31.738,2.930,-31.250,1.000
1626202964694764.000,-160.645,-33.691,-8.789,-197.266,1.000
1626202964698670.250,11.719,-32.715,-21.484,41.992,1.000
1626202964702576.500,176.270,-28.320,-26.367,250.488,1.000
1626202964706482.750,52.734,-28.809,-33.203,66.406,1.000
1626202964710389.000,-110.352,-44.434,-36.621,-174.316,1.000
1626202964714295.250,-4.883,-38.086,-32.715,-15.625,1.000
1626202964718201.500,175.781,-34.668,-26.855,264.160,1.000
1626202964722107.750,116.699,-28.809,-22.461,162.598,1.000
1626202964726014.000,-85.938,-22.461,-19.531,1.000,1.000
1626202964729920.250,-87.891,-32.715,-22.949,1.000,1.000
1626202964733826.500,120.117,-30.273,-20.996,1.000,1.000
1626202964737732.750,139.648,-34.668,-24.414,1.000,1.000
1626202964741639.000,-62.988,-40.039,-40.527,1.000,1.000
1626202964745545.250,-116.699,-36.621,-54.199,1.000,1.000
1626202964749451.500,64.941,-45.898,-39.551,1.000,1.000
1626202964753357.750,175.293,-38.574,-24.414,1.000,1.000
1626202964757264.000,-15.625,-42.480,-47.852,1.000,1.000
1626202964761170.250,-171.387,-43.457,-47.852,1.000,1.000
1626202964765076.500,1.953,-47.363,-21.484,1.000,1.000
1626202964768982.750,170.898,-40.039,-17.090,1.000,1.000
1626202964772889.000,52.734,-16.602,-26.855,1.000,1.000
1626202964776795.250,-152.832,-21.484,-32.715,1.000,1.000
1626202964780701.500,-73.242,-12.207,-15.137,1.000,1.000
1626202964784607.750,143.555,-8.789,-13.184,1.000,1.000
1626202964788514.000,76.172,-22.949,-38.086,1.000,1.000
1626202964792420.250,-155.762,-28.320,-55.176,1.000,1.000
1626202964796326.500,-128.906,-48.340,-47.852,1.000,1.000
1626202964800232.750,102.051,-44.922,-14.648,1.000,1.000
1626202964804139.000,128.906,-18.066,-22.461,1.000,1.000
1626202964808045.250,-72.754,-25.391,-35.645,1.000,1.000
1626202964811951.500,-181.641,-31.250,-33.203,1.000,1.000
1626202964815857.750,10.742,-25.391,-36.133,1.000,1.000
1626202964819764.000,76.172,-2.441,-24.902,222.656,1.000
1626202964823670.250,131.836,22.949,-26.367,-17.578,1.000
1626202964827576.500,-79.590,-0.488,-35.645,-235.840,1.000
1626202964831482.750,-181.152,-14.160,-22.949,-33.691,1.000
1626202964835389.000,6.348,-24.414,-2.930,221.680,1.000
1626202964839295.250,145.020,-22.461,-30.762,46.875,1.000
1626202964843201.500,5.371,-12.695,-60.059,-246.582,1.000
1626202964847107.750,-158.691,-22.461,-38.086,-130.859,1.000
1626202964851014.000,-53.223,-29.297,-31.738,167.480,1.000
1626202964854920.250,143.555,-26.855,-29.785,138.184,1.000
1626202964858826.500,69.824,-64.453,-41.504,-160.645,1.000
1626202964862732.750,-154.297,-71.289,-53.223,-193.359,1.000
1626202964866639.000,-113.281,-26.367,-25.391,-124.023,1.000
1626202964870545.250,116.699,-3.906,-15.625,173.828,1.000
1626202964874451.500,118.652,10.742,-23.926,150.391,1.000
1626202964878357.750,-107.910,-4.395,-44.922,-157.227,1.000
1626202964882264.000,-166.016,-28.809,-64.453,-215.820,1.000
1626202964886170.250,50.293,-16.113,-65.430,97.656,1.000
1626202964890076.500,159.668,-5.371,-57.129,218.750,1.000
1626202964893982.750,-40.039,-21.973,-43.457,-76.660,1.000
1626202964897889.000,-187.012,-46.387,-30.762,-259.766,1.000
1626202964901795.250,-6.348,-36.621,-7.324,-4.883,1.000
1626202964905701.500,179.688,-24.902,14.160,224.609,1.000
1626202964909607.750,26.367,-38.574,-21.973,16.113,1.000
1626202964913514.000,-178.223,-32.715,-42.480,-246.582,1.000
1626202964917420.250,-75.684,-27.832,-21.973,-101.074,1.000
1626202964921326.500,130.859,-5.371,-18.066,183.105,1.000
1626202964925232.750,80.566,8.301,-23.438,98.633,1.000
1626202964929139.000,-154.297,-20.020,-50.293,-216.309,1.000
1626202964933045.250,-127.930,-33.203,-54.199,-165.527,1.000
1626202964936951.500,86.914,-31.738,-38.086,145.508,1.000
1626202964940857.750,94.238,-22.949,-29.297,148.926,1.000
1626202964944764.000,-96.191,-29.297,-14.648,-143.555,1.000
1626202964948670.250,-165.527,-46.875,-9.766,-206.055,1.000
1626202964952576.500,42.480,-36.133,-14.648,87.402,1.000
1626202964956482.750,162.109,-32.715,-19.531,212.891,1.000
1626202964960389.000,-12.695,-48.828,-21.973,1.000,1.000
1626202964964295.250,-170.410,-50.781,-28.320,1.000,1.000
1626202964968201.500,-38.574,-52.246,-25.391,1.000,1.000
1626202964972107.750,132.324,-35.645,-33.691,1.000,1.000
1626202964976014.000,24.902,-7.812,-39.551,1.000,1.000
1626202964979920.250,-160.156,-14.648,-27.344,1.000,1.000
1626202964983826.500,-76.660,-19.043,-21.484,1.000,1.000
1626202964987732.750,127.930,-17.090,-18.066,1.000,1.000
1626202964991639.000,77.148,-48.828,-14.648,1.000,1.000
1626202964995545.250,-132.812,-66.406,-24.414,1.000,1.000
1626202964999451.500,-130.371,-46.875,-40.039,1.000,1.000
1626202965003357.750,75.684,-19.043,-28.320,1.000,1.000
1626202965007264.000,-98.145,-5.859,-24.414,-96.680,1.000
1626202965011170.250,96.191,-28.809,-26.367,158.203,1.000
1626202965015076.500,34.668,-52.734,-17.090,41.016,1.000
1626202965018982.750,-165.527,-28.320,-22.949,-230.469,1.000
1626202965022889.000,-146.484,-29.297,-35.645,-173.340,1.000
1626202965026795.250,82.031,-51.758,-22.461,135.254,1.000
1626202965030701.500,99.121,-57.617,-35.645,119.629,1.000
1626202965034607.750,-125.488,-41.504,-61.035,-182.129,1.000
1626202965038514.000,-177.246,-20.996,-44.922,-214.844,1.000
1626202965042420.250,33.691,-19.043,-11.230,73.730,1.000
1626202965046326.500,126.465,-20.996,0.000,181.152,1.000
1626202965050232.750,-71.289,-35.645,-27.344,-107.422,1.000
1626202965054139.000,-192.871,-23.438,-37.598,1.000,1.000
1626202965058045.250,-18.555,-16.602,-36.621,1.000,1.000
1626202965061951.500,128.906,-37.598,-34.668,1.000,1.000
1626202965065857.750,-5.859,-36.621,-23.926,1.000,1.000
1626202965069764.000,-187.012,-44.922,-26.855,1.000,1.000
1626202965073670.250,-82.031,-52.734,-33.203,1.000,1.000
1626202965077576.500,108.887,-53.711,-44.922,1.000,1.000
1626202965081482.750,45.410,-45.410,-43.945,1.000,1.000
1626202965085389.000,-162.109,-33.691,-29.785,1.000,1.000
1626202965089295.250,-130.859,-9.766,-27.344,1.000,1.000
1626202965093201.500,101.562,8.789,-20.996,1.000,1.000
1626202965097107.750,125.000,-18.066,-19.531,1.000,1.000
1626202965101014.000,-111.816,-55.664,-38.574,1.000,1.000
1626202965104920.250,-183.105,-59.570,-39.062,1.000,1.000
1626202965108826.500,36.621,-20.020,-18.555,1.000,1.000
1626202965112732.750,132.812,-8.301,-13.672,1.000,1.000
1626202965116639.000,-50.293,-26.367,-18.066,1.000,1.000
1626202965120545.250,-182.129,-20.020,-13.184,1.000,1.000
1626202965124451.500,-32.227,-24.902,-22.949,1.000,1.000
1626202965128357.750,94.727,-49.316,-55.664,1.000,1.000
1626202965132264.000,-41.504,-47.852,-71.289,1.000,1.000
1626202965136170.250,-210.449,-37.598,-53.711,1.000,1.000
1626202965140076.500,-103.027,-32.227,-33.203,1.000,1.000
1626202965143982.750,127.930,-6.836,-21.484,1.000,1.000
1626202965147889.000,130.859,-4.883,-26.367,93.750,1.000
1626202965151795.250,32.715,-31.738,-67.871,-214.844,1.000
1626202965155701.500,-179.688,-42.969,-69.336,-208.984,1.000
1626202965159607.750,-121.582,-27.832,-28.320,102.539,1.000
1626202965163514.000,107.422,-24.902,-13.672,147.949,1.000
1626202965167420.250,80.566,-56.152,-9.766,-148.438,1.000
1626202965171326.500,-149.902,-63.477,-7.324,-243.652,1.000
1626202965175232.750,-164.062,-15.625,-13.184,30.762,1.000
1626202965179139.000,47.852,-1.953,-28.320,180.176,1.000
1626202965183045.250,92.773,-25.391,-37.109,-57.617,1.000
1626202965186951.500,-98.633,-23.926,-42.969,-267.578,1.000
1626202965190857.750,-198.730,-30.762,-43.945,-58.594,1.000
1626202965194764.000,-4.395,-27.344,-25.879,15.137,1.000
1626202965198670.250,145.508,-14.648,-23.438,195.312,1.000
1626202965202576.500,-23.926,-27.832,-45.898,-43.457,1.000
1626202965206482.750,-189.453,-17.090,-37.598,-255.859,1.000
1626202965210389.000,-48.828,-34.180,-18.555,-57.617,1.000
1626202965214295.250,130.859,-64.941,-26.855,190.430,1.000
1626202965218201.500,29.297,-43.945,-39.062,38.086,1.000
1626202965222107.750,-170.898,-17.090,-28.809,-237.793,1.000
1626202965226014.000,-126.953,-14.648,-23.926,-145.020,1.000
1626202965229920.250,79.590,-18.066,-28.809,141.602,1.000
1626202965233826.500,69.824,-20.020,-38.086,107.422,1.000
1626202965237732.750,-141.113,-35.645,-56.152,-183.594,1.000
1626202965241639.000,-167.480,-36.621,-44.434,-197.754,1.000
1626202965245545.250,48.340,-28.809,-40.039,95.703,1.000
1626202965249451.500,119.141,-36.621,-42.969,172.852,1.000
1626202965253357.750,-86.426,-53.223,-34.180,-113.770,1.000
1626202965257264.000,-204.102,-54.199,-31.250,-256.348,1.000
1626202965261170.250,-23.926,-34.180,-17.090,1.953,1.000
1626202965265076.500,137.695,-12.695,-5.859,208.008,1.000
1626202965268982.750,-2.930,-26.367,-27.344,-4.883,1.000
1626202965272889.000,-195.312,-34.668,-51.758,-263.672,1.000
1626202965276795.250,-89.355,-26.855,-32.227,-95.215,1.000
1626202965280701.500,114.746,-25.879,-33.203,183.594,1.000
1626202965284607.750,53.223,-28.809,-49.805,67.383,1.000
1626202965288514.000,-153.320,-48.340,-32.227,-213.379,1.000
1626202965292420.250,-126.465,-68.359,-40.039,-144.531,1.000
1626202965296326.500,90.332,-53.223,-47.363,150.879,1.000
1626202965300232.750,88.379,-22.461,-36.133,130.859,1.000
1626202965304139.000,-145.020,-26.855,-33.691,-181.641,1.000
1626202965308045.250,-192.871,-31.738,-26.367,-233.398,1.000
1626202965311951.500,20.996,-25.879,-19.043,57.617,1.000
1626202965315857.750,124.512,-25.391,-22.461,180.664,1.000
1626202965319764.000,-55.664,-20.508,-33.691,-80.566,1.000
1626202965323670.250,-198.730,-16.113,-38.574,-254.395,1.000
1626202965327576.500,-37.109,-28.320,-35.156,-17.090,1.000
1626202965331482.750,131.836,-38.574,-24.902,200.684,1.000
1626202965335389.000,-2.441,-38.086,-30.762,1.000,1.000
1626202965339295.250,-183.105,-27.832,-39.551,1.000,1.000
1626202965343201.500,-76.660,-25.391,-39.551,1.000,1.000
1626202965347107.750,125.488,-29.297,-30.762,1.000,1.000
1626202965351014.000,66.895,-26.855,-33.691,1.000,1.000
1626202965354920.250,-145.020,-23.926,-49.805,1.000,1.000
1626202965358826.500,-143.066,-19.043,-47.852,1.000,1.000
1626202965362732.750,64.941,-25.879,-35.156,1.000,1.000
1626202965366639.000,113.281,-11.719,-15.137,1.000,1.000
1626202965370545.250,-81.543,-7.812,-8.789,1.000,1.000
1626202965374451.500,-165.039,-18.555,-17.578,1.000,1.000
1626202965378357.750,9.766,-15.625,-31.250,1.000,1.000
1626202965382264.000,-128.906,-38.086,-9.277,118.164,1.000
1626202965386170.250,89.355,-42.480,-26.367,178.711,1.000
1626202965390076.500,75.684,-33.691,-51.270,-128.418,1.000
1626202965393982.750,-147.461,-23.926,-46.387,-252.441,1.000
1626202965397889.000,-170.410,-31.250,-28.320,31.250,1.000
1626202965401795.250,66.895,-22.949,-20.508,199.219,1.000
1626202965405701.500,127.441,-31.250,-30.273,-43.945,1.000
1626202965409607.750,-88.379,-29.297,-46.875,-262.207,1.000
1626202965413514.000,-211.914,-14.648,-41.992,-67.383,1.000
1626202965417420.250,-23.926,-23.438,-18.066,188.965,1.000
1626202965421326.500,149.902,-30.273,-9.277,54.688,1.000
1626202965425232.750,-2.930,-19.531,-30.762,-232.910,1.000
1626202965429139.000,-194.336,-10.254,-53.223,1.000,1.000
1626202965433045.250,-86.426,-36.133,-46.875,1.000,1.000
1626202965436951.500,102.051,-49.316,-35.156,1.000,1.000
1626202965440857.750,33.203,-39.062,-32.715,1.000,1.000
1626202965444764.000,-174.316,-47.363,-41.016,1.000,1.000
1626202965448670.250,-147.949,-35.645,-53.223,1.000,1.000
1626202965452576.500,91.309,-9.766,-31.250,1.000,1.000
1626202965456482.750,120.605,-8.789,-7.324,1.000,1.000
1626202965460389.000,-118.164,-38.574,-12.207,1.000,1.000
1626202965464295.250,-176.758,-50.293,-29.297,1.000,1.000
1626202965468201.500,51.758,-24.414,-34.668,1.000,1.000
1626202965472107.750,142.578,-11.230,-15.625,1.000,1.000
1626202965476014.000,96.191,-8.789,-30.273,-83.984,1.000
1626202965479920.250,-106.934,-8.301,-41.504,-263.184,1.000
1626202965483826.500,-165.527,7.812,-20.508,-23.438,1.000
1626202965487732.750,31.250,-5.859,-22.949,194.824,1.000
1626202965491639.000,126.953,-24.902,-34.180,-0.977,1.000
1626202965495545.250,-49.316,-33.691,-30.762,-254.883,1.000
1626202965499451.500,-201.172,-45.410,-31.738,-88.867,1.000
1626202965503357.750,-38.086,-23.926,-40.039,186.523,1.000
1626202965507264.000,149.414,-14.648,-26.367,83.008,1.000
1626202965511170.250,16.602,-39.062,-23.438,-207.520,1.000
1626202965515076.500,-193.848,-40.527,-41.992,-167.480,1.000
1626202965518982.750,-118.164,-40.527,-58.105,133.301,1.000
1626202965522889.000,-74.219,-44.922,-36.621,-61.035,1.000
1626202965526795.250,128.418,-11.719,-10.742,190.918,1.000
1626202965530701.500,49.805,-18.555,-20.020,53.711,1.000
1626202965534607.750,-162.598,-33.691,-47.852,-222.168,1.000
1626202965538514.000,-109.375,-27.344,-41.504,-128.418,1.000
1626202965542420.250,98.633,-14.160,-48.340,149.902,1.000
1626202965546326.500,67.871,-34.668,-70.801,93.750,1.000
1626202965550232.750,-156.738,-50.781,-58.594,-213.379,1.000
1626202965554139.000,-193.359,-45.898,-24.414,-230.957,1.000
1626202965558045.250,35.645,-36.133,-14.160,78.613,1.000
1626202965561951.500,126.465,-28.809,-16.113,159.668,1.000
1626202965565857.750,-67.871,-41.016,-27.344,-110.840,1.000
1626202965569764.000,-185.059,-45.898,-36.133,1.000,1.000
1626202965573670.250,-9.766,-49.805,-14.160,1.000,1.000
1626202965577576.500,118.652,-64.941,-14.160,1.000,1.000
1626202965581482.750,-30.762,-39.062,-30.762,1.000,1.000
1626202965585389.000,-202.637,-11.230,-35.156,1.000,1.000
1626202965589295.250,-88.867,-22.461,-32.715,1.000,1.000
1626202965593201.500,128.418,-13.672,-18.066,1.000,1.000
1626202965597107.750,48.828,-17.090,-39.551,1.000,1.000
1626202965601014.000,-187.988,-44.434,-66.406,1.000,1.000
1626202965604920.250,-143.555,-33.691,-38.086,1.000,1.000
1626202965608826.500,84.961,-20.508,-18.555,1.000,1.000
1626202965612732.750,91.797,-26.855,-39.551,1.000,1.000
1626202965616639.000,-112.793,-25.879,-42.969,1.000,1.000
1626202965620545.250,-170.410,-33.203,-22.949,1.000,1.000
1626202965624451.500,20.020,-50.781,-32.715,1.000,1.000
1626202965628357.750,100.098,-50.781,-67.383,1.000,1.000
1626202965632264.000,-72.266,-24.902,-74.707,1.000,1.000
1626202965636170.250,-196.777,-21.484,-50.293,1.000,1.000
1626202965640076.500,-44.434,-54.199,-35.645,1.000,1.000
1626202965643982.750,118.164,-50.293,-25.391,1.000,1.000
1626202965647889.000,-2.441,-20.508,-6.836,1.000,1.000
1626202965651795.250,-182.617,-24.414,-5.859,1.000,1.000
1626202965655701.500,-81.543,-36.621,-16.602,1.000,1.000
1626202965659607.750,120.605,-34.668,-18.555,1.000,1.000
1626202965663514.000,112.793,-8.789,-13.672,99.121,1.000
1626202965667420.250,0.977,-33.203,-33.203,-207.520,1.000
1626202965671326.500,-191.895,-50.781,-49.316,-190.918,1.000
1626202965675232.750,-111.328,-38.574,-35.645,105.957,1.000
1626202965679139.000,110.352,-38.086,-33.203,125.488,1.000
1626202965683045.250,76.660,-37.109,-28.809,-159.668,1.000
1626202965686951.500,-156.250,-44.922,-21.973,-233.887,1.000
1626202965690857.750,-183.594,-47.852,-19.531,39.062,1.000
1626202965694764.000,49.805,-15.137,-23.438,185.059,1.000
1626202965698670.250,112.793,-6.348,-30.762,-45.410,1.000
1626202965702576.500,-89.844,-30.273,-32.715,-234.375,1.000
1626202965706482.750,-169.434,-41.016,-29.785,-24.902,1.000
1626202965710389.000,-0.977,-26.855,-21.484,23.438,1.000
1626202965714295.250,112.305,-19.531,-25.391,185.547,1.000
1626202965718201.500,-41.504,-31.738,-37.598,-49.805,1.000
1626202965722107.750,-201.660,-44.922,-35.156,-244.629,1.000
1626202965726014.000,-55.176,-37.598,-20.020,-33.691,1.000
1626202965729920.250,131.836,-23.926,-4.883,205.566,1.000
1626202965733826.500,21.484,-40.527,-19.531,31.738,1.000
1626202965737732.750,-193.848,-54.199,-43.457,-247.559,1.000
1626202965741639.000,-142.090,-39.551,-37.109,-149.902,1.000
1626202965745545.250,71.777,-20.508,-27.344,133.301,1.000
1626202965749451.500,64.941,-14.160,-27.832,100.586,1.000
1626202965753357.750,-137.207,-32.227,-30.762,-186.523,1.000
1626202965757264.000,-175.293,-41.016,-38.086,-207.520,1.000
1626202965761170.250,27.344,-31.250,-29.785,83.984,1.000
1626202965765076.500,112.793,-26.367,-18.066,169.434,1.000
1626202965768982.750,-78.125,-20.020,-20.996,-106.934,1.000
1626202965772889.000,-181.152,-2.441,-19.043,-232.422,1.000
1626202965776795.250,17.090,-20.508,-24.414,29.785,1.000
1626202965780701.500,159.668,-26.855,-35.645,195.801,1.000
1626202965784607.750,-26.855,-29.297,-42.480,-41.992,1.000
1626202965788514.000,-217.285,-34.180,-43.457,-267.578,1.000
1626202965792420.250,-94.727,-18.066,-35.156,-89.355,1.000
1626202965796326.500,104.980,-7.812,-27.832,165.527,1.000
1626202965800232.750,47.852,-6.348,-18.066,55.176,1.000
1626202965804139.000,-162.598,-25.879,-20.020,1.000,1.000
1626202965808045.250,-138.672,-27.832,-22.949,1.000,1.000
1626202965811951.500,86.426,-9.766,-20.020,1.000,1.000
1626202965815857.750,86.914,-19.043,-32.715,1.000,1.000
1626202965819764.000,-139.648,-37.598,-42.969,1.000,1.000
1626202965823670.250,-182.129,-33.203,-30.762,1.000,1.000
1626202965827576.500,29.297,-21.484,-22.949,1.000,1.000
1626202965831482.750,120.117,-31.250,-13.184,1.000,1.000
1626202965835389.000,-61.035,-44.434,-13.184,1.000,1.000
1626202965839295.250,-194.336,-35.156,-38.086,1.000,1.000
1626202965843201.500,-29.785,-22.949,-41.016,1.000,1.000
1626202965847107.750,126.465,-35.156,-21.484,1.000,1.000
1626202965851014.000,-20.996,-52.734,-12.695,1.000,1.000
1626202965854920.250,-207.031,-48.340,-16.113,1.000,1.000
1626202965858826.500,-94.238,-10.254,-5.371,1.000,1.000
1626202965862732.750,105.469,-6.836,-10.742,1.000,1.000
1626202965866639.000,35.156,-33.203,-31.738,1.000,1.000
1626202965870545.250,-177.246,-33.203,-37.598,1.000,1.000
1626202965874451.500,-136.719,-21.973,-16.602,1.000,1.000
1626202965878357.750,88.379,-37.598,-11.230,1.000,1.000
1626202965882264.000,106.445,-43.457,-29.297,1.000,1.000
1626202965886170.250,-108.887,-28.809,-29.785,1.000,1.000
1626202965890076.500,-173.340,-32.227,-23.438,1.000,1.000
1626202965893982.750,26.367,-33.203,-24.902,1.000,1.000
1626202965897889.000,-115.723,-29.297,-24.902,107.422,1.000
1626202965901795.250,101.074,-30.273,-23.926,147.461,1.000
1626202965905701.500,67.871,-59.082,-40.039,-147.461,1.000
1626202965909607.750,-144.043,-88.867,-43.457,-239.258,1.000
1626202965913514.000,-154.785,-72.754,-31.738,50.293,1.000
1626202965917420.250,71.289,-15.625,-9.766,219.727,1.000
1626202965921326.500,134.766,0.488,-16.113,-46.387,1.000
1626202965925232.750,-87.891,-10.254,-31.738,-272.461,1.000
1626202965929139.000,-200.195,-18.066,-32.227,-58.105,1.000
1626202965933045.250,1.465,-26.855,-37.598,196.289,1.000
1626202965936951.500,130.371,-25.391,-54.199,24.414,1.000
1626202965940857.750,-43.945,-35.156,-49.316,-260.254,1.000
1626202965944764.000,-213.379,-41.016,-39.551,1.000,1.000
1626202965948670.250,-88.379,-53.711,-39.062,1.000,1.000
1626202965952576.500,121.094,-82.031,-18.555,1.000,1.000
1626202965956482.750,51.758,-39.551,-16.602,1.000,1.000
1626202965960389.000,-141.113,11.230,-27.344,1.000,1.000
1626202965964295.250,-114.258,-13.184,-22.949,1.000,1.000
1626202965968201.500,60.059,-29.297,-30.273,1.000,1.000
1626202965972107.750,56.641,-30.762,-40.527,1.000,1.000
1626202965976014.000,-149.414,-34.668,-38.574,1.000,1.000
1626202965979920.250,-162.109,-32.715,-42.969,1.000,1.000
1626202965983826.500,83.984,-17.578,-44.922,1.000,1.000
1626202965987732.750,134.766,-34.180,-41.992,1.000,1.000
1626202965991639.000,117.676,-31.738,-40.039,-96.191,1.000
1626202965995545.250,-97.168,-34.180,-29.297,-231.934,1.000
1626202965999451.500,-172.852,-36.621,-10.742,18.066,1.000
1626202966003357.750,27.832,-41.992,-1.953,234.863,1.000
1626202966007264.000,132.324,-24.414,-22.461,36.621,1.000
1626202966011170.250,-55.176,-20.020,-47.363,-219.238,1.000
1626202966015076.500,-198.242,-30.762,-31.738,-66.895,1.000
1626202966018982.750,-16.113,-27.832,-11.230,205.078,1.000
1626202966022889.000,174.805,-22.461,-33.203,110.840,1.000
1626202966026795.250,38.086,-37.109,-48.340,-194.824,1.000
1626202966030701.500,-188.477,-33.691,-33.691,-166.504,1.000
1626202966034607.750,-109.863,-25.879,-17.090,174.316,1.000
1626202966038514.000,-54.688,-21.973,-23.926,-64.453,1.000
1626202966042420.250,132.324,-39.551,-18.066,193.359,1.000
1626202966046326.500,33.203,-44.922,-30.762,37.109,1.000
