timestamps,TP9,AF7,AF8,TP10,Right AUX
1626294701233229.250,-86.426,-13.672,-14.160,-181.641,1.000
1626294701237135.500,-17.090,-17.578,-20.508,1.465,1.000
1626294701241041.750,27.832,-63.477,-71.289,111.816,1.000
1626294701244948.000,-3.418,-38.574,-81.543,-14.160,1.000
1626294701248854.250,-64.453,10.254,-26.855,-158.691,1.000
1626294701252760.500,-69.336,-9.766,-2.441,-83.496,1.000
1626294701256666.750,12.207,-21.973,-15.625,99.121,1.000
1626294701260573.000,11.230,-35.645,-23.438,38.574,1.000
1626294701264479.250,-74.219,-36.621,-30.273,-163.574,1.000
1626294701268385.500,-91.797,-37.598,-53.223,-140.625,1.000
1626294701272291.750,2.930,-15.625,-35.645,80.078,1.000
1626294701276198.000,57.129,-9.277,-13.184,115.723,1.000
1626294701280104.250,19.043,22.949,-3.418,1.000,1.000
1626294701284010.500,-70.801,0.000,-14.648,1.000,1.000
1626294701287916.750,-98.633,-57.617,-52.734,1.000,1.000
1626294701291823.000,1.953,-58.594,-30.762,1.000,1.000
1626294701295729.250,53.711,-29.785,2.930,1.000,1.000
1626294701299635.500,-30.273,-17.090,8.789,1.000,1.000
1626294701303541.750,-105.957,-25.879,-8.789,1.000,1.000
1626294701307448.000,-61.523,-62.988,-56.641,1.000,1.000
1626294701311354.250,10.742,-44.922,-40.039,1.000,1.000
1626294701315260.500,-26.367,-16.113,-8.301,1.000,1.000
1626294701319166.750,-86.426,-26.367,-17.090,1.000,1.000
1626294701323073.000,-58.105,-47.363,-24.902,1.000,1.000
1626294701326979.250,-0.977,-23.926,-1.953,29.785,1.000
1626294701330885.500,71.777,-26.367,-12.695,155.762,1.000
1626294701334791.750,-22.461,-60.547,-39.062,-43.457,1.000
1626294701338698.000,-109.863,-51.758,-15.137,-204.590,1.000
1626294701342604.250,-47.363,-31.250,4.883,-48.340,1.000
1626294701346510.500,29.297,-33.691,-21.484,123.535,1.000
1626294701350416.750,-4.883,-2.441,-52.246,21.484,1.000
1626294701354323.000,-102.051,-20.996,-52.734,-178.711,1.000
1626294701358229.250,-84.473,-30.762,-16.113,-117.188,1.000
1626294701362135.500,21.484,-20.996,-18.066,102.539,1.000
1626294701366041.750,41.016,-18.555,-22.461,102.051,1.000
1626294701369948.000,-71.777,-40.039,-35.645,-124.023,1.000
1626294701373854.250,-102.539,-30.762,-39.551,-191.406,1.000
1626294701377760.500,-105.469,-0.977,-33.203,-149.414,1.000
1626294701381666.750,-0.977,-19.043,-30.762,74.219,1.000
1626294701385573.000,30.273,-44.434,-34.180,82.031,1.000
1626294701389479.250,-52.734,-28.320,-29.297,-121.094,1.000
1626294701393385.500,-99.121,-20.508,-48.828,-172.363,1.000
1626294701397291.750,-19.043,-15.137,-37.598,27.832,1.000
1626294701401198.000,25.879,-50.293,-33.203,104.004,1.000
1626294701405104.250,-55.176,-62.500,-63.477,-94.238,1.000
1626294701409010.500,-117.188,-45.898,-56.152,-212.891,1.000
1626294701412916.750,-53.223,-28.320,-15.137,-41.504,1.000
1626294701416823.000,40.527,-16.602,-0.488,133.301,1.000
1626294701420729.250,72.266,9.766,-0.977,6.348,1.000
1626294701424635.500,0.000,-11.230,-37.598,-184.082,1.000
1626294701428541.750,-107.910,-52.246,-60.059,-76.172,1.000
1626294701432448.000,-32.227,-29.785,-28.809,130.371,1.000
1626294701436354.250,77.637,-5.859,-2.930,61.035,1.000
1626294701440260.500,22.461,-32.227,-25.879,-153.809,1.000
1626294701444166.750,-80.078,-39.551,-31.250,-153.320,1.000
1626294701448073.000,-89.355,-75.195,-41.016,65.918,1.000
1626294701451979.250,24.902,-45.898,-23.438,120.117,1.000
1626294701455885.500,54.688,2.441,-19.043,-88.867,1.000
1626294701459791.750,-49.316,-14.648,-47.852,-159.180,1.000
1626294701463698.000,-75.195,-39.062,-16.113,47.852,1.000
1626294701467604.250,-94.727,-15.625,-41.016,-129.395,1.000
1626294701471510.500,32.227,11.719,1.953,110.352,1.000
1626294701475416.750,52.246,-18.555,-11.230,114.258,1.000
1626294701479323.000,-58.594,-31.250,-59.082,-125.977,1.000
1626294701483229.250,-94.238,-17.578,-63.965,-166.504,1.000
1626294701487135.500,-13.184,-23.438,-28.809,46.387,1.000
1626294701491041.750,35.645,-10.254,-17.090,115.723,1.000
1626294701494948.000,-24.414,-58.594,-46.387,-67.871,1.000
1626294701498854.250,-91.309,-67.383,-37.598,-180.664,1.000
1626294701502760.500,-38.574,-3.906,-7.812,-10.254,1.000
1626294701506666.750,38.574,29.785,3.418,136.719,1.000
1626294701510573.000,2.930,-0.977,-15.625,0.977,1.000
1626294701514479.250,2.441,-29.297,-20.996,1.000,1.000
1626294701518385.500,-103.027,-20.508,-54.199,1.000,1.000
1626294701522291.750,-83.496,-61.523,-62.988,1.000,1.000
1626294701526198.000,8.301,-53.223,-28.809,1.000,1.000
1626294701530104.250,-9.277,0.000,-30.762,1.000,1.000
1626294701534010.500,-104.492,-5.371,-55.176,1.000,1.000
1626294701537916.750,-66.406,-4.883,-45.410,1.000,1.000
1626294701541823.000,22.461,-53.223,-30.762,1.000,1.000
1626294701545729.250,15.137,-70.312,-40.527,1.000,1.000
1626294701549635.500,-66.895,-53.223,-50.293,1.000,1.000
1626294701553541.750,-78.613,-30.762,-19.531,1.000,1.000
1626294701557448.000,2.930,-25.879,-1.953,1.000,1.000
1626294701561354.250,32.227,-2.441,-10.254,107.422,1.000
1626294701565260.500,53.711,17.578,-3.418,90.820,1.000
1626294701569166.750,-55.664,-29.297,-37.598,-140.625,1.000
1626294701573073.000,-102.539,-62.988,-45.410,-177.246,1.000
1626294701576979.250,-13.184,-44.434,-25.879,40.527,1.000
1626294701580885.500,39.551,-40.039,-22.949,110.840,1.000
1626294701584791.750,-28.809,-23.438,-22.949,-81.543,1.000
1626294701588698.000,-95.215,-30.762,-24.414,-179.199,1.000
1626294701592604.250,-24.902,-22.949,-10.254,4.883,1.000
1626294701596510.500,51.270,-8.789,-0.488,133.789,1.000
1626294701600416.750,-6.348,-11.719,-24.414,-24.414,1.000
1626294701604323.000,-68.359,-12.695,-29.297,-165.039,1.000
1626294701608229.250,-87.891,-13.184,-48.340,-165.039,1.000
1626294701612135.500,-23.438,-6.836,-16.602,8.789,1.000
1626294701616041.750,33.691,-55.176,-19.043,127.441,1.000
1626294701619948.000,-9.766,-62.012,-51.270,-20.996,1.000
1626294701623854.250,-86.426,-39.551,-61.035,-185.059,1.000
1626294701627760.500,-49.805,-35.156,-12.207,-63.477,1.000
1626294701631666.750,41.992,-8.789,9.277,135.254,1.000
1626294701635573.000,-0.488,-42.480,-29.297,34.180,1.000
1626294701639479.250,-95.703,-29.297,-29.785,-176.270,1.000
1626294701643385.500,-75.195,5.859,-15.625,-115.234,1.000
1626294701647291.750,12.695,3.418,-20.996,91.797,1.000
1626294701651198.000,6.348,-42.969,-48.828,69.336,1.000
1626294701655104.250,43.945,0.000,-37.598,-153.809,1.000
1626294701659010.500,-45.898,-11.719,-49.316,-176.270,1.000
1626294701662916.750,-115.723,-104.004,-48.828,49.316,1.000
1626294701666823.000,-16.602,-71.289,-27.832,150.391,1.000
1626294701670729.250,44.434,3.906,-10.742,-57.129,1.000
1626294701674635.500,-52.246,-30.273,-31.250,-201.660,1.000
1626294701678541.750,-102.539,-39.551,-49.316,-20.508,1.000
1626294701682448.000,-45.410,-67.871,-61.523,142.090,1.000
1626294701686354.250,26.855,-50.293,-42.480,6.348,1.000
1626294701690260.500,-13.672,-13.672,-41.504,-211.914,1.000
1626294701694166.750,-82.520,7.812,-63.477,-115.723,1.000
1626294701698073.000,-40.527,-6.836,-49.316,116.211,1.000
1626294701701979.250,-23.926,-3.906,-8.301,11.230,1.000
1626294701705885.500,55.176,7.324,-27.344,141.113,1.000
1626294701709791.750,-34.668,-65.430,-52.246,-49.316,1.000
1626294701713698.000,-117.676,-89.355,-25.391,-204.590,1.000
1626294701717604.250,-73.242,-25.879,-10.254,-71.777,1.000
1626294701721510.500,19.043,18.066,-20.508,110.352,1.000
1626294701725416.750,25.391,32.227,-10.254,42.480,1.000
1626294701729323.000,-82.031,-38.086,-19.531,-166.504,1.000
1626294701733229.250,-89.844,-52.246,-23.926,-121.582,1.000
1626294701737135.500,0.977,-21.484,-20.020,90.332,1.000
1626294701741041.750,21.484,2.441,-15.625,83.008,1.000
1626294701744948.000,-64.453,-16.602,-25.391,-138.672,1.000
1626294701748854.250,-77.637,-34.668,-21.973,-162.109,1.000
1626294701752760.500,-83.496,-9.766,-23.926,-134.277,1.000
1626294701756666.750,-15.625,-39.551,-68.848,49.805,1.000
1626294701760573.000,23.926,-40.039,-66.895,65.918,1.000
1626294701764479.250,-38.574,-7.324,-40.039,-107.422,1.000
1626294701768385.500,-94.238,-7.324,-25.391,-166.016,1.000
1626294701772291.750,-29.297,3.906,-3.906,19.531,1.000
1626294701776198.000,15.137,-60.059,-24.414,106.934,1.000
1626294701780104.250,-43.457,-41.504,-26.367,-63.965,1.000
1626294701784010.500,-102.051,-10.742,1.465,-185.059,1.000
1626294701787916.750,-42.480,-51.270,1.465,-24.414,1.000
1626294701791823.000,29.297,-61.035,-17.578,134.766,1.000
1626294701795729.250,43.457,9.766,-32.715,1.000,1.000
1626294701799635.500,-16.602,18.066,-12.695,1.000,1.000
1626294701803541.750,-88.379,-41.504,-17.090,1.000,1.000
1626294701807448.000,-43.945,-53.711,-19.531,1.000,1.000
1626294701811354.250,31.738,-7.812,-20.508,1.000,1.000
1626294701815260.500,4.395,-10.254,-13.672,1.000,1.000
1626294701819166.750,-87.402,-22.461,-10.742,1.000,1.000
1626294701823073.000,-85.938,-31.250,-23.926,1.000,1.000
1626294701826979.250,20.020,-12.695,-27.832,1.000,1.000
1626294701830885.500,48.828,-7.812,-31.738,1.000,1.000
1626294701834791.750,-42.969,-13.672,-31.738,1.000,1.000
1626294701838698.000,-84.961,-12.695,-37.598,1.000,1.000
1626294701842604.250,-81.543,-26.855,-33.691,-115.723,1.000
1626294701846510.500,20.020,-33.691,-3.418,97.168,1.000
1626294701850416.750,40.039,-46.875,-17.090,82.520,1.000
1626294701854323.000,-65.918,-47.363,-42.969,-146.484,1.000
1626294701858229.250,-104.004,-20.508,-30.762,-186.035,1.000
1626294701862135.500,-6.836,7.812,-6.348,35.156,1.000
1626294701866041.750,51.270,7.324,-9.277,125.000,1.000
1626294701869948.000,-42.480,-40.527,-58.594,-83.008,1.000
1626294701873854.250,-101.562,-46.875,-56.641,-191.406,1.000
1626294701877760.500,-35.156,-32.227,-38.086,-12.207,1.000
1626294701881666.750,40.039,-9.766,-42.480,130.859,1.000
1626294701885573.000,-15.137,-1.465,-32.715,-21.973,1.000
1626294701889479.250,-22.461,-40.527,-53.711,1.000,1.000
1626294701893385.500,-96.680,-42.480,-39.551,1.000,1.000
1626294701897291.750,-25.391,-18.555,-12.695,1.000,1.000
1626294701901198.000,57.129,-18.066,7.324,1.000,1.000
1626294701905104.250,8.789,-29.297,-0.977,1.000,1.000
1626294701909010.500,-77.637,-35.645,-5.371,1.000,1.000
1626294701912916.750,-50.293,-18.555,-4.395,1.000,1.000
1626294701916823.000,52.246,-5.859,-1.465,1.000,1.000
1626294701920729.250,47.363,-7.324,-19.531,1.000,1.000
1626294701924635.500,-76.660,-13.672,-43.457,1.000,1.000
1626294701928541.750,-81.055,-22.949,-37.109,1.000,1.000
1626294701932448.000,37.598,-35.645,-22.461,1.000,1.000
1626294701936354.250,23.438,-6.836,-27.832,111.328,1.000
1626294701940260.500,19.531,-8.789,-26.367,69.824,1.000
1626294701944166.750,-71.289,-26.367,-24.902,-136.719,1.000
1626294701948073.000,-95.703,-35.156,-27.832,-148.438,1.000
1626294701951979.250,0.000,-35.645,-19.043,59.082,1.000
1626294701955885.500,55.176,-56.152,-46.875,123.047,1.000
1626294701959791.750,-31.250,-44.922,-42.969,-70.312,1.000
1626294701963698.000,-112.305,-46.875,-35.156,-197.754,1.000
1626294701967604.250,-32.715,-32.715,-19.043,-3.418,1.000
1626294701971510.500,68.848,8.301,11.719,168.945,1.000
1626294701975416.750,10.254,8.789,-9.277,10.254,1.000
1626294701979323.000,-113.281,-31.250,-53.711,-199.707,1.000
1626294701983229.250,-105.469,-46.875,-70.801,-196.289,1.000
1626294701987135.500,-38.086,8.301,-62.012,-31.738,1.000
1626294701991041.750,51.270,2.930,-18.555,134.277,1.000
1626294701994948.000,-13.184,-26.367,-24.414,-22.949,1.000
1626294701998854.250,-100.586,-36.133,-41.992,-190.430,1.000
1626294702002760.500,-69.824,-18.066,-51.270,-65.918,1.000
1626294702006666.750,18.555,-9.277,-41.016,119.629,1.000
1626294702010573.000,-3.906,-49.805,-26.367,32.227,1.000
1626294702014479.250,-99.121,-23.926,-26.367,-180.664,1.000
1626294702018385.500,-92.285,-16.602,-11.719,-145.020,1.000
1626294702022291.750,29.297,-47.363,19.043,102.051,1.000
1626294702026198.000,68.359,-22.461,12.695,135.254,1.000
1626294702030104.250,32.715,16.113,-20.996,1.000,1.000
1626294702034010.500,-59.570,-26.367,-26.855,1.000,1.000
1626294702037916.750,-83.984,-56.641,-24.414,1.000,1.000
1626294702041823.000,2.930,-32.227,-44.434,1.000,1.000
1626294702045729.250,39.551,-12.695,-61.523,1.000,1.000
1626294702049635.500,-44.434,-22.461,-34.668,1.000,1.000
1626294702053541.750,-87.891,-18.066,-3.906,1.000,1.000
1626294702057448.000,-22.461,-30.762,-6.836,1.000,1.000
1626294702061354.250,41.016,-48.828,-17.090,1.000,1.000
1626294702065260.500,-14.160,-38.574,-34.180,1.000,1.000
1626294702069166.750,-106.445,-20.996,-49.316,1.000,1.000
1626294702073073.000,-42.480,2.930,-14.160,1.000,1.000
1626294702076979.250,0.488,0.488,-37.598,1.953,1.000
1626294702080885.500,60.547,0.488,-23.438,137.207,1.000
1626294702084791.750,-23.438,-59.570,-71.777,-34.668,1.000
1626294702088698.000,-92.285,-52.734,-75.684,-198.730,1.000
1626294702092604.250,-21.973,-6.348,-16.602,-43.457,1.000
1626294702096510.500,73.242,-16.113,-9.766,156.250,1.000
1626294702100416.750,52.734,-30.762,-28.320,61.523,1.000
1626294702104323.000,-67.871,-60.059,-36.133,-170.410,1.000
1626294702108229.250,-83.008,-33.203,-34.668,-136.719,1.000
1626294702112135.500,41.992,-3.906,-20.020,96.191,1.000
1626294702116041.750,80.078,16.602,10.254,112.793,1.000
1626294702119948.000,-51.270,1.465,-10.742,-120.605,1.000
1626294702123854.250,-81.543,-31.250,-51.758,-156.738,1.000
1626294702127760.500,-93.262,-21.973,-61.523,-159.180,1.000
1626294702131666.750,4.883,-8.789,-22.461,51.270,1.000
1626294702135573.000,42.480,-31.738,-8.301,76.172,1.000
1626294702139479.250,-39.551,-70.312,-17.090,-115.234,1.000
1626294702143385.500,-73.730,-43.945,-15.137,-145.020,1.000
1626294702147291.750,8.789,-23.438,-14.648,54.688,1.000
1626294702151198.000,70.801,-53.711,-18.066,154.785,1.000
1626294702155104.250,-21.484,-42.480,-38.574,-59.570,1.000
1626294702159010.500,-128.906,-41.504,-68.848,-230.469,1.000
1626294702162916.750,-68.848,-36.133,-60.059,-59.082,1.000
1626294702166823.000,35.156,-20.996,-28.809,121.582,1.000
1626294702170729.250,78.613,-3.418,-14.160,163.574,1.000
1626294702174635.500,6.348,16.113,18.066,-13.672,1.000
1626294702178541.750,-84.961,-24.414,-13.672,-187.988,1.000
1626294702182448.000,-70.312,-49.316,-61.035,-79.590,1.000
1626294702186354.250,10.254,-42.969,-44.434,106.445,1.000
1626294702190260.500,6.836,-44.922,-22.949,22.461,1.000
1626294702194166.750,-78.613,-29.785,-22.461,-174.805,1.000
1626294702198073.000,-103.516,-45.898,-48.828,-143.066,1.000
1626294702201979.250,-3.906,-19.531,-38.086,82.520,1.000
1626294702205885.500,25.879,-6.348,-32.227,72.754,1.000
1626294702209791.750,-36.133,-30.273,-31.738,-138.184,1.000
1626294702213698.000,-64.453,-38.574,-16.602,-146.484,1.000
1626294702217604.250,-100.586,-5.371,-65.918,-132.812,1.000
1626294702221510.500,10.254,4.395,-47.363,94.727,1.000
1626294702225416.750,24.902,-15.137,-41.016,78.613,1.000
1626294702229323.000,-59.570,-23.438,-24.414,-127.930,1.000
1626294702233229.250,-72.754,-14.160,-21.484,-145.508,1.000
1626294702237135.500,8.301,-30.762,-27.344,58.594,1.000
1626294702241041.750,45.410,-23.438,-30.273,125.488,1.000
1626294702244948.000,-62.012,-60.059,-66.406,-108.887,1.000
1626294702248854.250,-120.605,-34.180,-53.223,-214.355,1.000
1626294702252760.500,-47.852,22.461,-19.531,-20.508,1.000
1626294702256666.750,27.832,8.789,-12.207,125.000,1.000
1626294702260573.000,-1.465,-26.367,-17.578,-12.695,1.000
1626294702264479.250,-34.180,-21.484,-32.715,1.000,1.000
1626294702268385.500,-101.074,-19.043,-70.801,1.000,1.000
1626294702272291.750,-22.949,-9.766,-62.988,1.000,1.000
1626294702276198.000,56.641,-20.508,-25.879,1.000,1.000
1626294702280104.250,-7.812,-23.438,-48.340,1.000,1.000
1626294702284010.500,-94.238,-15.137,-43.945,1.000,1.000
1626294702287916.750,-57.617,-7.812,2.930,1.000,1.000
1626294702291823.000,6.348,-40.039,-21.973,1.000,1.000
1626294702295729.250,-2.930,-51.758,-43.945,1.000,1.000
1626294702299635.500,-68.359,-32.715,-40.039,1.000,1.000
1626294702303541.750,-79.102,-6.348,-36.133,1.000,1.000
1626294702307448.000,10.742,-3.906,-41.992,1.000,1.000
1626294702311354.250,10.254,-45.410,-26.855,81.543,1.000
1626294702315260.500,32.227,-22.461,-17.090,66.895,1.000
1626294702319166.750,-66.406,-44.434,-29.785,-153.320,1.000
1626294702323073.000,-95.703,-28.320,-39.551,-163.574,1.000
1626294702326979.250,10.254,-8.789,-21.484,73.242,1.000
1626294702330885.500,63.965,-8.301,-11.719,134.766,1.000
1626294702334791.750,-38.574,14.648,-34.180,-90.820,1.000
1626294702338698.000,-133.301,-48.828,-61.523,-226.074,1.000
1626294702342604.250,-39.551,-42.480,-35.156,-23.438,1.000
1626294702346510.500,41.016,-8.301,-23.926,124.023,1.000
1626294702350416.750,-24.414,-30.273,-37.598,-45.410,1.000
1626294702354323.000,-114.746,-57.129,-31.738,-208.008,1.000
1626294702358229.250,-101.074,-6.348,-13.672,-188.477,1.000
1626294702362135.500,-41.016,7.324,-9.277,-18.066,1.000
1626294702366041.750,20.020,-47.363,-13.184,111.816,1.000
1626294702369948.000,-9.277,-57.129,-27.832,-20.020,1.000
1626294702373854.250,-79.102,-23.926,-39.551,-181.641,1.000
1626294702377760.500,-55.176,-33.203,-29.297,-73.242,1.000
1626294702381666.750,57.617,-18.066,1.465,144.043,1.000
1626294702385573.000,18.066,-40.527,-30.273,43.457,1.000
1626294702389479.250,-91.797,-46.875,-44.434,-180.664,1.000
1626294702393385.500,-77.637,-32.227,-14.648,-124.512,1.000
1626294702397291.750,36.133,-25.879,-7.812,110.352,1.000
1626294702401198.000,51.758,-23.438,-19.043,111.328,1.000
1626294702405104.250,18.066,-9.766,-7.324,-128.418,1.000
1626294702409010.500,-69.824,-26.855,-10.742,-166.016,1.000
1626294702412916.750,-85.938,-72.754,3.418,54.199,1.000
1626294702416823.000,1.953,-64.941,1.465,157.227,1.000
1626294702420729.250,32.227,-2.930,-10.254,-52.246,1.000
1626294702424635.500,-53.711,-10.254,-8.301,-199.219,1.000
1626294702428541.750,-104.004,-30.273,-11.719,-12.207,1.000
1626294702432448.000,-37.109,-68.359,-5.859,141.113,1.000
1626294702436354.250,34.180,-39.551,2.441,15.137,1.000
1626294702440260.500,-33.203,-20.508,-20.020,-187.012,1.000
1626294702444166.750,-121.094,-27.344,-42.969,-110.352,1.000
1626294702448073.000,-67.383,-29.785,-38.086,112.793,1.000
1626294702451979.250,-41.504,11.719,-23.438,-25.391,1.000
1626294702455885.500,24.414,7.812,-28.809,101.074,1.000
1626294702459791.750,-24.902,-44.434,-67.383,-50.781,1.000
1626294702463698.000,-106.934,-37.109,-77.637,-210.938,1.000
1626294702467604.250,-47.852,25.391,-20.508,-59.570,1.000
1626294702471510.500,58.594,20.508,11.230,147.949,1.000
1626294702475416.750,35.645,-13.184,-10.254,51.270,1.000
1626294702479323.000,-105.957,-79.590,-60.547,-200.195,1.000
1626294702483229.250,-106.445,-47.363,-50.781,-151.855,1.000
1626294702487135.500,19.043,4.883,-9.277,91.797,1.000
1626294702491041.750,35.156,-9.766,-23.438,83.496,1.000
1626294702494948.000,-63.965,-39.062,-49.316,-135.742,1.000
1626294702498854.250,-80.078,-41.016,-44.922,1.000,1.000
1626294702502760.500,-90.332,-10.742,-22.949,1.000,1.000
1626294702506666.750,8.301,-24.902,-21.973,1.000,1.000
1626294702510573.000,44.922,-31.738,-42.969,1.000,1.000
1626294702514479.250,-27.832,-7.324,-35.156,1.000,1.000
1626294702518385.500,-95.215,-22.461,-20.996,1.000,1.000
1626294702522291.750,-22.949,1.465,-24.414,1.000,1.000
1626294702526198.000,34.668,-38.086,-39.551,1.000,1.000
1626294702530104.250,-38.574,-74.219,-43.457,1.000,1.000
1626294702534010.500,-105.957,-56.152,-25.879,1.000,1.000
1626294702537916.750,-45.410,-44.922,-9.766,1.000,1.000
1626294702541823.000,36.621,-24.902,2.930,1.000,1.000
1626294702545729.250,75.195,-3.906,-38.086,156.250,1.000
1626294702549635.500,16.602,-25.879,-33.203,-14.648,1.000
1626294702553541.750,-95.703,-76.172,-40.527,-191.895,1.000
1626294702557448.000,-62.500,-52.734,-30.273,-54.199,1.000
1626294702561354.250,41.016,23.926,-12.207,134.766,1.000
1626294702565260.500,-8.789,6.836,-39.551,-0.488,1.000
1626294702569166.750,-97.656,-20.020,-28.809,-173.828,1.000
1626294702573073.000,-103.516,-74.219,-35.645,-123.047,1.000
1626294702576979.250,14.160,-45.898,-30.762,103.516,1.000
1626294702580885.500,43.457,-7.324,-11.719,96.191,1.000
1626294702584791.750,-43.945,5.371,1.953,-115.234,1.000
1626294702588698.000,-74.219,-20.996,-10.254,-129.883,1.000
1626294702592604.250,-78.125,-24.902,-32.227,-109.863,1.000
1626294702596510.500,19.531,-26.367,-5.859,97.168,1.000
1626294702600416.750,34.180,-62.988,-11.230,80.566,1.000
1626294702604323.000,-55.176,-56.152,-40.039,-134.277,1.000
1626294702608229.250,-80.566,-1.953,-43.945,-152.344,1.000
1626294702612135.500,11.230,16.602,-19.531,70.312,1.000
1626294702616041.750,76.660,27.832,6.348,157.227,1.000
1626294702619948.000,-43.945,-67.383,-36.133,-90.332,1.000
1626294702623854.250,-130.371,-84.473,-50.293,-219.238,1.000
1626294702627760.500,-47.852,-22.461,-21.973,-18.066,1.000
1626294702631666.750,25.879,4.395,-13.672,135.254,1.000
1626294702635573.000,-30.762,-12.695,-30.273,-17.578,1.000
1626294702639479.250,-2.930,-20.508,-21.484,-208.008,1.000
1626294702643385.500,-91.309,-19.043,-25.879,-65.918,1.000
1626294702647291.750,-53.223,-46.387,-37.109,139.648,1.000
1626294702651198.000,6.836,-52.246,-25.879,53.711,1.000
1626294702655104.250,-27.344,-19.531,-32.227,-166.504,1.000
1626294702659010.500,-109.375,-11.230,-53.711,-137.207,1.000
1626294702662916.750,-68.848,-4.395,-36.621,91.309,1.000
1626294702666823.000,39.062,-42.969,-12.207,114.258,1.000
1626294702670729.250,49.316,-38.086,-11.230,-93.750,1.000
1626294702674635.500,-62.500,-24.414,-41.016,-173.340,1.000
1626294702678541.750,-102.539,-37.598,-46.875,28.809,1.000
1626294702682448.000,6.836,-20.020,-11.230,158.203,1.000
1626294702686354.250,4.395,-33.691,-30.273,96.191,1.000
1626294702690260.500,25.879,-14.648,-20.508,71.777,1.000
1626294702694166.750,-67.383,-68.359,-28.809,-137.207,1.000
1626294702698073.000,-93.750,-77.148,-20.020,-147.461,1.000
1626294702701979.250,-8.789,-13.672,-25.391,55.176,1.000
1626294702705885.500,35.156,-9.766,-49.805,104.492,1.000
1626294702709791.750,-28.809,-19.043,-38.086,-77.637,1.000
1626294702713698.000,-83.496,-35.645,-29.297,-168.457,1.000
1626294702717604.250,-23.438,-27.344,-28.320,17.090,1.000
1626294702721510.500,54.199,-12.207,-20.020,151.367,1.000
1626294702725416.750,-7.812,-11.230,-40.039,-20.508,1.000
1626294702729323.000,-109.863,-29.297,-58.594,-202.637,1.000
1626294702733229.250,-77.148,-23.926,-24.414,-160.645,1.000
1626294702737135.500,-19.043,6.348,-26.367,8.301,1.000
1626294702741041.750,61.035,-14.160,-20.020,146.973,1.000
1626294702744948.000,9.277,-20.020,-19.043,-1.953,1.000
1626294702748854.250,-87.402,-9.277,-26.367,-176.270,1.000
1626294702752760.500,-58.594,-25.391,-21.973,-59.570,1.000
1626294702756666.750,26.367,-23.438,-43.945,120.117,1.000
1626294702760573.000,23.926,-36.621,-40.527,52.246,1.000
1626294702764479.250,-71.289,-60.547,-14.648,-145.508,1.000
1626294702768385.500,-95.215,-32.715,-20.996,-126.465,1.000
1626294702772291.750,13.184,9.277,-21.973,92.773,1.000
1626294702776198.000,68.848,2.930,-4.395,120.117,1.000
1626294702780104.250,15.137,-25.879,-31.738,-104.004,1.000
1626294702784010.500,-100.586,-35.645,-55.664,-186.035,1.000
1626294702787916.750,-112.305,-50.293,-40.039,12.695,1.000
1626294702791823.000,7.812,-24.902,-11.230,133.301,1.000
1626294702795729.250,52.246,-9.277,-17.090,-57.129,1.000
1626294702799635.500,-48.340,-43.945,-37.109,-193.359,1.000
1626294702803541.750,-108.398,-47.363,-33.203,-27.344,1.000
1626294702807448.000,-44.922,-64.941,-40.039,131.348,1.000
1626294702811354.250,21.973,-54.688,-51.270,-2.441,1.000
1626294702815260.500,-40.527,-29.785,-52.246,-208.984,1.000
1626294702819166.750,-120.117,-31.738,-47.363,-100.586,1.000
1626294702823073.000,-60.547,-14.648,-34.668,127.441,1.000
1626294702826979.250,-7.812,-8.789,-6.348,26.855,1.000
1626294702830885.500,53.223,0.977,-40.039,151.855,1.000
1626294702834791.750,-24.902,-35.156,-54.688,-44.922,1.000
1626294702838698.000,-106.445,-71.777,-31.250,-208.008,1.000
1626294702842604.250,-86.426,-49.805,-20.508,-76.172,1.000
1626294702846510.500,10.254,-14.160,-18.066,116.699,1.000
1626294702850416.750,9.766,-10.254,-4.395,28.809,1.000
1626294702854323.000,-90.332,-62.500,-16.113,-178.223,1.000
1626294702858229.250,-74.219,-48.828,-14.160,-99.121,1.000
1626294702862135.500,20.508,-32.715,-17.578,107.422,1.000
1626294702866041.750,37.109,-53.711,-31.250,89.844,1.000
1626294702869948.000,-45.410,-52.246,-39.062,-114.746,1.000
1626294702873854.250,-77.637,-14.648,-51.270,1.000,1.000
1626294702877760.500,-76.660,-23.438,-14.160,1.000,1.000
1626294702881666.750,16.602,-34.180,1.953,1.000,1.000
1626294702885573.000,42.480,-38.086,-8.301,1.000,1.000
1626294702889479.250,-32.715,-30.273,-22.949,1.000,1.000
1626294702893385.500,-73.730,-16.113,-22.461,1.000,1.000
1626294702897291.750,-8.301,8.789,-29.785,1.000,1.000
1626294702901198.000,26.367,-56.641,-41.016,1.000,1.000
1626294702905104.250,-48.828,-77.148,-51.270,1.000,1.000
1626294702909010.500,-97.656,-25.879,-52.246,1.000,1.000
1626294702912916.750,-27.832,-0.488,-27.832,1.000,1.000
1626294702916823.000,62.012,-9.277,-21.973,1.000,1.000
1626294702920729.250,44.434,-11.230,-26.855,115.723,1.000
1626294702924635.500,-16.113,0.488,-39.551,-48.340,1.000
1626294702928541.750,-78.125,-44.922,-40.039,-175.781,1.000
1626294702932448.000,-39.551,-80.078,-32.715,-32.227,1.000
1626294702936354.250,31.738,-37.109,-20.996,125.977,1.000
1626294702940260.500,9.766,-13.184,-17.578,13.672,1.000
1626294702944166.750,-78.125,-12.207,-28.809,-186.035,1.000
1626294702948073.000,-84.473,-38.574,-39.551,-119.141,1.000
1626294702951979.250,6.836,-29.297,-45.410,86.426,1.000
1626294702955885.500,15.625,-15.625,-37.109,47.363,1.000
1626294702959791.750,-83.008,-27.832,-31.738,-158.203,1.000
1626294702963698.000,-91.309,-24.414,-31.250,-158.691,1.000
1626294702967604.250,-95.215,-32.715,-38.574,-124.512,1.000
1626294702971510.500,24.902,-3.418,-18.555,125.488,1.000
1626294702975416.750,39.551,-39.062,-28.809,120.117,1.000
1626294702979323.000,-53.223,-76.660,-51.270,-116.699,1.000
1626294702983229.250,-86.426,-33.203,-42.480,-153.320,1.000
1626294702987135.500,-23.438,-7.324,-42.480,51.758,1.000
1626294702991041.750,31.250,-20.020,-45.410,125.000,1.000
1626294702994948.000,-48.340,-57.129,-51.270,-76.172,1.000
1626294702998854.250,-98.633,-38.574,-28.809,-181.641,1.000
1626294703002760.500,-23.438,-16.602,-1.953,-11.230,1.000
1626294703006666.750,39.062,-14.160,-7.324,139.160,1.000
1626294703010573.000,-18.066,-26.367,-31.250,0.488,1.000
1626294703014479.250,-25.391,-3.906,-39.062,-53.711,1.000
1626294703018385.500,-90.820,-10.254,-30.273,-173.340,1.000
1626294703022291.750,-30.273,-93.262,-24.902,-1.465,1.000
1626294703026198.000,48.340,-97.168,-16.113,148.926,1.000
1626294703030104.250,8.789,-27.832,-16.113,9.277,1.000
1626294703034010.500,-98.633,-43.457,-34.668,-187.988,1.000
1626294703037916.750,-78.125,-2.930,-42.969,-91.797,1.000
1626294703041823.000,12.695,-24.414,-55.664,99.609,1.000
1626294703045729.250,6.348,-47.852,-41.992,39.062,1.000
1626294703049635.500,-81.543,-14.648,-35.156,-161.621,1.000
1626294703053541.750,-87.402,5.859,-27.344,-141.113,1.000
1626294703057448.000,-5.371,1.465,-25.391,65.430,1.000
1626294703061354.250,38.086,-34.180,-16.113,122.559,1.000
1626294703065260.500,48.828,-29.297,-21.973,87.402,1.000
1626294703069166.750,-69.336,-65.918,-35.645,-147.949,1.000
1626294703073073.000,-103.027,-52.246,-31.250,-167.969,1.000
1626294703076979.250,5.859,13.184,-13.672,57.129,1.000
1626294703080885.500,60.547,24.902,-18.555,126.465,1.000
1626294703084791.750,-31.738,9.277,-55.664,-82.031,1.000
1626294703088698.000,-116.211,-62.012,-63.477,-202.637,1.000
1626294703092604.250,-41.016,-46.387,-6.836,-7.812,1.000
1626294703096510.500,38.086,5.371,12.207,132.324,1.000
1626294703100416.750,-26.367,1.953,-26.367,-34.180,1.000
1626294703104323.000,-101.074,-18.555,-32.715,-199.707,1.000
1626294703108229.250,-98.145,-38.574,-13.184,-190.918,1.000
1626294703112135.500,-36.133,-23.438,-14.648,-12.695,1.000
1626294703116041.750,43.457,-34.668,-23.926,139.648,1.000
1626294703119948.000,6.836,-44.922,-44.922,-1.953,1.000
1626294703123854.250,-76.660,-15.137,-59.570,-178.223,1.000
1626294703127760.500,-71.777,-16.113,-49.805,-87.402,1.000
1626294703131666.750,14.648,-8.301,-16.602,106.445,1.000
1626294703135573.000,1.953,-38.086,-21.484,31.738,1.000
1626294703139479.250,-89.355,-32.227,-34.180,-170.898,1.000
1626294703143385.500,-103.027,-5.371,-35.156,-139.648,1.000
1626294703147291.750,-12.695,-2.930,-37.109,70.801,1.000
1626294703151198.000,40.527,-8.789,-1.953,108.398,1.000
1626294703155104.250,56.641,23.926,-20.996,-101.562,1.000
1626294703159010.500,-54.688,-34.180,-23.926,-166.016,1.000
1626294703162916.750,-119.629,-95.703,-27.832,35.645,1.000
1626294703166823.000,-31.250,-61.035,-29.785,142.090,1.000
1626294703170729.250,37.109,-5.371,-15.625,-68.359,1.000
1626294703174635.500,-38.574,-27.832,-16.113,-229.980,1.000
1626294703178541.750,-86.914,-19.043,1.465,-39.062,1.000
1626294703182448.000,-29.297,-22.461,-20.996,121.582,1.000
1626294703186354.250,25.391,-22.949,-33.691,6.348,1.000
1626294703190260.500,-33.691,-6.348,-21.484,-195.312,1.000
1626294703194166.750,-103.027,-6.836,-46.875,-120.605,1.000
1626294703198073.000,-42.480,-12.695,-23.438,132.812,1.000
1626294703201979.250,-14.648,-22.949,-14.160,16.113,1.000
1626294703205885.500,52.246,-5.371,-28.320,137.695,1.000
1626294703209791.750,0.488,-23.438,-29.785,-21.484,1.000
1626294703213698.000,-101.074,-56.152,-43.457,-202.148,1.000
1626294703217604.250,-63.477,-46.387,-43.945,-72.754,1.000
1626294703221510.500,50.293,-17.090,-26.367,143.555,1.000
1626294703225416.750,27.832,-12.695,-32.227,44.434,1.000
1626294703229323.000,-93.750,-57.617,-77.637,-193.848,1.000
1626294703233229.250,-87.402,-32.227,-38.574,-131.348,1.000
1626294703237135.500,25.391,7.812,9.766,107.910,1.000
1626294703241041.750,42.969,-4.883,-7.812,88.867,1.000
1626294703244948.000,-54.688,-46.875,-16.602,-138.672,1.000
1626294703248854.250,-68.359,-37.598,-36.133,1.000,1.000
1626294703252760.500,-67.871,-17.578,-20.508,1.000,1.000
1626294703256666.750,19.531,-0.977,-36.133,1.000,1.000
1626294703260573.000,31.738,-21.484,-43.457,1.000,1.000
1626294703264479.250,-55.176,-14.160,-32.715,1.000,1.000
1626294703268385.500,-105.469,-38.086,-19.531,1.000,1.000
1626294703272291.750,-7.812,-35.645,7.324,1.000,1.000
1626294703276198.000,41.992,-53.711,-35.156,1.000,1.000
1626294703280104.250,-27.344,-51.758,-51.758,1.000,1.000
1626294703284010.500,-93.750,-12.207,-26.855,1.000,1.000
1626294703287916.750,-52.734,2.441,-22.461,1.000,1.000
1626294703291823.000,23.438,-0.977,-19.043,1.000,1.000
1626294703295729.250,51.758,-2.930,-42.969,140.137,1.000
1626294703299635.500,4.395,1.465,-38.574,-7.324,1.000
1626294703303541.750,-104.492,-52.246,-51.758,-187.500,1.000
1626294703307448.000,-74.707,-65.430,-28.320,-62.988,1.000
1626294703311354.250,22.461,-12.695,-9.277,116.211,1.000
1626294703315260.500,0.488,-13.672,-26.367,12.207,1.000
1626294703319166.750,-78.613,-44.434,-22.461,-160.645,1.000
1626294703323073.000,-73.242,-83.984,-26.855,-91.309,1.000
1626294703326979.250,46.387,-29.785,-19.531,140.625,1.000
1626294703330885.500,53.223,6.836,-23.926,104.004,1.000
1626294703334791.750,-76.660,-10.254,-39.551,-149.902,1.000
1626294703338698.000,-113.281,-25.391,-38.086,-165.527,1.000
1626294703342604.250,-97.656,-23.438,-58.594,-125.977,1.000
1626294703346510.500,0.977,-6.836,-49.805,81.543,1.000
1626294703350416.750,26.367,-39.062,-25.879,70.312,1.000
1626294703354323.000,-58.594,-47.852,-17.578,-135.742,1.000
1626294703358229.250,-80.078,-8.789,-23.926,-149.414,1.000
1626294703362135.500,7.324,-18.066,-10.254,62.500,1.000
1626294703366041.750,53.223,-22.461,6.836,133.789,1.000
1626294703369948.000,-22.461,-37.598,-7.812,-62.500,1.000
1626294703373854.250,-88.867,-38.574,-29.785,-176.758,1.000
1626294703377760.500,-47.363,-18.066,-58.105,-26.855,1.000
1626294703381666.750,40.527,13.672,-48.340,124.512,1.000
1626294703385573.000,7.324,15.137,-44.922,-10.254,1.000
1626294703389479.250,0.488,5.859,-22.461,-213.867,1.000
1626294703393385.500,-71.289,-9.766,-46.387,-93.750,1.000
1626294703397291.750,-50.293,-54.688,-59.082,119.141,1.000
1626294703401198.000,34.668,-38.086,-23.926,54.688,1.000
1626294703405104.250,2.441,-12.695,-25.391,-163.574,1.000
1626294703409010.500,-101.074,-33.203,-36.133,-142.578,1.000
1626294703412916.750,-61.523,-29.297,-13.184,99.609,1.000
1626294703416823.000,35.645,-62.500,-6.348,105.957,1.000
1626294703420729.250,32.227,-60.547,-17.578,-120.117,1.000
1626294703424635.500,-59.570,-35.156,-20.996,-197.266,1.000
1626294703428541.750,-92.285,-38.574,-28.320,6.836,1.000
1626294703432448.000,-14.160,-29.297,-26.367,132.324,1.000
1626294703436354.250,4.883,1.953,-37.598,93.750,1.000
1626294703440260.500,20.996,-16.113,-37.598,70.801,1.000
1626294703444166.750,-76.172,-36.621,-51.758,-161.621,1.000
1626294703448073.000,-96.680,-22.461,-52.734,-165.039,1.000
1626294703451979.250,12.695,-4.883,-33.691,70.801,1.000
1626294703455885.500,57.617,-20.020,-16.602,132.812,1.000
1626294703459791.750,-29.785,-33.691,-18.555,-69.336,1.000
1626294703463698.000,-124.023,-58.105,-56.152,-208.984,1.000
1626294703467604.250,-66.895,-42.480,-43.945,-25.391,1.000
1626294703471510.500,30.762,-1.465,-19.043,136.719,1.000
1626294703475416.750,-8.789,-18.555,-22.949,-22.949,1.000
1626294703479323.000,-104.004,-56.152,-33.691,-194.336,1.000
1626294703483229.250,-108.398,-36.133,-36.621,-186.523,1.000
1626294703487135.500,-41.504,-5.859,-33.691,-4.883,1.000
1626294703491041.750,53.711,-20.508,-36.621,151.855,1.000
1626294703494948.000,14.648,-23.926,-23.926,14.648,1.000
1626294703498854.250,-77.148,-14.648,-38.086,-162.109,1.000
1626294703502760.500,-52.734,-31.738,-40.039,-50.293,1.000
1626294703506666.750,45.410,-7.324,-0.488,157.715,1.000
1626294703510573.000,41.016,-51.758,-13.672,78.125,1.000
1626294703514479.250,-63.965,-64.453,-26.367,-143.066,1.000
1626294703518385.500,-88.379,-29.297,-29.785,-116.211,1.000
1626294703522291.750,-2.930,-37.109,-39.062,95.703,1.000
1626294703526198.000,18.555,-49.316,-36.133,84.961,1.000
1626294703530104.250,30.762,-15.137,-31.250,-137.695,1.000
1626294703534010.500,-49.805,3.906,-35.156,-165.039,1.000
1626294703537916.750,-85.449,-24.414,-51.270,55.664,1.000
1626294703541823.000,-3.418,-22.461,-50.781,170.898,1.000
1626294703545729.250,47.852,9.277,-15.625,-30.762,1.000
1626294703549635.500,-24.902,-15.137,-6.348,-198.730,1.000
1626294703553541.750,-59.082,-35.156,-23.438,-11.230,1.000
1626294703557448.000,-23.438,-57.617,-44.922,164.551,1.000
1626294703561354.250,31.738,-25.879,-27.832,16.113,1.000
1626294703565260.500,-20.508,-13.184,-25.391,-199.219,1.000
1626294703569166.750,-96.680,-34.180,-40.039,-107.422,1.000
1626294703573073.000,-41.016,-38.574,-20.020,124.512,1.000
1626294703576979.250,-14.648,-9.277,-4.883,16.602,1.000
1626294703580885.500,66.895,11.719,-1.465,160.156,1.000
1626294703584791.750,-33.203,-62.012,-64.941,-58.594,1.000
1626294703588698.000,-128.906,-67.871,-87.402,-231.934,1.000
1626294703592604.250,-56.152,-14.160,-47.363,-60.059,1.000
1626294703596510.500,27.832,-18.555,-28.809,119.141,1.000
1626294703600416.750,6.836,-1.953,-24.414,23.438,1.000
1626294703604323.000,-74.707,-33.691,-26.855,-170.898,1.000
1626294703608229.250,-75.684,-46.387,-27.832,-122.070,1.000
1626294703612135.500,2.441,-52.246,-21.484,78.613,1.000
1626294703616041.750,15.625,-52.246,-27.344,73.242,1.000
1626294703619948.000,-63.965,-24.414,-36.133,-131.348,1.000
1626294703623854.250,-90.820,-24.902,-41.016,1.000,1.000
1626294703627760.500,-91.309,7.324,-27.832,1.000,1.000
1626294703631666.750,9.277,-21.484,-12.695,1.000,1.000
1626294703635573.000,38.574,-38.574,-40.039,1.000,1.000
1626294703639479.250,-60.059,-31.250,-61.035,1.000,1.000
1626294703643385.500,-111.328,-64.453,-33.691,1.000,1.000
1626294703647291.750,-22.461,-24.902,-4.395,1.000,1.000
1626294703651198.000,27.832,-16.113,-27.344,1.000,1.000
1626294703655104.250,-40.527,-19.531,-51.758,1.000,1.000
1626294703659010.500,-98.145,-0.488,-35.645,1.000,1.000
1626294703662916.750,-30.762,14.648,-15.625,1.000,1.000
1626294703666823.000,28.320,5.859,-14.648,1.000,1.000
1626294703670729.250,65.918,8.301,7.324,154.785,1.000
1626294703674635.500,-2.441,4.395,-11.719,-10.254,1.000
1626294703678541.750,-121.582,-76.660,-82.031,-210.449,1.000
1626294703682448.000,-78.613,-78.613,-94.727,-81.055,1.000
1626294703686354.250,14.160,-28.320,-17.090,101.562,1.000
1626294703690260.500,-15.137,-54.199,23.438,-2.441,1.000
1626294703694166.750,-84.473,-54.199,17.090,-163.574,1.000
1626294703698073.000,-82.031,-94.727,-14.648,-117.676,1.000
1626294703701979.250,16.113,-60.547,-16.113,104.492,1.000
1626294703705885.500,24.414,-1.953,-15.137,87.402,1.000
1626294703709791.750,-80.566,-5.859,-31.250,-150.879,1.000
1626294703713698.000,-107.910,-6.348,-42.480,-166.992,1.000
1626294703717604.250,-68.848,-28.809,-30.273,-111.328,1.000
1626294703721510.500,21.973,10.742,-31.250,96.680,1.000
1626294703725416.750,8.301,-41.016,-52.734,69.336,1.000
1626294703729323.000,-78.613,-63.965,-65.430,-148.438,1.000
1626294703733229.250,-58.105,4.883,-36.133,-145.996,1.000
1626294703737135.500,24.414,12.695,-12.207,80.078,1.000
1626294703741041.750,49.805,9.277,-11.719,142.578,1.000
1626294703744948.000,-47.363,-43.945,-37.598,-78.125,1.000
1626294703748854.250,-88.379,-64.941,-39.551,-185.547,1.000
1626294703752760.500,-11.719,-22.949,-26.855,7.812,1.000
1626294703756666.750,50.781,18.066,-24.414,144.043,1.000
1626294703760573.000,10.742,16.113,-26.367,-20.996,1.000
1626294703764479.250,12.695,-19.531,-19.531,-219.727,1.000
1626294703768385.500,-69.824,2.441,-35.156,-92.285,1.000
1626294703772291.750,-40.527,-47.852,-38.086,115.723,1.000
1626294703776198.000,44.922,-44.434,-23.926,30.762,1.000
1626294703780104.250,5.859,15.625,-18.066,-179.199,1.000
1626294703784010.500,-70.312,-3.418,-18.066,-142.578,1.000
1626294703787916.750,-41.016,-15.625,-19.043,96.191,1.000
1626294703791823.000,21.973,-60.059,-32.715,108.887,1.000
1626294703795729.250,28.320,-47.363,-43.945,-119.141,1.000
1626294703799635.500,-56.152,-10.254,-30.762,-172.852,1.000
1626294703803541.750,-76.172,-7.812,-20.996,52.246,1.000
1626294703807448.000,8.789,2.441,-20.996,162.109,1.000
1626294703811354.250,18.555,-6.836,-20.996,116.699,1.000
1626294703815260.500,33.203,7.324,-12.695,90.820,1.000
1626294703819166.750,-84.961,-72.266,-38.574,-154.785,1.000
1626294703823073.000,-126.953,-107.422,-50.781,-174.805,1.000
1626294703826979.250,-9.766,-18.066,-26.855,46.875,1.000
1626294703830885.500,61.523,-17.578,-31.250,87.402,1.000
1626294703834791.750,-38.574,-37.109,-37.598,-105.957,1.000
1626294703838698.000,-136.230,-72.754,-63.477,-215.820,1.000
1626294703842604.250,-35.156,-45.410,-65.918,-24.902,1.000
1626294703846510.500,51.758,-6.836,-42.969,121.582,1.000
1626294703850416.750,-19.043,-22.461,-41.016,-48.828,1.000
1626294703854323.000,-98.633,-12.695,-22.461,-204.102,1.000
1626294703858229.250,-87.891,11.230,-42.480,-189.453,1.000
1626294703862135.500,-13.672,14.160,-12.695,9.766,1.000
1626294703866041.750,27.344,-45.410,-14.160,137.695,1.000
1626294703869948.000,-28.320,-72.754,-41.504,-24.902,1.000
1626294703873854.250,-99.609,-36.133,-38.086,-191.895,1.000
1626294703877760.500,-64.941,-36.133,-27.344,-68.359,1.000
1626294703881666.750,26.855,-26.855,-25.391,136.719,1.000
1626294703885573.000,9.277,-62.012,-35.645,46.875,1.000
1626294703889479.250,-81.055,-43.945,-37.598,-169.922,1.000
1626294703893385.500,-90.820,-2.930,-27.832,-131.348,1.000
1626294703897291.750,-10.254,-5.371,-18.066,76.660,1.000
1626294703901198.000,16.113,-8.789,-13.184,82.031,1.000
1626294703905104.250,3.906,6.348,-30.762,55.664,1.000
1626294703909010.500,-95.215,-3.906,-31.738,-170.410,1.000
1626294703912916.750,-115.234,-48.828,-20.508,-160.645,1.000
1626294703916823.000,-22.949,-47.363,-13.672,49.316,1.000
1626294703920729.250,18.555,-17.090,-17.578,80.566,1.000
1626294703924635.500,-62.012,-27.832,-34.180,-122.559,1.000
1626294703928541.750,-103.027,-10.254,-30.762,-176.758,1.000
1626294703932448.000,-22.949,-38.086,-18.555,27.344,1.000
1626294703936354.250,50.781,-28.809,-25.391,144.043,1.000
1626294703940260.500,-7.812,-8.789,-41.016,-30.762,1.000
1626294703944166.750,-94.727,-27.344,-29.297,-180.176,1.000
1626294703948073.000,-64.941,-42.480,-29.785,-40.527,1.000
1626294703951979.250,-50.781,-35.156,-32.227,-9.277,1.000
1626294703955885.500,29.785,0.488,-12.695,125.488,1.000
1626294703959791.750,-34.180,-51.270,-23.926,-53.711,1.000
1626294703963698.000,-124.023,-68.848,-35.645,-221.191,1.000
1626294703967604.250,-73.730,-32.715,-16.113,-74.707,1.000
1626294703971510.500,20.508,-32.715,-1.953,104.004,1.000
1626294703975416.750,3.906,-23.438,-8.301,14.160,1.000
1626294703979323.000,-118.164,-86.914,-53.711,-208.984,1.000
1626294703983229.250,-119.141,-59.570,-70.801,-160.156,1.000
1626294703987135.500,5.371,6.348,-41.016,75.195,1.000
1626294703991041.750,30.762,-17.578,-25.879,76.660,1.000
1626294703994948.000,-68.359,-36.133,-24.902,-138.184,1.000
1626294703998854.250,-76.660,-9.277,-49.316,1.000,1.000
1626294704002760.500,-71.777,-12.207,-38.086,1.000,1.000
1626294704006666.750,11.230,-79.590,-15.625,1.000,1.000
1626294704010573.000,38.086,-91.797,-3.906,1.000,1.000
1626294704014479.250,-38.574,-36.621,-32.715,1.000,1.000
1626294704018385.500,-83.496,-23.438,-41.016,1.000,1.000
1626294704022291.750,13.672,17.578,10.742,1.000,1.000
1626294704026198.000,34.180,-33.691,-20.020,1.000,1.000
1626294704030104.250,-47.363,-38.086,-41.504,1.000,1.000
1626294704034010.500,-101.562,-11.230,-24.414,1.000,1.000
1626294704037916.750,-37.598,-23.438,-3.906,1.000,1.000
1626294704041823.000,57.129,-1.953,13.672,1.000,1.000
1626294704045729.250,53.223,-5.371,-8.789,125.977,1.000
1626294704049635.500,-15.137,11.719,-31.250,-55.176,1.000
1626294704053541.750,-119.629,-40.039,-59.570,-219.727,1.000
1626294704057448.000,-58.105,-45.410,-21.973,-53.223,1.000
1626294704061354.250,48.340,9.277,0.488,133.789,1.000
1626294704065260.500,0.488,-19.531,-32.715,0.000,1.000
1626294704069166.750,-95.703,-23.926,-52.734,-195.312,1.000
1626294704073073.000,-81.055,-43.457,-48.340,-107.422,1.000
1626294704076979.250,15.625,-37.598,-24.414,107.910,1.000
1626294704080885.500,24.414,-0.977,-15.137,60.059,1.000
1626294704084791.750,-65.430,-8.789,-33.691,-145.996,1.000
1626294704088698.000,-82.520,-33.691,-30.273,-137.207,1.000
1626294704092604.250,-64.941,-30.762,-52.734,-100.098,1.000
1626294704096510.500,51.758,-3.906,-28.320,134.766,1.000
1626294704100416.750,65.430,-11.719,-22.949,113.770,1.000
1626294704104323.000,-57.129,-42.480,-32.227,-134.766,1.000
1626294704108229.250,-97.168,-24.414,-29.297,-163.086,1.000
1626294704112135.500,-12.207,-15.625,-32.715,53.223,1.000
1626294704116041.750,39.062,-12.207,-14.160,128.906,1.000
1626294704119948.000,-50.781,-46.875,-24.414,-85.449,1.000
1626294704123854.250,-110.840,-66.406,-37.109,-197.754,1.000
1626294704127760.500,-20.020,-35.156,-18.066,8.301,1.000
1626294704131666.750,56.641,-20.508,-9.766,147.949,1.000
1626294704135573.000,-2.930,-32.715,-37.109,-18.555,1.000
1626294704139479.250,-23.438,-11.230,-48.340,-203.125,1.000
1626294704143385.500,-83.496,-12.695,-51.758,-83.008,1.000
1626294704147291.750,-65.430,-75.195,-57.129,126.953,1.000
1626294704151198.000,18.555,-77.148,-56.152,59.570,1.000
1626294704155104.250,5.859,-24.902,-46.875,-155.273,1.000
1626294704159010.500,-98.633,-59.082,-27.832,-137.207,1.000
1626294704162916.750,-68.359,-50.781,-7.324,89.844,1.000
1626294704166823.000,16.113,-48.828,-13.184,86.426,1.000
1626294704170729.250,14.648,-28.809,-12.695,-126.953,1.000
1626294704174635.500,-65.918,3.906,-11.719,-174.805,1.000
1626294704178541.750,-88.379,6.348,-26.855,20.508,1.000
1626294704182448.000,-2.930,-12.695,-36.133,126.953,1.000
1626294704186354.250,47.363,0.000,-29.785,133.301,1.000
1626294704190260.500,55.176,19.043,-7.324,96.680,1.000
1626294704194166.750,-68.359,-54.688,-30.762,-154.785,1.000
1626294704198073.000,-102.539,-87.402,-56.641,-169.434,1.000
1626294704201979.250,4.883,-39.551,-39.062,58.594,1.000
1626294704205885.500,38.086,-16.602,-39.062,98.633,1.000
1626294704209791.750,-35.156,1.953,-45.410,-91.797,1.000
1626294704213698.000,-104.004,-59.570,-59.570,-195.801,1.000
1626294704217604.250,-46.387,-42.480,-43.945,-20.508,1.000
1626294704221510.500,38.086,16.113,-15.137,118.164,1.000
1626294704225416.750,-13.672,0.977,-29.297,-37.109,1.000
1626294704229323.000,-100.098,-28.809,-44.922,-189.453,1.000
1626294704233229.250,-106.934,4.883,-41.992,-69.824,1.000
1626294704237135.500,-16.113,21.484,-2.441,121.094,1.000
1626294704241041.750,55.176,-41.992,-17.090,33.203,1.000
1626294704244948.000,-25.879,-76.660,-57.129,-185.547,1.000
1626294704248854.250,-94.727,-23.438,-55.664,-143.555,1.000
1626294704252760.500,-36.621,-27.344,-39.551,65.430,1.000
1626294704256666.750,55.664,-30.273,-22.949,65.430,1.000
1626294704260573.000,20.508,-54.199,-47.852,-145.996,1.000
1626294704264479.250,-83.984,-32.227,-50.781,-160.156,1.000
1626294704268385.500,-90.820,6.348,-28.320,36.621,1.000
1626294704272291.750,11.719,5.859,-14.160,91.309,1.000
1626294704276198.000,50.293,-8.789,-11.230,-100.586,1.000
1626294704280104.250,36.133,-11.719,-30.762,59.570,1.000
1626294704284010.500,-64.453,5.371,-24.414,-158.691,1.000
1626294704287916.750,-99.609,-56.152,-9.277,-139.648,1.000
1626294704291823.000,6.836,-72.266,-4.883,89.355,1.000
1626294704295729.250,25.391,3.906,-11.719,89.844,1.000
1626294704299635.500,-79.102,-6.348,-26.855,-132.812,1.000
1626294704303541.750,-105.957,-12.207,-33.203,-166.016,1.000
1626294704307448.000,-34.180,-38.574,-31.738,22.461,1.000
1626294704311354.250,20.508,-35.156,-31.738,118.164,1.000
1626294704315260.500,-31.738,-15.625,-31.250,-56.152,1.000
1626294704319166.750,-95.215,-21.973,-25.391,-182.617,1.000
1626294704323073.000,-25.879,-39.062,-15.625,-24.414,1.000
1626294704326979.250,8.301,-9.277,12.207,44.922,1.000
1626294704330885.500,74.219,15.625,-5.371,156.738,1.000
1626294704334791.750,-20.020,-67.383,-53.223,-45.898,1.000
1626294704338698.000,-116.211,-95.215,-58.594,-211.914,1.000
1626294704342604.250,-54.199,-11.230,-45.410,-62.988,1.000
1626294704346510.500,45.898,3.906,-38.574,126.953,1.000
1626294704350416.750,26.367,2.930,-25.391,42.969,1.000
1626294704354323.000,-83.496,-43.945,-32.227,-163.086,1.000
1626294704358229.250,-89.844,-46.875,-39.062,-105.957,1.000
1626294704362135.500,7.812,-31.250,-45.410,105.469,1.000
1626294704366041.750,46.387,-26.855,-30.762,113.770,1.000
1626294704369948.000,-38.086,-20.996,-20.020,-90.332,1.000
1626294704373854.250,-78.613,-25.391,-29.785,1.000,1.000
1626294704377760.500,-78.613,-16.113,-33.203,1.000,1.000
1626294704381666.750,5.371,-46.387,-32.227,1.000,1.000
1626294704385573.000,8.789,-61.523,-35.645,1.000,1.000
1626294704389479.250,-81.543,-22.949,-32.715,1.000,1.000
1626294704393385.500,-116.699,-26.855,-32.227,1.000,1.000
1626294704397291.750,-24.902,0.488,-32.227,1.000,1.000
1626294704401198.000,27.832,-41.504,-41.504,1.000,1.000
1626294704405104.250,-46.875,-65.430,-37.598,1.000,1.000
1626294704409010.500,-92.285,-24.902,-35.156,1.000,1.000
1626294704412916.750,-31.738,-21.973,-50.781,1.000,1.000
1626294704416823.000,54.199,-7.812,-19.043,1.000,1.000
1626294704420729.250,45.410,-19.531,-21.973,136.230,1.000
1626294704424635.500,-41.504,-14.160,-50.781,-72.266,1.000
1626294704428541.750,-101.074,-26.367,-26.855,-194.824,1.000
1626294704432448.000,-42.480,-15.137,-5.371,-20.020,1.000
1626294704436354.250,29.297,0.000,-30.762,126.953,1.000
1626294704440260.500,-16.602,-29.297,-34.668,-10.254,1.000
1626294704444166.750,-114.258,-32.227,-35.645,-193.848,1.000
1626294704448073.000,-86.426,-51.270,-37.109,-113.281,1.000
1626294704451979.250,18.066,-56.152,-13.672,89.355,1.000
1626294704455885.500,18.066,-53.711,-20.996,50.293,1.000
1626294704459791.750,-84.961,-49.805,-46.387,-160.156,1.000
1626294704463698.000,-106.445,-24.414,-37.598,-155.273,1.000
1626294704467604.250,-96.680,-20.508,-29.785,-124.023,1.000
1626294704471510.500,1.953,1.953,-24.902,73.730,1.000
1626294704475416.750,22.461,-45.898,-27.832,64.941,1.000
1626294704479323.000,-68.848,-74.219,-33.691,-143.555,1.000
1626294704483229.250,-106.445,-31.250,-43.457,-166.016,1.000
1626294704487135.500,-23.438,-12.695,-52.734,38.574,1.000
1626294704491041.750,40.039,-5.371,-14.648,111.816,1.000
1626294704494948.000,-31.250,-63.965,-13.672,-77.148,1.000
1626294704498854.250,-99.609,-51.758,-64.453,-179.199,1.000
1626294704502760.500,-34.180,12.207,-47.363,4.883,1.000
1626294704506666.750,41.016,19.043,-4.883,134.277,1.000
1626294704510573.000,-12.207,-7.324,-16.113,-28.320,1.000
1626294704514479.250,-5.859,-8.301,-38.086,-204.102,1.000
1626294704518385.500,-86.426,-13.184,-42.480,-88.867,1.000
1626294704522291.750,-36.621,-62.988,-38.086,112.793,1.000
1626294704526198.000,39.551,-72.266,-13.184,33.691,1.000
1626294704530104.250,-8.789,-0.488,-17.090,-170.898,1.000
1626294704534010.500,-94.727,20.020,-37.109,-129.395,1.000
1626294704537916.750,-45.898,6.836,-17.090,89.844,1.000
1626294704541823.000,36.621,-40.039,-31.738,92.773,1.000
1626294704545729.250,15.625,-56.641,-68.359,-110.352,1.000
1626294704549635.500,-61.523,-41.992,-46.387,-154.297,1.000
1626294704553541.750,-77.148,-14.648,-23.438,49.316,1.000
1626294704557448.000,20.996,-0.488,-21.484,146.484,1.000
1626294704561354.250,43.945,26.855,-20.508,112.793,1.000
1626294704565260.500,28.320,11.719,4.395,77.148,1.000
1626294704569166.750,-98.145,-59.570,-31.738,-163.574,1.000
1626294704573073.000,-106.445,-68.848,-37.598,-178.223,1.000
1626294704576979.250,2.441,-17.578,-16.113,56.641,1.000
1626294704580885.500,22.949,-46.875,-23.926,97.656,1.000
1626294704584791.750,-54.199,-49.805,-35.645,-115.234,1.000
1626294704588698.000,-129.883,-83.984,-45.410,-214.355,1.000
1626294704592604.250,-51.270,-69.336,-23.438,-9.277,1.000
1626294704596510.500,37.598,-10.742,-13.184,133.301,1.000
1626294704600416.750,-9.277,-12.695,-25.879,-22.949,1.000
1626294704604323.000,-84.961,-11.230,-15.625,-176.270,1.000
1626294704608229.250,-145.020,-30.273,-52.246,1.000,1.000
1626294704612135.500,-50.781,-5.859,-27.344,1.000,1.000
1626294704616041.750,25.391,-21.484,-25.879,1.000,1.000
1626294704619948.000,-53.711,-44.434,-33.203,1.000,1.000
1626294704623854.250,-110.840,-29.297,-20.020,1.000,1.000
1626294704627760.500,-57.617,-36.621,-13.672,1.000,1.000
1626294704631666.750,26.855,-27.832,-23.926,1.000,1.000
1626294704635573.000,2.441,-62.500,-26.855,1.000,1.000
1626294704639479.250,-98.633,-64.453,-37.598,1.000,1.000
1626294704643385.500,-119.629,-16.602,-39.062,1.000,1.000
1626294704647291.750,-3.906,18.555,-6.836,1.000,1.000
1626294704651198.000,28.320,13.184,-16.113,1.000,1.000
1626294704655104.250,30.273,13.672,-12.207,66.406,1.000
1626294704659010.500,-79.102,-0.488,-32.715,-160.156,1.000
1626294704662916.750,-105.957,-34.180,-41.992,-159.180,1.000
1626294704666823.000,-0.488,-42.480,-8.789,63.477,1.000
1626294704670729.250,33.203,-14.160,-5.371,99.609,1.000
1626294704674635.500,-43.457,-17.090,-43.457,-125.488,1.000
1626294704678541.750,-94.238,-21.484,-52.246,-188.965,1.000
1626294704682448.000,-41.992,-36.621,-34.180,21.973,1.000
1626294704686354.250,62.988,-12.207,-3.906,151.855,1.000
1626294704690260.500,1.953,-6.348,-15.137,-34.668,1.000
1626294704694166.750,-110.840,-51.758,-48.340,-208.496,1.000
1626294704698073.000,-47.852,-37.109,-42.969,-51.270,1.000
1626294704701979.250,-48.340,-30.273,-53.711,-3.418,1.000
1626294704705885.500,19.043,-19.531,-54.199,113.770,1.000
1626294704709791.750,-15.137,-59.082,-21.484,-39.062,1.000
1626294704713698.000,-67.383,-51.758,-3.418,-163.086,1.000
1626294704717604.250,-42.480,-11.230,-22.949,-33.691,1.000
1626294704721510.500,34.668,0.488,-17.578,129.395,1.000
1626294704725416.750,8.301,-6.348,-21.973,18.066,1.000
1626294704729323.000,-103.027,-57.617,-59.082,-205.566,1.000
1626294704733229.250,-92.285,-36.621,-58.105,-138.184,1.000
1626294704737135.500,24.902,0.977,-40.039,90.820,1.000
1626294704741041.750,42.969,-12.695,-31.738,76.172,1.000
1626294704744948.000,-43.457,-10.742,-15.625,-135.254,1.000
1626294704748854.250,-87.402,-21.484,-46.387,-168.945,1.000
1626294704752760.500,-89.355,-9.766,-35.645,30.273,1.000
1626294704756666.750,-3.418,-63.477,-35.156,98.145,1.000
1626294704760573.000,26.367,-84.961,-31.250,-89.355,1.000
1626294704764479.250,-54.688,-37.109,-32.715,-195.312,1.000
1626294704768385.500,-87.402,-27.344,-34.668,-8.789,1.000
1626294704772291.750,-2.441,-5.859,-27.832,137.695,1.000
1626294704776198.000,24.414,-62.012,-40.039,-23.926,1.000
1626294704780104.250,-44.922,-62.012,-57.617,-197.754,1.000
1626294704784010.500,-110.352,-18.555,-68.359,-71.777,1.000
1626294704787916.750,-50.293,4.883,-44.922,122.559,1.000
1626294704791823.000,53.711,20.996,-11.230,31.738,1.000
1626294704795729.250,43.457,0.000,-26.367,113.770,1.000
1626294704799635.500,-13.672,-8.301,-40.039,-62.012,1.000
1626294704803541.750,-108.398,-77.637,-44.434,-218.262,1.000
1626294704807448.000,-64.941,-89.355,-50.293,-67.871,1.000
1626294704811354.250,40.039,-13.184,-23.926,125.977,1.000
1626294704815260.500,24.902,8.301,-12.695,18.066,1.000
1626294704819166.750,-62.012,2.930,-37.598,-161.621,1.000
1626294704823073.000,-67.871,-66.406,-61.523,-92.285,1.000
1626294704826979.250,30.762,-49.805,-39.062,112.793,1.000
1626294704830885.500,45.410,-7.812,-12.695,80.566,1.000
1626294704834791.750,-51.270,-30.762,-8.301,-137.695,1.000
1626294704838698.000,-72.266,-13.184,-20.020,-136.230,1.000
1626294704842604.250,-80.566,-33.691,-45.410,-107.422,1.000
1626294704846510.500,4.395,-5.859,-36.133,90.820,1.000
1626294704850416.750,37.598,-11.230,-35.156,72.266,1.000
1626294704854323.000,-53.711,-27.344,-39.062,-138.184,1.000
1626294704858229.250,-103.027,-23.438,-41.504,-166.504,1.000
1626294704862135.500,-9.766,-20.020,-28.809,45.898,1.000
1626294704866041.750,64.941,-0.977,1.465,136.719,1.000
1626294704869948.000,-22.461,-53.711,-14.160,-66.895,1.000
1626294704873854.250,-99.121,-72.266,-38.574,-180.664,1.000
1626294704877760.500,-25.391,-10.742,-23.926,10.742,1.000
1626294704881666.750,43.457,24.902,-26.855,143.066,1.000
1626294704885573.000,-14.160,3.906,-34.668,-22.461,1.000
1626294704889479.250,-48.340,-30.273,-45.410,-205.566,1.000
1626294704893385.500,-106.445,-21.484,-46.387,-65.918,1.000
1626294704897291.750,-59.570,-67.871,-41.992,142.090,1.000
1626294704901198.000,15.137,-59.570,-35.156,36.133,1.000
1626294704905104.250,-9.277,-7.324,-34.180,-193.848,1.000
1626294704909010.500,-89.355,-22.461,-21.484,-143.555,1.000
1626294704912916.750,-58.594,-16.602,-14.648,113.770,1.000
1626294704916823.000,17.578,-51.270,-28.320,108.887,1.000
1626294704920729.250,14.648,-51.758,-35.645,-112.793,1.000
1626294704924635.500,-64.941,-25.879,-40.039,-161.133,1.000
1626294704928541.750,-78.125,-27.344,-26.855,65.918,1.000
1626294704932448.000,0.000,-20.020,-19.531,149.902,1.000
1626294704936354.250,28.809,-5.371,-18.066,124.023,1.000
1626294704940260.500,29.785,-9.277,-11.719,73.730,1.000
1626294704944166.750,-96.680,-53.711,-27.832,-174.805,1.000
1626294704948073.000,-116.699,-57.129,-34.180,-167.480,1.000
1626294704951979.250,-1.465,-17.578,-15.137,73.730,1.000
1626294704955885.500,38.574,-35.156,-33.203,111.328,1.000
1626294704959791.750,-25.391,-20.508,-31.250,-83.496,1.000
1626294704963698.000,-87.891,-26.367,-25.879,-172.363,1.000
1626294704967604.250,-35.156,-39.062,-36.621,2.930,1.000
1626294704971510.500,40.039,-3.906,-32.715,124.023,1.000
1626294704975416.750,-21.973,-0.488,-32.227,-42.480,1.000
1626294704979323.000,-122.559,-27.344,-35.156,-207.520,1.000
1626294704983229.250,-112.793,-55.176,-44.434,1.000,1.000
1626294704987135.500,-30.273,3.906,-36.133,1.000,1.000
1626294704991041.750,49.316,-4.883,-19.043,1.000,1.000
1626294704994948.000,-22.949,-48.340,-23.438,1.000,1.000
1626294704998854.250,-108.398,-28.809,-38.574,1.000,1.000
1626294705002760.500,-74.707,-32.227,-56.641,1.000,1.000
1626294705006666.750,12.695,-32.227,-43.945,1.000,1.000
1626294705010573.000,-12.695,-73.242,-48.340,1.000,1.000
1626294705014479.250,-99.121,-99.609,-36.621,1.000,1.000
1626294705018385.500,-83.984,-61.035,-16.602,1.000,1.000
1626294705022291.750,9.277,0.000,-3.906,1.000,1.000
1626294705026198.000,30.273,23.438,16.602,1.000,1.000
1626294705030104.250,46.387,15.625,-9.766,61.523,1.000
1626294705034010.500,-66.895,10.254,-33.203,-175.781,1.000
1626294705037916.750,-116.699,-69.336,-59.570,-177.246,1.000
1626294705041823.000,-18.066,-76.660,-46.875,44.434,1.000
1626294705045729.250,31.250,-9.766,-26.367,79.590,1.000
1626294705049635.500,-67.383,-20.508,-37.109,-132.324,1.000
1626294705053541.750,-101.562,-4.395,-41.504,-181.641,1.000
1626294705057448.000,-10.742,-23.438,-34.668,31.738,1.000
1626294705061354.250,61.035,-33.203,-30.273,138.672,1.000
1626294705065260.500,-1.465,-32.715,-37.109,-41.992,1.000
1626294705069166.750,-91.309,-53.223,-35.645,-184.570,1.000
1626294705073073.000,-48.828,-45.898,-25.879,-40.039,1.000
1626294705076979.250,-2.930,15.625,-5.859,33.203,1.000
1626294705080885.500,55.176,17.090,-13.184,148.926,1.000
1626294705084791.750,-41.016,-57.129,-56.152,-65.918,1.000
1626294705088698.000,-124.023,-69.336,-74.707,-219.727,1.000
1626294705092604.250,-54.199,-12.695,-37.109,-38.574,1.000
1626294705096510.500,20.508,-36.621,-14.160,124.512,1.000
1626294705100416.750,-14.160,-30.762,-34.180,-0.977,1.000
1626294705104323.000,-96.191,-45.410,-47.363,-196.777,1.000
1626294705108229.250,-67.383,-57.617,-19.531,-95.703,1.000
1626294705112135.500,27.832,-28.809,-3.906,123.535,1.000
1626294705116041.750,33.203,-13.184,-32.715,77.148,1.000
1626294705119948.000,-76.172,-23.438,-41.504,-144.531,1.000
1626294705123854.250,-88.867,-24.414,-29.297,-175.293,1.000
1626294705127760.500,-93.262,-10.254,-33.691,-131.348,1.000
1626294705131666.750,0.000,-55.664,-36.621,84.473,1.000
1626294705135573.000,21.484,-71.777,-31.738,83.496,1.000
1626294705139479.250,-52.246,-21.484,-27.832,-117.188,1.000
1626294705143385.500,-84.961,-29.297,-38.574,-147.949,1.000
1626294705147291.750,-2.441,-17.578,-30.273,61.035,1.000
1626294705151198.000,52.734,-8.301,-26.367,140.625,1.000
1626294705155104.250,-17.578,-20.508,-22.461,-48.340,1.000
1626294705159010.500,-92.285,-36.621,-25.391,-177.734,1.000
1626294705162916.750,-29.785,-34.180,-38.574,-18.066,1.000
1626294705166823.000,59.082,-22.461,-19.043,142.578,1.000
1626294705170729.250,40.039,-21.484,-23.438,131.348,1.000
1626294705174635.500,-16.113,-16.602,-32.715,-42.969,1.000
1626294705178541.750,-76.172,-32.227,-22.949,-160.156,1.000
1626294705182448.000,-25.879,-39.551,-18.555,-7.812,1.000
1626294705186354.250,34.668,-21.973,-23.926,146.973,1.000
1626294705190260.500,-14.648,-39.062,-38.574,10.254,1.000
1626294705194166.750,-98.145,-62.500,-42.969,-176.758,1.000
1626294705198073.000,-68.848,-76.172,-39.551,-73.242,1.000
1626294705201979.250,15.625,-39.551,-38.086,125.488,1.000
1626294705205885.500,-2.441,-13.672,-47.363,51.270,1.000
1626294705209791.750,-93.262,-25.391,-43.945,-167.969,1.000
1626294705213698.000,-105.957,-20.508,-41.016,-149.902,1.000
1626294705217604.250,-72.266,-9.766,-31.250,-109.375,1.000
1626294705221510.500,20.508,-2.930,-43.457,101.562,1.000
1626294705225416.750,10.254,-70.312,-48.340,60.547,1.000
1626294705229323.000,-85.449,-101.074,-37.598,-162.598,1.000
1626294705233229.250,-76.172,-24.902,1.465,-145.020,1.000
1626294705237135.500,7.812,-20.508,13.184,72.266,1.000
1626294705241041.750,35.645,-7.324,-8.789,110.352,1.000
1626294705244948.000,-52.734,-47.363,-46.387,-111.328,1.000
1626294705248854.250,-114.746,-68.359,-48.340,-202.148,1.000
1626294705252760.500,-24.414,-5.859,-29.785,11.230,1.000
1626294705256666.750,71.289,16.113,-38.574,156.738,1.000
1626294705260573.000,17.090,0.000,-36.621,0.977,1.000
1626294705264479.250,-37.109,-13.184,-23.926,-86.426,1.000
1626294705268385.500,-95.703,-6.348,-29.785,-195.312,1.000
1626294705272291.750,-46.875,-59.082,-45.410,-22.949,1.000
1626294705276198.000,23.438,-70.801,-38.086,118.652,1.000
1626294705280104.250,-16.113,-29.297,-40.039,-24.414,1.000
1626294705284010.500,-100.098,-42.969,-40.527,-193.848,1.000
1626294705287916.750,-53.711,-14.648,-36.621,-65.430,1.000
1626294705291823.000,41.016,-41.504,-29.297,126.465,1.000
1626294705295729.250,8.789,-61.035,-12.695,37.109,1.000
1626294705299635.500,-94.727,-38.086,-21.484,-174.316,1.000
1626294705303541.750,-82.520,-16.602,-34.180,-124.023,1.000
1626294705307448.000,30.762,-7.324,-16.113,120.605,1.000
1626294705311354.250,20.020,-13.672,-30.273,106.445,1.000
1626294705315260.500,23.438,-17.578,-22.949,64.941,1.000
1626294705319166.750,-68.359,-93.262,-27.344,-141.602,1.000
1626294705323073.000,-94.238,-101.562,-40.527,-139.648,1.000
1626294705326979.250,8.789,-4.395,-27.832,78.125,1.000
1626294705330885.500,45.410,8.301,-13.672,103.027,1.000
1626294705334791.750,-38.086,-10.254,-24.414,-116.699,1.000
1626294705338698.000,-117.676,-80.566,-59.570,-219.727,1.000
1626294705342604.250,-40.527,-60.547,-41.504,-11.719,1.000
1626294705346510.500,72.266,26.367,-7.324,140.137,1.000
1626294705350416.750,7.324,21.973,-35.645,-31.738,1.000
1626294705354323.000,-97.656,-5.859,-59.570,-186.035,1.000
1626294705358229.250,-96.680,-31.738,-37.109,1.000,1.000
1626294705362135.500,-25.879,-25.879,-25.879,1.000,1.000
1626294705366041.750,46.875,-44.434,-17.090,1.000,1.000
1626294705369948.000,-0.977,-36.133,-29.297,1.000,1.000
1626294705373854.250,-86.914,4.395,-40.039,1.000,1.000
1626294705377760.500,-66.406,-7.812,-49.316,1.000,1.000
1626294705381666.750,28.320,-0.977,-44.434,1.000,1.000
1626294705385573.000,3.418,-53.223,-34.668,1.000,1.000
1626294705389479.250,-76.172,-65.430,-48.828,1.000,1.000
1626294705393385.500,-70.801,-22.461,-35.645,1.000,1.000
1626294705397291.750,-13.184,-18.066,-11.719,1.000,1.000
1626294705401198.000,13.184,-13.184,-29.297,1.000,1.000
1626294705405104.250,26.367,-4.883,-23.438,64.453,1.000
1626294705409010.500,-100.098,-26.367,-47.852,-173.828,1.000
1626294705412916.750,-121.582,-97.656,-61.035,-160.156,1.000
1626294705416823.000,-15.625,-89.844,-52.246,70.312,1.000
1626294705420729.250,36.133,-0.488,-40.527,92.773,1.000
1626294705424635.500,-86.426,2.930,-36.621,-137.207,1.000
1626294705428541.750,-141.113,5.371,-19.531,-188.477,1.000
1626294705432448.000,-38.086,-38.086,-26.855,23.926,1.000
1626294705436354.250,53.223,-42.969,-43.457,115.723,1.000
1626294705440260.500,-21.973,-12.207,-35.156,-54.688,1.000
1626294705444166.750,-119.141,-13.672,-25.879,-177.734,1.000
1626294705448073.000,-58.594,-31.250,-30.273,-31.738,1.000
1626294705451979.250,-31.250,-18.066,-21.484,27.832,1.000
1626294705455885.500,37.109,-0.488,-15.625,140.625,1.000
1626294705459791.750,-20.508,-44.434,-24.414,-39.551,1.000
1626294705463698.000,-108.398,-62.012,-25.879,-206.055,1.000
1626294705467604.250,-67.871,-11.719,-27.344,-61.035,1.000
1626294705471510.500,36.133,-9.766,-18.066,138.672,1.000
1626294705475416.750,10.254,5.371,-24.902,29.297,1.000
1626294705479323.000,-105.469,-48.340,-55.664,-202.148,1.000
1626294705483229.250,-98.633,-78.613,-44.434,-128.418,1.000
1626294705487135.500,17.578,-38.086,-24.902,96.680,1.000
1626294705491041.750,28.320,-23.438,-37.109,59.082,1.000
1626294705494948.000,-70.312,12.207,-24.414,-136.230,1.000
1626294705498854.250,-66.895,4.883,-19.531,-145.508,1.000
1626294705502760.500,-64.453,8.789,-23.926,54.688,1.000
1626294705506666.750,17.090,-34.668,-34.668,120.117,1.000
1626294705510573.000,41.504,-56.152,-45.410,-72.754,1.000
1626294705514479.250,-39.551,-30.762,-37.109,-181.641,1.000
1626294705518385.500,-81.543,-18.066,-15.137,-21.484,1.000
1626294705522291.750,2.930,17.090,-8.789,112.793,1.000
1626294705526198.000,39.551,-48.828,-30.273,-25.391,1.000
1626294705530104.250,-61.523,-86.426,-58.594,-179.688,1.000
1626294705534010.500,-126.465,-46.387,-57.617,-63.965,1.000
1626294705537916.750,-48.340,-25.879,-34.180,107.422,1.000
1626294705541823.000,41.016,-5.859,-27.344,19.531,1.000
1626294705545729.250,72.754,38.574,9.766,147.461,1.000
1626294705549635.500,-25.391,-3.906,-34.668,-58.594,1.000
1626294705553541.750,-135.742,-96.680,-77.637,-231.934,1.000
1626294705557448.000,-69.824,-95.215,-64.453,-71.777,1.000
1626294705561354.250,58.594,16.113,-2.441,139.648,1.000
1626294705565260.500,13.184,10.254,-4.395,5.859,1.000
1626294705569166.750,-95.215,-13.672,-20.508,-199.707,1.000
1626294705573073.000,-74.219,-65.430,-24.414,-100.586,1.000
1626294705576979.250,41.992,-61.035,-27.344,133.301,1.000
1626294705580885.500,41.992,-35.156,-45.410,80.078,1.000
1626294705584791.750,-53.223,-38.086,-37.598,-140.625,1.000
1626294705588698.000,-54.199,6.348,-12.207,-113.770,1.000
1626294705592604.250,-65.918,-16.602,-21.484,1.000,1.000
1626294705596510.500,34.180,6.836,-1.465,1.000,1.000
1626294705600416.750,52.246,-44.922,1.953,1.000,1.000
1626294705604323.000,-41.504,-73.242,0.488,1.000,1.000
1626294705608229.250,-72.266,-23.438,-11.230,1.000,1.000
1626294705612135.500,-3.418,-13.184,-41.992,1.000,1.000
1626294705616041.750,42.480,15.625,-27.832,1.000,1.000
1626294705619948.000,-35.156,-50.293,-35.645,1.000,1.000
1626294705623854.250,-96.680,-84.473,-76.172,1.000,1.000
1626294705627760.500,-21.973,-20.996,-41.016,1.000,1.000
1626294705631666.750,45.898,3.906,-4.395,1.000,1.000
1626294705635573.000,-16.602,4.395,-16.602,1.000,1.000
1626294705639479.250,-19.531,-13.672,-13.184,-70.801,1.000
1626294705643385.500,-86.426,-35.156,-15.137,-175.293,1.000
1626294705647291.750,-40.039,-72.754,-45.410,-22.949,1.000
1626294705651198.000,34.180,-78.125,-57.129,110.352,1.000
1626294705655104.250,-0.977,-42.969,-50.293,-27.832,1.000
1626294705659010.500,-92.285,-32.227,-49.805,-196.289,1.000
1626294705662916.750,-67.871,-3.418,-39.551,-80.566,1.000
1626294705666823.000,25.391,-14.160,-23.438,118.164,1.000
1626294705670729.250,18.555,-10.742,-23.926,46.387,1.000
1626294705674635.500,-65.430,-2.930,-22.461,-155.273,1.000
1626294705678541.750,-55.176,-5.859,-9.766,-104.980,1.000
1626294705682448.000,51.758,8.301,-10.254,125.488,1.000
1626294705686354.250,27.832,-5.371,-14.160,124.512,1.000
1626294705690260.500,2.930,-19.531,-32.227,35.645,1.000
1626294705694166.750,-86.426,-66.895,-41.992,-170.898,1.000
1626294705698073.000,-93.750,-75.195,-52.734,-146.973,1.000
1626294705701979.250,13.184,-24.414,-21.484,81.543,1.000
1626294705705885.500,40.527,-19.043,-10.254,102.539,1.000
1626294705709791.750,-63.477,-0.977,-42.480,-119.629,1.000
1626294705713698.000,-130.371,-58.105,-45.898,-193.359,1.000
1626294705717604.250,-35.156,-50.781,-19.043,20.020,1.000
1626294705721510.500,55.664,8.301,-15.625,148.926,1.000
1626294705725416.750,-15.625,-6.348,-17.578,-40.039,1.000
1626294705729323.000,-99.121,-13.672,-8.301,-187.500,1.000
1626294705733229.250,-122.070,-38.574,-44.434,1.000,1.000
1626294705737135.500,-41.016,-31.250,-30.273,1.000,1.000
1626294705741041.750,35.645,-62.988,-34.180,1.000,1.000
1626294705744948.000,-20.996,-55.176,-37.598,1.000,1.000
1626294705748854.250,-105.957,-9.277,-21.973,1.000,1.000
1626294705752760.500,-70.312,-18.066,-15.625,1.000,1.000
1626294705756666.750,27.832,0.977,-18.555,1.000,1.000
1626294705760573.000,-2.441,-41.504,-31.738,1.000,1.000
1626294705764479.250,-103.027,-61.035,-51.758,1.000,1.000
1626294705768385.500,-69.336,-6.348,-35.156,1.000,1.000
1626294705772291.750,57.129,15.137,-1.465,1.000,1.000
1626294705776198.000,63.965,-11.230,-7.812,1.000,1.000
1626294705780104.250,31.738,-10.254,-10.742,58.105,1.000
1626294705784010.500,-65.918,-16.113,-48.828,-152.344,1.000
1626294705787916.750,-103.027,-68.359,-68.359,-150.391,1.000
1626294705791823.000,-25.391,-71.777,-44.434,52.734,1.000
1626294705795729.250,30.762,3.418,-15.137,93.262,1.000
1626294705799635.500,-67.871,-10.742,-33.203,-128.906,1.000
1626294705803541.750,-115.234,-14.160,-23.438,-181.152,1.000
1626294705807448.000,-42.969,-44.922,-28.320,14.160,1.000
1626294705811354.250,19.531,-43.457,-30.762,112.305,1.000
1626294705815260.500,-29.785,-6.836,-23.438,-60.059,1.000
1626294705819166.750,-87.891,-18.066,-26.367,-168.457,1.000
1626294705823073.000,-14.648,-18.066,-22.461,13.184,1.000
1626294705826979.250,-19.043,-22.461,-49.805,26.855,1.000
1626294705830885.500,51.270,-32.227,-44.922,137.207,1.000
1626294705834791.750,-41.016,-119.629,-50.293,-68.359,1.000
1626294705838698.000,-133.789,-123.047,-51.270,-217.285,1.000
1626294705842604.250,-55.664,-17.090,-17.578,-29.785,1.000
1626294705846510.500,33.203,7.324,-6.348,142.578,1.000
1626294705850416.750,11.230,28.809,-16.602,28.809,1.000
1626294705854323.000,-97.656,-31.250,-31.250,-183.105,1.000
1626294705858229.250,-76.172,-54.688,-16.113,-93.262,1.000
1626294705862135.500,44.434,-9.766,5.859,142.090,1.000
1626294705866041.750,39.062,-9.277,-20.020,90.332,1.000
1626294705869948.000,-78.125,-16.113,-73.242,-155.273,1.000
1626294705873854.250,-80.566,-20.996,-22.949,-187.500,1.000
1626294705877760.500,-59.082,-6.348,-14.160,48.828,1.000
1626294705881666.750,4.883,-76.172,-25.879,110.840,1.000
1626294705885573.000,0.488,-88.379,-42.969,-89.844,1.000
1626294705889479.250,-59.082,7.324,-29.297,-175.293,1.000
1626294705893385.500,-84.961,-11.719,-26.367,6.348,1.000
1626294705897291.750,6.348,-7.324,-0.488,149.902,1.000
1626294705901198.000,42.969,-37.598,-6.836,-41.992,1.000
1626294705905104.250,-25.879,-38.086,-37.598,-185.059,1.000
1626294705909010.500,-81.055,-14.648,-49.316,-49.805,1.000
1626294705912916.750,-9.766,-10.742,-19.043,95.703,1.000
1626294705916823.000,60.059,-7.812,-2.930,19.043,1.000
1626294705920729.250,47.852,-37.598,-18.555,119.629,1.000
1626294705924635.500,-12.207,-16.113,-24.902,-49.805,1.000
1626294705928541.750,-119.629,-76.172,-62.988,-199.707,1.000
1626294705932448.000,-65.430,-68.359,-59.082,-41.016,1.000
1626294705936354.250,46.875,12.695,-25.879,134.766,1.000
1626294705940260.500,0.000,-17.090,-26.855,-7.324,1.000
1626294705944166.750,-90.820,-15.625,-29.785,-181.152,1.000
1626294705948073.000,-79.102,-48.828,-38.086,-90.332,1.000
1626294705951979.250,18.066,-44.922,-27.344,109.375,1.000
1626294705955885.500,33.691,-9.766,-3.418,67.383,1.000
1626294705959791.750,-60.547,-31.738,-14.160,-141.113,1.000
1626294705963698.000,-81.543,-35.645,-31.738,-128.418,1.000
1626294705967604.250,-39.062,-3.906,-17.090,-61.523,1.000
1626294705971510.500,36.133,8.789,-25.879,129.883,1.000
1626294705975416.750,4.395,-74.219,-51.270,44.434,1.000
1626294705979323.000,-94.238,-119.629,-62.500,-178.223,1.000
1626294705983229.250,-79.102,-27.344,-45.898,-134.766,1.000
1626294705987135.500,7.812,1.953,-41.016,83.008,1.000
1626294705991041.750,39.062,17.090,-36.133,118.164,1.000
1626294705994948.000,-45.898,-24.902,-40.527,-91.797,1.000
1626294705998854.250,-100.098,-37.598,-24.902,-169.922,1.000
1626294706002760.500,-20.020,-6.348,-11.230,31.250,1.000
1626294706006666.750,57.617,0.488,-20.020,146.973,1.000
1626294706010573.000,8.301,11.719,-20.996,-22.949,1.000
1626294706014479.250,-21.484,-16.602,-33.203,-65.430,1.000
1626294706018385.500,-69.336,-34.180,-21.973,-153.809,1.000
1626294706022291.750,-17.578,-65.430,-18.066,17.090,1.000
1626294706026198.000,26.367,-51.270,-33.203,120.117,1.000
1626294706030104.250,-25.391,0.488,-37.109,-41.016,1.000
1626294706034010.500,-110.352,-29.297,-34.668,-210.938,1.000
1626294706037916.750,-62.500,-26.855,-8.301,-70.801,1.000
1626294706041823.000,28.320,-40.527,-29.785,120.605,1.000
1626294706045729.250,9.766,-40.527,-61.035,26.367,1.000
1626294706049635.500,-73.730,-10.742,-42.969,-173.340,1.000
1626294706053541.750,-75.684,-15.137,-29.785,-131.348,1.000
1626294706057448.000,27.344,-25.391,-7.812,98.633,1.000
1626294706061354.250,39.551,-28.809,-18.555,119.141,1.000
1626294706065260.500,41.992,-1.465,-16.602,68.359,1.000
1626294706069166.750,-55.664,-37.598,-22.949,-151.367,1.000
1626294706073073.000,-85.938,-58.594,-35.156,-138.672,1.000
1626294706076979.250,-4.395,-18.066,-37.109,78.125,1.000
1626294706080885.500,56.641,4.883,-13.184,108.887,1.000
1626294706084791.750,-32.227,13.184,-42.969,-113.281,1.000
1626294706088698.000,-110.840,-30.273,-71.289,-198.242,1.000
1626294706092604.250,-35.156,-49.805,-45.898,3.418,1.000
1626294706096510.500,41.016,-26.367,-22.949,119.629,1.000
1626294706100416.750,-25.879,-26.855,-29.297,-48.340,1.000
1626294706104323.000,-105.469,-36.133,-26.367,-183.105,1.000
1626294706108229.250,-93.750,-22.461,-20.996,1.000,1.000
1626294706112135.500,-0.977,2.441,-14.160,1.000,1.000
1626294706116041.750,89.844,-43.945,-3.906,1.000,1.000
1626294706119948.000,-21.484,-86.426,-29.785,1.000,1.000
1626294706123854.250,-120.605,-33.691,-38.086,1.000,1.000
1626294706127760.500,-67.383,-25.879,-22.461,1.000,1.000
1626294706131666.750,34.180,-20.020,-18.066,1.000,1.000
1626294706135573.000,0.000,-85.449,-43.945,1.000,1.000
1626294706139479.250,-98.633,-80.078,-61.523,1.000,1.000
1626294706143385.500,-78.125,-13.184,-52.246,1.000,1.000
1626294706147291.750,23.926,-18.555,-35.156,1.000,1.000
1626294706151198.000,36.133,-22.949,-14.160,1.000,1.000
1626294706155104.250,20.020,2.441,-35.645,42.969,1.000
1626294706159010.500,-81.543,-23.926,-28.320,-165.527,1.000
1626294706162916.750,-82.520,-72.754,-24.902,-111.328,1.000
1626294706166823.000,36.621,-43.457,-31.250,95.703,1.000
1626294706170729.250,45.898,22.949,-18.555,93.262,1.000
1626294706174635.500,-84.473,-14.160,-19.531,-132.812,1.000
1626294706178541.750,-101.562,-10.254,-23.926,-164.551,1.000
1626294706182448.000,-30.273,-58.594,-55.664,23.926,1.000
1626294706186354.250,36.133,-70.312,-51.270,110.352,1.000
1626294706190260.500,-12.695,-13.672,-32.227,-62.988,1.000
1626294706194166.750,-103.516,-16.113,-22.949,-193.359,1.000
1626294706198073.000,-54.199,-10.254,-20.020,-12.207,1.000
1626294706201979.250,4.395,-3.906,-28.320,36.621,1.000
1626294706205885.500,45.410,8.789,-5.371,159.180,1.000
1626294706209791.750,-45.410,-58.594,-32.715,-48.340,1.000
1626294706213698.000,-112.793,-107.910,-58.594,-213.379,1.000
1626294706217604.250,-34.180,-6.348,-34.180,-25.879,1.000
1626294706221510.500,48.828,-7.812,-22.949,150.879,1.000
1626294706225416.750,1.465,-30.762,-22.461,22.461,1.000
1626294706229323.000,-109.863,-80.566,-55.664,-184.570,1.000
1626294706233229.250,-79.102,-68.359,-58.594,-108.887,1.000
1626294706237135.500,19.531,-10.254,-10.254,101.562,1.000
1626294706241041.750,5.371,5.859,-9.277,55.176,1.000
1626294706244948.000,-93.262,22.949,-38.574,-168.457,1.000
1626294706248854.250,-77.637,-9.766,-43.457,-153.809,1.000
1626294706252760.500,-66.406,-2.441,-11.230,82.031,1.000
1626294706256666.750,14.648,-59.082,-10.742,121.582,1.000
1626294706260573.000,22.949,-91.309,-18.066,-85.449,1.000
1626294706264479.250,-37.109,-25.391,-19.043,-162.109,1.000
1626294706268385.500,-69.824,-28.320,-33.691,16.602,1.000
1626294706272291.750,3.418,-34.180,-22.949,136.230,1.000
1626294706276198.000,37.598,-35.645,-29.297,-39.062,1.000
1626294706280104.250,-49.316,-16.113,-41.504,-204.590,1.000
1626294706284010.500,-95.703,9.277,-22.461,-76.660,1.000
1626294706287916.750,-35.645,2.441,-18.066,106.445,1.000
1626294706291823.000,20.996,0.000,-30.762,33.691,1.000
1626294706295729.250,53.223,6.836,-39.551,119.141,1.000
1626294706299635.500,-22.461,22.949,-47.363,-81.055,1.000
1626294706303541.750,-113.770,-64.453,-31.250,-215.820,1.000
1626294706307448.000,-64.941,-98.145,-17.090,-49.316,1.000
1626294706311354.250,33.203,-14.160,-8.301,103.516,1.000
1626294706315260.500,-7.324,-11.230,-34.668,-43.457,1.000
1626294706319166.750,-83.984,-22.949,-43.457,-187.988,1.000
1626294706323073.000,-70.312,-60.059,-35.156,-92.285,1.000
1626294706326979.250,25.391,-24.414,-17.578,105.469,1.000
1626294706330885.500,37.598,12.207,-37.109,59.082,1.000
1626294706334791.750,-66.895,-18.555,-81.543,-166.504,1.000
1626294706338698.000,-91.797,-23.438,-56.152,-161.621,1.000
1626294706342604.250,-86.914,-4.395,-28.320,1.000,1.000
1626294706346510.500,10.742,-0.977,-15.625,1.000,1.000
1626294706350416.750,12.207,-54.688,-29.785,1.000,1.000
1626294706354323.000,-92.773,-72.266,-38.086,1.000,1.000
1626294706358229.250,-109.863,-31.738,-23.926,1.000,1.000
1626294706362135.500,-10.742,-40.527,-13.672,1.000,1.000
1626294706366041.750,55.176,3.418,-7.324,1.000,1.000
1626294706369948.000,-30.762,-33.691,-25.879,1.000,1.000
1626294706373854.250,-109.863,-49.316,-36.133,1.000,1.000
1626294706377760.500,-40.039,2.930,-19.043,1.000,1.000
1626294706381666.750,26.367,13.672,-24.414,1.000,1.000
1626294706385573.000,-26.855,2.441,-37.109,1.000,1.000
1626294706389479.250,-35.645,4.883,-20.996,-74.707,1.000
1626294706393385.500,-92.285,-12.207,-24.414,-168.457,1.000
1626294706397291.750,-12.207,-63.477,-32.715,21.484,1.000
1626294706401198.000,61.035,-58.105,-25.391,152.832,1.000
1626294706405104.250,-5.371,-20.020,-18.066,-15.137,1.000
1626294706409010.500,-93.262,-21.484,-36.133,-184.082,1.000
1626294706412916.750,-59.082,-26.367,-42.480,-62.500,1.000
1626294706416823.000,34.180,-90.820,-15.137,131.836,1.000
1626294706420729.250,14.648,-60.547,-28.809,36.133,1.000
1626294706424635.500,-85.938,11.230,-55.664,-185.547,1.000
1626294706428541.750,-91.309,2.930,-43.457,-140.137,1.000
1626294706432448.000,0.000,3.906,-23.438,85.449,1.000
1626294706436354.250,6.836,-0.977,-21.484,108.887,1.000
1626294706440260.500,3.418,-8.789,-33.203,33.691,1.000
1626294706444166.750,-85.938,-97.168,-42.480,-166.016,1.000
1626294706448073.000,-78.613,-104.004,-31.250,-118.164,1.000
1626294706451979.250,3.906,1.465,-24.414,89.844,1.000
1626294706455885.500,12.207,-3.418,-27.344,86.426,1.000
1626294706459791.750,-67.871,-35.645,-36.621,-124.023,1.000
1626294706463698.000,-113.770,-84.961,-50.781,-185.059,1.000
1626294706467604.250,-34.180,-50.293,-36.621,17.578,1.000
1626294706471510.500,43.457,-1.953,-13.184,131.348,1.000
1626294706475416.750,-23.926,-10.254,-13.184,-55.664,1.000
1626294706479323.000,-112.305,-10.254,-31.250,-192.383,1.000
1626294706483229.250,-103.516,-22.949,-44.434,-25.391,1.000
1626294706487135.500,-13.672,3.418,-32.227,152.832,1.000
1626294706491041.750,57.129,-15.137,-27.344,26.855,1.000
1626294706494948.000,-23.438,-54.199,-44.434,-165.039,1.000
1626294706498854.250,-80.566,-24.414,-40.527,-75.195,1.000
1626294706502760.500,14.648,-7.324,-27.344,121.582,1.000
1626294706506666.750,80.078,-39.062,3.906,66.406,1.000
1626294706510573.000,6.348,-73.242,2.441,-129.395,1.000
1626294706514479.250,-90.332,-30.273,-38.086,-109.375,1.000
1626294706518385.500,-50.293,-19.043,-44.922,79.590,1.000
1626294706522291.750,33.203,-10.254,-54.199,104.492,1.000
1626294706526198.000,-10.254,-16.602,-62.012,-102.539,1.000
1626294706530104.250,-24.414,-20.508,-13.672,-63.965,1.000
1626294706534010.500,-77.637,-33.691,-20.508,-162.109,1.000
1626294706537916.750,-6.836,-62.012,-17.090,13.184,1.000
1626294706541823.000,59.082,-30.762,-15.137,138.672,1.000
1626294706545729.250,-23.438,-40.527,-48.340,-42.480,1.000
1626294706549635.500,-118.652,-45.410,-65.918,-208.984,1.000
1626294706553541.750,-71.777,-28.320,-39.062,-65.430,1.000
1626294706557448.000,36.621,-32.227,-24.414,136.719,1.000
1626294706561354.250,30.762,9.766,-38.574,56.152,1.000
1626294706565260.500,-58.105,12.207,-49.805,-149.414,1.000
1626294706569166.750,-70.801,-6.348,-47.852,-122.559,1.000
1626294706573073.000,11.230,-32.715,-25.879,86.426,1.000
1626294706576979.250,42.969,-2.930,-17.090,136.230,1.000
1626294706580885.500,33.691,-26.367,-15.137,67.871,1.000
1626294706584791.750,-89.844,-117.676,-41.504,-181.641,1.000
1626294706588698.000,-95.215,-66.895,-53.711,-157.715,1.000
1626294706592604.250,12.207,-28.809,-35.156,77.637,1.000
1626294706596510.500,43.457,-14.648,-27.344,110.840,1.000
1626294706600416.750,-62.500,-16.113,-43.945,-124.023,1.000
1626294706604323.000,-136.719,-62.012,-49.316,-211.914,1.000
1626294706608229.250,-29.297,-14.648,-31.738,19.043,1.000
1626294706612135.500,48.828,-11.230,-22.461,133.301,1.000
1626294706616041.750,-14.648,-18.066,-25.391,-40.039,1.000
1626294706619948.000,-86.914,-38.086,-56.641,-175.781,1.000
1626294706623854.250,-97.656,-16.113,-33.691,-38.574,1.000
1626294706627760.500,-19.043,-15.137,-16.602,130.371,1.000
1626294706631666.750,31.738,-91.797,-23.438,3.418,1.000
1626294706635573.000,-20.508,-36.621,-38.574,-180.664,1.000
1626294706639479.250,-103.516,-18.066,-53.711,-113.770,1.000
1626294706643385.500,-58.105,-31.738,-32.715,83.984,1.000
1626294706647291.750,28.809,-42.480,-28.809,70.312,1.000
1626294706651198.000,-3.906,-111.328,-34.668,-144.531,1.000
1626294706655104.250,-88.867,-55.176,-22.949,-155.273,1.000
1626294706659010.500,-85.938,-0.488,-26.367,48.828,1.000
1626294706662916.750,9.766,12.207,-21.973,103.027,1.000
1626294706666823.000,6.348,-2.930,-49.316,-95.703,1.000
1626294706670729.250,21.973,5.859,-25.391,41.992,1.000
1626294706674635.500,-84.961,-5.371,-58.105,-177.246,1.000
1626294706678541.750,-108.887,-95.703,-74.219,-153.809,1.000
1626294706682448.000,9.277,-45.410,-36.621,89.844,1.000
1626294706686354.250,32.715,3.906,-30.762,89.844,1.000
1626294706690260.500,-48.828,20.996,-19.531,-116.211,1.000
1626294706694166.750,-92.773,-19.043,-30.762,-165.039,1.000
1626294706698073.000,-39.551,-95.703,-65.918,14.648,1.000
1626294706701979.250,41.992,-29.297,-36.133,123.535,1.000
1626294706705885.500,-10.254,0.977,-17.578,-46.387,1.000
1626294706709791.750,-75.684,-30.762,-17.090,-159.668,1.000
1626294706713698.000,-25.879,-48.828,-13.184,-4.883,1.000
1626294706717604.250,-12.207,4.883,-16.113,1.000,1.000
1626294706721510.500,56.641,14.160,-22.949,1.000,1.000
1626294706725416.750,-38.086,-72.266,-70.312,1.000,1.000
1626294706729323.000,-98.145,-50.781,-63.477,1.000,1.000
1626294706733229.250,-33.203,-24.902,-32.227,1.000,1.000
1626294706737135.500,46.875,-13.184,-10.254,1.000,1.000
1626294706741041.750,2.930,-33.203,-21.484,1.000,1.000
1626294706744948.000,-121.582,-113.281,-47.852,1.000,1.000
1626294706748854.250,-82.031,-53.223,-22.461,1.000,1.000
1626294706752760.500,23.926,4.395,-15.625,1.000,1.000
1626294706756666.750,29.297,11.719,-14.648,1.000,1.000
1626294706760573.000,-51.270,-13.672,-24.414,1.000,1.000
1626294706764479.250,-46.387,18.066,-40.039,-150.879,1.000
1626294706768385.500,-56.641,-14.160,-27.344,-101.074,1.000
1626294706772291.750,14.160,-86.426,-33.691,91.797,1.000
1626294706776198.000,29.297,-43.457,-32.227,71.777,1.000
1626294706780104.250,-58.105,-24.902,-25.879,-141.113,1.000
1626294706784010.500,-97.168,-41.016,-21.973,-156.250,1.000
1626294706787916.750,-11.719,-55.176,-17.578,62.988,1.000
1626294706791823.000,36.621,-94.727,-35.645,113.770,1.000
1626294706795729.250,-25.391,-41.016,-43.457,-83.496,1.000
1626294706799635.500,-100.098,-11.230,-49.805,-199.707,1.000
1626294706803541.750,-48.340,-5.859,-37.109,-23.926,1.000
1626294706807448.000,19.043,-13.672,-27.344,110.840,1.000
1626294706811354.250,34.180,-0.488,1.953,135.254,1.000
1626294706815260.500,-40.527,-40.039,-29.297,-62.988,1.000
1626294706819166.750,-140.625,-124.512,-73.242,-222.656,1.000
1626294706823073.000,-49.805,-64.941,-28.809,-16.602,1.000
1626294706826979.250,62.500,10.254,2.441,163.086,1.000
1626294706830885.500,29.297,34.180,-9.766,25.391,1.000
1626294706834791.750,-83.496,-46.387,-41.016,-172.852,1.000
1626294706838698.000,-93.750,-113.281,-54.199,-102.539,1.000
1626294706842604.250,11.719,-27.344,-33.691,112.305,1.000
1626294706846510.500,18.066,-9.277,-27.344,61.523,1.000
1626294706850416.750,-75.684,-30.762,-19.043,-152.344,1.000
1626294706854323.000,-82.031,-26.855,-30.273,-125.000,1.000
1626294706858229.250,-68.848,-4.395,-24.902,1.000,1.000
1626294706862135.500,32.715,-14.648,-24.414,1.000,1.000
1626294706866041.750,23.926,-96.191,-77.148,1.000,1.000
1626294706869948.000,-59.082,-45.898,-70.312,1.000,1.000
1626294706873854.250,-69.824,-4.883,-25.391,1.000,1.000
1626294706877760.500,16.113,-20.020,-7.324,1.000,1.000
1626294706881666.750,46.387,-12.207,-20.020,1.000,1.000
1626294706885573.000,-41.016,-36.133,-42.969,1.000,1.000
1626294706889479.250,-83.496,-12.207,-30.273,1.000,1.000
1626294706893385.500,0.977,11.230,-5.371,1.000,1.000
1626294706897291.750,72.266,17.578,-4.395,1.000,1.000
1626294706901198.000,-15.137,-17.578,-27.832,1.000,1.000
1626294706905104.250,-15.625,-18.555,-37.109,-62.012,1.000
1626294706909010.500,-88.867,-34.668,-37.598,-174.316,1.000
1626294706912916.750,-55.176,-92.285,-45.410,-32.227,1.000
1626294706916823.000,17.578,-60.547,-31.250,104.004,1.000
1626294706920729.250,-10.742,-31.738,-34.668,-41.504,1.000
1626294706924635.500,-67.871,-28.809,-27.832,-172.852,1.000
1626294706928541.750,-37.598,-45.410,-19.043,-41.992,1.000
1626294706932448.000,22.461,-74.707,-39.551,107.910,1.000
1626294706936354.250,14.160,-21.484,-27.832,43.945,1.000
1626294706940260.500,-79.590,-7.812,-30.762,-176.758,1.000
1626294706944166.750,-88.379,1.465,-39.062,-146.484,1.000
1626294706948073.000,0.488,-2.930,-31.738,93.262,1.000
1626294706951979.250,35.645,3.418,-23.926,127.441,1.000
1626294706955885.500,35.156,2.441,-33.203,62.012,1.000
1626294706959791.750,-48.828,-56.152,-31.738,-145.996,1.000
1626294706963698.000,-62.500,-21.484,-19.531,-107.910,1.000
1626294706967604.250,22.461,-13.184,-19.531,101.074,1.000
1626294706971510.500,58.594,-49.805,-16.113,112.793,1.000
1626294706975416.750,-29.785,-60.547,-19.043,-99.609,1.000
1626294706979323.000,-85.938,-53.223,-36.133,-172.852,1.000
1626294706983229.250,-16.113,-24.414,-31.250,22.461,1.000
1626294706987135.500,35.645,-27.832,-27.832,131.836,1.000
1626294706991041.750,-13.672,-1.953,-51.758,-37.109,1.000
1626294706994948.000,-90.820,-20.020,-56.641,-179.199,1.000
1626294706998854.250,-92.773,-27.832,-28.320,-174.805,1.000
1626294707002760.500,-23.926,-36.621,-27.344,11.719,1.000
1626294707006666.750,48.340,-79.102,-41.504,124.512,1.000
1626294707010573.000,-5.371,-42.480,-51.758,-48.828,1.000
1626294707014479.250,-98.633,-45.410,-57.129,-202.637,1.000
1626294707018385.500,-34.668,-37.109,-49.316,-41.504,1.000
1626294707022291.750,42.480,-24.414,-45.898,112.305,1.000
1626294707026198.000,-33.691,-83.496,-60.547,-34.180,1.000
1626294707030104.250,-105.469,-72.754,-49.316,-201.660,1.000
1626294707034010.500,-56.152,-28.809,-26.855,-105.957,1.000
1626294707037916.750,26.367,12.695,-19.043,102.539,1.000
1626294707041823.000,39.551,-21.973,-30.762,83.496,1.000
1626294707045729.250,7.324,14.648,-11.230,51.270,1.000
1626294707049635.500,-85.449,-20.508,-27.344,-164.551,1.000
1626294707053541.750,-112.305,-166.504,-53.711,-146.973,1.000
1626294707057448.000,12.695,-84.473,-20.508,88.379,1.000
1626294707061354.250,55.664,-8.301,-4.395,93.262,1.000
1626294707065260.500,-63.477,-20.020,-29.785,-124.023,1.000
1626294707069166.750,-93.262,-32.227,-25.879,-139.648,1.000
1626294707073073.000,13.672,-61.523,-0.977,76.660,1.000
1626294707076979.250,54.199,-12.695,-7.812,135.742,1.000
1626294707080885.500,-45.898,-17.090,-32.715,-89.355,1.000
1626294707084791.750,-116.699,-12.695,-41.992,-202.148,1.000
1626294707088698.000,-44.434,-14.160,-41.016,-20.508,1.000
1626294707092604.250,-29.785,6.836,-10.742,1.000,1.000
1626294707096510.500,26.367,7.812,-18.066,1.000,1.000
1626294707100416.750,-35.645,-88.379,-37.598,1.000,1.000
1626294707104323.000,-102.051,-42.480,-40.527,1.000,1.000
1626294707108229.250,-52.246,7.324,-25.391,1.000,1.000
1626294707112135.500,36.621,-6.836,-18.066,1.000,1.000
1626294707116041.750,7.324,-39.062,-23.926,1.000,1.000
1626294707119948.000,-105.469,-107.910,-37.109,1.000,1.000
1626294707123854.250,-85.938,-31.738,-28.809,1.000,1.000
1626294707127760.500,15.137,16.113,-18.066,1.000,1.000
1626294707131666.750,25.391,8.789,-22.461,1.000,1.000
1626294707135573.000,-64.453,-26.367,-42.480,1.000,1.000
1626294707139479.250,-98.145,-7.324,-35.156,-187.988,1.000
1626294707143385.500,-85.449,-22.461,-42.969,-103.027,1.000
1626294707147291.750,12.695,-92.285,-43.457,98.633,1.000
1626294707151198.000,49.316,-19.531,2.441,85.938,1.000
1626294707155104.250,-44.434,4.395,5.371,-125.977,1.000
1626294707159010.500,-90.332,-15.625,-21.973,-156.250,1.000
1626294707162916.750,19.043,6.348,-9.277,79.102,1.000
1626294707166823.000,62.012,-17.090,0.488,141.113,1.000
1626294707170729.250,-65.918,-18.066,-37.598,-113.281,1.000
1626294707174635.500,-129.395,-10.254,-52.246,-219.727,1.000
1626294707178541.750,-50.293,-0.977,-35.645,-15.625,1.000
1626294707182448.000,31.250,-12.695,-33.203,130.859,1.000
1626294707186354.250,35.645,6.836,-15.625,105.469,1.000
1626294707190260.500,-41.504,-8.789,-38.086,-95.703,1.000
1626294707194166.750,-125.488,-82.520,-46.387,-216.797,1.000
1626294707198073.000,-62.988,-37.598,-35.156,-30.762,1.000
1626294707201979.250,43.945,10.742,-9.277,137.695,1.000
1626294707205885.500,10.742,-16.602,-1.465,2.441,1.000
1626294707209791.750,-88.379,-50.293,-34.180,-183.105,1.000
1626294707213698.000,-74.219,-62.500,-47.852,-87.402,1.000
1626294707217604.250,38.086,-14.648,-33.203,124.512,1.000
1626294707221510.500,24.414,-22.461,-46.387,49.316,1.000
1626294707225416.750,-91.797,-24.414,-50.781,-176.270,1.000
1626294707229323.000,-101.562,-25.391,-38.574,-148.438,1.000
1626294707233229.250,-110.352,-33.203,-35.156,-131.836,1.000
1626294707237135.500,-12.695,-28.320,-36.133,75.684,1.000
1626294707241041.750,-22.461,-87.891,-63.965,17.578,1.000
1626294707244948.000,-98.145,-44.434,-63.477,-182.617,1.000
1626294707248854.250,-93.750,-14.160,-62.988,-160.156,1.000
1626294707252760.500,23.438,0.977,-31.250,83.984,1.000
1626294707256666.750,58.105,-39.551,0.000,124.023,1.000
1626294707260573.000,-74.219,-136.230,-44.922,-136.230,1.000
1626294707264479.250,-115.234,-50.781,-44.434,-200.195,1.000
1626294707268385.500,-14.648,4.395,-22.461,28.320,1.000
1626294707272291.750,43.945,2.930,-31.250,135.254,1.000
1626294707276198.000,-24.902,-10.742,-44.434,-56.152,1.000
1626294707280104.250,-21.484,-9.766,-25.391,-74.707,1.000
1626294707284010.500,-94.238,-16.113,-51.270,-175.293,1.000
1626294707287916.750,-47.363,-82.520,-64.453,-8.789,1.000
1626294707291823.000,47.852,-32.715,-21.973,136.719,1.000
1626294707295729.250,7.812,-7.324,-7.812,-10.254,1.000
1626294707299635.500,-85.938,-16.113,-16.602,-179.199,1.000
1626294707303541.750,-73.242,-25.391,-27.344,-70.801,1.000
1626294707307448.000,-10.742,-119.141,-49.805,89.355,1.000
1626294707311354.250,0.977,-71.777,-38.574,29.297,1.000
1626294707315260.500,-77.637,-15.137,-36.133,-162.109,1.000
1626294707319166.750,-78.125,8.789,-27.832,-118.164,1.000
1626294707323073.000,-2.441,6.836,-18.555,78.125,1.000
1626294707326979.250,26.367,-5.371,-5.371,126.465,1.000
1626294707330885.500,26.367,-1.953,-2.930,66.895,1.000
1626294707334791.750,-81.543,-74.219,-32.715,-153.320,1.000
1626294707338698.000,-100.586,-38.574,-49.316,-141.602,1.000
1626294707342604.250,4.883,10.742,-26.367,83.984,1.000
1626294707346510.500,47.363,-2.441,-1.465,110.352,1.000
1626294707350416.750,-53.223,-56.152,-8.301,-117.188,1.000
1626294707354323.000,-130.371,-99.121,-36.133,-203.125,1.000
1626294707358229.250,-65.918,-45.898,-45.898,-9.766,1.000
1626294707362135.500,16.602,-25.391,-52.734,106.445,1.000
1626294707366041.750,-32.227,-12.695,-55.176,-65.430,1.000
1626294707369948.000,-110.840,-19.531,-26.367,-199.219,1.000
1626294707373854.250,-119.141,18.066,-50.781,-206.055,1.000
1626294707377760.500,-54.199,12.207,-54.199,-4.883,1.000
1626294707381666.750,0.000,-87.891,-60.059,92.285,1.000
1626294707385573.000,-29.297,-36.621,-33.203,-63.477,1.000
1626294707389479.250,-91.309,3.906,-28.320,-185.059,1.000
1626294707393385.500,-44.922,-25.879,-25.391,-35.156,1.000
1626294707397291.750,44.922,-29.297,1.953,132.812,1.000
1626294707401198.000,-24.414,-62.012,-32.227,-15.625,1.000
1626294707405104.250,-127.930,-39.551,-70.801,-216.797,1.000
1626294707409010.500,-90.820,-35.156,-56.641,-121.582,1.000
1626294707412916.750,31.738,-24.414,-10.742,118.164,1.000
1626294707416823.000,21.484,-34.180,-21.973,70.312,1.000
1626294707420729.250,30.273,-7.324,-20.996,47.852,1.000
1626294707424635.500,-86.426,-22.949,-38.086,-184.570,1.000
1626294707428541.750,-120.605,-105.957,-56.152,-162.598,1.000
1626294707432448.000,-6.348,-43.945,-45.898,81.543,1.000
1626294707436354.250,43.457,17.090,-52.734,98.633,1.000
1626294707440260.500,-46.387,3.418,-44.922,-121.582,1.000
1626294707444166.750,-104.980,-54.199,-39.062,-178.711,1.000
1626294707448073.000,-25.879,-109.863,-33.203,27.832,1.000
1626294707451979.250,46.875,-36.621,-9.277,122.070,1.000
1626294707455885.500,-24.414,-6.348,-14.648,-82.520,1.000
1626294707459791.750,-84.961,-20.020,-23.926,-198.730,1.000
1626294707463698.000,-39.062,-48.828,-39.062,-37.598,1.000
1626294707467604.250,-17.090,-8.301,-47.363,1.000,1.000
1626294707471510.500,30.762,-5.371,-52.734,1.000,1.000
1626294707475416.750,-55.664,-81.543,-46.875,1.000,1.000
1626294707479323.000,-117.676,-35.156,-19.043,1.000,1.000
1626294707483229.250,-39.062,6.836,-13.184,1.000,1.000
1626294707487135.500,58.594,10.254,-6.836,1.000,1.000
1626294707491041.750,17.578,-17.578,0.000,1.000,1.000
1626294707494948.000,-92.773,-111.816,-26.367,1.000,1.000
1626294707498854.250,-68.848,-66.895,-34.668,1.000,1.000
1626294707502760.500,16.602,-19.531,-23.438,1.000,1.000
1626294707506666.750,12.207,6.348,-21.484,1.000,1.000
1626294707510573.000,-79.102,-36.133,-40.527,1.000,1.000
1626294707514479.250,-97.656,-13.672,-52.734,-192.383,1.000
1626294707518385.500,-75.684,-31.738,-41.504,-108.887,1.000
1626294707522291.750,10.254,-79.590,-50.781,82.520,1.000
1626294707526198.000,32.715,-23.926,-26.855,72.754,1.000
1626294707530104.250,-55.176,1.953,-19.043,-129.883,1.000
1626294707534010.500,-84.961,3.906,-21.973,-140.137,1.000
1626294707537916.750,-2.441,-5.371,-25.879,77.148,1.000
1626294707541823.000,24.902,-67.871,-51.758,116.699,1.000
1626294707545729.250,-44.434,-42.969,-53.711,-81.543,1.000
1626294707549635.500,-104.980,-41.992,-40.527,-186.523,1.000
1626294707553541.750,-20.020,-13.672,-5.859,7.812,1.000
1626294707557448.000,72.266,-0.488,5.859,162.109,1.000
1626294707561354.250,42.480,-27.832,-61.035,118.652,1.000
1626294707565260.500,-26.367,-54.199,-42.480,-71.289,1.000
1626294707569166.750,-85.938,-89.844,-10.742,-173.828,1.000
1626294707573073.000,-15.137,-25.391,-0.977,1.465,1.000
1626294707576979.250,57.617,-0.488,-10.742,148.438,1.000
1626294707580885.500,7.324,-9.766,-27.344,2.441,1.000
1626294707584791.750,-90.332,-20.020,-40.527,-179.688,1.000
1626294707588698.000,-52.246,-15.137,-28.809,-52.246,1.000
1626294707592604.250,42.480,12.207,-24.902,145.508,1.000
1626294707596510.500,15.625,-9.766,-43.457,54.688,1.000
1626294707600416.750,-95.703,-30.273,-51.758,-174.316,1.000
1626294707604323.000,-107.422,-41.016,-40.527,-155.762,1.000
1626294707608229.250,-49.316,-46.875,-28.809,78.613,1.000
1626294707612135.500,54.199,-30.273,-0.977,114.746,1.000
1626294707616041.750,39.062,-68.848,-12.695,-98.145,1.000
1626294707619948.000,-72.266,-37.109,-28.320,-147.461,1.000
1626294707623854.250,-86.426,-4.395,-21.484,41.504,1.000
1626294707627760.500,23.438,19.531,-0.977,114.258,1.000
1626294707631666.750,54.199,16.602,-4.883,-52.734,1.000
1626294707635573.000,-53.711,-60.059,-42.969,-169.922,1.000
1626294707639479.250,-94.727,-41.016,-31.738,-13.672,1.000
1626294707643385.500,-16.113,-10.254,-12.207,135.254,1.000
1626294707647291.750,54.199,-3.418,-20.020,-3.418,1.000
1626294707651198.000,0.488,-41.992,-41.504,-181.152,1.000
1626294707655104.250,-27.344,-20.508,-33.691,-78.125,1.000
1626294707659010.500,-68.848,-34.180,-3.418,-152.344,1.000
1626294707662916.750,-28.809,-104.004,-47.363,6.348,1.000
1626294707666823.000,36.621,-51.758,-51.270,120.117,1.000
1626294707670729.250,-6.348,-20.508,-29.785,-36.133,1.000
1626294707674635.500,-100.586,-22.461,-22.949,-194.336,1.000
1626294707678541.750,-56.152,-16.113,1.465,-53.711,1.000
1626294707682448.000,27.832,-81.543,-14.648,124.512,1.000
1626294707686354.250,12.695,-47.852,-27.344,37.109,1.000
1626294707690260.500,-77.148,-43.945,-32.227,-178.711,1.000
1626294707694166.750,-75.195,-37.109,-28.809,-131.348,1.000
1626294707698073.000,26.367,-23.438,-3.906,101.562,1.000
1626294707701979.250,35.645,9.277,-11.719,115.234,1.000
1626294707705885.500,20.508,-5.859,-27.832,-104.492,1.000
1626294707709791.750,-89.355,-112.305,-63.477,-171.875,1.000
1626294707713698.000,-85.449,-87.402,-45.410,33.203,1.000
1626294707717604.250,16.113,-20.996,-33.691,104.492,1.000
1626294707721510.500,58.594,11.230,-21.484,-91.797,1.000
1626294707725416.750,-42.480,-9.277,-38.086,-206.543,1.000
1626294707729323.000,-124.512,-85.938,-69.824,-20.020,1.000
1626294707733229.250,-15.137,-32.227,-36.133,137.695,1.000
1626294707737135.500,56.641,1.953,-20.020,-41.992,1.000
1626294707741041.750,-25.391,3.906,-26.367,-209.473,1.000
1626294707744948.000,-105.469,-34.180,-45.898,-82.520,1.000
1626294707748854.250,-102.539,-19.043,-24.902,-167.969,1.000
1626294707752760.500,-16.113,-24.902,-9.766,38.574,1.000
1626294707756666.750,29.297,-102.051,-32.227,124.512,1.000
1626294707760573.000,-37.109,-71.777,-51.270,-51.270,1.000
1626294707764479.250,-89.844,-25.879,-45.898,-183.594,1.000
1626294707768385.500,-47.363,-13.672,-21.484,-20.996,1.000
1626294707772291.750,40.039,-10.254,-16.113,146.973,1.000
1626294707776198.000,-4.883,-42.480,-38.574,11.719,1.000
1626294707780104.250,-100.098,-20.996,-36.621,-175.293,1.000
1626294707784010.500,-66.895,-17.578,-21.973,-92.285,1.000
1626294707787916.750,30.762,-9.277,-12.207,136.719,1.000
1626294707791823.000,26.367,-19.531,-15.625,104.492,1.000
1626294707795729.250,-22.461,-3.418,-52.734,23.926,1.000
1626294707799635.500,-101.562,-34.180,-62.500,-178.223,1.000
1626294707803541.750,-93.750,-159.180,-58.594,-123.047,1.000
1626294707807448.000,17.578,-73.730,-22.461,100.098,1.000
1626294707811354.250,14.648,-1.465,-20.996,76.172,1.000
1626294707815260.500,-90.820,-26.855,-41.504,-155.762,1.000
1626294707819166.750,-118.164,-28.809,-42.480,-167.969,1.000
1626294707823073.000,-5.859,-50.781,-16.602,71.777,1.000
1626294707826979.250,40.039,1.953,-14.648,134.766,1.000
1626294707830885.500,-45.898,3.418,-32.227,-95.215,1.000
1626294707834791.750,-93.262,-19.531,-27.832,-205.566,1.000
1626294707838698.000,-63.477,-46.387,-34.180,-32.227,1.000
1626294707842604.250,-25.391,-16.113,-34.180,1.000,1.000
1626294707846510.500,45.410,-3.906,-22.461,1.000,1.000
1626294707850416.750,-29.297,-97.656,-15.625,1.000,1.000
1626294707854323.000,-123.047,-74.707,-46.875,1.000,1.000
1626294707858229.250,-58.105,-6.836,-37.109,1.000,1.000
1626294707862135.500,19.043,10.254,-16.113,1.000,1.000
1626294707866041.750,-1.465,-17.090,-13.672,1.000,1.000
1626294707869948.000,-103.027,-76.660,-30.273,1.000,1.000
1626294707873854.250,-88.867,-44.434,-41.016,1.000,1.000
1626294707877760.500,24.414,-6.836,-35.156,1.000,1.000
1626294707881666.750,38.086,8.301,-25.879,1.000,1.000
1626294707885573.000,-39.551,-41.016,-30.273,1.000,1.000
1626294707889479.250,-80.566,-10.254,-41.504,-162.109,1.000
1626294707893385.500,-65.430,-16.113,-17.090,-82.520,1.000
1626294707897291.750,21.973,-104.980,-18.555,105.957,1.000
1626294707901198.000,27.344,-47.852,-6.348,75.684,1.000
1626294707905104.250,-68.359,6.348,-15.137,-135.254,1.000
1626294707909010.500,-104.980,-2.930,-35.645,-164.551,1.000
1626294707912916.750,5.859,17.090,-13.184,68.359,1.000
1626294707916823.000,49.316,-36.621,-8.789,122.070,1.000
1626294707920729.250,-44.434,-47.363,-35.645,-96.680,1.000
1626294707924635.500,-85.449,-27.344,-67.871,-183.594,1.000
1626294707928541.750,-11.230,-4.883,-61.523,6.348,1.000
1626294707932448.000,34.180,-20.996,-34.180,122.070,1.000
1626294707936354.250,41.992,-7.812,-36.621,123.535,1.000
1626294707940260.500,-42.480,-21.973,-39.551,-78.125,1.000
1626294707944166.750,-123.047,-85.449,-54.688,-207.520,1.000
1626294707948073.000,-55.664,-34.180,-39.062,-31.738,1.000
1626294707951979.250,28.809,8.789,-24.902,122.559,1.000
1626294707955885.500,-7.324,-6.348,-24.414,-18.066,1.000
1626294707959791.750,-90.820,-39.551,-25.879,-187.988,1.000
1626294707963698.000,-77.637,-75.195,-42.969,-86.426,1.000
1626294707967604.250,12.207,-24.414,-39.551,104.492,1.000
1626294707971510.500,7.324,-2.930,-21.484,31.250,1.000
1626294707975416.750,-90.332,-28.809,-24.414,-185.059,1.000
1626294707979323.000,-83.984,-32.227,-49.316,-142.090,1.000
1626294707983229.250,-63.477,-18.555,-39.062,79.590,1.000
1626294707987135.500,22.461,-13.672,-16.113,85.449,1.000
1626294707991041.750,33.203,-17.090,-6.348,-128.418,1.000
1626294707994948.000,-49.316,-2.441,-22.949,-166.504,1.000
1626294707998854.250,-76.172,-4.883,-36.133,32.715,1.000
1626294708002760.500,16.602,3.418,-18.066,118.652,1.000
1626294708006666.750,40.039,-33.691,-15.137,-60.547,1.000
1626294708010573.000,-66.406,-90.332,-43.945,-207.031,1.000
1626294708014479.250,-104.980,-30.762,-41.016,-51.270,1.000
1626294708018385.500,-23.926,-18.555,-23.438,108.887,1.000
1626294708022291.750,49.316,-28.809,-18.066,-6.348,1.000
1626294708026198.000,-16.602,-51.758,-37.598,-178.711,1.000
1626294708030104.250,-35.645,-35.156,-44.434,-100.586,1.000
1626294708034010.500,-93.750,-39.062,-40.527,-181.152,1.000
1626294708037916.750,-44.922,-74.219,-30.273,-11.719,1.000
1626294708041823.000,34.180,-37.109,-24.902,117.188,1.000
1626294708045729.250,-8.301,-1.953,-26.367,-35.645,1.000
1626294708049635.500,-78.125,-8.301,-26.855,-181.152,1.000
1626294708053541.750,-32.227,-14.648,-18.066,-46.387,1.000
1626294708057448.000,57.129,-29.297,-22.949,133.301,1.000
1626294708061354.250,31.250,-39.062,-39.551,31.738,1.000
1626294708065260.500,-88.867,-51.758,-45.898,-191.895,1.000
1626294708069166.750,-74.219,-14.648,-26.367,-116.211,1.000
1626294708073073.000,20.020,-7.812,-29.297,97.168,1.000
1626294708076979.250,36.621,-9.766,-24.414,127.441,1.000
1626294708080885.500,28.809,-15.625,-25.879,52.246,1.000
1626294708084791.750,-89.844,-99.609,-49.805,-186.035,1.000
1626294708088698.000,-95.215,-66.895,-43.457,-142.090,1.000
1626294708092604.250,6.348,-28.809,-37.109,82.520,1.000
1626294708096510.500,42.969,-9.766,-23.926,96.191,1.000
1626294708100416.750,-50.781,-22.949,-19.531,-124.512,1.000
1626294708104323.000,-116.699,-82.520,-29.785,-192.383,1.000
1626294708108229.250,-0.977,-25.391,-10.254,59.570,1.000
1626294708112135.500,78.125,7.812,-6.348,164.551,1.000
1626294708116041.750,-3.418,-6.348,-37.109,-45.898,1.000
1626294708119948.000,-102.539,-42.969,-50.781,-192.383,1.000
1626294708123854.250,-77.637,-24.902,-3.418,-165.527,1.000
1626294708127760.500,-1.953,-15.625,-33.203,35.645,1.000
1626294708131666.750,44.434,-23.438,-52.734,123.047,1.000
1626294708135573.000,-35.645,-24.902,-59.082,-72.754,1.000
1626294708139479.250,-120.117,-33.203,-60.547,-216.309,1.000
1626294708143385.500,-59.570,-27.832,-28.809,-49.805,1.000
1626294708147291.750,35.156,-33.203,-20.508,127.441,1.000
1626294708151198.000,6.836,-50.293,-29.785,11.719,1.000
1626294708155104.250,-71.777,-30.762,-20.020,-167.480,1.000
1626294708159010.500,-53.711,-8.789,-14.648,-80.078,1.000
1626294708162916.750,40.527,-28.809,-18.066,127.441,1.000
1626294708166823.000,55.664,-31.250,-22.949,92.773,1.000
1626294708170729.250,21.484,-5.371,-23.926,35.645,1.000
1626294708174635.500,-73.242,-12.695,-34.180,-167.480,1.000
1626294708178541.750,-63.477,-59.082,-14.160,-97.656,1.000
1626294708182448.000,33.203,-37.598,-12.207,125.000,1.000
1626294708186354.250,14.160,-34.180,-45.898,73.242,1.000
1626294708190260.500,-84.473,-31.250,-47.852,-150.879,1.000
1626294708194166.750,-98.145,-17.090,-42.969,-154.297,1.000
1626294708198073.000,-14.160,-37.109,-33.691,53.223,1.000
1626294708201979.250,24.902,-22.949,-21.973,103.516,1.000
1626294708205885.500,-51.758,-14.160,-34.668,-101.074,1.000
1626294708209791.750,-103.516,-10.742,-37.109,-191.406,1.000
1626294708213698.000,-41.016,-23.438,-41.992,-2.930,1.000
1626294708217604.250,-19.043,-24.414,-26.855,132.812,1.000
1626294708221510.500,34.180,-28.809,-47.363,-14.160,1.000
1626294708225416.750,-24.902,-43.945,-62.012,-170.898,1.000
1626294708229323.000,-77.637,-48.828,-25.879,-56.641,1.000
1626294708233229.250,-23.926,-23.438,-11.719,116.211,1.000
1626294708237135.500,39.551,11.230,-29.785,36.621,1.000
1626294708241041.750,5.371,-20.020,-28.809,-171.875,1.000
1626294708244948.000,-78.613,-92.285,-24.902,-150.879,1.000
1626294708248854.250,-71.289,-75.684,-30.273,62.500,1.000
1626294708252760.500,8.789,-46.875,-27.344,79.590,1.000
1626294708256666.750,13.184,-21.484,-8.301,-136.230,1.000
1626294708260573.000,-84.473,-3.418,-25.879,-181.152,1.000
1626294708264479.250,-84.473,-39.551,-45.898,-173.828,1.000
1626294708268385.500,-85.449,-56.152,-32.227,-105.957,1.000
1626294708272291.750,-3.418,-92.773,-31.738,88.867,1.000
1626294708276198.000,16.602,-46.875,-18.555,64.941,1.000
1626294708280104.250,-64.453,-5.859,-25.879,-146.973,1.000
1626294708284010.500,-93.750,-14.160,-43.457,-157.715,1.000
1626294708287916.750,-19.043,-18.555,-30.762,62.500,1.000
1626294708291823.000,18.066,-30.273,-20.020,101.074,1.000
1626294708295729.250,-51.758,-20.020,-32.715,-106.445,1.000
1626294708299635.500,-115.234,-25.879,-51.758,-195.801,1.000
1626294708303541.750,-40.527,-15.137,-25.879,2.930,1.000
1626294708307448.000,27.832,-24.902,-24.902,129.395,1.000
1626294708311354.250,43.945,-16.602,-20.508,121.094,1.000
1626294708315260.500,-33.203,-19.531,-28.809,-91.797,1.000
1626294708319166.750,-130.371,-94.238,-69.336,-228.027,1.000
1626294708323073.000,-31.738,-51.270,-31.250,-8.301,1.000
1626294708326979.250,65.918,5.859,-7.812,145.996,1.000
1626294708330885.500,11.719,6.836,-23.926,-2.930,1.000
1626294708334791.750,-67.871,-23.926,-34.668,-165.039,1.000
1626294708338698.000,-66.406,-96.191,-63.965,-77.148,1.000
1626294708342604.250,31.250,-52.734,-32.227,130.859,1.000
1626294708346510.500,19.043,-12.207,-9.277,60.547,1.000
1626294708350416.750,-75.195,-4.883,-24.902,-158.203,1.000
1626294708354323.000,-70.801,-23.438,-41.504,-114.258,1.000
1626294708358229.250,-57.129,-21.484,-30.273,83.008,1.000
1626294708362135.500,54.688,-5.859,-10.254,87.402,1.000
1626294708366041.750,20.020,-50.781,-43.457,-120.117,1.000
1626294708369948.000,-87.891,-46.875,-56.641,-157.715,1.000
1626294708373854.250,-94.727,-23.926,-39.062,51.270,1.000
1626294708377760.500,-5.371,-9.766,-18.066,139.648,1.000
1626294708381666.750,28.809,-19.531,-13.184,-48.828,1.000
1626294708385573.000,-47.852,-61.035,-39.062,-184.082,1.000
1626294708389479.250,-89.844,-38.574,-49.316,-24.902,1.000
1626294708393385.500,-26.855,-28.320,-34.180,103.027,1.000
1626294708397291.750,37.109,-18.555,-28.809,-26.855,1.000
1626294708401198.000,-26.367,-21.484,-38.574,-191.895,1.000
1626294708405104.250,-26.367,-13.672,-24.902,-70.801,1.000
1626294708409010.500,-118.652,-22.461,-56.641,-171.387,1.000
1626294708412916.750,-70.312,-83.984,-80.566,4.883,1.000
1626294708416823.000,19.043,-44.434,-62.988,112.305,1.000
1626294708420729.250,-12.695,-15.625,-28.809,-59.082,1.000
1626294708424635.500,-67.383,-25.879,0.488,-177.246,1.000
1626294708428541.750,-45.410,-60.059,-17.090,-50.293,1.000
1626294708432448.000,-3.906,-103.516,-69.824,97.656,1.000
1626294708436354.250,-6.348,-33.691,-61.523,12.695,1.000
1626294708440260.500,-74.219,1.465,-22.461,-176.758,1.000
1626294708444166.750,-73.242,-20.508,-4.883,-111.328,1.000
1626294708448073.000,13.672,-55.176,-2.441,98.145,1.000
1626294708451979.250,42.480,-8.789,-16.602,1.000,1.000
1626294708455885.500,20.996,-26.367,-36.621,1.000,1.000
1626294708459791.750,-103.027,-102.051,-65.430,1.000,1.000
1626294708463698.000,-90.820,-53.711,-41.504,1.000,1.000
1626294708467604.250,24.414,6.348,-7.324,1.000,1.000
1626294708471510.500,43.945,1.953,0.488,1.000,1.000
1626294708475416.750,-79.102,-55.664,-29.785,1.000,1.000
1626294708479323.000,-143.066,-124.023,-69.824,1.000,1.000
1626294708483229.250,-14.160,-18.555,-40.039,1.000,1.000
1626294708487135.500,57.617,8.301,-21.973,1.000,1.000
1626294708491041.750,-6.836,-24.902,-22.461,1.000,1.000
1626294708494948.000,-83.984,-46.387,-29.297,1.000,1.000
1626294708498854.250,-55.176,1.465,3.418,-115.234,1.000
1626294708502760.500,-0.977,-16.602,0.488,60.059,1.000
1626294708506666.750,1.953,-103.027,-54.688,80.566,1.000
1626294708510573.000,-43.945,-59.570,-55.664,-84.473,1.000
1626294708514479.250,-82.520,-24.414,-44.922,-192.383,1.000
1626294708518385.500,-22.949,-15.625,-30.762,-22.949,1.000
1626294708522291.750,50.293,-30.762,-21.973,137.695,1.000
1626294708526198.000,-19.043,-94.727,-47.852,-21.484,1.000
1626294708530104.250,-93.750,-38.574,-33.203,-191.406,1.000
1626294708534010.500,-53.223,14.160,-33.691,-70.801,1.000
1626294708537916.750,44.922,36.133,-35.645,143.066,1.000
1626294708541823.000,24.414,-22.461,-37.109,71.289,1.000
1626294708545729.250,49.805,-1.953,-20.020,25.879,1.000
1626294708549635.500,-76.660,-21.973,-33.691,-176.270,1.000
1626294708553541.750,-114.258,-75.684,-59.570,-141.602,1.000
1626294708557448.000,13.672,-41.992,-28.320,105.957,1.000
1626294708561354.250,51.270,0.000,0.000,114.258,1.000
1626294708565260.500,-45.410,8.301,-5.859,-122.070,1.000
1626294708569166.750,-81.055,-7.324,-23.926,-152.832,1.000
1626294708573073.000,-4.395,-61.035,-47.852,57.617,1.000
1626294708576979.250,52.734,-21.484,-31.738,140.137,1.000
1626294708580885.500,-11.230,-20.996,-20.996,-55.176,1.000
1626294708584791.750,-44.434,-41.504,-6.836,-145.996,1.000
1626294708588698.000,1.465,-19.531,-26.367,41.016,1.000
1626294708592604.250,2.441,-12.207,-25.879,166.016,1.000
1626294708596510.500,72.754,-0.488,-13.672,16.602,1.000
1626294708600416.750,-41.504,-77.148,-49.805,-156.738,1.000
1626294708604323.000,-103.516,-55.664,-49.805,-25.391,1.000
1626294708608229.250,-22.461,-34.180,-28.320,145.996,1.000
1626294708612135.500,53.223,-82.520,-31.250,35.156,1.000
1626294708616041.750,19.043,-85.938,-29.785,-157.227,1.000
1626294708619948.000,-94.238,-93.262,-43.457,-115.234,1.000
1626294708623854.250,-72.266,-24.902,-27.832,109.375,1.000
1626294708627760.500,43.457,15.137,-16.113,88.379,1.000
1626294708631666.750,28.809,3.418,-30.273,-132.812,1.000
1626294708635573.000,-97.168,-25.879,-32.227,-155.762,1.000
1626294708639479.250,-98.633,-24.414,-52.734,-193.359,1.000
1626294708643385.500,-77.148,-24.414,-24.902,-98.633,1.000
1626294708647291.750,-16.602,-113.770,-19.043,102.051,1.000
1626294708651198.000,0.977,-93.750,-11.719,58.594,1.000
1626294708655104.250,-78.125,-43.457,-25.391,-151.367,1.000
1626294708659010.500,-79.102,2.441,-35.156,-131.348,1.000
1626294708662916.750,8.301,-0.488,-25.879,85.938,1.000
1626294708666823.000,37.598,-86.914,-11.719,121.094,1.000
1626294708670729.250,-28.809,-39.551,-8.301,-70.312,1.000
1626294708674635.500,-95.703,-11.719,-30.762,-167.480,1.000
1626294708678541.750,-21.484,-5.371,-26.367,16.113,1.000
1626294708682448.000,41.504,-25.879,-23.926,127.930,1.000
1626294708686354.250,24.902,-30.273,-12.207,117.188,1.000
1626294708690260.500,-81.543,-36.621,-43.457,-121.582,1.000
1626294708694166.750,-149.902,-105.469,-60.059,-234.863,1.000
1626294708698073.000,-46.387,-76.172,-36.621,-10.742,1.000
1626294708701979.250,39.551,-29.785,-31.738,144.043,1.000
1626294708705885.500,-5.859,11.230,-43.945,-20.996,1.000
1626294708709791.750,-82.520,1.953,-38.574,-193.359,1.000
1626294708713698.000,-68.359,-74.707,-48.340,-79.590,1.000
1626294708717604.250,48.340,-31.250,-38.574,127.441,1.000
1626294708721510.500,30.762,-16.602,-29.785,41.504,1.000
1626294708725416.750,-71.777,7.324,-51.758,-176.270,1.000
1626294708729323.000,-64.941,25.391,-36.621,-133.789,1.000
1626294708733229.250,-51.270,16.113,-14.160,-64.941,1.000
1626294708737135.500,35.156,-4.883,-11.719,126.953,1.000
1626294708741041.750,1.465,-90.820,-46.875,32.715,1.000
1626294708744948.000,-99.609,-67.383,-46.387,-186.035,1.000
1626294708748854.250,-103.516,-18.066,-27.344,-148.438,1.000
1626294708752760.500,0.488,-10.254,-11.230,79.590,1.000
1626294708756666.750,40.527,-13.672,-12.695,97.656,1.000
1626294708760573.000,-57.129,-70.801,-27.344,-119.629,1.000
1626294708764479.250,-97.168,-40.527,-18.555,-162.109,1.000
1626294708768385.500,2.930,2.441,-24.902,58.105,1.000
1626294708772291.750,47.363,1.953,-55.664,132.812,1.000
1626294708776198.000,-45.410,-15.137,-54.199,-79.102,1.000
1626294708780104.250,-51.758,-9.277,-56.152,-123.047,1.000
1626294708784010.500,-92.773,-24.414,-44.434,-185.059,1.000
1626294708787916.750,-33.691,-108.887,-65.918,6.836,1.000
1626294708791823.000,2.441,-62.012,-74.707,89.355,1.000
1626294708795729.250,-59.082,-21.484,-39.062,-84.961,1.000
1626294708799635.500,-130.859,-47.852,-18.555,-219.238,1.000
1626294708803541.750,-64.453,-20.996,-11.719,-63.965,1.000
1626294708807448.000,23.926,-32.715,-28.809,118.164,1.000
1626294708811354.250,-10.742,-50.781,-39.551,9.766,1.000
1626294708815260.500,-108.398,-47.852,-41.504,-194.336,1.000
1626294708819166.750,-89.844,-7.812,-11.230,-108.887,1.000
1626294708823073.000,13.184,4.883,14.160,118.164,1.000
1626294708826979.250,44.434,-8.789,-9.277,1.000,1.000
1626294708830885.500,8.301,-30.762,-32.715,1.000,1.000
1626294708834791.750,-95.703,-114.258,-57.129,1.000,1.000
1626294708838698.000,-72.266,-46.387,-34.180,1.000,1.000
1626294708842604.250,36.621,13.672,0.488,1.000,1.000
1626294708846510.500,56.641,-32.227,-10.254,1.000,1.000
1626294708850416.750,-44.434,-40.039,-41.992,1.000,1.000
1626294708854323.000,-110.840,-46.875,-56.152,1.000,1.000
1626294708858229.250,-16.602,-20.020,-39.551,1.000,1.000
1626294708862135.500,37.598,-8.789,-30.762,1.000,1.000
1626294708866041.750,-33.691,-10.742,-23.438,1.000,1.000
1626294708869948.000,-91.797,-28.320,-20.508,1.000,1.000
1626294708873854.250,-93.750,-8.301,-47.363,-171.875,1.000
1626294708877760.500,-12.695,-7.812,-32.227,39.062,1.000
1626294708881666.750,14.648,-86.914,-40.039,106.445,1.000
1626294708885573.000,-42.969,-69.824,-31.250,-75.195,1.000
1626294708889479.250,-97.168,-30.273,-37.598,-190.430,1.000
1626294708893385.500,-26.855,-1.465,-17.090,-12.207,1.000
1626294708897291.750,48.828,-9.766,-7.324,146.973,1.000
1626294708901198.000,-28.320,-116.211,-64.453,-16.113,1.000
1626294708905104.250,-108.887,-76.172,-56.152,-196.777,1.000
1626294708909010.500,-81.055,-14.648,-27.344,-94.238,1.000
1626294708912916.750,5.371,-14.648,-26.855,107.910,1.000
1626294708916823.000,-1.465,-20.508,-27.344,47.363,1.000
1626294708920729.250,9.766,-19.531,-16.602,20.508,1.000
1626294708924635.500,-85.449,-28.320,-42.969,-172.852,1.000
1626294708928541.750,-83.008,-83.984,-60.547,-110.840,1.000
1626294708932448.000,34.668,-34.668,-30.273,118.164,1.000
1626294708936354.250,61.523,-21.973,-22.461,103.027,1.000
1626294708940260.500,-51.758,-20.508,-49.805,-143.066,1.000
1626294708944166.750,-109.863,0.488,-64.453,-178.711,1.000
1626294708948073.000,-38.574,-67.383,-72.754,26.367,1.000
1626294708951979.250,37.598,-25.391,-24.414,101.562,1.000
1626294708955885.500,-18.555,4.883,-7.324,-80.078,1.000
1626294708959791.750,-65.430,-0.977,-33.203,-150.879,1.000
1626294708963698.000,-9.277,-14.160,-42.969,19.531,1.000
1626294708967604.250,2.441,-0.488,-4.395,1.000,1.000
1626294708971510.500,53.223,-6.348,-8.789,1.000,1.000
1626294708975416.750,-46.387,-105.469,-73.730,1.000,1.000
1626294708979323.000,-92.285,-88.867,-44.922,1.000,1.000
1626294708983229.250,-17.578,-17.090,-23.438,1.000,1.000
1626294708987135.500,49.316,10.254,-36.133,1.000,1.000
1626294708991041.750,-9.277,-5.371,-14.160,1.000,1.000
1626294708994948.000,-125.000,-77.637,-33.203,1.000,1.000
1626294708998854.250,-81.055,-28.809,-32.227,1.000,1.000
1626294709002760.500,24.902,5.859,-7.812,1.000,1.000
1626294709006666.750,6.836,-3.418,-9.766,1.000,1.000
1626294709010573.000,-96.680,-41.016,-40.527,1.000,1.000
1626294709014479.250,-107.910,-14.648,-45.410,-187.500,1.000
1626294709018385.500,-65.430,-8.301,-20.508,-74.707,1.000
1626294709022291.750,32.715,-46.875,-34.180,128.906,1.000
1626294709026198.000,19.043,-63.477,-41.992,60.547,1.000
1626294709030104.250,-79.102,-49.805,-39.062,-165.039,1.000
1626294709034010.500,-89.844,-12.207,-29.297,-147.461,1.000
1626294709037916.750,0.488,-7.812,-24.902,70.801,1.000
1626294709041823.000,14.160,-45.410,-40.039,81.055,1.000
1626294709045729.250,-62.012,-27.832,-43.945,-125.488,1.000
1626294709049635.500,-111.328,-36.621,-56.152,-189.453,1.000
1626294709053541.750,-32.715,-10.742,-41.504,14.648,1.000
1626294709057448.000,27.832,-6.836,-37.109,126.465,1.000
1626294709061354.250,35.645,-47.852,-26.367,1.000,1.000
1626294709065260.500,-34.180,-21.484,-38.574,1.000,1.000
1626294709069166.750,-96.680,-48.828,-32.715,1.000,1.000
1626294709073073.000,-24.902,-36.621,-12.695,1.000,1.000
1626294709076979.250,47.852,-12.695,-14.160,1.000,1.000
1626294709080885.500,-8.789,-3.906,-32.227,1.000,1.000
1626294709084791.750,-97.656,-20.020,-44.922,1.000,1.000
1626294709088698.000,-81.543,-83.984,-47.852,1.000,1.000
1626294709092604.250,23.438,-22.461,-34.668,1.000,1.000
1626294709096510.500,24.902,17.090,-41.016,1.000,1.000
1626294709100416.750,-74.707,-4.395,-32.227,1.000,1.000
1626294709104323.000,-80.078,-31.250,-16.113,1.000,1.000
1626294709108229.250,-48.340,-10.742,-30.762,-57.129,1.000
1626294709112135.500,30.273,-24.902,-39.551,132.324,1.000
1626294709116041.750,-22.949,-126.465,-53.223,14.160,1.000
1626294709119948.000,-111.816,-77.637,-35.156,-194.336,1.000
1626294709123854.250,-100.098,-21.484,-18.555,-138.672,1.000
1626294709127760.500,0.488,-29.297,-12.207,89.844,1.000
1626294709131666.750,31.738,-21.973,-19.043,111.328,1.000
1626294709135573.000,-68.359,-57.129,-40.039,-115.723,1.000
1626294709139479.250,-101.562,-19.043,-29.785,-165.039,1.000
1626294709143385.500,-21.973,-1.465,-16.602,39.062,1.000
1626294709147291.750,46.387,0.488,-9.766,133.789,1.000
1626294709151198.000,-19.531,-25.391,-20.996,-52.734,1.000
1626294709155104.250,-39.551,-12.695,-37.109,-105.957,1.000
1626294709159010.500,-106.445,-15.137,-49.316,-189.453,1.000
1626294709162916.750,-60.547,-79.102,-57.129,-15.137,1.000
1626294709166823.000,31.250,-48.828,-15.137,125.977,1.000
1626294709170729.250,-26.367,-18.555,-2.441,-38.574,1.000
1626294709174635.500,-117.188,-24.902,-22.461,-192.871,1.000
1626294709178541.750,-52.246,-26.855,-21.973,-35.645,1.000
1626294709182448.000,21.484,-74.219,-41.992,110.840,1.000
1626294709186354.250,12.695,-23.438,-25.879,15.625,1.000
1626294709190260.500,-73.242,-11.230,-20.508,-168.457,1.000
1626294709194166.750,-77.637,-20.020,-53.223,-114.746,1.000
1626294709198073.000,9.277,-36.621,-45.410,95.703,1.000
1626294709201979.250,52.734,-19.043,-5.371,1.000,1.000
1626294709205885.500,30.762,-26.367,-13.672,1.000,1.000
1626294709209791.750,-93.750,-105.469,-57.129,1.000,1.000
1626294709213698.000,-71.289,-69.824,-39.062,1.000,1.000
1626294709217604.250,35.645,-10.254,-14.160,1.000,1.000
1626294709221510.500,43.457,-4.883,-32.227,1.000,1.000
1626294709225416.750,-53.711,-35.156,-52.734,1.000,1.000
1626294709229323.000,-76.172,-82.520,-60.059,1.000,1.000
1626294709233229.250,44.922,-24.414,-29.785,1.000,1.000
1626294709237135.500,75.195,-6.348,-28.320,1.000,1.000
1626294709241041.750,-35.645,-35.645,-39.551,1.000,1.000
1626294709244948.000,-112.793,-37.598,-29.297,1.000,1.000
1626294709248854.250,-96.680,-32.227,-18.555,-164.551,1.000
1626294709252760.500,-1.953,-28.809,-14.648,46.875,1.000
1626294709256666.750,22.949,-110.352,-43.945,105.469,1.000
1626294709260573.000,-38.086,-71.777,-39.062,-74.707,1.000
1626294709264479.250,-102.539,-29.297,-36.133,-196.777,1.000
1626294709268385.500,-41.504,10.254,-30.762,-25.879,1.000
1626294709272291.750,48.340,18.555,-24.414,144.531,1.000
1626294709276198.000,-39.551,-106.445,-69.824,-37.109,1.000
1626294709280104.250,-107.910,-51.270,-54.199,-206.543,1.000
1626294709284010.500,-62.500,1.465,-37.598,-86.426,1.000
1626294709287916.750,29.785,-10.254,-30.762,119.629,1.000
1626294709291823.000,38.086,-59.082,-10.254,77.148,1.000
1626294709295729.250,4.395,1.465,-32.715,24.902,1.000
1626294709299635.500,-81.055,-4.883,-28.809,-168.945,1.000
1626294709303541.750,-88.867,-92.285,-38.574,-104.004,1.000
1626294709307448.000,15.625,-36.133,-23.438,116.211,1.000
1626294709311354.250,29.297,8.301,-23.438,76.660,1.000
1626294709315260.500,-59.570,-1.953,-24.902,-134.766,1.000
1626294709319166.750,-93.262,-10.742,-25.879,-143.066,1.000
1626294709323073.000,-32.715,-79.102,-47.852,33.691,1.000
