timestamps,TP9,AF7,AF8,TP10,Right AUX
1626203018585389.000,-171.387,-26.855,-36.133,-210.938,1.000
1626203018589295.250,50.293,-21.973,-14.648,87.402,1.000
1626203018593201.500,111.328,-41.504,-18.555,153.320,1.000
1626203018597107.750,-98.633,-55.176,-28.320,-127.930,1.000
1626203018601014.000,-209.961,-45.410,-27.832,-248.535,1.000
1626203018604920.250,-30.762,-38.574,-15.137,3.906,1.000
1626203018608826.500,105.957,-30.762,-22.461,171.875,1.000
1626203018612732.750,-48.828,-24.902,-38.086,-55.176,1.000
1626203018616639.000,-227.051,-37.109,-42.480,-282.715,1.000
1626203018620545.250,-90.820,-37.109,-23.926,-85.449,1.000
1626203018624451.500,129.395,-26.855,-8.789,189.941,1.000
1626203018628357.750,46.875,-34.180,-24.902,56.641,1.000
1626203018632264.000,7.324,-48.340,-49.805,1.000,1.000
1626203018636170.250,-201.660,-56.641,-50.293,1.000,1.000
1626203018640076.500,-87.891,-28.320,-24.902,1.000,1.000
1626203018643982.750,119.629,1.465,-27.344,1.000,1.000
1626203018647889.000,41.992,-21.484,-60.547,1.000,1.000
1626203018651795.250,-170.898,-46.875,-52.734,1.000,1.000
1626203018655701.500,-161.133,-41.016,-35.156,1.000,1.000
1626203018659607.750,48.828,-25.391,-31.738,1.000,1.000
1626203018663514.000,80.078,-28.320,-32.227,1.000,1.000
1626203018667420.250,-108.398,-49.316,-41.016,1.000,1.000
1626203018671326.500,-166.016,-32.227,-26.855,1.000,1.000
1626203018675232.750,24.902,-9.277,-8.301,1.000,1.000
1626203018679139.000,49.805,-51.270,-22.461,97.168,1.000
1626203018683045.250,87.891,-55.176,-45.410,136.230,1.000
1626203018686951.500,-123.535,-46.387,-57.129,-148.926,1.000
1626203018690857.750,-193.359,-38.574,-30.273,-231.445,1.000
1626203018694764.000,10.254,-31.250,-2.441,45.410,1.000
1626203018698670.250,125.488,-1.465,-13.184,193.359,1.000
1626203018702576.500,-46.875,-14.648,-46.387,-50.781,1.000
1626203018706482.750,-190.430,-43.457,-33.691,-235.840,1.000
1626203018710389.000,-44.434,-41.504,-21.973,-26.367,1.000
1626203018714295.250,126.465,-39.551,-40.527,199.219,1.000
1626203018718201.500,29.297,-30.762,-47.363,49.805,1.000
1626203018722107.750,-177.246,-33.691,-45.410,-229.004,1.000
1626203018726014.000,-190.918,3.418,-48.340,-243.652,1.000
1626203018729920.250,-78.125,-3.418,-33.691,-71.777,1.000
1626203018733826.500,116.699,-17.578,-31.250,179.688,1.000
1626203018737732.750,41.016,-23.438,-22.461,58.105,1.000
1626203018741639.000,-171.387,-27.832,-31.738,-224.121,1.000
1626203018745545.250,-122.559,-33.691,-30.273,-140.625,1.000
1626203018749451.500,97.656,-30.273,-13.672,148.438,1.000
1626203018753357.750,89.844,-44.922,-24.902,113.770,1.000
1626203018757264.000,-125.000,-59.082,-45.898,-181.152,1.000
1626203018761170.250,-164.062,-34.180,-42.969,-216.797,1.000
1626203018765076.500,35.156,-19.531,-39.062,60.547,1.000
1626203018768982.750,112.793,-29.785,-47.852,149.902,1.000
1626203018772889.000,80.078,-35.645,-24.902,124.512,1.000
1626203018776795.250,-147.461,-38.086,-50.293,-183.105,1.000
1626203018780701.500,-211.426,-35.156,-54.688,-248.535,1.000
1626203018784607.750,11.230,-29.297,-32.227,47.852,1.000
1626203018788514.000,135.742,-35.645,-28.809,184.570,1.000
1626203018792420.250,-27.344,-29.297,-24.902,-59.570,1.000
1626203018796326.500,-190.430,-47.363,-28.809,-251.465,1.000
1626203018800232.750,-31.250,-24.902,-24.414,-21.484,1.000
1626203018804139.000,153.320,6.836,-29.785,201.660,1.000
1626203018808045.250,17.578,-14.648,-55.176,4.395,1.000
1626203018811951.500,-204.590,-29.297,-59.082,-271.484,1.000
1626203018815857.750,-135.254,-32.715,-43.457,-145.996,1.000
1626203018819764.000,-51.270,-46.387,-40.039,-35.645,1.000
1626203018823670.250,136.719,-29.297,-44.434,199.219,1.000
1626203018827576.500,34.180,-8.789,-52.246,34.668,1.000
1626203018831482.750,-167.969,-10.742,-45.898,-231.934,1.000
1626203018835389.000,-110.840,-14.648,-31.250,-128.906,1.000
1626203018839295.250,117.188,2.441,-7.324,169.922,1.000
1626203018843201.500,94.238,-23.438,-9.766,116.699,1.000
1626203018847107.750,-108.398,-46.387,-18.555,-155.273,1.000
1626203018851014.000,-112.793,-36.133,-5.371,-147.949,1.000
1626203018854920.250,65.430,-55.176,-7.812,105.957,1.000
1626203018858826.500,90.332,-58.105,-25.879,138.184,1.000
1626203018862732.750,-117.676,-31.738,-48.340,-149.414,1.000
1626203018866639.000,-137.207,-38.086,-53.223,1.000,1.000
1626203018870545.250,-181.152,-58.594,-69.824,1.000,1.000
1626203018874451.500,47.363,-37.109,-39.062,1.000,1.000
1626203018878357.750,145.020,-1.465,-14.648,1.000,1.000
1626203018882264.000,-74.219,-29.297,-33.203,1.000,1.000
1626203018886170.250,-194.824,-31.738,-28.809,1.000,1.000
1626203018890076.500,-19.531,-25.391,-13.184,1.000,1.000
1626203018893982.750,134.277,-35.156,-8.789,1.000,1.000
1626203018897889.000,-0.488,-36.621,-18.555,1.000,1.000
1626203018901795.250,-193.848,-53.223,-49.805,1.000,1.000
1626203018905701.500,-99.609,-67.871,-59.082,1.000,1.000
1626203018909607.750,107.422,-38.086,-28.320,1.000,1.000
1626203018913514.000,124.512,-20.508,-20.020,181.152,1.000
1626203018917420.250,4.395,-16.113,-29.297,0.000,1.000
1626203018921326.500,-172.363,-15.625,-40.527,-239.746,1.000
1626203018925232.750,-87.891,-40.527,-28.809,-101.074,1.000
1626203018929139.000,120.117,-36.621,-3.906,173.340,1.000
1626203018933045.250,80.078,-18.555,-4.395,87.402,1.000
1626203018936951.500,-158.203,-41.504,-39.551,-223.633,1.000
1626203018940857.750,-147.461,-34.668,-52.246,-184.082,1.000
1626203018944764.000,77.637,-27.344,-37.598,119.141,1.000
1626203018948670.250,97.656,-27.344,-39.551,125.977,1.000
1626203018952576.500,-110.840,-33.203,-40.527,-162.109,1.000
1626203018956482.750,-177.734,-34.180,-25.391,-226.074,1.000
1626203018960389.000,-167.480,-41.992,-47.852,-197.754,1.000
1626203018964295.250,45.410,-56.152,-20.020,91.797,1.000
1626203018968201.500,117.188,-46.387,-11.230,155.762,1.000
1626203018972107.750,-59.570,-44.922,-15.137,-106.934,1.000
1626203018976014.000,-168.457,-55.664,-15.625,-225.586,1.000
1626203018979920.250,29.297,-23.926,-12.207,49.316,1.000
1626203018983826.500,142.578,-12.207,-50.293,194.824,1.000
1626203018987732.750,-38.574,-33.203,-64.941,-59.082,1.000
1626203018991639.000,-196.289,-31.250,-36.133,-257.812,1.000
1626203018995545.250,-69.824,-14.648,-24.414,-68.848,1.000
1626203018999451.500,130.859,-4.883,-16.602,181.152,1.000
1626203019003357.750,45.410,-10.254,-14.648,43.945,1.000
1626203019007264.000,-21.484,-45.410,-29.785,-22.949,1.000
1626203019011170.250,-213.867,-56.641,-40.039,-262.207,1.000
1626203019015076.500,-86.426,-41.992,-46.875,-83.008,1.000
1626203019018982.750,90.332,-23.926,-42.969,145.020,1.000
1626203019022889.000,4.883,-21.973,-31.250,6.348,1.000
1626203019026795.250,-167.480,-45.898,-17.090,-230.469,1.000
1626203019030701.500,-126.953,-18.066,-13.672,-152.344,1.000
1626203019034607.750,95.215,7.812,-28.809,138.672,1.000
1626203019038514.000,107.910,-7.812,-39.551,125.488,1.000
1626203019042420.250,-123.535,-41.016,-34.668,-177.246,1.000
1626203019046326.500,-207.520,-74.219,-40.527,-244.141,1.000
1626203019050232.750,-12.695,-56.152,-41.016,26.367,1.000
1626203019054139.000,56.152,-29.785,-53.223,111.328,1.000
1626203019058045.250,83.984,-21.973,-45.410,130.371,1.000
1626203019061951.500,-127.930,-13.672,-45.410,-157.227,1.000
1626203019065857.750,-178.711,0.000,-25.391,-208.496,1.000
1626203019069764.000,48.340,-10.742,0.488,92.773,1.000
1626203019073670.250,138.672,-34.180,-12.695,201.660,1.000
1626203019077576.500,-71.777,-60.059,-44.434,-83.984,1.000
1626203019081482.750,-220.703,-70.801,-50.293,-265.137,1.000
1626203019085389.000,-65.918,-49.805,-41.992,-43.945,1.000
1626203019089295.250,106.445,-23.438,-48.828,169.434,1.000
1626203019093201.500,-5.371,-28.809,-49.805,-2.441,1.000
1626203019097107.750,-190.430,-40.039,-37.109,-244.629,1.000
1626203019101014.000,-198.730,-18.555,-43.457,-259.766,1.000
1626203019104920.250,-46.875,-14.160,-33.203,-42.969,1.000
1626203019108826.500,143.555,-17.578,-18.555,199.219,1.000
1626203019112732.750,30.273,-33.203,-40.039,31.250,1.000
1626203019116639.000,-187.012,-43.457,-56.641,-244.629,1.000
1626203019120545.250,-124.512,-41.992,-42.969,-142.578,1.000
1626203019124451.500,103.027,-29.297,-28.809,147.949,1.000
1626203019128357.750,95.215,-28.809,-17.090,106.445,1.000
1626203019132264.000,-133.301,-33.691,-21.484,-201.660,1.000
1626203019136170.250,-163.086,-24.414,-35.156,-211.426,1.000
1626203019140076.500,46.875,-26.367,-33.691,86.914,1.000
1626203019143982.750,105.957,-41.016,-25.391,148.438,1.000
1626203019147889.000,83.008,-32.227,-52.734,111.816,1.000
1626203019151795.250,-130.371,-35.156,-51.758,-175.781,1.000
1626203019155701.500,-155.762,-42.480,-31.250,-197.266,1.000
1626203019159607.750,53.711,-42.969,-23.438,84.473,1.000
1626203019163514.000,119.629,-22.949,-32.227,167.480,1.000
1626203019167420.250,-89.844,-31.738,-42.969,-113.770,1.000
1626203019171326.500,-223.145,-46.875,-38.086,-275.879,1.000
1626203019175232.750,-34.180,-41.504,-10.742,-20.020,1.000
1626203019179139.000,145.020,-17.090,-1.953,188.477,1.000
1626203019183045.250,18.066,-6.348,-16.113,-3.906,1.000
1626203019186951.500,-158.203,-25.391,-24.414,-227.051,1.000
1626203019190857.750,-62.012,-45.898,-28.320,-77.637,1.000
1626203019194764.000,-27.344,-17.090,-40.039,-24.902,1.000
1626203019198670.250,158.691,9.766,-12.207,206.055,1.000
1626203019202576.500,16.113,-35.156,-9.277,18.555,1.000
1626203019206482.750,-193.359,-64.453,-20.996,-236.328,1.000
1626203019210389.000,-109.375,-56.152,-38.574,-104.980,1.000
1626203019214295.250,75.684,-54.199,-46.875,147.461,1.000
1626203019218201.500,23.926,-41.504,-41.504,56.152,1.000
1626203019222107.750,-160.645,-29.297,-44.922,-204.102,1.000
1626203019226014.000,-140.625,-18.066,-38.086,-154.785,1.000
1626203019229920.250,78.613,0.977,-14.648,138.672,1.000
1626203019233826.500,135.254,3.418,0.977,175.781,1.000
1626203019237732.750,-76.172,-40.039,-20.020,-116.699,1.000
1626203019241639.000,-137.207,-40.527,-54.199,1.000,1.000
1626203019245545.250,-172.363,-51.758,-50.293,1.000,1.000
1626203019249451.500,41.016,-47.363,-32.715,1.000,1.000
1626203019253357.750,117.676,-38.086,-24.414,1.000,1.000
1626203019257264.000,-82.031,-13.184,-22.461,1.000,1.000
1626203019261170.250,-197.754,-15.625,-30.762,1.000,1.000
1626203019265076.500,-2.441,-25.391,-31.250,1.000,1.000
1626203019268982.750,128.418,-22.949,-33.691,1.000,1.000
1626203019272889.000,-44.434,-33.691,-42.480,1.000,1.000
1626203019276795.250,-193.848,-31.738,-43.945,1.000,1.000
1626203019280701.500,-50.781,-23.438,-28.320,1.000,1.000
1626203019284607.750,152.344,-11.230,-13.184,1.000,1.000
1626203019288514.000,150.391,-58.594,-37.109,190.918,1.000
1626203019292420.250,-9.766,-76.660,-27.344,-29.297,1.000
1626203019296326.500,-210.449,-64.941,-41.504,-272.461,1.000
1626203019300232.750,-109.375,-32.715,-44.434,-106.445,1.000
1626203019304139.000,101.562,-14.160,-35.645,171.875,1.000
1626203019308045.250,40.039,-17.090,-35.645,68.848,1.000
1626203019311951.500,-168.945,-25.879,-32.715,-209.961,1.000
1626203019315857.750,-148.438,-40.039,-32.227,-156.738,1.000
1626203019319764.000,61.523,-55.176,-25.879,126.465,1.000
1626203019323670.250,88.379,-45.898,-24.414,137.207,1.000
1626203019327576.500,-106.934,-31.250,-31.250,-144.531,1.000
1626203019331482.750,-158.691,-33.691,-25.391,-196.289,1.000
1626203019335389.000,-133.301,-15.625,-20.996,-161.133,1.000
1626203019339295.250,63.477,-14.648,-30.762,115.723,1.000
1626203019343201.500,80.566,-32.227,-33.691,121.094,1.000
1626203019347107.750,-135.254,-54.199,-39.062,-170.410,1.000
1626203019351014.000,-190.918,-50.781,-38.086,-223.145,1.000
1626203019354920.250,11.719,-33.203,-27.344,54.688,1.000
1626203019358826.500,109.375,-29.297,-22.949,175.781,1.000
1626203019362732.750,-76.172,-33.203,-36.133,-72.754,1.000
1626203019366639.000,-214.844,-34.668,-29.297,-248.047,1.000
1626203019370545.250,-57.617,-33.203,-30.273,-37.598,1.000
1626203019374451.500,128.906,-31.738,-31.250,187.500,1.000
1626203019378357.750,20.996,-18.066,-10.742,17.090,1.000
1626203019382264.000,-52.246,-21.484,-35.156,-261.719,1.000
1626203019386170.250,-193.359,-25.879,-21.973,-138.184,1.000
1626203019390076.500,-46.387,-15.625,-8.301,148.438,1.000
1626203019393982.750,120.605,-21.973,-30.762,87.402,1.000
1626203019397889.000,10.254,-28.320,-58.594,-191.406,1.000
1626203019401795.250,-179.199,-31.738,-51.758,-186.035,1.000
1626203019405701.500,-134.277,-12.207,-30.273,101.562,1.000
1626203019409607.750,60.547,-16.113,-20.996,134.277,1.000
1626203019413514.000,46.387,-42.969,-28.809,-155.762,1.000
1626203019417420.250,-153.320,-40.039,-33.691,-239.258,1.000
1626203019421326.500,-168.945,-50.293,-29.785,29.785,1.000
1626203019425232.750,62.988,-35.156,-28.809,174.316,1.000
1626203019429139.000,76.660,-20.996,-22.461,123.047,1.000
1626203019433045.250,76.660,-23.438,-34.668,106.445,1.000
1626203019436951.500,-136.719,-27.344,-38.574,-175.293,1.000
1626203019440857.750,-182.129,-15.137,-36.133,-210.938,1.000
1626203019444764.000,21.973,-18.066,-41.504,65.430,1.000
1626203019448670.250,109.375,-36.133,-46.387,165.527,1.000
1626203019452576.500,-66.406,-39.062,-35.645,-92.773,1.000
1626203019456482.750,-176.758,-18.066,-21.484,-240.723,1.000
1626203019460389.000,-18.066,-16.113,-21.973,-7.812,1.000
1626203019464295.250,130.371,-26.855,-24.414,186.035,1.000
1626203019468201.500,-9.766,-9.766,-36.621,-14.160,1.000
1626203019472107.750,-187.988,0.488,-43.945,-238.770,1.000
1626203019476014.000,-191.406,-47.852,-41.504,-239.258,1.000
1626203019479920.250,-26.367,-31.250,-11.719,-11.719,1.000
1626203019483826.500,159.668,-35.645,10.742,219.727,1.000
1626203019487732.750,12.695,-46.875,-16.602,12.207,1.000
1626203019491639.000,-199.219,-29.297,-49.316,-253.906,1.000
1626203019495545.250,-108.398,-21.973,-66.406,-125.000,1.000
1626203019499451.500,127.441,-17.578,-23.926,170.898,1.000
1626203019503357.750,84.961,-27.832,-5.859,100.098,1.000
1626203019507264.000,-150.879,-40.039,-29.297,-212.891,1.000
1626203019511170.250,-140.137,-32.715,-18.555,-187.500,1.000
1626203019515076.500,97.168,-7.324,-1.953,121.582,1.000
1626203019518982.750,124.512,-2.441,-17.578,148.926,1.000
1626203019522889.000,75.684,-15.137,-27.832,108.887,1.000
1626203019526795.250,-111.328,-1.465,-7.812,-155.762,1.000
1626203019530701.500,-114.746,-18.555,-2.441,-145.508,1.000
1626203019534607.750,83.008,-59.082,-16.602,125.977,1.000
1626203019538514.000,134.766,-33.203,-25.391,171.875,1.000
1626203019542420.250,-66.895,5.859,-36.133,-108.398,1.000
1626203019546326.500,-181.641,-3.418,-43.945,-232.422,1.000
1626203019550232.750,-1.953,-29.297,-45.898,13.184,1.000
1626203019554139.000,133.789,-34.668,-49.316,181.152,1.000
1626203019558045.250,-46.387,-32.227,-44.922,-57.129,1.000
1626203019561951.500,-208.496,-35.645,-40.527,-263.672,1.000
1626203019565857.750,-48.340,-20.020,-25.879,-45.410,1.000
1626203019569764.000,-12.695,-22.461,-20.020,24.414,1.000
1626203019573670.250,128.418,-14.160,-27.832,199.219,1.000
1626203019577576.500,-25.391,-33.691,-34.668,-23.438,1.000
1626203019581482.750,-206.055,-51.270,-28.809,-255.859,1.000
1626203019585389.000,-94.238,-41.992,-31.250,-89.844,1.000
1626203019589295.250,110.840,-38.574,-35.156,186.035,1.000
1626203019593201.500,42.480,-43.457,-26.367,79.102,1.000
1626203019597107.750,-179.688,-41.992,-21.973,-214.355,1.000
1626203019601014.000,-161.621,-55.664,-16.113,-162.109,1.000
1626203019604920.250,70.801,-55.664,-26.855,133.301,1.000
1626203019608826.500,104.004,-34.668,-31.738,142.578,1.000
1626203019612732.750,-115.723,-39.551,-21.484,-152.832,1.000
1626203019616639.000,-164.062,-43.945,-63.965,1.000,1.000
1626203019620545.250,-162.109,-26.855,-58.105,1.000,1.000
1626203019624451.500,57.617,-10.742,-32.227,1.000,1.000
1626203019628357.750,85.449,-24.414,-19.043,1.000,1.000
1626203019632264.000,-127.930,-76.172,-14.648,1.000,1.000
1626203019636170.250,-199.707,-70.312,-26.367,1.000,1.000
1626203019640076.500,0.488,-26.855,-25.391,1.000,1.000
1626203019643982.750,122.070,-18.066,-21.484,1.000,1.000
1626203019647889.000,-42.969,-4.395,-33.203,1.000,1.000
1626203019651795.250,-220.215,-10.254,-52.734,1.000,1.000
1626203019655701.500,-97.656,-31.738,-60.547,1.000,1.000
1626203019659607.750,84.473,-48.340,-35.645,1.000,1.000
1626203019663514.000,104.492,-58.594,-32.227,187.500,1.000
1626203019667420.250,-18.555,-29.785,-22.949,-21.973,1.000
1626203019671326.500,-180.664,-29.297,-23.438,-235.840,1.000
1626203019675232.750,-64.453,-27.832,-25.879,-65.918,1.000
1626203019679139.000,135.254,-28.320,-16.113,186.523,1.000
1626203019683045.250,67.383,-26.367,-12.695,66.406,1.000
1626203019686951.500,-132.324,-20.508,-24.414,-207.520,1.000
1626203019690857.750,-84.473,-9.277,-40.039,-123.535,1.000
1626203019694764.000,113.770,-5.371,-33.203,169.434,1.000
1626203019698670.250,110.352,-10.254,-25.391,134.766,1.000
1626203019702576.500,-102.539,-36.133,-43.945,-162.109,1.000
1626203019706482.750,-134.277,-69.824,-36.133,-166.992,1.000
1626203019710389.000,-165.527,-11.230,-45.898,-186.523,1.000
1626203019714295.250,57.129,-3.906,-13.184,116.699,1.000
1626203019718201.500,69.824,-28.320,-25.879,105.957,1.000
1626203019722107.750,-139.648,-53.223,-51.758,-188.965,1.000
1626203019726014.000,-182.617,-41.016,-37.598,-214.844,1.000
1626203019729920.250,27.832,-38.086,-17.578,75.684,1.000
1626203019733826.500,159.668,-3.906,-6.348,197.266,1.000
1626203019737732.750,-1.465,16.602,-4.883,-35.156,1.000
1626203019741639.000,-163.086,-14.160,-21.973,-207.520,1.000
1626203019745545.250,-34.180,-24.902,-41.992,-14.160,1.000
1626203019749451.500,101.562,-27.344,-43.945,165.527,1.000
1626203019753357.750,-33.691,-49.316,-47.363,-35.645,1.000
1626203019757264.000,-35.156,-19.043,-1.953,-273.926,1.000
1626203019761170.250,-182.129,-33.691,-14.160,-109.375,1.000
1626203019765076.500,-26.367,-19.043,-19.043,156.738,1.000
1626203019768982.750,126.465,-18.555,-37.598,72.754,1.000
1626203019772889.000,15.625,-28.809,-44.922,-196.289,1.000
1626203019776795.250,-184.082,-22.461,-52.734,-147.949,1.000
1626203019780701.500,-119.629,-17.578,-38.574,141.113,1.000
1626203019784607.750,102.051,-12.695,-13.672,141.602,1.000
1626203019788514.000,76.660,-13.184,-31.738,-150.391,1.000
1626203019792420.250,-142.090,-29.297,-34.668,-225.098,1.000
1626203019796326.500,-144.531,-38.574,-33.691,44.434,1.000
1626203019800232.750,74.219,-10.254,-44.434,186.523,1.000
1626203019804139.000,93.262,-27.344,-36.133,132.324,1.000
1626203019808045.250,76.172,-6.348,-22.949,97.168,1.000
1626203019811951.500,-132.324,-36.133,-34.668,-191.406,1.000
1626203019815857.750,-176.758,-54.199,-48.340,-216.797,1.000
1626203019819764.000,32.715,-28.320,-44.434,76.172,1.000
1626203019823670.250,116.699,-19.043,-26.367,163.574,1.000
1626203019827576.500,-92.773,-59.082,-48.828,-122.070,1.000
1626203019831482.750,-210.449,-71.777,-59.570,-254.883,1.000
1626203019835389.000,-9.766,-34.668,-17.090,15.137,1.000
1626203019839295.250,141.113,-23.438,-15.625,194.336,1.000
1626203019843201.500,-1.953,-26.367,-30.273,-25.879,1.000
1626203019847107.750,-153.320,-1.465,-19.531,-229.492,1.000
1626203019851014.000,-182.617,-93.750,-18.066,1.000,1.000
1626203019854920.250,0.000,-50.781,-20.508,1.000,1.000
1626203019858826.500,135.742,-8.789,-39.551,1.000,1.000
1626203019862732.750,-25.879,-4.395,-53.223,1.000,1.000
1626203019866639.000,-208.496,-20.020,-42.969,1.000,1.000
1626203019870545.250,-92.285,-23.438,-25.391,1.000,1.000
1626203019874451.500,110.352,-29.297,-20.020,1.000,1.000
1626203019878357.750,54.199,-33.203,-23.438,1.000,1.000
1626203019882264.000,-145.020,-26.367,-39.062,1.000,1.000
1626203019886170.250,-125.000,-29.785,-33.203,1.000,1.000
1626203019890076.500,78.613,-58.105,-30.762,1.000,1.000
1626203019893982.750,105.469,-61.035,-25.879,1.000,1.000
1626203019897889.000,78.613,-12.207,-18.555,82.520,1.000
1626203019901795.250,-127.930,-17.090,-19.531,-191.406,1.000
1626203019905701.500,-113.281,-14.160,-17.578,-153.809,1.000
1626203019909607.750,81.543,-26.367,-16.113,116.211,1.000
1626203019913514.000,93.750,-45.898,-17.578,133.301,1.000
1626203019917420.250,-112.305,-60.547,-19.043,-148.926,1.000
1626203019921326.500,-185.059,-47.363,-19.043,-231.445,1.000
1626203019925232.750,-8.301,-22.461,-23.438,14.648,1.000
1626203019929139.000,99.121,-19.043,-27.832,139.648,1.000
1626203019933045.250,-63.477,-27.344,-34.180,-102.051,1.000
1626203019936951.500,-213.867,-36.133,-33.691,-283.691,1.000
1626203019940857.750,-61.523,-21.484,-18.066,-59.082,1.000
1626203019944764.000,-123.047,-29.785,-32.715,-90.820,1.000
1626203019948670.250,4.883,-10.742,-16.602,70.801,1.000
1626203019952576.500,-162.598,-52.734,-18.555,-172.363,1.000
1626203019956482.750,-329.102,-67.383,-27.344,-390.625,1.000
1626203019960389.000,-199.707,-21.973,-29.297,-199.707,1.000
1626203019964295.250,-14.648,-13.184,-43.945,43.945,1.000
1626203019968201.500,-86.914,-0.488,-48.828,-76.660,1.000
1626203019972107.750,-265.137,0.488,-39.551,-326.660,1.000
1626203019976014.000,-222.656,-35.645,-41.504,-256.348,1.000
1626203019979920.250,-25.391,-28.809,-45.410,18.066,1.000
1626203019983826.500,-46.387,-27.344,-53.711,-20.996,1.000
1626203019987732.750,-229.980,-15.625,-38.086,-288.574,1.000
1626203019991639.000,-194.336,-29.297,-46.875,1.000,1.000
1626203019995545.250,-143.555,-4.395,-38.086,1.000,1.000
1626203019999451.500,89.844,-17.578,-38.574,1.000,1.000
1626203020003357.750,118.164,-44.434,-66.895,1.000,1.000
1626203020007264.000,-92.773,-58.594,-54.199,1.000,1.000
1626203020011170.250,-153.809,-31.250,-33.691,1.000,1.000
1626203020015076.500,95.215,-2.930,-17.090,1.000,1.000
1626203020018982.750,171.387,-17.578,-23.438,1.000,1.000
1626203020022889.000,-62.988,-25.391,-43.457,1.000,1.000
1626203020026795.250,-170.410,-11.719,-27.344,1.000,1.000
1626203020030701.500,26.367,-4.883,-11.719,1.000,1.000
1626203020034607.750,199.219,-2.441,-24.414,1.000,1.000
1626203020038514.000,187.988,-38.574,-2.441,239.258,1.000
1626203020042420.250,14.648,-29.785,-14.648,-5.371,1.000
1626203020046326.500,-134.277,-17.578,-31.738,-183.594,1.000
1626203020050232.750,-16.113,-50.293,-31.250,0.488,1.000
1626203020054139.000,131.348,-50.293,-32.715,197.754,1.000
1626203020058045.250,28.320,-38.086,-43.457,41.504,1.000
1626203020061951.500,-138.672,-61.523,-32.227,-186.523,1.000
1626203020065857.750,-58.594,-56.641,-11.230,-61.523,1.000
1626203020069764.000,140.625,-16.113,-12.207,212.891,1.000
1626203020073670.250,88.379,-12.695,-34.180,128.418,1.000
1626203020077576.500,-115.234,-29.785,-30.762,-152.832,1.000
1626203020081482.750,-92.285,-17.578,-10.742,-111.328,1.000
1626203020085389.000,-52.734,-11.719,-24.902,-75.684,1.000
1626203020089295.250,168.457,-39.062,6.348,214.355,1.000
1626203020093201.500,125.488,-71.289,-1.953,146.973,1.000
1626203020097107.750,-117.676,-45.410,-52.734,-168.945,1.000
1626203020101014.000,-152.344,-20.996,-57.129,-188.965,1.000
1626203020104920.250,61.035,-42.969,-40.527,103.516,1.000
1626203020108826.500,145.020,-47.363,-34.180,191.895,1.000
1626203020112732.750,-54.199,-41.992,-26.855,-85.449,1.000
1626203020116639.000,-159.180,-16.113,-19.531,-209.473,1.000
1626203020120545.250,41.016,11.230,-4.395,62.500,1.000
1626203020124451.500,166.016,-2.441,-8.789,230.957,1.000
1626203020128357.750,0.977,-28.809,-41.992,6.836,1.000
1626203020132264.000,-71.777,-28.809,-43.945,-210.449,1.000
1626203020136170.250,-210.449,-45.410,-49.805,-29.297,1.000
1626203020140076.500,-30.762,-28.320,-28.320,230.469,1.000
1626203020143982.750,143.555,-21.973,-29.297,98.145,1.000
1626203020147889.000,2.441,-32.715,-41.504,-177.734,1.000
1626203020151795.250,-184.570,-37.598,-38.086,-123.047,1.000
1626203020155701.500,-81.055,-36.133,-21.484,167.480,1.000
1626203020159607.750,125.977,-37.598,-19.043,173.828,1.000
1626203020163514.000,85.938,-35.645,-35.645,-121.582,1.000
1626203020167420.250,-133.301,-32.715,-44.434,-177.734,1.000
1626203020171326.500,-145.996,-33.691,-36.133,83.496,1.000
1626203020175232.750,82.520,-21.484,-20.508,177.246,1.000
1626203020179139.000,133.789,-16.602,-23.438,195.801,1.000
1626203020183045.250,104.004,0.488,-5.371,125.488,1.000
1626203020186951.500,-130.859,-35.645,-14.160,-167.480,1.000
1626203020190857.750,-142.090,-54.199,-42.480,-145.020,1.000
1626203020194764.000,80.078,-35.645,-25.879,139.648,1.000
1626203020198670.250,114.258,-12.695,-8.789,162.109,1.000
1626203020202576.500,-91.309,-1.465,-14.648,-113.770,1.000
1626203020206482.750,-192.383,-28.320,-28.320,-213.379,1.000
1626203020210389.000,6.348,-36.133,-24.902,58.594,1.000
1626203020214295.250,155.273,-21.973,-22.949,224.609,1.000
1626203020218201.500,-17.090,-46.387,-36.133,-23.438,1.000
1626203020222107.750,-166.992,-50.293,-30.273,-211.426,1.000
1626203020226014.000,-178.223,-23.438,-45.898,1.000,1.000
1626203020229920.250,-21.484,-26.367,-54.688,1.000,1.000
1626203020233826.500,137.207,-22.461,-23.926,1.000,1.000
1626203020237732.750,-19.531,-29.785,-21.973,1.000,1.000
1626203020241639.000,-201.660,-38.086,-40.039,1.000,1.000
1626203020245545.250,-68.359,-40.039,-35.156,1.000,1.000
1626203020249451.500,131.836,-32.227,-27.344,1.000,1.000
1626203020253357.750,49.805,-20.508,-44.434,1.000,1.000
1626203020257264.000,-178.223,-22.949,-64.453,1.000,1.000
1626203020261170.250,-139.648,-37.109,-37.109,1.000,1.000
1626203020265076.500,88.379,-38.086,-12.207,1.000,1.000
1626203020268982.750,97.656,-20.508,-14.160,1.000,1.000
1626203020272889.000,50.293,-21.484,-27.344,57.617,1.000
1626203020276795.250,-160.156,-20.508,-28.320,-220.215,1.000
1626203020280701.500,-110.352,-11.719,0.977,-125.000,1.000
1626203020284607.750,89.844,-43.457,-14.160,151.855,1.000
1626203020288514.000,89.355,-42.480,-36.621,141.602,1.000
1626203020292420.250,-125.977,-22.461,-31.250,-145.020,1.000
1626203020296326.500,-186.035,-35.645,-35.645,-213.867,1.000
1626203020300232.750,8.301,-62.500,-43.945,56.641,1.000
1626203020304139.000,116.211,-62.012,-29.785,184.570,1.000
1626203020308045.250,-55.664,-16.602,-28.809,-76.172,1.000
1626203020311951.500,-205.566,0.488,-48.828,-256.348,1.000
1626203020315857.750,-30.273,-5.859,-42.480,-13.184,1.000
1626203020319764.000,27.344,-34.668,-45.898,42.480,1.000
1626203020323670.250,125.000,-33.203,-39.551,167.480,1.000
1626203020327576.500,-40.039,-22.949,-22.949,-72.266,1.000
1626203020331482.750,-185.059,-9.766,-16.113,-255.371,1.000
1626203020335389.000,-42.969,-18.066,-22.461,-40.039,1.000
1626203020339295.250,140.625,-31.250,-34.668,183.594,1.000
1626203020343201.500,33.203,-30.273,-18.555,18.066,1.000
1626203020347107.750,-186.035,-33.203,-25.391,-247.070,1.000
1626203020351014.000,-141.113,-34.180,-52.246,-159.668,1.000
1626203020354920.250,103.516,-8.789,-33.691,159.668,1.000
1626203020358826.500,81.055,-10.742,-27.344,116.699,1.000
1626203020362732.750,-151.367,-41.504,-29.785,-207.520,1.000
1626203020366639.000,-180.176,-56.152,-27.832,-239.258,1.000
1626203020370545.250,-105.957,-39.551,-14.160,-116.211,1.000
1626203020374451.500,128.418,-24.414,-0.977,184.082,1.000
1626203020378357.750,93.262,-20.020,-17.090,116.211,1.000
1626203020382264.000,-145.508,-11.719,-34.668,-192.871,1.000
1626203020386170.250,-146.973,-3.418,-38.086,-189.941,1.000
1626203020390076.500,68.359,-14.648,-28.320,107.910,1.000
1626203020393982.750,123.535,-24.902,-23.438,167.480,1.000
1626203020397889.000,-80.566,-26.367,-29.785,-112.793,1.000
1626203020401795.250,-198.242,-47.852,-50.781,-262.695,1.000
1626203020405701.500,-26.855,-75.684,-45.410,-12.695,1.000
1626203020409607.750,137.695,-47.852,-12.695,207.031,1.000
1626203020413514.000,158.691,-26.855,-15.625,196.289,1.000
1626203020417420.250,-4.395,-0.488,12.207,-35.645,1.000
1626203020421326.500,-153.809,-12.695,-7.812,-215.820,1.000
1626203020425232.750,-33.203,-15.137,-38.574,-24.414,1.000
1626203020429139.000,114.258,-4.395,-34.180,176.758,1.000
1626203020433045.250,-6.348,-27.344,-40.527,-12.695,1.000
1626203020436951.500,-177.734,-32.715,-33.691,-238.770,1.000
1626203020440857.750,-83.008,-32.715,-15.137,-89.355,1.000
1626203020444764.000,120.605,-49.805,-9.277,190.430,1.000
1626203020448670.250,66.406,-49.316,-26.367,103.027,1.000
1626203020452576.500,-151.367,-52.246,-31.250,-184.082,1.000
1626203020456482.750,-107.910,-84.961,0.488,-125.000,1.000
1626203020460389.000,-139.160,-55.176,-25.879,-135.742,1.000
1626203020464295.250,96.680,-41.992,-8.789,156.250,1.000
1626203020468201.500,77.637,-31.250,-5.859,104.980,1.000
1626203020472107.750,-157.715,-53.711,-30.762,-202.148,1.000
1626203020476014.000,-187.012,-38.574,-55.664,-200.195,1.000
1626203020479920.250,48.340,-23.438,-52.734,104.004,1.000
1626203020483826.500,140.137,-16.602,-18.066,168.457,1.000
1626203020487732.750,-80.078,-39.062,-22.461,-125.488,1.000
1626203020491639.000,-189.453,-63.965,-26.367,-231.445,1.000
1626203020495545.250,14.160,-33.203,-33.203,35.156,1.000
1626203020499451.500,133.789,-24.414,-64.453,189.941,1.000
1626203020503357.750,-44.434,-44.434,-75.195,-47.852,1.000
1626203020507264.000,-90.332,-50.781,-57.129,-117.676,1.000
1626203020511170.250,-216.797,-70.312,-73.242,-256.836,1.000
1626203020515076.500,-27.344,-51.270,-45.410,-11.230,1.000
1626203020518982.750,133.789,-18.555,-25.879,182.129,1.000
1626203020522889.000,-8.301,-28.809,-47.852,-23.926,1.000
1626203020526795.250,-171.875,-33.203,-44.922,-244.141,1.000
1626203020530701.500,-62.988,-15.137,-23.438,-74.219,1.000
1626203020534607.750,119.629,-20.020,-14.648,167.969,1.000
1626203020538514.000,47.363,-32.715,-16.113,46.387,1.000
1626203020542420.250,-144.043,-43.945,-13.672,-205.566,1.000
1626203020546326.500,-105.957,-28.320,-27.344,-126.953,1.000
1626203020550232.750,85.449,-23.926,-53.223,142.578,1.000
1626203020554139.000,88.867,-15.625,-35.156,154.297,1.000
1626203020558045.250,33.203,-22.461,-36.133,52.246,1.000
1626203020561951.500,-159.180,-33.691,-48.340,-218.750,1.000
1626203020565857.750,-138.184,-32.227,-34.668,-163.574,1.000
1626203020569764.000,77.637,-26.855,-8.789,119.141,1.000
1626203020573670.250,109.375,-19.043,-15.137,133.301,1.000
1626203020577576.500,-112.793,-40.039,-38.086,-158.691,1.000
1626203020581482.750,-187.988,-62.500,-29.297,-225.586,1.000
1626203020585389.000,26.855,-50.293,-22.949,60.059,1.000
1626203020589295.250,141.602,-36.133,-34.180,191.895,1.000
1626203020593201.500,-28.320,-29.785,-37.109,-55.176,1.000
1626203020597107.750,-183.594,-31.250,-29.785,-238.770,1.000
1626203020601014.000,-179.199,-46.875,-46.387,1.000,1.000
1626203020604920.250,16.113,-17.090,-33.203,1.000,1.000
1626203020608826.500,144.043,-22.461,-27.832,1.000,1.000
1626203020612732.750,-31.250,-40.527,-41.504,1.000,1.000
1626203020616639.000,-195.801,-40.039,-33.203,1.000,1.000
1626203020620545.250,-79.102,-27.344,-25.391,1.000,1.000
1626203020624451.500,110.352,-21.973,-30.762,1.000,1.000
1626203020628357.750,20.020,-25.391,-42.969,1.000,1.000
1626203020632264.000,-195.312,-31.738,-49.316,1.000,1.000
1626203020636170.250,-116.211,-23.438,-37.598,1.000,1.000
1626203020640076.500,123.047,-38.574,-34.180,1.000,1.000
1626203020643982.750,76.172,-65.918,-37.109,1.000,1.000
1626203020647889.000,34.668,-22.949,-16.602,34.180,1.000
1626203020651795.250,-160.645,-37.109,-21.484,-226.074,1.000
1626203020655701.500,-122.559,-44.434,-25.391,-148.926,1.000
1626203020659607.750,84.961,-26.855,-25.879,129.883,1.000
1626203020663514.000,82.520,-18.066,-17.090,115.234,1.000
1626203020667420.250,-127.930,-38.574,-32.227,-169.922,1.000
1626203020671326.500,-162.109,-46.875,-40.527,-207.031,1.000
1626203020675232.750,53.711,-49.805,-20.996,87.891,1.000
1626203020679139.000,127.441,-47.852,-24.414,173.828,1.000
1626203020683045.250,-64.453,-30.273,-32.715,-97.168,1.000
1626203020686951.500,-180.664,-14.160,-24.902,-236.328,1.000
1626203020690857.750,-20.508,-41.504,-28.320,0.000,1.000
1626203020694764.000,33.691,-38.086,-26.367,60.547,1.000
1626203020698670.250,113.770,-60.059,-29.297,153.809,1.000
1626203020702576.500,-66.895,-54.199,-29.785,-106.934,1.000
1626203020706482.750,-206.543,-43.457,-30.273,-273.926,1.000
1626203020710389.000,-47.852,-21.484,-46.875,-42.969,1.000
1626203020714295.250,125.488,-12.207,-56.641,173.828,1.000
1626203020718201.500,15.137,-40.039,-32.715,0.000,1.000
1626203020722107.750,-174.316,-36.133,-16.113,-243.164,1.000
1626203020726014.000,-117.676,-27.832,-34.180,-125.488,1.000
1626203020729920.250,70.312,-26.367,-45.410,132.812,1.000
1626203020733826.500,37.109,-17.090,-41.504,55.176,1.000
1626203020737732.750,-163.086,-17.578,-33.203,-217.773,1.000
1626203020741639.000,-173.828,-48.340,-41.504,-238.770,1.000
1626203020745545.250,-105.957,-34.668,-17.578,-126.465,1.000
1626203020749451.500,114.746,-20.508,0.977,159.180,1.000
1626203020753357.750,83.008,-22.949,-14.160,97.656,1.000
1626203020757264.000,-137.695,-31.738,-43.945,-192.383,1.000
1626203020761170.250,-141.113,-45.410,-33.203,-184.570,1.000
1626203020765076.500,87.402,-66.895,-11.230,123.047,1.000
1626203020768982.750,126.953,-46.875,-17.578,174.316,1.000
1626203020772889.000,-101.562,-17.090,-37.109,-134.766,1.000
1626203020776795.250,-207.031,-28.809,-46.875,-259.766,1.000
1626203020780701.500,-15.137,-35.156,-40.527,6.836,1.000
1626203020784607.750,128.906,-25.391,-37.109,179.688,1.000
1626203020788514.000,96.191,-19.531,-46.875,145.996,1.000
1626203020792420.250,-98.145,-23.926,-45.898,-115.234,1.000
1626203020796326.500,-189.453,-26.855,-24.414,-238.770,1.000
1626203020800232.750,-6.836,-25.391,-12.695,9.766,1.000
1626203020804139.000,141.113,-38.574,-17.090,188.477,1.000
1626203020808045.250,-9.766,-68.848,-23.926,-24.902,1.000
1626203020811951.500,-201.172,-64.941,-37.598,-253.418,1.000
1626203020815857.750,-89.844,-28.809,-43.945,-84.473,1.000
1626203020819764.000,108.398,-5.371,-28.320,166.504,1.000
1626203020823670.250,39.551,-27.832,-28.809,53.711,1.000
1626203020827576.500,-183.105,-42.969,-37.109,-229.980,1.000
1626203020831482.750,-160.645,-38.574,-35.645,-177.246,1.000
1626203020835389.000,-115.234,-20.508,-21.973,-120.605,1.000
1626203020839295.250,65.918,-46.387,-38.574,132.812,1.000
1626203020843201.500,17.578,-51.758,-51.758,50.781,1.000
1626203020847107.750,-148.926,-21.973,-35.645,-204.102,1.000
1626203020851014.000,-142.090,-37.109,-26.367,-177.734,1.000
1626203020854920.250,54.199,-53.223,-17.578,104.004,1.000
1626203020858826.500,54.688,-66.406,-35.156,102.539,1.000
1626203020862732.750,-132.324,-54.199,-44.922,-177.734,1.000
1626203020866639.000,-182.129,-29.785,-39.062,-223.633,1.000
1626203020870545.250,8.301,-27.832,-49.316,43.457,1.000
1626203020874451.500,135.742,-31.738,-34.180,186.523,1.000
1626203020878357.750,-42.480,-52.246,-18.066,-62.012,1.000
1626203020882264.000,-92.773,-48.828,-33.691,-108.887,1.000
1626203020886170.250,-215.332,-51.758,-58.105,-233.887,1.000
1626203020890076.500,-15.137,-26.367,-37.109,41.016,1.000
1626203020893982.750,131.836,-6.348,-26.367,196.289,1.000
1626203020897889.000,-20.508,-7.812,-13.672,-45.898,1.000
1626203020901795.250,-184.082,-53.223,-11.230,-237.793,1.000
1626203020905701.500,-66.895,-58.594,-21.973,-39.062,1.000
1626203020909607.750,145.508,-10.254,-32.227,206.543,1.000
1626203020913514.000,60.547,-3.906,-33.691,64.941,1.000
1626203020917420.250,-166.992,-18.066,-15.625,-202.637,1.000
1626203020921326.500,-111.816,-36.133,-3.906,-105.957,1.000
1626203020925232.750,98.633,-43.457,-6.836,168.945,1.000
1626203020929139.000,117.188,-43.945,-17.578,202.148,1.000
1626203020933045.250,34.668,-50.293,-18.555,66.406,1.000
1626203020936951.500,-150.391,-7.812,-18.066,-205.566,1.000
1626203020940857.750,-130.859,-9.766,-25.879,-148.438,1.000
1626203020944764.000,65.430,-22.949,-39.551,136.230,1.000
1626203020948670.250,92.773,-14.648,-66.406,137.695,1.000
1626203020952576.500,-102.539,-20.020,-54.199,-151.367,1.000
1626203020956482.750,-158.691,-38.574,-25.879,-199.219,1.000
1626203020960389.000,64.453,-31.738,-12.695,97.656,1.000
1626203020964295.250,156.738,-53.711,-2.930,203.613,1.000
1626203020968201.500,-53.223,-72.754,-29.297,-72.754,1.000
1626203020972107.750,-172.852,-29.785,-50.293,-216.309,1.000
1626203020976014.000,-157.715,-30.273,-24.414,1.000,1.000
1626203020979920.250,25.879,-16.113,-32.715,1.000,1.000
1626203020983826.500,119.141,0.977,-40.039,1.000,1.000
1626203020987732.750,-73.242,-28.809,-52.246,1.000,1.000
1626203020991639.000,-221.680,-57.129,-39.062,1.000,1.000
1626203020995545.250,-47.852,-65.918,-16.602,1.000,1.000
1626203020999451.500,137.207,-22.461,-7.324,1.000,1.000
1626203021003357.750,19.531,6.836,-20.508,1.000,1.000
1626203021007264.000,-177.734,-15.137,-36.133,1.000,1.000
1626203021011170.250,-105.469,-34.180,-33.691,1.000,1.000
1626203021015076.500,105.469,-31.250,-20.996,1.000,1.000
1626203021018982.750,66.406,-24.902,-20.996,1.000,1.000
1626203021022889.000,-2.930,-83.984,-38.086,-15.625,1.000
1626203021026795.250,-215.332,-68.359,-48.340,-285.645,1.000
1626203021030701.500,-136.719,-20.996,-41.016,-170.410,1.000
1626203021034607.750,92.773,-9.766,-29.785,132.324,1.000
1626203021038514.000,74.219,-29.297,-30.762,90.820,1.000
1626203021042420.250,-157.715,-63.477,-37.598,-209.961,1.000
1626203021046326.500,-181.152,-62.012,-35.645,-219.727,1.000
1626203021050232.750,43.945,-37.598,-36.133,77.637,1.000
1626203021054139.000,84.473,-33.203,-56.641,130.859,1.000
1626203021058045.250,-103.516,-34.668,-56.152,-142.578,1.000
1626203021061951.500,-192.871,-48.340,-30.273,-245.605,1.000
1626203021065857.750,-27.344,-46.387,-29.297,6.348,1.000
1626203021069764.000,37.598,-14.160,-30.273,95.703,1.000
1626203021073670.250,126.465,-21.973,-31.738,169.922,1.000
1626203021077576.500,-62.500,-46.875,-31.250,-86.426,1.000
1626203021081482.750,-210.938,-69.824,-30.273,-236.328,1.000
1626203021085389.000,-26.367,-30.273,-22.461,8.789,1.000
1626203021089295.250,143.066,-2.441,-11.719,209.961,1.000
1626203021093201.500,-12.207,-17.578,-33.203,-12.695,1.000
1626203021097107.750,-178.223,-54.199,-37.109,-226.562,1.000
1626203021101014.000,-80.566,-51.758,-22.949,-80.566,1.000
1626203021104920.250,104.492,-13.184,-30.273,158.691,1.000
1626203021108826.500,63.965,-16.113,-40.039,62.988,1.000
1626203021112732.750,-160.156,-22.461,-49.316,-207.520,1.000
1626203021116639.000,-155.762,-39.551,-25.879,-223.633,1.000
1626203021120545.250,-72.754,-31.738,-27.344,-74.219,1.000
1626203021124451.500,117.188,-31.738,-30.273,182.617,1.000
1626203021128357.750,53.711,-45.410,-35.645,77.148,1.000
1626203021132264.000,-142.090,-40.039,-29.297,-185.059,1.000
1626203021136170.250,-116.699,-37.598,-7.812,-136.719,1.000
1626203021140076.500,106.445,-31.738,-8.301,141.113,1.000
1626203021143982.750,152.344,-37.109,-5.371,188.965,1.000
1626203021147889.000,-86.426,-58.594,-18.066,-105.469,1.000
1626203021151795.250,-194.824,-58.594,-40.527,-219.238,1.000
1626203021155701.500,12.207,-24.902,-16.602,55.664,1.000
1626203021159607.750,152.832,7.812,12.695,208.496,1.000
1626203021163514.000,77.148,-16.113,-27.832,121.094,1.000
1626203021167420.250,-114.746,-24.902,-19.531,-148.926,1.000
1626203021171326.500,-192.383,-32.227,-13.672,-234.863,1.000
1626203021175232.750,1.953,-38.086,-15.625,30.762,1.000
1626203021179139.000,151.855,-29.785,-14.648,198.242,1.000
1626203021183045.250,-7.812,-36.621,-24.902,-31.738,1.000
1626203021186951.500,-183.594,-48.828,-37.598,-248.047,1.000
1626203021190857.750,-64.453,-35.156,-30.762,-65.918,1.000
1626203021194764.000,101.562,-26.367,-19.531,168.457,1.000
1626203021198670.250,23.926,-21.973,-26.367,41.016,1.000
1626203021202576.500,-163.086,-48.828,-47.363,-210.938,1.000
1626203021206482.750,-103.516,-50.781,-48.340,-118.652,1.000
1626203021210389.000,-68.848,-15.137,-43.457,-70.312,1.000
1626203021214295.250,128.906,-7.812,-17.090,191.895,1.000
1626203021218201.500,54.688,-30.762,-20.996,66.406,1.000
1626203021222107.750,-162.109,-64.453,-41.504,-224.609,1.000
1626203021226014.000,-152.344,-57.617,-41.016,-177.734,1.000
1626203021229920.250,56.641,-28.809,-36.133,99.609,1.000
1626203021233826.500,79.590,-4.395,-32.715,97.656,1.000
1626203021237732.750,-116.211,9.277,-34.668,-176.758,1.000
1626203021241639.000,-162.598,-4.883,-24.902,-211.914,1.000
1626203021245545.250,54.688,-38.086,-23.438,83.984,1.000
1626203021249451.500,143.555,-42.969,-44.922,181.641,1.000
1626203021253357.750,-60.547,-38.574,-62.988,-99.609,1.000
1626203021257264.000,-103.516,-20.508,-56.641,-162.598,1.000
1626203021261170.250,-161.133,-20.508,-55.664,-213.379,1.000
1626203021265076.500,44.434,-12.207,-35.645,85.938,1.000
1626203021268982.750,142.578,-3.906,-18.555,189.453,1.000
1626203021272889.000,-31.738,-48.828,-26.855,-65.918,1.000
1626203021276795.250,-162.109,-70.801,-23.438,-223.633,1.000
1626203021280701.500,-20.508,-36.621,-17.090,-20.996,1.000
1626203021284607.750,130.371,-14.160,-33.691,165.527,1.000
1626203021288514.000,17.090,-15.137,-54.688,6.348,1.000
1626203021292420.250,-171.875,-19.043,-48.828,-223.145,1.000
1626203021296326.500,-91.309,-25.879,-18.066,-103.516,1.000
1626203021300232.750,92.285,-41.992,-26.367,134.277,1.000
1626203021304139.000,158.203,-9.277,-38.086,212.402,1.000
1626203021308045.250,36.133,-46.387,-56.641,40.039,1.000
1626203021311951.500,-177.246,-45.410,-50.293,-233.398,1.000
1626203021315857.750,-122.070,-14.648,-33.203,-134.277,1.000
1626203021319764.000,96.680,-14.160,-24.414,156.738,1.000
1626203021323670.250,91.797,-21.484,-36.621,115.723,1.000
1626203021327576.500,-121.582,-38.086,-35.156,-175.781,1.000
1626203021331482.750,-136.719,-44.922,-19.043,-168.945,1.000
1626203021335389.000,79.590,-22.461,-12.207,117.188,1.000
1626203021339295.250,117.676,-10.742,-22.461,154.785,1.000
1626203021343201.500,-91.797,-18.066,-39.551,-129.395,1.000
1626203021347107.750,-165.527,-21.484,-25.879,-217.285,1.000
1626203021351014.000,-162.109,-53.711,-33.691,1.000,1.000
1626203021354920.250,40.039,-41.504,-23.926,1.000,1.000
1626203021358826.500,103.027,-24.902,-34.180,1.000,1.000
1626203021362732.750,-76.172,-8.789,-37.109,1.000,1.000
1626203021366639.000,-182.129,-16.113,-22.461,1.000,1.000
1626203021370545.250,-22.461,-25.391,-14.160,1.000,1.000
1626203021374451.500,120.117,-35.645,-23.926,1.000,1.000
1626203021378357.750,-7.812,-37.598,-23.438,1.000,1.000
1626203021382264.000,-184.082,-20.508,-12.207,1.000,1.000
1626203021386170.250,-95.703,-22.949,-24.414,1.000,1.000
1626203021390076.500,103.027,-16.113,-27.832,1.000,1.000
1626203021393982.750,48.340,-20.996,-17.578,1.000,1.000
1626203021397889.000,19.043,-24.414,-23.926,16.602,1.000
1626203021401795.250,-176.758,-28.320,-10.742,-232.910,1.000
1626203021405701.500,-94.238,-24.902,-9.766,-102.539,1.000
1626203021409607.750,99.121,-22.461,-19.531,158.203,1.000
1626203021413514.000,27.344,-35.156,-31.738,57.129,1.000
1626203021417420.250,-188.477,-47.852,-29.297,-222.168,1.000
1626203021421326.500,-160.156,-44.922,-16.113,-175.293,1.000
1626203021425232.750,49.316,-42.969,-19.531,102.051,1.000
1626203021429139.000,71.289,-53.223,-28.809,124.512,1.000
1626203021433045.250,-109.863,-45.898,-30.273,-135.254,1.000
1626203021436951.500,-184.082,-29.785,-29.785,-210.938,1.000
1626203021440857.750,9.766,-9.277,-20.020,50.781,1.000
1626203021444764.000,64.941,-7.812,-33.691,108.398,1.000
1626203021448670.250,119.141,0.000,-25.391,159.180,1.000
1626203021452576.500,-71.289,-25.879,-41.992,-113.770,1.000
1626203021456482.750,-162.109,-35.156,-50.781,-209.961,1.000
1626203021460389.000,7.812,-38.086,-16.602,41.016,1.000
1626203021464295.250,123.535,-40.039,-2.930,190.430,1.000
1626203021468201.500,-55.176,-40.039,-33.203,-44.922,1.000
1626203021472107.750,-219.238,-44.434,-42.969,-247.559,1.000
1626203021476014.000,-86.426,-36.621,-28.809,-44.922,1.000
1626203021479920.250,93.750,-36.621,-27.344,189.941,1.000
1626203021483826.500,17.090,-35.156,-25.391,48.340,1.000
1626203021487732.750,-167.969,-36.621,-21.484,-198.730,1.000
1626203021491639.000,-225.586,-34.668,-52.246,-106.934,1.000
1626203021495545.250,-107.422,-29.785,-27.832,167.969,1.000
1626203021499451.500,110.840,-12.695,-6.836,133.301,1.000
1626203021503357.750,44.922,-28.809,-13.672,-162.109,1.000
1626203021507264.000,-157.715,-39.551,-8.301,-202.637,1.000
1626203021511170.250,-124.023,-43.457,-8.301,101.074,1.000
1626203021515076.500,86.426,-37.598,-27.832,194.336,1.000
1626203021518982.750,98.145,-16.602,-24.414,-91.309,1.000
1626203021522889.000,-121.582,-22.461,-23.438,-249.512,1.000
1626203021526795.250,-193.359,-37.598,-35.156,-15.137,1.000
1626203021530701.500,9.277,-37.109,-33.691,180.176,1.000
1626203021534607.750,116.699,-29.297,-22.461,-29.297,1.000
1626203021538514.000,106.445,-48.828,-13.672,148.926,1.000
1626203021542420.250,-93.750,-62.500,-23.926,-137.695,1.000
1626203021546326.500,-183.594,-64.453,-44.434,-228.027,1.000
1626203021550232.750,5.371,-39.551,-50.781,33.691,1.000
1626203021554139.000,125.488,-15.625,-59.082,168.945,1.000
1626203021558045.250,-38.086,-31.250,-31.250,-61.035,1.000
1626203021561951.500,-181.152,-24.414,-11.719,-238.281,1.000
1626203021565857.750,-22.949,-7.812,-19.043,-17.090,1.000
1626203021569764.000,139.648,-7.324,-21.484,197.754,1.000
1626203021573670.250,6.836,-36.133,-28.809,2.441,1.000
1626203021577576.500,-188.477,-51.758,-40.039,-250.000,1.000
1626203021581482.750,-116.211,-32.715,-54.199,-128.418,1.000
1626203021585389.000,-44.434,-20.020,-23.926,1.000,1.000
1626203021589295.250,153.809,-12.695,-5.859,1.000,1.000
1626203021593201.500,27.344,-23.438,-32.715,1.000,1.000
1626203021597107.750,-186.523,-35.156,-66.406,1.000,1.000
1626203021601014.000,-122.070,-26.855,-62.012,1.000,1.000
1626203021604920.250,87.402,-34.180,-43.945,1.000,1.000
1626203021608826.500,49.316,-49.805,-35.156,1.000,1.000
1626203021612732.750,-156.738,-30.762,-26.367,1.000,1.000
1626203021616639.000,-163.086,-22.461,-17.578,1.000,1.000
1626203021620545.250,45.410,-31.250,-23.926,1.000,1.000
1626203021624451.500,122.559,-10.742,-21.973,1.000,1.000
1626203021628357.750,-64.941,-15.625,-34.668,1.000,1.000
1626203021632264.000,-113.770,-1.465,-30.762,-177.246,1.000
1626203021636170.250,-157.715,-14.160,-30.762,-203.125,1.000
1626203021640076.500,33.691,-31.738,-36.133,76.172,1.000
1626203021643982.750,123.535,-27.344,-27.832,183.594,1.000
1626203021647889.000,-33.691,-18.066,-19.531,-61.523,1.000
1626203021651795.250,-153.320,-16.113,-13.672,-211.914,1.000
1626203021655701.500,-10.742,-17.578,-16.602,3.418,1.000
1626203021659607.750,129.883,-15.625,-22.461,183.594,1.000
1626203021663514.000,-7.324,-13.672,-27.344,-22.461,1.000
1626203021667420.250,-179.688,-26.367,-36.133,-250.488,1.000
1626203021671326.500,-72.266,-38.086,-36.621,-89.355,1.000
1626203021675232.750,129.883,-32.715,-31.250,174.316,1.000
1626203021679139.000,143.066,-16.602,-21.484,190.918,1.000
1626203021683045.250,41.504,-36.621,-33.691,27.832,1.000
1626203021686951.500,-172.363,-50.781,-64.453,-243.164,1.000
1626203021690857.750,-97.168,-16.602,-39.062,-129.395,1.000
1626203021694764.000,99.609,-11.230,-18.066,144.043,1.000
1626203021698670.250,37.109,-26.367,-31.250,52.734,1.000
1626203021702576.500,-160.156,-9.277,-27.832,-227.539,1.000
1626203021706482.750,-153.320,-12.695,-28.320,-186.523,1.000
1626203021710389.000,51.270,-19.043,-26.367,103.516,1.000
1626203021714295.250,82.520,-8.301,-27.344,127.441,1.000
1626203021718201.500,-101.562,-29.785,-35.645,-146.973,1.000
1626203021722107.750,-191.895,-41.992,-29.785,-229.004,1.000
1626203021726014.000,-156.738,-44.434,-36.133,1.000,1.000
1626203021729920.250,52.246,-41.504,-21.484,1.000,1.000
1626203021733826.500,97.656,-49.316,-21.973,1.000,1.000
1626203021737732.750,-104.492,-51.270,-25.391,1.000,1.000
1626203021741639.000,-208.984,-42.969,-23.926,1.000,1.000
1626203021745545.250,-14.648,-35.645,-26.367,1.000,1.000
1626203021749451.500,147.461,-34.668,-36.621,1.000,1.000
1626203021753357.750,-7.324,-48.828,-37.598,1.000,1.000
1626203021757264.000,-177.246,-34.180,-31.250,1.000,1.000
1626203021761170.250,-56.152,-13.184,-26.367,1.000,1.000
1626203021765076.500,134.766,-19.531,-23.438,1.000,1.000
1626203021768982.750,32.715,-20.508,-18.555,1.000,1.000
1626203021772889.000,8.301,-23.438,-31.738,1.953,1.000
1626203021776795.250,-182.617,-48.828,-35.156,-234.375,1.000
1626203021780701.500,-93.750,-24.902,-37.598,-101.074,1.000
1626203021784607.750,115.723,7.324,-25.391,180.176,1.000
1626203021788514.000,47.852,-24.902,-38.086,68.848,1.000
1626203021792420.250,-164.551,-70.801,-33.691,-200.684,1.000
1626203021796326.500,-138.672,-56.641,-29.297,-125.000,1.000
1626203021800232.750,70.312,-30.273,-35.645,140.137,1.000
1626203021804139.000,83.984,-21.484,-45.898,124.023,1.000
1626203021808045.250,-118.652,-27.832,-32.227,-166.504,1.000
1626203021811951.500,-152.832,-10.742,-9.277,-195.801,1.000
1626203021815857.750,32.715,0.488,-48.828,77.637,1.000
1626203021819764.000,77.148,-38.574,-36.621,134.277,1.000
1626203021823670.250,125.977,-20.996,-31.738,158.203,1.000
1626203021827576.500,-97.168,-30.273,-72.266,-151.367,1.000
1626203021831482.750,-168.945,-15.625,-87.402,-220.215,1.000
1626203021835389.000,35.645,-29.785,-8.789,67.871,1.000
1626203021839295.250,137.207,-43.945,26.367,189.453,1.000
1626203021843201.500,-52.734,-31.250,-16.113,-69.336,1.000
1626203021847107.750,-200.684,-40.527,-44.434,-240.234,1.000
1626203021851014.000,-41.992,-56.152,-45.410,-8.301,1.000
1626203021854920.250,131.836,-28.320,-24.414,209.473,1.000
1626203021858826.500,14.160,6.348,-36.621,13.184,1.000
1626203021862732.750,-179.199,-9.277,-51.758,-271.484,1.000
1626203021866639.000,-194.336,-51.758,-48.828,-242.676,1.000
1626203021870545.250,-45.898,-21.973,-43.945,-34.668,1.000
1626203021874451.500,150.391,-13.672,-30.762,208.008,1.000
1626203021878357.750,54.688,-28.320,-28.320,53.711,1.000
1626203021882264.000,-161.621,-25.879,-19.531,-216.797,1.000
1626203021886170.250,-96.191,-11.719,-15.137,-105.957,1.000
1626203021890076.500,117.676,-57.617,-30.273,166.992,1.000
1626203021893982.750,81.543,-73.730,-34.180,102.539,1.000
1626203021897889.000,-118.164,-19.531,-23.926,-173.340,1.000
1626203021901795.250,-165.039,-18.555,-41.016,-202.148,1.000
1626203021905701.500,31.738,-10.742,-35.156,69.336,1.000
1626203021909607.750,127.930,-7.324,-7.324,168.457,1.000
1626203021913514.000,116.211,-8.301,-36.133,145.020,1.000
1626203021917420.250,-99.121,-6.348,-63.477,-140.625,1.000
1626203021921326.500,-176.758,-42.969,-53.711,-216.797,1.000
1626203021925232.750,32.715,-41.016,-16.602,64.941,1.000
1626203021929139.000,120.605,-36.621,-1.953,171.875,1.000
1626203021933045.250,-48.340,-30.762,-0.488,-77.148,1.000
1626203021936951.500,-183.105,-54.199,-31.250,-239.258,1.000
1626203021940857.750,-48.340,-56.152,-42.969,-32.227,1.000
1626203021944764.000,116.211,-12.207,-28.320,171.387,1.000
1626203021948670.250,-0.977,-12.207,-34.180,-8.301,1.000
1626203021952576.500,-166.504,-53.223,-40.039,-227.539,1.000
1626203021956482.750,-56.152,-66.895,-31.250,-69.336,1.000
1626203021960389.000,-9.277,-31.738,-7.324,1.000,1.000
1626203021964295.250,153.809,-14.648,-0.488,1.000,1.000
1626203021968201.500,25.391,-50.781,-7.812,1.000,1.000
1626203021972107.750,-171.387,-88.867,-38.574,1.000,1.000
1626203021976014.000,-100.098,-63.965,-45.898,1.000,1.000
1626203021979920.250,104.980,-23.438,-34.180,1.000,1.000
1626203021983826.500,75.195,-20.508,-41.992,1.000,1.000
1626203021987732.750,-129.395,-12.695,-48.340,1.000,1.000
1626203021991639.000,-138.672,-0.977,-29.785,1.000,1.000
1626203021995545.250,71.289,-7.324,-7.812,1.000,1.000
1626203021999451.500,120.605,-19.531,6.348,1.000,1.000
1626203022003357.750,-73.730,-32.715,6.836,1.000,1.000
1626203022007264.000,-123.535,-29.297,-3.906,-170.898,1.000
1626203022011170.250,-154.297,-36.621,-20.020,-191.895,1.000
1626203022015076.500,47.363,-54.199,-36.133,86.914,1.000
1626203022018982.750,114.258,-57.129,-20.996,163.574,1.000
1626203022022889.000,-70.801,-37.109,-31.738,-101.074,1.000
1626203022026795.250,-181.641,-16.113,-61.035,-231.934,1.000
1626203022030701.500,-14.648,-25.391,-38.086,9.766,1.000
1626203022034607.750,121.582,-43.457,-10.254,178.711,1.000
1626203022038514.000,-22.949,-30.273,-13.672,-42.969,1.000
1626203022042420.250,-193.848,-17.578,-24.414,-254.395,1.000
1626203022046326.500,-74.219,-10.742,-19.531,-62.500,1.000
1626203022050232.750,132.812,-15.625,-10.742,197.754,1.000
1626203022054139.000,125.000,-41.504,-17.090,185.547,1.000
1626203022058045.250,-2.441,-48.828,-40.039,-16.602,1.000
1626203022061951.500,-181.152,-36.621,-42.480,-247.559,1.000
1626203022065857.750,-74.707,-17.090,-8.301,-79.590,1.000
1626203022069764.000,134.277,2.441,14.648,187.988,1.000
1626203022073670.250,77.148,-4.883,-0.488,84.961,1.000
1626203022077576.500,-163.086,-44.922,-35.156,-215.332,1.000
1626203022081482.750,-163.574,-50.781,-48.828,-177.734,1.000
1626203022085389.000,77.148,-24.902,-40.039,136.719,1.000
1626203022089295.250,105.957,-20.508,-43.457,147.949,1.000
1626203022093201.500,-125.000,-43.945,-44.434,-167.480,1.000
1626203022097107.750,-186.035,-49.316,-18.066,-229.004,1.000
1626203022101014.000,-145.020,-21.484,-54.199,64.453,1.000
1626203022104920.250,79.590,5.371,-22.461,188.477,1.000
1626203022108826.500,102.539,-19.043,-36.133,-74.219,1.000
1626203022112732.750,-111.328,-31.250,-58.105,-258.301,1.000
1626203022116639.000,-190.430,-23.926,-47.363,-29.785,1.000
1626203022120545.250,1.953,-27.832,-32.715,197.266,1.000
1626203022124451.500,106.934,-38.086,-55.664,4.883,1.000
1626203022128357.750,-57.617,-40.039,-63.965,-258.789,1.000
1626203022132264.000,-190.430,-48.340,-31.738,-116.211,1.000
1626203022136170.250,-42.969,-38.086,-8.301,154.785,1.000
1626203022140076.500,122.559,-35.645,-16.602,86.426,1.000
1626203022143982.750,8.789,-58.105,-37.109,-208.496,1.000
1626203022147889.000,-42.969,-28.320,-33.203,-58.594,1.000
1626203022151795.250,-208.984,-51.758,-29.785,-262.207,1.000
1626203022155701.500,-71.777,-36.133,-21.484,-55.176,1.000
1626203022159607.750,130.859,-17.578,-21.973,208.008,1.000
1626203022163514.000,31.738,-38.574,-37.109,58.594,1.000
1626203022167420.250,-176.270,-47.363,-15.625,-212.891,1.000
1626203022171326.500,-111.816,-50.781,-2.441,-114.746,1.000
1626203022175232.750,100.586,-43.457,-12.695,165.039,1.000
1626203022179139.000,65.430,-30.762,-20.020,108.398,1.000
1626203022183045.250,-147.461,-32.715,-31.738,-181.152,1.000
1626203022186951.500,-153.320,-36.621,-30.273,-184.082,1.000
1626203022190857.750,61.035,-26.367,-27.344,101.562,1.000
1626203022194764.000,107.422,-9.766,-24.902,147.461,1.000
1626203022198670.250,108.398,-26.367,-34.180,142.578,1.000
1626203022202576.500,-109.375,-51.270,-53.223,-157.227,1.000
1626203022206482.750,-169.922,-35.645,-46.387,-210.449,1.000
1626203022210389.000,27.344,-21.484,-36.133,61.523,1.000
1626203022214295.250,114.258,-28.320,-39.551,155.762,1.000
1626203022218201.500,-67.871,-35.645,-35.645,-93.262,1.000
1626203022222107.750,-202.148,-47.852,-45.410,-256.836,1.000
1626203022226014.000,-21.484,-34.180,-32.227,-20.020,1.000
1626203022229920.250,172.852,-13.672,-5.371,214.355,1.000
1626203022233826.500,27.344,-3.906,-38.574,14.160,1.000
1626203022237732.750,-187.988,-35.156,-56.152,-249.023,1.000
1626203022241639.000,-205.078,-44.434,-34.668,-250.488,1.000
1626203022245545.250,-74.219,-45.410,-48.828,-61.035,1.000
1626203022249451.500,109.375,-41.016,-50.293,168.945,1.000
1626203022253357.750,9.766,-37.109,-41.992,15.625,1.000
1626203022257264.000,-164.062,-48.828,-43.945,-203.613,1.000
1626203022261170.250,-66.406,-57.617,-13.672,-59.570,1.000
1626203022265076.500,111.328,-47.363,0.977,167.969,1.000
1626203022268982.750,51.270,-35.645,-13.672,79.590,1.000
1626203022272889.000,-181.641,-29.297,-32.715,-226.562,1.000
1626203022276795.250,-195.801,-20.508,-36.621,-214.355,1.000
1626203022280701.500,44.434,-12.207,-10.742,95.703,1.000
1626203022284607.750,112.305,-29.297,-16.602,147.949,1.000
1626203022288514.000,71.289,-31.250,-53.223,91.309,1.000
1626203022292420.250,-152.832,-46.387,-49.805,-199.707,1.000
1626203022296326.500,-175.293,-48.340,-30.762,-208.008,1.000
1626203022300232.750,49.316,-49.316,-18.066,97.656,1.000
1626203022304139.000,119.141,-39.551,-39.062,170.410,1.000
1626203022308045.250,-99.609,-40.527,-64.453,-124.512,1.000
1626203022311951.500,-224.121,-46.875,-56.152,-261.719,1.000
1626203022315857.750,-26.855,-29.297,-22.949,4.395,1.000
1626203022319764.000,138.672,-20.996,-0.977,200.195,1.000
1626203022323670.250,-6.836,-17.090,-11.230,-16.113,1.000
1626203022327576.500,-199.219,-21.973,-35.156,-251.953,1.000
1626203022331482.750,-85.938,-36.621,-21.484,-74.219,1.000
1626203022335389.000,-17.090,-20.020,-21.973,1.000,1.000
1626203022339295.250,138.184,-10.254,-15.137,1.000,1.000
1626203022343201.500,6.348,13.672,-28.320,1.000,1.000
1626203022347107.750,-181.641,-10.742,-44.434,1.000,1.000
1626203022351014.000,-75.684,-21.973,-38.574,1.000,1.000
1626203022354920.250,109.375,-21.973,-26.855,1.000,1.000
1626203022358826.500,47.852,-48.340,-18.066,1.000,1.000
1626203022362732.750,-158.203,-53.711,-24.902,1.000,1.000
1626203022366639.000,-145.996,-41.992,-34.668,1.000,1.000
1626203022370545.250,85.449,-32.227,-44.434,1.000,1.000
1626203022374451.500,109.375,-14.160,-55.176,1.000,1.000
1626203022378357.750,-115.723,-15.137,-45.898,1.000,1.000
1626203022382264.000,-159.180,-42.969,-50.781,-213.379,1.000
1626203022386170.250,-180.176,-13.184,-45.898,-180.664,1.000
1626203022390076.500,72.266,-13.672,-30.273,130.371,1.000
1626203022393982.750,103.516,-36.133,-31.250,147.461,1.000
1626203022397889.000,-123.047,-41.016,-25.391,-155.273,1.000
1626203022401795.250,-187.500,-15.137,-8.301,-229.980,1.000
1626203022405701.500,11.230,-15.137,-9.277,46.387,1.000
1626203022409607.750,107.422,-39.551,-36.133,166.016,1.000
1626203022413514.000,-71.289,-40.527,-50.293,-91.797,1.000
1626203022417420.250,-216.309,-41.992,-46.875,-274.902,1.000
1626203022421326.500,-64.453,-41.504,-34.668,-54.688,1.000
1626203022425232.750,127.930,-19.531,-17.090,190.918,1.000
1626203022429139.000,114.258,-17.090,-27.832,178.223,1.000
1626203022433045.250,-21.484,-43.945,-39.551,-36.621,1.000
1626203022436951.500,-198.730,-51.270,-48.340,-255.371,1.000
1626203022440857.750,-65.430,-41.504,-38.574,-85.938,1.000
1626203022444764.000,133.301,-15.137,-27.832,173.828,1.000
1626203022448670.250,22.949,-9.277,-34.668,47.363,1.000
1626203022452576.500,-172.852,-19.531,-25.391,-215.332,1.000
1626203022456482.750,-134.277,-39.062,-25.391,-144.531,1.000
1626203022460389.000,75.684,-69.824,-21.973,143.066,1.000
1626203022464295.250,71.777,-49.805,-8.789,118.652,1.000
1626203022468201.500,-141.113,-21.973,-36.133,-181.152,1.000
1626203022472107.750,-140.625,-13.184,-42.969,-193.848,1.000
1626203022476014.000,-160.645,-41.016,-29.297,-166.992,1.000
1626203022479920.250,87.891,-42.480,-24.414,127.930,1.000
1626203022483826.500,135.742,-31.738,-23.438,155.762,1.000
1626203022487732.750,-102.051,-56.641,-39.062,-142.578,1.000
1626203022491639.000,-180.176,-60.547,-42.969,-214.844,1.000
1626203022495545.250,49.316,-22.949,-25.879,78.613,1.000
1626203022499451.500,136.719,-10.742,-15.137,188.965,1.000
1626203022503357.750,-55.176,-41.016,-19.043,-70.801,1.000
1626203022507264.000,-204.590,-50.293,-48.340,-254.395,1.000
1626203022511170.250,-61.523,-39.062,-59.570,-29.785,1.000
1626203022515076.500,115.234,-36.133,-37.109,185.547,1.000
1626203022518982.750,-5.859,-28.320,-38.574,-11.230,1.000
1626203022522889.000,-60.059,-32.715,-63.477,-95.215,1.000
1626203022526795.250,-186.523,-33.691,-49.316,-265.625,1.000
1626203022530701.500,-31.738,1.465,-15.625,-34.668,1.000
1626203022534607.750,139.648,0.000,7.324,205.566,1.000
1626203022538514.000,44.922,-32.715,-9.766,41.992,1.000
1626203022542420.250,-171.875,-74.707,-40.527,-228.027,1.000
1626203022546326.500,-114.258,-59.570,-40.527,-116.211,1.000
1626203022550232.750,93.750,-19.531,-36.133,137.207,1.000
1626203022554139.000,56.641,-45.898,-43.945,63.477,1.000
1626203022558045.250,-145.020,-59.570,-39.062,-203.125,1.000
1626203022561951.500,-164.062,-41.992,-37.598,-201.172,1.000
1626203022565857.750,52.246,-13.184,-35.645,93.262,1.000
1626203022569764.000,103.516,2.930,-23.926,148.926,1.000
1626203022573670.250,70.312,-5.371,-41.504,96.680,1.000
1626203022577576.500,-154.785,-29.297,-42.480,-192.383,1.000
1626203022581482.750,-182.617,-29.785,-35.156,-217.285,1.000
1626203022585389.000,38.574,-27.832,-29.297,68.359,1.000
1626203022589295.250,116.699,-25.391,-20.020,167.480,1.000
1626203022593201.500,-69.824,-40.527,-30.273,-87.891,1.000
1626203022597107.750,-161.133,-46.387,-25.391,-209.961,1.000
1626203022601014.000,8.301,-21.973,-10.254,47.363,1.000
1626203022604920.250,126.465,-30.273,-31.738,207.520,1.000
1626203022608826.500,-33.691,-67.871,-47.852,-33.203,1.000
1626203022612732.750,-214.355,-77.637,-47.852,-266.113,1.000
1626203022616639.000,-178.223,-38.574,-15.137,-228.516,1.000
1626203022620545.250,-17.090,-43.457,0.977,4.395,1.000
1626203022624451.500,133.301,-26.367,-3.418,191.895,1.000
1626203022628357.750,-1.465,-26.855,-16.602,-4.883,1.000
1626203022632264.000,-181.641,-31.250,-25.391,-244.141,1.000
1626203022636170.250,-86.426,-25.879,-41.992,-98.633,1.000
1626203022640076.500,104.492,-35.156,-53.711,164.551,1.000
1626203022643982.750,49.316,-33.203,-49.316,72.754,1.000
1626203022647889.000,-146.973,-31.250,-34.668,-204.102,1.000
1626203022651795.250,-126.953,-45.898,-31.250,-167.969,1.000
1626203022655701.500,92.285,-23.438,-28.320,126.465,1.000
1626203022659607.750,104.004,-13.672,-25.879,129.883,1.000
1626203022663514.000,78.613,-13.184,-28.320,84.961,1.000
1626203022667420.250,-161.621,-51.270,-56.641,-215.820,1.000
1626203022671326.500,-152.344,-30.762,-51.270,-189.453,1.000
1626203022675232.750,91.309,6.348,-23.438,121.582,1.000
1626203022679139.000,124.023,-36.133,-26.855,152.832,1.000
1626203022683045.250,-87.402,-54.199,-33.691,-134.277,1.000
1626203022686951.500,-177.246,-39.062,-28.320,-238.281,1.000
1626203022690857.750,6.836,-30.762,-29.785,26.855,1.000
1626203022694764.000,149.902,-24.902,-19.043,198.730,1.000
1626203022698670.250,-24.414,-36.621,-20.996,-49.805,1.000
1626203022702576.500,-205.078,-46.875,-40.039,-267.090,1.000
1626203022706482.750,-62.012,-32.715,-44.434,-69.336,1.000
1626203022710389.000,4.883,-21.484,-23.438,1.000,1.000
1626203022714295.250,144.043,-50.781,-27.832,1.000,1.000
1626203022718201.500,-16.113,-54.688,-38.574,1.000,1.000
1626203022722107.750,-195.312,-30.762,-29.297,1.000,1.000
1626203022726014.000,-73.242,-23.926,-18.066,1.000,1.000
1626203022729920.250,126.953,-12.207,-11.230,1.000,1.000
1626203022733826.500,51.758,-15.137,-14.160,1.000,1.000
1626203022737732.750,-159.180,-35.645,-30.273,1.000,1.000
1626203022741639.000,-120.605,-40.527,-36.621,1.000,1.000
1626203022745545.250,95.703,-26.367,-23.926,1.000,1.000
1626203022749451.500,88.379,-28.320,-32.715,1.000,1.000
1626203022753357.750,-120.605,-27.832,-41.992,1.000,1.000
1626203022757264.000,-174.805,-28.809,-50.781,-226.562,1.000
1626203022761170.250,-171.387,-24.902,-48.828,-194.824,1.000
1626203022765076.500,55.664,-22.461,-20.508,100.098,1.000
1626203022768982.750,91.309,-15.137,-20.996,120.117,1.000
1626203022772889.000,-117.676,-15.625,-48.828,-167.969,1.000
1626203022776795.250,-183.594,-35.645,-50.781,-236.816,1.000
1626203022780701.500,43.945,-44.922,-32.715,61.523,1.000
1626203022784607.750,166.992,-33.691,-35.156,195.801,1.000
1626203022788514.000,-26.367,-41.504,-38.086,-75.195,1.000
1626203022792420.250,-184.570,-56.152,-33.203,-257.324,1.000
1626203022796326.500,-49.316,-40.527,-41.504,-44.434,1.000
1626203022800232.750,114.258,-5.859,-43.945,171.875,1.000
1626203022804139.000,124.023,-40.527,-31.738,171.875,1.000
1626203022808045.250,-61.035,-23.926,-36.133,-73.242,1.000
1626203022811951.500,-208.496,-37.109,-53.223,-268.555,1.000
1626203022815857.750,-50.781,-37.109,-30.273,-48.340,1.000
1626203022819764.000,131.836,-20.020,-9.277,188.477,1.000
1626203022823670.250,23.438,-24.902,-19.531,24.902,1.000
1626203022827576.500,-181.641,-36.133,-19.043,-233.398,1.000
1626203022831482.750,-99.609,-29.785,-13.672,-105.957,1.000
1626203022835389.000,121.094,-43.457,-22.461,182.617,1.000
1626203022839295.250,91.797,-27.832,-24.414,123.535,1.000
1626203022843201.500,-130.859,-7.812,-37.598,-175.781,1.000
1626203022847107.750,-173.828,-20.508,-46.875,-198.242,1.000
1626203022851014.000,-158.203,-46.387,-35.156,84.961,1.000
1626203022854920.250,68.359,-30.273,-28.320,147.461,1.000
1626203022858826.500,81.055,-22.461,-21.484,-135.254,1.000
1626203022862732.750,-138.184,-38.086,-32.715,-258.301,1.000
1626203022866639.000,-173.828,-42.480,-23.438,13.672,1.000
1626203022870545.250,49.805,-26.367,-19.043,186.035,1.000
1626203022874451.500,124.023,-20.996,-33.691,-42.480,1.000
1626203022878357.750,-101.074,-23.438,-43.945,-240.234,1.000
1626203022882264.000,-223.145,-26.855,-34.668,-41.504,1.000
1626203022886170.250,-34.180,-37.598,-22.949,216.309,1.000
1626203022890076.500,109.863,-29.297,-24.902,60.547,1.000
1626203022893982.750,-25.391,-26.855,-24.902,-240.723,1.000
1626203022897889.000,-41.504,-27.832,-29.297,-69.824,1.000
1626203022901795.250,-173.340,-27.344,-11.719,-227.051,1.000
1626203022905701.500,-9.277,-19.531,-1.953,6.836,1.000
1626203022909607.750,149.414,-11.719,-18.066,206.543,1.000
1626203022913514.000,0.000,-36.133,-32.227,10.254,1.000
1626203022917420.250,-207.031,-51.758,-45.410,-237.793,1.000
1626203022921326.500,-105.469,-27.344,-30.273,-87.402,1.000
1626203022925232.750,108.887,-30.762,-23.926,184.570,1.000
1626203022929139.000,53.223,-53.711,-33.691,88.379,1.000
1626203022933045.250,-157.715,-44.922,-39.062,-192.383,1.000
1626203022936951.500,-155.273,-38.086,-47.852,-165.039,1.000
1626203022940857.750,67.383,-25.879,-21.973,132.812,1.000
1626203022944764.000,76.660,-49.316,-45.410,1.000,1.000
1626203022948670.250,39.551,-58.105,-41.016,1.000,1.000
1626203022952576.500,-144.043,-39.551,-30.273,1.000,1.000
1626203022956482.750,-142.578,-28.809,-22.949,1.000,1.000
1626203022960389.000,72.266,-16.113,-20.996,1.000,1.000
1626203022964295.250,128.418,0.488,-33.203,1.000,1.000
1626203022968201.500,-57.617,6.348,-18.555,1.000,1.000
1626203022972107.750,-167.480,-23.438,-27.832,1.000,1.000
1626203022976014.000,-22.949,-53.223,-50.781,1.000,1.000
1626203022979920.250,119.141,-46.875,-35.645,1.000,1.000
1626203022983826.500,-39.062,-42.969,-31.250,1.000,1.000
1626203022987732.750,-208.984,-32.227,-30.762,1.000,1.000
1626203022991639.000,-206.543,-44.434,-30.762,-257.812,1.000
1626203022995545.250,-39.551,-42.480,-33.691,-13.672,1.000
1626203022999451.500,122.070,-44.434,-31.250,179.688,1.000
1626203023003357.750,-33.691,-56.641,-46.875,-46.875,1.000
1626203023007264.000,-212.402,-24.902,-43.457,-273.438,1.000
1626203023011170.250,-87.402,-6.836,-16.113,-83.496,1.000
1626203023015076.500,135.742,-29.785,8.789,195.801,1.000
1626203023018982.750,61.523,-48.828,-16.602,62.988,1.000
1626203023022889.000,-186.523,-41.016,-48.340,-230.957,1.000
1626203023026795.250,-160.645,-36.621,-44.434,-161.621,1.000
1626203023030701.500,60.059,-41.992,-25.391,130.371,1.000
1626203023034607.750,73.730,-31.738,-27.832,117.188,1.000
1626203023038514.000,27.344,-30.273,-59.570,53.711,1.000
1626203023042420.250,-169.434,-40.039,-49.805,-225.586,1.000
1626203023046326.500,-126.953,-23.926,-8.789,-144.531,1.000
1626203023050232.750,84.961,-17.090,-22.461,143.555,1.000
1626203023054139.000,105.957,-21.973,-36.133,145.020,1.000
1626203023058045.250,-115.723,-28.320,-38.574,-153.320,1.000
1626203023061951.500,-191.895,-25.879,-33.691,-229.492,1.000
1626203023065857.750,32.227,-26.855,-16.113,64.453,1.000
1626203023069764.000,137.695,-42.480,-15.137,195.801,1.000
1626203023073670.250,-31.738,-46.875,-40.527,-70.312,1.000
1626203023077576.500,-189.941,-49.316,-57.617,-263.184,1.000
1626203023081482.750,-68.848,-50.293,-38.086,-35.156,1.000
1626203023085389.000,16.113,-18.066,-45.898,1.000,1.000
1626203023089295.250,128.906,-14.160,-33.691,1.000,1.000
1626203023093201.500,-43.945,-13.672,-26.855,1.000,1.000
1626203023097107.750,-184.570,-30.762,-30.762,1.000,1.000
1626203023101014.000,-56.641,-40.527,-25.879,1.000,1.000
1626203023104920.250,84.473,-42.480,-31.250,1.000,1.000
1626203023108826.500,-13.672,-42.969,-60.547,1.000,1.000
1626203023112732.750,-216.797,-31.738,-64.941,1.000,1.000
1626203023116639.000,-141.602,-17.578,-33.691,1.000,1.000
1626203023120545.250,109.863,-5.859,-12.207,1.000,1.000
1626203023124451.500,100.586,-33.203,-32.715,1.000,1.000
1626203023128357.750,-125.488,-46.875,-52.246,1.000,1.000
1626203023132264.000,-177.246,-31.250,-43.945,-239.258,1.000
1626203023136170.250,-126.465,-2.930,-30.762,-146.973,1.000
1626203023140076.500,103.516,15.625,-8.789,157.227,1.000
1626203023143982.750,65.918,-34.180,-7.812,110.840,1.000
1626203023147889.000,-165.527,-51.758,-29.297,-192.383,1.000
1626203023151795.250,-187.500,-15.137,-38.086,-215.820,1.000
1626203023155701.500,20.508,-17.090,-23.438,80.566,1.000
1626203023159607.750,104.980,-36.133,-16.602,177.246,1.000
1626203023163514.000,-68.359,-32.715,-28.809,-88.867,1.000
1626203023167420.250,-191.406,-42.480,-31.250,-245.117,1.000
1626203023171326.500,-25.391,-34.668,-32.715,-20.020,1.000
1626203023175232.750,122.070,-10.742,-36.133,182.129,1.000
1626203023179139.000,124.512,-27.344,-12.207,198.730,1.000
1626203023183045.250,-43.945,-17.578,-18.066,-62.988,1.000
1626203023186951.500,-186.523,-38.086,-27.344,-241.211,1.000
1626203023190857.750,-28.320,-85.449,-35.645,-13.184,1.000
1626203023194764.000,146.973,-77.637,-40.527,210.449,1.000
1626203023198670.250,17.090,-23.438,-48.340,6.348,1.000
1626203023202576.500,-179.199,-3.418,-31.250,-258.789,1.000
1626203023206482.750,-79.590,-20.020,-9.766,-100.586,1.000
1626203023210389.000,127.930,-24.414,-7.324,176.270,1.000
1626203023214295.250,98.145,-9.277,-1.953,88.867,1.000
1626203023218201.500,-120.605,-14.648,-11.719,-194.824,1.000
1626203023222107.750,-117.188,-17.090,-18.555,-157.715,1.000
1626203023226014.000,-117.676,-51.270,-53.711,117.188,1.000
1626203023229920.250,128.906,-15.137,-6.348,118.164,1.000
1626203023233826.500,80.566,-10.254,-27.344,-154.785,1.000
1626203023237732.750,-160.645,-44.922,-60.059,-228.027,1.000
1626203023241639.000,-172.363,-47.852,-43.457,40.039,1.000
1626203023245545.250,30.762,-27.344,-21.484,187.500,1.000
1626203023249451.500,87.891,-6.836,-26.855,-63.477,1.000
1626203023253357.750,-97.656,-9.766,-41.992,-258.789,1.000
1626203023257264.000,-181.152,-16.113,-24.414,-36.133,1.000
1626203023261170.250,-15.625,-18.066,-13.672,213.379,1.000
1626203023265076.500,124.512,-25.391,-23.926,43.945,1.000
1626203023268982.750,-35.156,-42.969,-32.715,-241.699,1.000
1626203023272889.000,-161.621,-13.672,-36.621,-176.758,1.000
1626203023276795.250,-284.180,-36.621,-26.367,-326.172,1.000
1626203023280701.500,-93.262,-24.414,-17.578,-71.289,1.000
1626203023284607.750,56.641,8.789,-20.996,111.816,1.000
1626203023288514.000,-95.215,1.465,-31.250,-103.027,1.000
1626203023292420.250,-278.320,-26.367,-48.828,-333.984,1.000
1626203023296326.500,-140.625,-27.344,-33.203,-162.598,1.000
1626203023300232.750,55.176,-16.602,-16.602,107.422,1.000
1626203023304139.000,-37.598,-20.020,-36.133,-8.789,1.000
1626203023308045.250,-229.492,-17.090,-39.551,-282.227,1.000
1626203023311951.500,-189.453,-9.766,-35.156,-210.449,1.000
1626203023315857.750,35.156,-10.742,-32.715,91.309,1.000
1626203023319764.000,98.145,-36.133,-40.039,149.902,1.000
1626203023323670.250,49.316,-45.410,-31.738,63.477,1.000
1626203023327576.500,-154.297,-31.738,-27.344,-209.961,1.000
1626203023331482.750,-133.301,-12.695,-23.438,-162.598,1.000
1626203023335389.000,89.844,-20.508,-15.625,132.812,1.000
1626203023339295.250,105.957,-35.156,-26.367,140.625,1.000
1626203023343201.500,-100.098,-41.016,-39.062,-150.391,1.000
1626203023347107.750,-155.273,-38.086,-33.203,-219.727,1.000
1626203023351014.000,57.129,-24.414,-14.648,70.801,1.000
1626203023354920.250,154.297,-33.203,-18.066,189.941,1.000
1626203023358826.500,-35.156,-56.641,-41.504,-82.520,1.000
1626203023362732.750,-173.340,-47.852,-41.992,-250.488,1.000
1626203023366639.000,-152.344,-48.828,-41.016,-219.238,1.000
1626203023370545.250,54.688,-60.059,-21.973,62.012,1.000
1626203023374451.500,201.172,-25.391,-11.230,224.609,1.000
1626203023378357.750,35.156,-10.742,-21.484,-10.742,1.000
1626203023382264.000,-133.789,-32.227,-34.180,-210.938,1.000
1626203023386170.250,8.789,-30.762,-17.090,-0.977,1.000
1626203023390076.500,193.848,-44.434,-2.930,244.629,1.000
1626203023393982.750,67.383,-55.664,-32.715,66.406,1.000
1626203023397889.000,-162.109,-9.766,-50.781,-226.562,1.000
1626203023401795.250,-99.121,1.953,-42.969,-119.141,1.000
1626203023405701.500,139.648,-5.371,-32.227,186.523,1.000
1626203023409607.750,127.441,10.254,-22.461,140.137,1.000
1626203023413514.000,61.035,-34.668,-23.926,56.152,1.000
1626203023417420.250,-160.645,-46.387,-40.039,-229.004,1.000
1626203023421326.500,-129.883,-34.180,-43.457,-162.598,1.000
1626203023425232.750,80.566,-23.926,-38.574,121.582,1.000
1626203023429139.000,100.586,-19.531,-34.668,124.023,1.000
1626203023433045.250,-112.305,-33.691,-41.992,-164.062,1.000
1626203023436951.500,-162.598,-43.457,-36.133,-205.078,1.000
1626203023440857.750,53.223,-51.758,-19.043,94.727,1.000
1626203023444764.000,144.043,-72.266,-19.531,200.684,1.000
1626203023448670.250,-49.316,-44.922,-22.949,-74.219,1.000
1626203023452576.500,-197.266,-18.066,-50.781,-242.676,1.000
1626203023456482.750,-37.109,-12.695,-52.734,-8.789,1.000
1626203023460389.000,32.227,-46.387,-12.207,177.734,1.000
1626203023464295.250,131.836,-17.578,-37.598,-24.902,1.000
1626203023468201.500,-45.410,-36.621,-44.922,-253.906,1.000
1626203023472107.750,-184.082,-38.574,-43.457,-107.910,1.000
1626203023476014.000,-31.738,-19.043,-33.203,151.367,1.000
1626203023479920.250,136.719,-2.441,-25.879,52.734,1.000
1626203023483826.500,22.949,-20.508,-36.133,-225.586,1.000
1626203023487732.750,-175.293,-56.152,-51.270,-171.875,1.000
1626203023491639.000,-96.191,-47.852,-44.922,150.391,1.000
1626203023495545.250,130.859,-17.090,-16.602,164.062,1.000
1626203023499451.500,85.449,-35.156,-7.812,-142.090,1.000
1626203023503357.750,-136.719,-40.039,-25.879,-206.055,1.000
1626203023507264.000,-170.898,-48.828,-15.137,-229.492,1.000
1626203023511170.250,-99.121,-39.062,-28.809,-119.141,1.000
1626203023515076.500,101.562,-20.508,-22.949,158.203,1.000
1626203023518982.750,78.125,4.395,-24.902,110.352,1.000
1626203023522889.000,-140.625,-30.273,-39.551,-188.477,1.000
1626203023526795.250,-164.062,-51.270,-44.434,-198.730,1.000
1626203023530701.500,54.199,-34.180,-28.320,95.215,1.000
1626203023534607.750,102.539,-27.832,-28.809,145.020,1.000
1626203023538514.000,-102.051,-19.531,-56.152,-142.578,1.000
1626203023542420.250,-195.312,-24.414,-58.105,-249.512,1.000
1626203023546326.500,-11.230,-18.555,-40.039,15.625,1.000
1626203023550232.750,119.629,-24.414,-35.645,181.641,1.000
1626203023554139.000,139.648,-24.902,-28.809,174.805,1.000
1626203023558045.250,-57.129,-24.414,-35.645,-104.004,1.000
1626203023561951.500,-168.945,-21.484,-21.973,-232.422,1.000
1626203023565857.750,-4.883,-11.230,-8.301,10.254,1.000
1626203023569764.000,155.762,-5.859,-1.953,202.148,1.000
1626203023573670.250,12.695,-38.086,-21.973,-11.230,1.000
1626203023577576.500,-187.500,-54.688,-33.203,-253.906,1.000
1626203023581482.750,-79.590,-28.320,-21.484,-88.379,1.000
1626203023585389.000,125.488,6.348,-6.348,176.758,1.000
1626203023589295.250,50.781,2.441,-23.438,56.641,1.000
1626203023593201.500,-159.668,-13.672,-38.086,-221.191,1.000
1626203023597107.750,-107.910,-1.953,-7.812,-138.672,1.000
1626203023601014.000,-78.125,-21.973,-32.227,-90.820,1.000
1626203023604920.250,129.883,-4.395,-15.625,186.035,1.000
1626203023608826.500,69.336,-14.160,-25.391,95.215,1.000
1626203023612732.750,-162.598,-31.250,-48.828,-210.449,1.000
1626203023616639.000,-160.645,-30.273,-47.852,-186.523,1.000
1626203023620545.250,76.172,-6.836,-30.273,121.094,1.000
1626203023624451.500,107.910,-17.578,-29.297,144.531,1.000
1626203023628357.750,-122.559,-59.082,-35.156,-155.762,1.000
1626203023632264.000,-193.359,-62.500,-29.785,-232.910,1.000
1626203023636170.250,14.160,-33.203,-17.578,47.363,1.000
1626203023640076.500,131.836,-14.648,-25.879,189.941,1.000
1626203023643982.750,-26.855,-40.527,-30.762,-43.945,1.000
1626203023647889.000,-73.242,-30.762,-20.996,-98.145,1.000
1626203023651795.250,-161.621,-33.691,-18.555,-199.219,1.000
1626203023655701.500,15.137,-3.418,-32.715,50.781,1.000
1626203023659607.750,143.555,1.465,-35.156,201.172,1.000
1626203023663514.000,-40.527,-25.391,-40.039,-50.293,1.000
1626203023667420.250,-222.168,-35.156,-47.363,-267.578,1.000
1626203023671326.500,-63.477,-13.184,-30.762,-54.199,1.000
1626203023675232.750,136.230,-6.348,-11.230,203.125,1.000
1626203023679139.000,29.785,-33.203,-14.648,52.734,1.000
1626203023683045.250,-183.594,-50.781,-21.973,-228.516,1.000
1626203023686951.500,-143.066,-42.969,-28.809,-141.602,1.000
1626203023690857.750,68.848,-47.852,-23.438,142.578,1.000
1626203023694764.000,101.562,-38.574,-34.668,1.000,1.000
1626203023698670.250,24.414,-30.273,-25.879,1.000,1.000
1626203023702576.500,-198.242,-26.367,-30.273,1.000,1.000
1626203023706482.750,-165.039,-29.785,-38.086,1.000,1.000
1626203023710389.000,77.637,-12.695,-36.621,1.000,1.000
1626203023714295.250,66.895,-28.320,-34.180,1.000,1.000
1626203023718201.500,-159.668,-35.156,-40.039,1.000,1.000
1626203023722107.750,-191.406,-5.859,-43.457,1.000,1.000
1626203023726014.000,19.531,-17.090,-36.133,1.000,1.000
1626203023729920.250,122.070,-28.809,-14.648,1.000,1.000
1626203023733826.500,-76.172,-34.668,-28.809,1.000,1.000
1626203023737732.750,-209.961,-43.457,-43.457,1.000,1.000
1626203023741639.000,-191.406,-30.762,-17.090,-231.934,1.000
1626203023745545.250,23.926,-22.461,-2.930,56.641,1.000
1626203023749451.500,123.047,-41.016,-18.066,173.340,1.000
1626203023753357.750,-62.500,-39.551,-33.203,-93.750,1.000
1626203023757264.000,-184.082,-14.648,-19.531,-255.371,1.000
1626203023761170.250,-15.625,-12.695,-11.230,-19.531,1.000
1626203023765076.500,153.320,-38.086,-15.625,199.219,1.000
1626203023768982.750,20.996,-33.203,-29.297,20.996,1.000
1626203023772889.000,-182.129,-10.254,-42.480,-237.305,1.000
1626203023776795.250,-99.121,-18.066,-37.598,-122.070,1.000
1626203023780701.500,89.355,-27.344,-28.809,154.297,1.000
1626203023784607.750,48.340,-32.715,-31.738,94.238,1.000
1626203023788514.000,31.250,-23.926,-25.879,37.109,1.000
1626203023792420.250,-168.945,-26.367,-37.109,-220.703,1.000
1626203023796326.500,-116.211,-29.297,-20.020,-130.371,1.000
1626203023800232.750,100.586,-16.602,-6.348,143.555,1.000
1626203023804139.000,82.031,-7.324,-22.461,101.562,1.000
1626203023808045.250,-138.184,-29.785,-47.852,-198.730,1.000
1626203023811951.500,-160.156,-45.898,-53.223,-211.914,1.000
1626203023815857.750,52.246,-9.277,-41.992,76.660,1.000
1626203023819764.000,110.352,-2.930,-25.391,140.137,1.000
1626203023823670.250,-96.680,-39.062,-28.809,-132.812,1.000
1626203023827576.500,-196.777,-41.016,-29.785,-244.141,1.000
1626203023831482.750,-0.977,-14.648,-15.625,25.391,1.000
1626203023835389.000,18.066,-14.648,-37.598,183.105,1.000
1626203023839295.250,111.328,-8.789,-15.137,-58.105,1.000
1626203023843201.500,-71.777,-17.578,-20.996,-270.020,1.000
1626203023847107.750,-189.941,-27.344,-27.832,-74.219,1.000
1626203023851014.000,-16.113,-30.762,-5.371,191.406,1.000
1626203023854920.250,132.324,-39.551,-4.395,69.824,1.000
1626203023858826.500,-4.395,-39.551,-39.551,-215.332,1.000
1626203023862732.750,-180.664,-29.297,-61.035,-144.531,1.000
1626203023866639.000,-88.867,-36.133,-42.480,153.809,1.000
1626203023870545.250,100.098,-40.039,-17.578,138.672,1.000
1626203023874451.500,32.715,-39.551,-17.090,-161.621,1.000
1626203023878357.750,-191.406,-41.016,-18.066,-217.285,1.000
1626203023882264.000,-175.781,-40.527,-29.785,-232.910,1.000
1626203023886170.250,-84.473,-51.270,-32.715,-109.375,1.000
1626203023890076.500,107.910,-44.922,-36.621,147.461,1.000
1626203023893982.750,48.828,-49.805,-30.762,69.336,1.000
1626203023897889.000,-143.066,-33.691,-33.691,-199.219,1.000
1626203023901795.250,-130.371,-16.113,-32.715,-160.645,1.000
1626203023905701.500,92.285,-12.207,-15.137,130.859,1.000
1626203023909607.750,111.328,-42.480,-15.625,143.066,1.000
1626203023913514.000,-85.938,-42.480,-30.762,-150.391,1.000
1626203023917420.250,-159.668,-14.160,-40.527,-224.609,1.000
1626203023921326.500,19.531,0.977,-36.621,60.547,1.000
1626203023925232.750,150.391,2.441,-21.484,208.008,1.000
1626203023929139.000,129.395,-29.785,-25.391,157.227,1.000
1626203023933045.250,-64.453,-15.137,-25.391,-123.047,1.000
1626203023936951.500,-178.223,-9.277,-17.578,-216.797,1.000
1626203023940857.750,31.738,6.348,-8.301,65.918,1.000
1626203023944764.000,174.805,-12.695,-2.930,218.262,1.000
1626203023948670.250,-32.715,-79.590,-19.043,-56.152,1.000
1626203023952576.500,-222.656,-49.805,-38.574,-277.344,1.000
1626203023956482.750,-78.125,0.488,-47.852,-77.637,1.000
1626203023960389.000,116.699,-22.949,-51.270,166.992,1.000
1626203023964295.250,-0.488,-42.969,-76.172,34.668,1.000
1626203023968201.500,-191.406,-37.598,-71.777,-217.773,1.000
1626203023972107.750,-114.746,-13.184,-12.695,-116.699,1.000
1626203023976014.000,-73.242,-60.059,-30.762,-73.730,1.000
1626203023979920.250,148.926,-41.504,-7.812,209.961,1.000
1626203023983826.500,75.195,9.277,-9.277,88.379,1.000
1626203023987732.750,-161.133,-20.508,-25.879,-215.820,1.000
1626203023991639.000,-137.695,-48.340,-34.668,-155.273,1.000
1626203023995545.250,76.660,-38.086,-43.457,130.859,1.000
1626203023999451.500,75.195,-46.387,-61.523,108.887,1.000
1626203024003357.750,-144.043,-37.109,-68.848,-191.406,1.000
1626203024007264.000,-183.594,-17.090,-45.410,-231.934,1.000
1626203024011170.250,46.875,-11.719,-25.391,77.148,1.000
1626203024015076.500,153.809,-26.855,-27.832,191.895,1.000
1626203024018982.750,-49.805,-37.598,-26.855,-88.379,1.000
1626203024022889.000,-129.883,-18.555,-58.105,-175.293,1.000
1626203024026795.250,-200.195,-28.809,-53.223,-257.324,1.000
1626203024030701.500,27.832,-4.883,-29.785,41.016,1.000
1626203024034607.750,155.762,2.930,-3.906,198.730,1.000
1626203024038514.000,-37.598,-41.016,-15.137,-60.059,1.000
1626203024042420.250,-191.895,-55.664,-27.832,-244.629,1.000
1626203024046326.500,-49.316,-45.898,-29.297,-39.551,1.000
1626203024050232.750,126.465,-47.363,-29.785,174.805,1.000
1626203024054139.000,23.438,-30.273,-26.367,14.160,1.000
1626203024058045.250,-181.152,-20.020,-39.551,-245.117,1.000
1626203024061951.500,-96.191,-37.598,-39.062,-117.188,1.000
1626203024065857.750,143.066,-31.738,-10.742,191.406,1.000
1626203024069764.000,139.160,-8.301,-8.789,1.000,1.000
1626203024073670.250,28.809,-39.062,-16.602,1.000,1.000
1626203024077576.500,-186.523,-79.102,-23.926,1.000,1.000
1626203024081482.750,-133.789,-76.172,-35.645,1.000,1.000
1626203024085389.000,85.938,-47.363,-22.949,1.000,1.000
1626203024089295.250,72.754,-28.320,-17.578,1.000,1.000
1626203024093201.500,-151.855,-32.227,-31.250,1.000,1.000
1626203024097107.750,-173.340,-45.898,-24.414,1.000,1.000
1626203024101014.000,62.012,-21.484,-15.137,1.000,1.000
1626203024104920.250,129.883,-9.766,-15.137,1.000,1.000
1626203024108826.500,-90.820,-43.457,-22.461,1.000,1.000
1626203024112732.750,-208.008,-42.969,-28.809,1.000,1.000
1626203024116639.000,-164.551,-19.531,-27.344,-209.473,1.000
1626203024120545.250,48.828,-14.648,-14.160,86.914,1.000
1626203024124451.500,126.465,-9.277,-23.438,185.547,1.000
1626203024128357.750,-62.988,-11.230,-42.480,-91.309,1.000
1626203024132264.000,-194.824,-37.109,-34.668,-256.836,1.000
1626203024136170.250,-3.906,-36.621,3.906,-4.883,1.000
1626203024140076.500,164.062,-27.344,1.465,189.453,1.000
1626203024143982.750,20.020,-44.922,-20.508,-20.996,1.000
1626203024147889.000,-159.668,-46.387,-16.113,-239.746,1.000
1626203024151795.250,-76.172,-23.438,-23.438,-84.961,1.000
1626203024155701.500,113.281,-5.371,-29.297,169.922,1.000
1626203024159607.750,63.477,-6.348,-14.160,68.359,1.000
1626203024163514.000,20.020,-68.848,-13.672,13.184,1.000
1626203024167420.250,-162.109,-86.914,-20.508,-217.773,1.000
1626203024171326.500,-80.078,-35.156,-14.648,-89.355,1.000
1626203024175232.750,97.168,-14.648,-37.109,154.297,1.000
1626203024179139.000,57.129,-20.020,-61.523,83.008,1.000
1626203024183045.250,-130.859,-2.441,-53.223,-174.316,1.000
1626203024186951.500,-122.070,-16.113,-15.625,-147.461,1.000
1626203024190857.750,53.223,-44.922,-15.137,103.516,1.000
1626203024194764.000,76.660,-61.523,-28.809,128.906,1.000
1626203024198670.250,-96.680,-83.008,-33.691,-133.301,1.000
1626203024202576.500,-187.988,-61.523,-54.199,-237.305,1.000
1626203024206482.750,13.184,-3.906,-40.039,44.434,1.000
1626203024210389.000,63.477,-0.977,-35.156,203.125,1.000
1626203024214295.250,127.930,5.859,-6.836,-82.031,1.000
1626203024218201.500,-91.309,-10.742,-18.066,-302.734,1.000
1626203024222107.750,-203.125,-20.996,-38.574,-66.895,1.000
1626203024226014.000,-2.441,-47.852,-26.367,189.941,1.000
1626203024229920.250,131.836,-78.613,-11.230,20.996,1.000
1626203024233826.500,-20.996,-48.828,-18.555,-244.141,1.000
1626203024237732.750,-175.781,-4.883,-16.602,-121.582,1.000
1626203024241639.000,-73.730,-9.766,-26.855,157.715,1.000
1626203024245545.250,107.422,-21.484,-36.621,98.633,1.000
1626203024249451.500,50.293,-15.625,-41.504,-180.664,1.000
1626203024253357.750,-157.227,-41.016,-62.988,-184.082,1.000
1626203024257264.000,-202.637,-53.711,-50.293,-258.301,1.000
1626203024261170.250,-105.957,-54.688,-41.016,-109.375,1.000
1626203024265076.500,95.703,-36.621,-35.645,151.855,1.000
1626203024268982.750,41.016,-10.254,-38.574,41.992,1.000
1626203024272889.000,-143.066,-23.926,-44.434,-196.777,1.000
1626203024276795.250,-104.492,-21.973,-27.832,-109.375,1.000
1626203024280701.500,83.496,-6.348,-8.301,140.137,1.000
1626203024284607.750,76.660,-33.691,-20.508,115.234,1.000
1626203024288514.000,-141.113,-61.035,-40.527,-182.617,1.000
1626203024292420.250,-179.688,-35.156,-36.133,-218.750,1.000
1626203024296326.500,16.113,-10.742,-40.039,55.664,1.000
1626203024300232.750,108.398,-27.344,-27.832,161.621,1.000
1626203024304139.000,122.559,-30.762,4.395,1.000,1.000
1626203024308045.250,-101.562,-32.715,-14.160,1.000,1.000
1626203024311951.500,-190.430,-13.184,-30.273,1.000,1.000
1626203024315857.750,22.949,9.766,-29.785,1.000,1.000
1626203024319764.000,125.000,-23.438,-35.156,1.000,1.000
1626203024323670.250,-50.781,-32.715,-34.180,1.000,1.000
1626203024327576.500,-193.848,-51.758,-23.438,1.000,1.000
1626203024331482.750,-59.570,-80.566,-11.230,1.000,1.000
1626203024335389.000,122.070,-42.480,-20.996,1.000,1.000
1626203024339295.250,20.508,-3.418,-45.898,1.000,1.000
1626203024343201.500,-187.012,-15.625,-52.246,1.000,1.000
1626203024347107.750,-101.562,-36.133,-26.855,1.000,1.000
1626203024351014.000,-59.082,-18.555,-10.742,-51.270,1.000
1626203024354920.250,135.254,-16.113,-5.371,196.289,1.000
1626203024358826.500,50.293,-14.160,-21.973,60.547,1.000
1626203024362732.750,-167.969,-17.090,-40.039,-216.797,1.000
1626203024366639.000,-124.512,-38.086,-40.527,-133.789,1.000
1626203024370545.250,98.633,-49.316,-29.785,162.598,1.000
1626203024374451.500,70.312,-59.570,-24.414,109.863,1.000
1626203024378357.750,-166.992,-60.059,-31.250,-211.426,1.000
1626203024382264.000,-188.477,-30.273,-26.855,-226.074,1.000
1626203024386170.250,47.363,-1.465,-14.648,84.473,1.000
1626203024390076.500,115.234,-7.812,-32.715,156.250,1.000
1626203024393982.750,-84.473,-31.250,-35.156,-122.559,1.000
1626203024397889.000,-132.324,-32.715,-32.715,-156.738,1.000
1626203024401795.250,-198.242,-39.062,-37.598,-226.562,1.000
1626203024405701.500,27.344,-37.109,-39.551,59.570,1.000
1626203024409607.750,133.789,-55.176,-36.133,175.781,1.000
1626203024413514.000,-57.617,-54.199,-27.344,-83.008,1.000
1626203024417420.250,-190.430,-43.457,-17.578,-246.094,1.000
1626203024421326.500,-37.598,-42.969,-24.414,-23.926,1.000
1626203024425232.750,121.582,-28.809,-32.715,175.781,1.000
1626203024429139.000,-8.301,-31.250,-31.738,-15.137,1.000
1626203024433045.250,-200.195,-40.527,-29.785,-249.512,1.000
1626203024436951.500,-95.703,-30.762,-30.762,-90.820,1.000
1626203024440857.750,114.746,-13.672,-23.438,182.129,1.000
1626203024444764.000,133.301,-25.391,-20.020,1.000,1.000
1626203024448670.250,17.090,-27.832,-41.016,1.000,1.000
1626203024452576.500,-181.641,-35.645,-45.898,1.000,1.000
1626203024456482.750,-109.375,-46.875,-34.668,1.000,1.000
1626203024460389.000,137.695,-23.438,-17.090,1.000,1.000
1626203024464295.250,114.746,-8.789,-22.461,1.000,1.000
1626203024468201.500,-130.371,-16.113,-55.176,1.000,1.000
1626203024472107.750,-171.875,-18.555,-56.641,1.000,1.000
1626203024476014.000,54.688,-0.977,-44.922,1.000,1.000
1626203024479920.250,95.703,-6.836,-38.574,1.000,1.000
1626203024483826.500,-125.488,-36.133,-34.668,1.000,1.000
1626203024487732.750,-173.828,-41.992,-19.531,1.000,1.000
1626203024491639.000,-168.457,-44.922,-37.109,-190.918,1.000
1626203024495545.250,38.574,-36.133,-30.762,92.285,1.000
1626203024499451.500,104.004,-43.457,-37.109,158.691,1.000
1626203024503357.750,-72.266,-43.457,-40.527,-100.098,1.000
1626203024507264.000,-187.500,-28.809,-43.945,-224.121,1.000
1626203024511170.250,-6.836,-10.254,-30.273,31.250,1.000
1626203024515076.500,143.555,-34.180,-23.438,215.332,1.000
1626203024518982.750,-18.066,-46.875,-45.898,-18.066,1.000
1626203024522889.000,-211.426,-19.531,-60.547,-247.070,1.000
1626203024526795.250,-86.914,0.488,-23.926,-66.895,1.000
1626203024530701.500,108.887,-0.488,5.371,173.828,1.000
1626203024534607.750,3.906,-24.902,-23.438,22.949,1.000
1626203024538514.000,-30.273,-49.805,-45.410,-34.180,1.000
1626203024542420.250,-213.867,-82.031,-48.340,-261.719,1.000
1626203024546326.500,-106.445,-67.383,-17.090,-97.656,1.000
1626203024550232.750,121.582,-8.789,3.906,183.105,1.000
1626203024554139.000,57.129,-21.484,-5.859,78.613,1.000
1626203024558045.250,-182.617,-47.363,-33.203,-218.262,1.000
1626203024561951.500,-176.270,-33.203,-38.574,-172.363,1.000
1626203024565857.750,68.359,-19.043,-20.020,133.301,1.000
1626203024569764.000,113.770,-28.809,-38.574,141.602,1.000
1626203024573670.250,-96.191,-42.969,-67.383,-152.344,1.000
1626203024577576.500,-180.664,-19.043,-42.969,-212.402,1.000
1626203024581482.750,20.020,-17.090,-10.742,68.359,1.000
1626203024585389.000,61.035,-42.969,-20.996,109.375,1.000
1626203024589295.250,92.285,-40.039,-44.434,136.719,1.000
1626203024593201.500,-111.328,-31.250,-44.922,-156.738,1.000
1626203024597107.750,-187.500,-44.922,-19.531,-241.699,1.000
1626203024601014.000,17.578,-67.383,-10.742,36.133,1.000
1626203024604920.250,147.461,-24.414,-8.301,185.547,1.000
1626203024608826.500,-11.230,8.789,-11.230,-68.848,1.000
1626203024612732.750,-200.195,-10.254,-26.855,-267.090,1.000
1626203024616639.000,-77.148,-19.043,-31.738,-53.223,1.000
1626203024620545.250,126.465,-25.879,-30.273,182.129,1.000
1626203024624451.500,10.742,-34.180,-44.434,16.602,1.000
1626203024628357.750,-176.270,-49.316,-46.387,-239.746,1.000
1626203024632264.000,-176.270,-34.668,-22.461,-230.957,1.000
1626203024636170.250,-44.922,-37.598,-18.066,-47.363,1.000
1626203024640076.500,140.137,-22.949,-40.039,192.383,1.000
1626203024643982.750,61.523,-6.836,-51.758,51.270,1.000
1626203024647889.000,-148.438,-40.039,-36.133,-228.516,1.000
1626203024651795.250,-101.562,-24.414,-6.836,-130.859,1.000
1626203024655701.500,109.375,-15.137,-18.066,147.949,1.000
1626203024659607.750,81.543,-73.242,-36.621,103.516,1.000
1626203024663514.000,-126.953,-88.379,-35.156,-183.105,1.000
1626203024667420.250,-159.180,-18.066,-27.832,-202.637,1.000
1626203024671326.500,67.383,34.668,-36.621,86.426,1.000
1626203024675232.750,157.715,21.484,-50.781,160.156,1.000
1626203024679139.000,21.973,-10.254,-28.809,1.000,1.000
1626203024683045.250,-187.500,-11.719,-23.438,1.000,1.000
1626203024686951.500,-286.621,-28.809,-49.805,1.000,1.000
1626203024690857.750,-67.383,-15.625,-30.273,1.000,1.000
1626203024694764.000,32.227,-18.066,-42.480,1.000,1.000
1626203024698670.250,-190.430,-19.043,-62.500,1.000,1.000
1626203024702576.500,-322.266,-28.320,-42.480,1.000,1.000
1626203024706482.750,-132.812,-28.320,-30.762,1.000,1.000
1626203024710389.000,38.086,-17.578,-22.461,1.000,1.000
1626203024714295.250,-126.465,-40.039,-28.320,1.000,1.000
1626203024718201.500,-330.078,-37.598,-51.270,1.000,1.000
1626203024722107.750,-232.422,-24.414,-56.641,1.000,1.000
1626203024726014.000,-85.938,-39.062,-51.270,-75.684,1.000
1626203024729920.250,99.609,-30.762,-19.531,149.414,1.000
1626203024733826.500,-9.277,-35.156,-30.273,-19.531,1.000
1626203024737732.750,-197.266,-45.898,-33.203,-261.230,1.000
1626203024741639.000,-92.773,-32.227,-14.160,-108.887,1.000
1626203024745545.250,159.180,-3.418,9.277,201.172,1.000
1626203024749451.500,113.770,-41.504,3.418,124.023,1.000
1626203024753357.750,-125.488,-78.613,-30.273,-176.758,1.000
1626203024757264.000,-137.695,-41.992,-41.504,-164.062,1.000
1626203024761170.250,80.078,-17.090,-41.992,130.371,1.000
1626203024765076.500,130.859,-20.508,-41.992,175.781,1.000
1626203024768982.750,-77.148,-45.898,-35.645,-109.863,1.000
1626203024772889.000,-52.734,-16.113,-35.156,-117.676,1.000
1626203024776795.250,-96.191,-7.324,-36.621,-147.949,1.000
1626203024780701.500,118.164,-13.184,-33.203,141.602,1.000
1626203024784607.750,180.664,-46.387,-53.711,202.637,1.000
1626203024788514.000,-15.137,-68.848,-53.711,-63.477,1.000
1626203024792420.250,-113.770,-70.312,-43.457,-176.758,1.000
1626203024796326.500,75.684,-33.691,-9.277,79.102,1.000
1626203024800232.750,209.961,-6.348,-3.418,251.953,1.000
1626203024804139.000,31.250,-18.066,-35.156,13.672,1.000
1626203024808045.250,-135.742,-11.230,-23.438,-206.055,1.000
1626203024811951.500,-8.301,-1.953,-8.301,-27.344,1.000
1626203024815857.750,191.895,-1.465,-15.625,231.445,1.000
1626203024819764.000,206.055,-20.508,3.418,1.000,1.000
1626203024823670.250,69.336,-50.781,-21.973,1.000,1.000
1626203024827576.500,-100.586,-16.602,-26.367,1.000,1.000
1626203024831482.750,-25.391,5.859,-5.859,1.000,1.000
1626203024835389.000,119.141,-31.738,-11.230,1.000,1.000
1626203024839295.250,39.062,-46.387,-51.270,1.000,1.000
1626203024843201.500,-139.160,-43.457,-48.340,1.000,1.000
1626203024847107.750,-107.422,-60.059,-8.789,1.000,1.000
1626203024851014.000,112.305,-42.969,-13.184,1.000,1.000
1626203024854920.250,148.438,-29.785,-15.137,1.000,1.000
1626203024858826.500,-69.824,-38.086,-23.926,1.000,1.000
1626203024862732.750,-122.070,-25.391,-36.621,1.000,1.000
1626203024866639.000,-118.164,-26.855,-22.949,-153.809,1.000
1626203024870545.250,117.676,-37.598,-12.695,149.414,1.000
1626203024874451.500,142.090,-28.320,-23.438,169.434,1.000
1626203024878357.750,-98.633,-34.180,-33.203,-139.648,1.000
1626203024882264.000,-182.617,-48.340,-36.621,-233.887,1.000
1626203024886170.250,38.574,-35.156,-32.227,58.105,1.000
1626203024890076.500,164.551,-45.410,-23.926,210.938,1.000
1626203024893982.750,-15.625,-59.082,-29.297,-36.133,1.000
1626203024897889.000,-184.082,-48.828,-31.738,-238.281,1.000
1626203024901795.250,-48.828,-34.668,-29.785,-39.062,1.000
1626203024905701.500,143.555,-39.062,-34.180,204.590,1.000
1626203024909607.750,39.062,-56.641,-43.945,50.781,1.000
1626203024913514.000,-3.418,-21.484,-24.902,-15.137,1.000
1626203024917420.250,-162.109,-34.668,-27.832,-206.543,1.000
1626203024921326.500,-37.109,-36.621,-17.578,-16.113,1.000
1626203024925232.750,146.973,-32.715,-14.648,219.238,1.000
1626203024929139.000,40.039,-39.062,-29.785,63.965,1.000
1626203024933045.250,-196.777,-50.781,-56.641,-237.793,1.000
1626203024936951.500,-151.367,-38.574,-62.988,-158.203,1.000
1626203024940857.750,91.309,-17.578,-35.156,147.949,1.000
1626203024944764.000,94.727,-29.785,-25.391,123.535,1.000
1626203024948670.250,-124.023,-56.152,-36.133,-171.387,1.000
1626203024952576.500,-155.762,-46.875,-28.809,-201.660,1.000
1626203024956482.750,62.012,-22.461,-9.766,96.191,1.000
1626203024960389.000,73.730,-29.297,-50.293,189.453,1.000
1626203024964295.250,84.473,-63.477,-60.547,-91.309,1.000
1626203024968201.500,-131.348,-65.430,-52.734,-235.840,1.000
1626203024972107.750,-173.340,-28.320,-12.695,10.254,1.000
1626203024976014.000,42.480,-19.043,-5.859,211.914,1.000
1626203024979920.250,145.508,-19.043,-13.184,6.836,1.000
1626203024983826.500,-47.852,-29.785,-35.645,-240.723,1.000
1626203024987732.750,-213.379,-39.551,-52.734,-78.613,1.000
1626203024991639.000,-43.945,-26.855,-32.227,186.035,1.000
1626203024995545.250,156.250,-14.160,-8.301,67.383,1.000
1626203024999451.500,22.461,-32.227,-25.879,-215.332,1.000
1626203025003357.750,-184.082,-57.129,-41.016,-160.645,1.000
1626203025007264.000,-184.570,-18.066,-44.922,-247.070,1.000
1626203025011170.250,-49.805,-44.922,-27.344,-38.086,1.000
1626203025015076.500,124.023,-59.570,-40.527,187.500,1.000
1626203025018982.750,19.531,-45.898,-39.551,25.879,1.000
1626203025022889.000,-182.617,-37.109,-32.715,-244.141,1.000
1626203025026795.250,-95.703,-22.461,-19.531,-117.188,1.000
1626203025030701.500,109.863,-40.527,-14.160,164.551,1.000
1626203025034607.750,52.734,-52.246,-32.227,80.566,1.000
1626203025038514.000,-157.227,-36.621,-47.363,-207.031,1.000
1626203025042420.250,-163.574,-32.715,-45.898,-197.266,1.000
1626203025046326.500,59.570,-19.531,-32.227,105.957,1.000
1626203025050232.750,111.816,-31.738,-34.180,158.203,1.000
1626203025054139.000,109.863,-19.531,-23.438,1.000,1.000
1626203025058045.250,-112.793,-41.016,-34.180,1.000,1.000
1626203025061951.500,-151.367,-56.641,-45.410,1.000,1.000
1626203025065857.750,75.195,-36.621,-30.762,1.000,1.000
1626203025069764.000,134.277,-7.812,-20.508,1.000,1.000
1626203025073670.250,-83.496,-15.625,-26.855,1.000,1.000
1626203025077576.500,-209.961,-35.645,-24.902,1.000,1.000
1626203025081482.750,-2.930,-35.156,-20.996,1.000,1.000
1626203025085389.000,158.691,-26.855,-29.785,1.000,1.000
1626203025089295.250,-21.484,-41.504,-43.945,1.000,1.000
1626203025093201.500,-218.262,-63.477,-43.457,1.000,1.000
1626203025097107.750,-90.820,-45.898,-26.855,1.000,1.000
1626203025101014.000,-48.340,-24.414,-39.062,-24.902,1.000
1626203025104920.250,111.328,-33.691,-31.250,175.293,1.000
1626203025108826.500,-5.371,-32.227,-20.996,-13.672,1.000
1626203025112732.750,-175.293,-9.766,-17.578,-232.422,1.000
1626203025116639.000,-88.379,-2.441,-15.625,-94.727,1.000
1626203025120545.250,91.797,-23.926,-36.621,152.832,1.000
1626203025124451.500,30.273,-31.250,-53.223,58.594,1.000
1626203025128357.750,-176.758,-43.945,-36.133,-217.773,1.000
1626203025132264.000,-145.996,-46.387,-16.602,-163.574,1.000
1626203025136170.250,83.496,-35.156,-24.414,127.441,1.000
1626203025140076.500,87.402,-35.645,-30.273,125.488,1.000
1626203025143982.750,-125.977,-55.176,-30.273,-162.598,1.000
1626203025147889.000,-134.766,-50.781,-23.926,-182.617,1.000
1626203025151795.250,-131.836,-32.715,-15.625,-180.176,1.000
1626203025155701.500,89.355,-25.879,-6.348,123.535,1.000
1626203025159607.750,133.301,-33.203,-14.648,186.035,1.000
1626203025163514.000,-89.355,-17.578,-37.598,-115.234,1.000
1626203025167420.250,-169.434,-7.812,-47.852,-228.027,1.000
1626203025171326.500,64.453,-17.578,-25.391,41.016,1.000
1626203025175232.750,152.344,-23.438,-7.324,194.336,1.000
1626203025179139.000,-65.430,-28.809,-17.090,-41.016,1.000
1626203025183045.250,-212.402,-41.992,-26.367,-242.188,1.000
1626203025186951.500,-77.637,-57.129,-29.785,-62.500,1.000
1626203025190857.750,130.371,-37.109,-27.344,182.129,1.000
1626203025194764.000,89.844,-32.715,-29.297,39.062,1.000
1626203025198670.250,-45.410,-29.297,-24.414,-244.629,1.000
1626203025202576.500,-236.816,-58.105,-33.203,-150.879,1.000
1626203025206482.750,-121.094,-59.082,-28.809,137.695,1.000
1626203025210389.000,83.984,-35.156,-20.020,87.891,1.000
1626203025214295.250,6.348,-33.691,-35.156,-209.961,1.000
1626203025218201.500,-183.105,-36.133,-20.996,-212.891,1.000
1626203025222107.750,-133.789,-15.137,-11.719,95.703,1.000
1626203025226014.000,56.641,-17.090,-27.344,149.414,1.000
1626203025229920.250,55.664,-35.156,-22.461,-128.418,1.000
1626203025233826.500,-172.363,-39.551,-23.438,-233.398,1.000
1626203025237732.750,-226.074,-26.367,-30.273,13.184,1.000
1626203025241639.000,-134.766,-35.645,-41.504,-179.688,1.000
1626203025245545.250,76.172,-21.484,-22.461,129.883,1.000
1626203025249451.500,96.191,-28.320,-36.133,132.812,1.000
1626203025253357.750,-133.789,-33.691,-47.852,-179.688,1.000
1626203025257264.000,-208.984,-33.691,-44.922,-248.535,1.000
1626203025261170.250,0.977,-39.062,-35.645,37.598,1.000
1626203025265076.500,135.254,-34.668,-23.438,180.664,1.000
1626203025268982.750,-30.762,-49.805,-27.344,-50.293,1.000
1626203025272889.000,-182.129,-54.199,-41.504,-229.004,1.000
1626203025276795.250,-54.688,-37.598,-33.203,-32.227,1.000
1626203025280701.500,103.027,-20.508,-20.996,173.340,1.000
1626203025284607.750,4.395,-14.160,-23.438,-4.395,1.000
1626203025288514.000,-23.926,-22.461,-46.387,-44.434,1.000
1626203025292420.250,-166.992,-43.945,-43.945,-242.188,1.000
1626203025296326.500,-22.461,-32.715,-20.020,-35.156,1.000
1626203025300232.750,122.070,-33.691,-23.438,185.547,1.000
1626203025304139.000,11.230,-35.645,-41.992,10.254,1.000
1626203025308045.250,-163.574,-40.527,-43.457,-241.211,1.000
1626203025311951.500,-92.773,-32.227,-33.203,-118.164,1.000
1626203025315857.750,98.633,-17.578,-32.227,165.039,1.000
1626203025319764.000,81.543,-30.273,-44.922,108.887,1.000
1626203025323670.250,-121.582,-31.738,-41.992,-173.828,1.000
1626203025327576.500,-143.555,-24.902,-20.020,-175.781,1.000
1626203025331482.750,66.406,-21.973,-19.531,104.980,1.000
1626203025335389.000,115.723,-34.668,-17.090,146.484,1.000
1626203025339295.250,86.914,-52.734,-23.438,121.094,1.000
1626203025343201.500,-124.023,-62.012,-43.945,-162.598,1.000
1626203025347107.750,-166.504,-43.457,-70.312,-184.570,1.000
1626203025351014.000,34.180,-16.602,-60.059,76.660,1.000
1626203025354920.250,140.625,-20.996,-19.531,166.504,1.000
1626203025358826.500,-55.176,-25.391,-13.184,-80.078,1.000
1626203025362732.750,-211.914,-20.508,-27.832,-250.488,1.000
1626203025366639.000,-38.574,-18.555,-30.273,-27.832,1.000
1626203025370545.250,140.137,-8.301,-18.555,170.898,1.000
1626203025374451.500,13.672,-17.090,-22.949,-20.508,1.000
1626203025378357.750,-194.824,-30.273,-42.969,-251.953,1.000
1626203025382264.000,-186.035,-58.105,-17.578,-250.000,1.000
1626203025386170.250,-15.625,-25.391,-5.371,-6.348,1.000
1626203025390076.500,148.438,-20.508,-6.836,209.961,1.000
1626203025393982.750,5.859,-57.129,-30.762,-6.836,1.000
1626203025397889.000,-173.828,-39.551,-52.246,-259.277,1.000
1626203025401795.250,-72.754,-9.766,-28.809,-102.051,1.000
1626203025405701.500,129.395,-27.344,-5.859,169.922,1.000
1626203025409607.750,81.055,-41.504,-22.949,85.938,1.000
1626203025413514.000,-140.625,-40.527,-45.410,-199.707,1.000
1626203025417420.250,-120.605,-25.879,-36.621,-165.039,1.000
1626203025421326.500,71.777,-11.719,-33.203,110.352,1.000
1626203025425232.750,86.914,-24.902,-36.133,139.160,1.000
1626203025429139.000,103.027,-12.207,-13.184,112.793,1.000
1626203025433045.250,-122.559,-17.578,-19.043,-183.594,1.000
1626203025436951.500,-151.855,-31.250,-16.602,-188.965,1.000
1626203025440857.750,60.547,-31.738,-14.160,98.633,1.000
1626203025444764.000,121.094,-30.273,-20.996,160.156,1.000
1626203025448670.250,-87.402,-49.805,-38.086,-122.070,1.000
1626203025452576.500,-198.242,-48.828,-47.852,-247.070,1.000
1626203025456482.750,3.906,-7.812,-32.227,30.762,1.000
1626203025460389.000,142.090,-6.836,-20.020,201.660,1.000
1626203025464295.250,-45.898,-43.457,-37.598,-57.129,1.000
1626203025468201.500,-205.566,-41.504,-30.273,-263.672,1.000
1626203025472107.750,-54.688,-23.438,-9.277,-51.758,1.000
1626203025476014.000,-13.184,-27.832,-35.156,5.371,1.000
1626203025479920.250,125.488,-19.043,-25.879,192.383,1.000
1626203025483826.500,8.789,-10.254,-25.391,-3.418,1.000
1626203025487732.750,-157.715,-33.691,-33.691,-222.168,1.000
1626203025491639.000,-62.012,-49.805,-35.156,-71.777,1.000
1626203025495545.250,140.625,-33.203,-25.879,173.340,1.000
1626203025499451.500,62.500,-40.039,-16.113,56.641,1.000
1626203025503357.750,-141.113,-37.109,-9.766,-210.938,1.000
1626203025507264.000,-99.121,-19.531,-22.461,-145.996,1.000
1626203025511170.250,114.746,-18.066,-37.598,130.859,1.000
1626203025515076.500,114.258,-22.461,-42.480,121.094,1.000
1626203025518982.750,-121.582,-35.645,-53.711,-177.246,1.000
1626203025522889.000,-148.438,-18.555,-38.574,-205.566,1.000
1626203025526795.250,-149.902,-44.434,-28.320,-185.059,1.000
1626203025530701.500,64.941,-36.133,-15.625,110.352,1.000
1626203025534607.750,103.516,-26.367,-21.973,134.277,1.000
1626203025538514.000,-108.887,-36.621,-30.762,-172.852,1.000
1626203025542420.250,-177.246,-41.016,-23.438,-246.582,1.000
1626203025546326.500,42.969,-16.602,-14.648,58.594,1.000
1626203025550232.750,151.855,-0.977,-28.320,192.871,1.000
1626203025554139.000,-37.598,-17.578,-44.434,-79.590,1.000
1626203025558045.250,-183.105,-32.715,-34.668,-262.695,1.000
1626203025561951.500,-23.926,-28.320,-16.113,-37.598,1.000
1626203025565857.750,141.602,-21.973,-25.391,182.129,1.000
1626203025569764.000,150.391,0.000,-12.695,5.371,1.000
1626203025573670.250,-25.391,-19.531,-37.109,-252.441,1.000
1626203025577576.500,-192.383,-41.504,-31.738,-130.859,1.000
1626203025581482.750,-61.523,-54.688,-9.277,150.391,1.000
1626203025585389.000,109.863,-35.156,-14.160,76.660,1.000
1626203025589295.250,23.926,-12.695,-27.344,-211.914,1.000
1626203025593201.500,-172.852,-35.156,-39.062,-195.312,1.000
1626203025597107.750,-116.699,-37.109,-42.969,100.098,1.000
1626203025601014.000,104.004,-23.438,-40.527,169.434,1.000
1626203025604920.250,81.055,-33.691,-38.086,-102.051,1.000
1626203025608826.500,-133.789,-46.875,-35.156,-227.051,1.000
1626203025612732.750,-150.391,-49.805,-20.508,39.062,1.000
1626203025616639.000,-129.883,-33.203,-24.902,-147.461,1.000
1626203025620545.250,83.496,-26.855,-17.578,137.695,1.000
1626203025624451.500,94.238,-25.391,-15.137,128.906,1.000
1626203025628357.750,-130.371,-31.250,-34.180,-171.387,1.000
1626203025632264.000,-187.012,-40.527,-53.711,-217.285,1.000
1626203025636170.250,36.133,-33.203,-28.320,79.590,1.000
1626203025640076.500,127.441,-33.691,-10.254,171.875,1.000
1626203025643982.750,-43.457,-37.598,-29.785,-79.590,1.000
1626203025647889.000,-185.059,-43.457,-36.621,-240.723,1.000
1626203025651795.250,-29.785,-33.203,-26.855,-15.625,1.000
1626203025655701.500,125.488,-6.836,-39.062,175.781,1.000
1626203025659607.750,-18.066,-14.160,-50.781,-25.391,1.000
1626203025663514.000,-54.199,-22.461,-26.367,-72.266,1.000
1626203025667420.250,-191.406,-39.062,-28.809,-246.094,1.000
1626203025671326.500,-24.902,-54.688,-25.391,-23.438,1.000
1626203025675232.750,145.508,-53.711,-35.156,190.430,1.000
1626203025679139.000,11.230,-49.316,-38.574,9.277,1.000
1626203025683045.250,-199.707,-19.531,-45.898,-255.371,1.000
1626203025686951.500,-125.000,-2.441,-44.434,-127.930,1.000
1626203025690857.750,93.262,-18.555,-25.879,162.598,1.000
1626203025694764.000,53.223,-19.531,-15.137,82.031,1.000
1626203025698670.250,-176.758,-29.785,-28.809,-219.238,1.000
1626203025702576.500,-181.641,-45.898,-34.668,-201.660,1.000
1626203025706482.750,50.781,-42.480,-22.461,109.375,1.000
1626203025710389.000,113.770,-35.645,-16.602,163.086,1.000
1626203025714295.250,-90.332,-31.250,-31.738,-129.883,1.000
1626203025718201.500,-183.594,-22.949,-36.621,-228.027,1.000
1626203025722107.750,10.254,-17.090,-20.996,43.945,1.000
1626203025726014.000,130.859,-17.578,-28.809,178.223,1.000
1626203025729920.250,-24.902,-19.043,-29.785,-53.223,1.000
1626203025733826.500,-187.500,-41.016,-30.273,-250.488,1.000
1626203025737732.750,-62.500,-64.941,-38.086,-59.570,1.000
1626203025741639.000,119.141,-55.664,-23.438,179.688,1.000
1626203025745545.250,5.371,-51.270,-33.203,10.254,1.000
1626203025749451.500,-213.379,-45.898,-50.781,-265.625,1.000
1626203025753357.750,-140.625,-26.367,-34.668,-138.672,1.000
1626203025757264.000,101.074,-14.160,-20.996,1.000,1.000
1626203025761170.250,48.340,-35.156,-28.809,1.000,1.000
1626203025765076.500,29.785,-22.949,-46.387,1.000,1.000
1626203025768982.750,126.465,13.184,-33.203,1.000,1.000
1626203025772889.000,-75.195,-26.855,-20.508,1.000,1.000
1626203025776795.250,-201.172,-66.895,-27.832,1.000,1.000
1626203025780701.500,-21.484,-44.922,-23.438,1.000,1.000
1626203025784607.750,108.398,-29.297,-25.879,1.000,1.000
1626203025788514.000,-55.176,-36.133,-41.992,1.000,1.000
1626203025792420.250,-206.055,-31.738,-41.016,1.000,1.000
1626203025796326.500,-55.664,-19.531,-24.902,1.000,1.000
1626203025800232.750,131.348,-28.809,-25.879,1.000,1.000
1626203025804139.000,-144.043,-10.254,-32.227,86.426,1.000
1626203025808045.250,61.523,-12.207,-26.367,193.848,1.000
1626203025811951.500,91.309,-16.602,-15.137,-82.520,1.000
1626203025815857.750,-118.164,-26.367,-24.414,-247.559,1.000
1626203025819764.000,-185.059,-25.391,-30.273,-23.926,1.000
1626203025823670.250,3.906,-37.109,-32.227,184.082,1.000
1626203025827576.500,88.379,-49.316,-35.156,-4.883,1.000
1626203025831482.750,-76.172,-51.270,-32.715,-261.230,1.000
1626203025835389.000,-213.867,-39.062,-30.762,-129.395,1.000
1626203025839295.250,-73.730,-16.602,-27.832,155.273,1.000
1626203025843201.500,113.770,-13.184,-42.480,73.242,1.000
1626203025847107.750,12.207,-34.180,-56.641,-206.055,1.000
1626203025851014.000,-191.895,-52.734,-37.109,-251.465,1.000
1626203025854920.250,-127.930,-41.504,-23.438,-129.395,1.000
1626203025858826.500,100.586,-21.484,-28.809,154.297,1.000
1626203025862732.750,88.379,-26.855,-37.109,96.191,1.000
1626203025866639.000,-144.531,-37.598,-47.363,-199.707,1.000
1626203025870545.250,-200.195,-32.715,-35.645,-211.914,1.000
1626203025874451.500,32.227,-35.645,-29.785,78.125,1.000
1626203025878357.750,112.793,-29.297,-40.527,138.184,1.000
1626203025882264.000,-116.699,-39.062,-36.621,-133.789,1.000
1626203025886170.250,-207.520,-57.617,-22.949,-241.211,1.000
1626203025890076.500,3.906,-41.504,-24.902,21.973,1.000
1626203025893982.750,131.836,-15.137,-28.320,195.801,1.000
1626203025897889.000,-31.250,-24.414,-26.855,-38.574,1.000
1626203025901795.250,-208.496,-31.738,-29.785,-256.348,1.000
1626203025905701.500,-79.590,-32.227,-32.715,-62.988,1.000
1626203025909607.750,126.953,-40.039,-36.621,192.383,1.000
1626203025913514.000,35.645,-25.879,-48.340,45.410,1.000
1626203025917420.250,-182.617,-36.621,-39.062,-231.934,1.000
1626203025921326.500,-135.742,-58.105,-25.879,-137.207,1.000
1626203025925232.750,81.543,-44.434,-28.320,149.902,1.000
1626203025929139.000,78.125,-31.738,-20.508,108.887,1.000
1626203025933045.250,-121.582,-49.316,-20.020,-183.594,1.000
1626203025936951.500,-156.738,-59.082,-30.273,-201.660,1.000
1626203025940857.750,57.617,-22.461,-21.484,102.051,1.000
1626203025944764.000,131.836,-7.812,1.000,1.000,1.000
1626203025948670.250,-75.684,-24.902,1.000,1.000,1.000
1626203025952576.500,-195.801,-32.227,1.000,1.000,1.000
1626203025956482.750,1.465,-37.109,1.000,1.000,1.000
1626203025960389.000,166.992,-19.531,1.000,1.000,1.000
1626203025964295.250,20.020,-12.695,1.000,1.000,1.000
1626203025968201.500,-178.711,-38.574,1.000,1.000,1.000
1626203025972107.750,-90.332,-54.688,1.000,1.000,1.000
1626203025976014.000,113.770,-36.621,1.000,1.000,1.000
1626203025979920.250,63.477,-22.949,1.000,1.000,1.000
1626203025983826.500,-141.113,-21.484,1.000,1.000,1.000
1626203025987732.750,-118.164,-26.367,1.000,1.000,1.000
1626203025991639.000,-175.781,-32.227,-13.184,-99.121,1.000
1626203025995545.250,-36.621,-29.785,-35.645,166.992,1.000
1626203025999451.500,120.605,-43.945,-51.270,59.082,1.000
1626203026003357.750,6.348,-46.875,-47.852,-236.816,1.000
1626203026007264.000,-193.848,-19.043,-45.898,-187.500,1.000
1626203026011170.250,-118.652,-19.043,-34.668,121.582,1.000
1626203026015076.500,108.887,-25.391,-20.996,154.785,1.000
1626203026018982.750,73.242,-19.043,-32.227,-151.367,1.000
1626203026022889.000,-153.809,-47.363,-48.340,-238.281,1.000
1626203026026795.250,-154.297,-70.801,-52.246,45.410,1.000
1626203026030701.500,64.941,-50.781,-52.246,181.152,1.000
1626203026034607.750,116.699,-21.484,-45.410,-61.035,1.000
1626203026038514.000,79.102,-20.508,-14.648,112.305,1.000
1626203026042420.250,-137.695,-21.973,-43.457,-174.316,1.000
1626203026046326.500,-168.945,-41.504,-34.668,-197.754,1.000
1626203026050232.750,54.199,-20.020,-4.395,96.191,1.000
1626203026054139.000,110.352,-9.277,-11.230,163.574,1.000
1626203026058045.250,-108.887,-46.875,-27.344,-126.953,1.000
1626203026061951.500,-213.867,-56.152,-31.250,-249.023,1.000
1626203026065857.750,-12.207,-48.828,-20.508,19.043,1.000
1626203026069764.000,134.766,-49.316,-31.250,199.219,1.000
1626203026073670.250,-7.812,-15.137,-31.250,-15.625,1.000
1626203026077576.500,-178.711,-17.578,-28.320,-235.840,1.000
1626203026081482.750,-68.359,-31.250,-40.039,-71.289,1.000
1626203026085389.000,-157.227,-15.625,-36.133,-211.426,1.000
1626203026089295.250,-169.434,-11.230,-44.434,65.918,1.000
1626203026093201.500,59.082,-16.113,-27.344,186.523,1.000
1626203026097107.750,144.043,-12.695,-4.395,-70.801,1.000
1626203026101014.000,-71.777,-7.812,7.324,-266.113,1.000
1626203026104920.250,-170.898,-27.832,-8.301,-44.434,1.000
1626203026108826.500,3.418,-33.203,-31.738,183.105,1.000
1626203026112732.750,99.609,-40.039,-32.227,2.930,1.000
1626203026116639.000,-69.824,-58.105,-34.668,-250.488,1.000
1626203026120545.250,-228.516,-50.293,-42.969,-123.535,1.000
1626203026124451.500,-72.266,-53.223,-28.320,157.715,1.000
1626203026128357.750,129.395,-21.973,-19.043,91.797,1.000
1626203026132264.000,-148.438,-42.969,-41.992,63.965,1.000
1626203026136170.250,77.637,-32.227,-15.625,143.555,1.000
1626203026140076.500,95.215,-39.551,-25.391,-125.977,1.000
1626203026143982.750,-124.512,-50.293,-36.621,-247.559,1.000
1626203026147889.000,-185.547,-29.297,-21.973,0.000,1.000
1626203026151795.250,27.344,-32.227,-10.254,190.918,1.000
1626203026155701.500,131.836,-45.410,-37.109,-20.508,1.000
1626203026159607.750,-53.223,-12.695,-50.293,-269.531,1.000
1626203026163514.000,-212.402,-23.926,-44.434,-115.723,1.000
1626203026167420.250,-59.082,-41.016,-32.715,167.480,1.000
1626203026171326.500,125.488,-13.672,-16.602,58.105,1.000
1626203026175232.750,-1.953,-15.625,-26.855,-237.305,1.000
1626203026179139.000,-195.312,-41.016,-44.434,-249.023,1.000
1626203026183045.250,-79.590,-30.762,-27.344,-94.727,1.000
1626203026186951.500,131.348,-15.625,-13.184,181.641,1.000
1626203026190857.750,62.988,-34.668,-28.320,79.102,1.000
1626203026194764.000,-147.949,-67.383,-37.109,-205.566,1.000
1626203026198670.250,-144.043,-50.781,-32.227,-175.293,1.000
1626203026202576.500,72.754,-8.301,-35.645,122.070,1.000
1626203026206482.750,100.098,-14.648,-46.875,144.043,1.000
1626203026210389.000,-124.023,-39.062,-40.039,-161.621,1.000
1626203026214295.250,-199.219,-47.363,-20.996,-238.770,1.000
1626203026218201.500,8.789,-43.945,-22.949,47.363,1.000
1626203026222107.750,115.723,-45.898,-32.227,175.781,1.000
1626203026226014.000,-59.082,-43.457,-39.551,1.000,1.000
1626203026229920.250,-187.988,-22.461,-32.715,1.000,1.000
1626203026233826.500,-31.738,-4.883,-21.484,1.000,1.000
1626203026237732.750,140.137,-22.461,-21.973,1.000,1.000
1626203026241639.000,36.133,-54.688,-30.273,1.000,1.000
1626203026245545.250,-160.156,-50.293,-30.762,1.000,1.000
1626203026249451.500,-112.793,-30.273,-23.926,1.000,1.000
1626203026253357.750,79.590,-13.672,-42.480,1.000,1.000
1626203026257264.000,78.125,-19.043,-37.109,1.000,1.000
1626203026261170.250,-129.883,-53.711,-28.320,1.000,1.000
1626203026265076.500,-155.273,-42.480,-30.762,1.000,1.000
1626203026268982.750,69.336,-30.273,-12.207,1.000,1.000
1626203026272889.000,-156.250,-28.809,-18.555,-63.965,1.000
1626203026276795.250,-20.508,-37.109,-24.414,194.824,1.000
1626203026280701.500,111.328,-11.230,-30.273,65.918,1.000
1626203026284607.750,-26.855,-17.090,-51.758,-231.445,1.000
1626203026288514.000,-207.520,-30.762,-65.430,-168.945,1.000
1626203026292420.250,-103.516,-42.480,-39.551,133.301,1.000
1626203026296326.500,113.770,-35.156,-9.277,130.371,1.000
1626203026300232.750,63.965,-33.203,-25.391,-167.969,1.000
1626203026304139.000,-159.668,-35.156,-46.875,-237.793,1.000
1626203026308045.250,-156.738,-31.250,-31.250,43.457,1.000
1626203026311951.500,69.824,-30.762,-14.648,175.293,1.000
1626203026315857.750,107.422,-24.902,-13.184,-53.223,1.000
1626203026319764.000,-156.738,-15.137,-18.066,-200.195,1.000
1626203026323670.250,41.992,-37.598,-8.789,77.637,1.000
1626203026327576.500,121.582,-45.410,-10.742,175.293,1.000
1626203026331482.750,-71.289,-35.156,-23.926,-98.145,1.000
1626203026335389.000,-201.172,-26.367,-37.598,-260.254,1.000
1626203026339295.250,-33.203,-21.484,-39.551,-16.602,1.000
1626203026343201.500,135.254,-22.461,-53.711,199.707,1.000
1626203026347107.750,-7.324,-32.227,-65.430,-5.371,1.000
1626203026351014.000,-188.477,-43.457,-44.922,-242.188,1.000
1626203026354920.250,-74.219,-25.391,-26.855,-75.195,1.000
1626203026358826.500,119.141,-14.648,-19.531,183.594,1.000
1626203026362732.750,58.594,-23.926,-14.160,83.496,1.000
1626203026366639.000,-143.555,-24.414,-20.996,1.000,1.000
1626203026370545.250,-130.859,-17.090,-23.926,1.000,1.000
1626203026374451.500,87.402,-22.461,-17.578,1.000,1.000
1626203026378357.750,114.258,-51.758,-25.879,1.000,1.000
1626203026382264.000,-94.238,-53.711,-31.738,1.000,1.000
1626203026386170.250,-140.137,-36.133,-18.066,1.000,1.000
1626203026390076.500,44.434,-38.574,-33.691,1.000,1.000
1626203026393982.750,107.910,-29.785,-51.758,1.000,1.000
1626203026397889.000,-68.359,-17.090,-44.922,1.000,1.000
1626203026401795.250,-195.312,-23.926,-35.645,1.000,1.000
1626203026405701.500,-42.480,-25.879,-31.250,1.000,1.000
1626203026409607.750,130.859,-26.855,-25.391,1.000,1.000
1626203026413514.000,-146.484,-40.039,-36.133,-166.992,1.000
1626203026417420.250,78.125,-29.297,-29.785,122.559,1.000
1626203026421326.500,85.449,-20.020,-23.438,113.770,1.000
1626203026425232.750,-134.766,-39.551,-49.316,-181.152,1.000
1626203026429139.000,-186.035,-63.477,-55.176,-225.098,1.000
1626203026433045.250,23.926,-41.504,-25.879,59.570,1.000
1626203026436951.500,108.398,-22.461,-23.926,148.926,1.000
1626203026440857.750,-77.637,-33.691,-30.762,-115.723,1.000
1626203026444764.000,-198.730,-35.645,-46.875,-252.441,1.000
1626203026448670.250,-28.809,-44.922,-51.270,-12.207,1.000
1626203026452576.500,119.629,-38.574,-46.387,165.527,1.000
1626203026456482.750,-37.598,-24.902,-45.410,-36.621,1.000
1626203026460389.000,-221.680,-27.344,-40.527,-268.555,1.000
1626203026464295.250,-91.797,-18.066,-24.902,-87.891,1.000
1626203026468201.500,117.188,-21.973,-3.906,189.453,1.000
1626203026472107.750,23.438,-44.434,-20.996,52.246,1.000
1626203026476014.000,-193.848,-47.363,-43.457,-235.352,1.000
1626203026479920.250,-164.551,-38.574,-34.180,-175.781,1.000
1626203026483826.500,68.359,-18.555,-16.602,128.418,1.000
1626203026487732.750,109.375,-18.555,-12.695,153.809,1.000
1626203026491639.000,-104.980,-43.457,-26.855,-141.113,1.000
1626203026495545.250,-182.129,-41.016,-27.344,-215.332,1.000
1626203026499451.500,13.672,-22.949,-21.484,62.012,1.000
1626203026503357.750,111.328,-15.137,-32.227,169.922,1.000
1626203026507264.000,-59.082,-22.461,-40.527,1.000,1.000
1626203026511170.250,-188.965,-44.434,-41.504,1.000,1.000
1626203026515076.500,-34.668,-49.805,-35.645,1.000,1.000
1626203026518982.750,129.883,-44.434,-41.016,1.000,1.000
1626203026522889.000,4.395,-46.875,-40.039,1.000,1.000
1626203026526795.250,-178.223,-32.715,-26.855,1.000,1.000
1626203026530701.500,-72.266,-17.578,-12.207,1.000,1.000
1626203026534607.750,123.535,-20.020,2.930,1.000,1.000
1626203026538514.000,47.363,-29.785,-16.113,1.000,1.000
1626203026542420.250,-154.297,-22.461,-30.273,1.000,1.000
1626203026546326.500,-155.273,-28.809,-23.926,1.000,1.000
1626203026550232.750,57.129,-39.062,-27.344,1.000,1.000
1626203026554139.000,-69.824,-32.715,-33.691,-64.453,1.000
1626203026558045.250,119.141,-43.945,-23.438,181.641,1.000
1626203026561951.500,39.551,-38.574,-25.879,47.852,1.000
