timestamps,TP9,AF7,AF8,TP10,Right AUX
1626203038226014.000,-174.805,-37.598,-33.691,-130.371,1.000
1626203038229920.250,-61.035,-46.387,-27.344,125.488,1.000
1626203038233826.500,123.535,-43.945,-13.672,88.379,1.000
1626203038237732.750,40.039,-40.527,-28.809,-181.641,1.000
1626203038241639.000,-145.508,-40.039,-31.250,-191.895,1.000
1626203038245545.250,-115.723,-43.457,-26.367,64.941,1.000
1626203038249451.500,88.379,-42.969,-28.320,126.953,1.000
1626203038253357.750,104.980,-43.945,-29.297,-112.305,1.000
1626203038257264.000,-105.957,-47.363,-27.344,-235.840,1.000
1626203038261170.250,-154.297,-36.133,-20.996,-11.230,1.000
1626203038265076.500,37.598,-23.438,-24.414,150.879,1.000
1626203038268982.750,132.812,-32.715,-20.996,-27.832,1.000
1626203038272889.000,-41.504,-46.387,-21.973,-85.449,1.000
1626203038276795.250,-154.297,-41.016,-26.855,-218.750,1.000
1626203038280701.500,40.527,-21.484,-1.953,25.879,1.000
1626203038284607.750,187.500,-12.695,-2.441,201.660,1.000
1626203038288514.000,35.645,-15.625,-27.344,-4.883,1.000
1626203038292420.250,-168.945,-27.832,-37.598,-228.027,1.000
1626203038296326.500,-83.008,-7.324,-21.973,-74.707,1.000
1626203038300232.750,129.883,3.906,-4.883,183.594,1.000
1626203038304139.000,83.496,-30.762,-23.926,82.031,1.000
1626203038308045.250,-115.234,-45.898,-19.043,-166.016,1.000
1626203038311951.500,-124.023,-40.527,-22.949,-129.395,1.000
1626203038315857.750,71.777,-26.855,-30.273,116.211,1.000
1626203038319764.000,-197.266,-10.254,-51.758,-242.676,1.000
1626203038323670.250,-16.602,-1.953,-37.109,-3.906,1.000
1626203038327576.500,124.023,-15.137,-21.973,163.574,1.000
1626203038331482.750,-30.762,-20.996,-24.414,-36.133,1.000
1626203038335389.000,-193.848,-38.086,-30.273,-233.398,1.000
1626203038339295.250,-58.105,-47.852,-21.484,-55.176,1.000
1626203038343201.500,124.512,-30.762,-14.160,179.688,1.000
1626203038347107.750,22.949,-33.203,-31.738,42.480,1.000
1626203038351014.000,-169.434,-23.926,-43.945,-208.008,1.000
1626203038354920.250,-117.676,-0.977,-30.273,-127.441,1.000
1626203038358826.500,78.125,-7.324,-28.320,128.418,1.000
1626203038362732.750,92.285,-20.996,-23.926,116.699,1.000
1626203038366639.000,-110.840,-38.574,-27.832,1.000,1.000
1626203038370545.250,-174.805,-43.457,-38.086,1.000,1.000
1626203038374451.500,24.414,-29.785,-37.598,1.000,1.000
1626203038378357.750,97.168,-31.738,-44.434,1.000,1.000
1626203038382264.000,-62.500,-21.484,-35.645,1.000,1.000
1626203038386170.250,-163.574,-17.578,-39.062,1.000,1.000
1626203038390076.500,-7.324,-35.156,-37.598,1.000,1.000
1626203038393982.750,121.582,-33.203,-31.250,1.000,1.000
1626203038397889.000,-13.672,-27.344,-42.480,1.000,1.000
1626203038401795.250,-176.270,-35.645,-34.668,1.000,1.000
1626203038405701.500,-93.750,-27.832,-24.414,1.000,1.000
1626203038409607.750,94.727,-19.531,-27.832,1.000,1.000
1626203038413514.000,45.410,-39.551,-34.668,60.059,1.000
1626203038417420.250,-157.227,-56.152,-37.598,-194.824,1.000
1626203038421326.500,-125.977,-31.738,-28.320,-140.625,1.000
1626203038425232.750,75.195,-21.484,-27.832,120.117,1.000
1626203038429139.000,88.867,-34.668,-25.879,116.211,1.000
1626203038433045.250,-97.656,-40.527,-46.387,-145.020,1.000
1626203038436951.500,-150.879,-32.227,-76.660,-198.730,1.000
1626203038440857.750,40.527,-16.113,-45.898,65.918,1.000
1626203038444764.000,123.047,-31.738,-17.090,167.480,1.000
1626203038448670.250,-37.598,-38.086,-18.066,-61.523,1.000
1626203038452576.500,-158.203,-25.391,-20.508,-203.125,1.000
1626203038456482.750,-5.371,-13.672,-10.254,11.719,1.000
1626203038460389.000,-166.504,-5.371,-36.621,41.016,1.000
1626203038464295.250,25.391,-13.184,-58.594,165.527,1.000
1626203038468201.500,90.332,-19.531,-56.641,-58.594,1.000
1626203038472107.750,-95.703,-28.809,-33.203,-248.047,1.000
1626203038476014.000,-215.820,-39.062,-24.902,-61.035,1.000
1626203038479920.250,-75.195,-34.668,-25.879,157.715,1.000
1626203038483826.500,23.438,-38.574,-30.762,12.207,1.000
1626203038487732.750,-147.949,-41.504,-41.504,-219.238,1.000
1626203038491639.000,-336.426,-34.668,-42.480,-122.559,1.000
1626203038495545.250,-227.539,-20.996,-19.043,143.066,1.000
1626203038499451.500,-61.523,-31.738,-4.395,83.008,1.000
1626203038503357.750,-165.527,-54.199,-12.695,-194.824,1.000
1626203038507264.000,-374.512,-68.359,-27.344,-380.859,1.000
1626203038511170.250,-368.164,-74.707,-44.922,-336.914,1.000
1626203038515076.500,-195.312,-51.270,-44.922,-94.238,1.000
1626203038518982.750,-211.914,-76.660,-9.766,-132.324,1.000
1626203038522889.000,-422.363,-106.445,21.973,-412.109,1.000
1626203038526795.250,-453.613,-73.242,33.203,-428.711,1.000
1626203038530701.500,-234.863,-32.227,41.504,-131.836,1.000
1626203038534607.750,-160.645,-42.480,23.438,-52.734,1.000
1626203038538514.000,-379.883,-123.047,-20.996,-342.285,1.000
1626203038542420.250,-510.742,-144.531,-17.090,-480.469,1.000
1626203038546326.500,-303.223,-108.398,21.484,-213.867,1.000
1626203038550232.750,-103.027,-88.379,53.223,10.742,1.000
1626203038554139.000,-228.516,-114.258,39.062,1.000,1.000
1626203038558045.250,-402.344,-125.000,16.113,1.000,1.000
1626203038561951.500,-280.273,-102.539,23.926,1.000,1.000
1626203038565857.750,-83.496,-101.562,-0.488,1.000,1.000
1626203038569764.000,-97.656,-92.773,-16.113,1.000,1.000
1626203038573670.250,-260.254,-107.422,1.953,1.000,1.000
1626203038577576.500,-222.656,-115.723,15.137,1.000,1.000
1626203038581482.750,22.949,-78.613,29.785,1.000,1.000
1626203038585389.000,36.133,-77.148,23.438,1.000,1.000
1626203038589295.250,-189.941,-103.027,-2.441,1.000,1.000
1626203038593201.500,-226.562,-95.703,-11.719,1.000,1.000
1626203038597107.750,-10.742,-93.262,-6.836,1.000,1.000
1626203038601014.000,-64.941,-38.574,-20.020,205.566,1.000
1626203038604920.250,138.672,-14.648,-13.672,199.707,1.000
1626203038608826.500,102.051,-33.203,-27.832,-74.219,1.000
1626203038612732.750,-115.723,-34.668,-28.320,-131.836,1.000
1626203038616639.000,-132.324,-41.016,-48.340,151.367,1.000
1626203038620545.250,80.566,-50.293,-45.410,246.582,1.000
1626203038624451.500,146.484,-35.645,-17.090,-58.105,1.000
1626203038628357.750,-40.527,-35.645,-10.742,-216.797,1.000
1626203038632264.000,-139.648,-37.109,-22.949,15.137,1.000
1626203038636170.250,37.598,-23.438,-39.062,235.352,1.000
1626203038640076.500,136.719,-40.527,-55.664,65.918,1.000
1626203038643982.750,-10.742,-63.965,-26.855,-186.523,1.000
1626203038647889.000,-146.484,-47.852,-18.066,1.000,1.000
1626203038651795.250,-24.902,-38.086,-26.367,1.000,1.000
1626203038655701.500,147.949,-29.785,-26.855,1.000,1.000
1626203038659607.750,28.809,-37.598,-56.641,1.000,1.000
1626203038663514.000,-160.645,-21.973,-41.992,1.000,1.000
1626203038667420.250,-92.285,-14.160,-16.602,1.000,1.000
1626203038671326.500,102.539,-32.715,0.000,1.000,1.000
1626203038675232.750,98.633,-30.762,8.301,1.000,1.000
1626203038679139.000,-88.379,-37.109,-30.762,1.000,1.000
1626203038683045.250,-117.676,-50.293,-49.316,1.000,1.000
1626203038686951.500,61.523,-47.363,-21.484,1.000,1.000
1626203038690857.750,117.188,-28.320,-16.602,1.000,1.000
1626203038694764.000,-79.590,-36.133,-39.062,-93.262,1.000
1626203038698670.250,-180.176,-41.016,-41.992,-208.496,1.000
1626203038702576.500,6.348,-25.879,-28.320,36.621,1.000
1626203038706482.750,125.977,-39.551,-28.320,196.777,1.000
1626203038710389.000,-17.578,-60.059,-24.902,-3.906,1.000
1626203038714295.250,-163.086,-44.434,-31.738,-197.754,1.000
1626203038718201.500,-22.461,-16.602,-22.461,-22.949,1.000
1626203038722107.750,162.109,-13.672,-6.348,211.426,1.000
1626203038726014.000,48.828,-25.391,-28.320,68.359,1.000
1626203038729920.250,-154.785,-13.184,-47.852,-206.543,1.000
1626203038733826.500,-98.633,3.906,-53.711,-125.977,1.000
1626203038737732.750,136.230,20.020,-51.270,171.387,1.000
1626203038741639.000,-154.297,-11.230,-61.035,-202.637,1.000
1626203038745545.250,38.086,-0.977,-32.227,57.129,1.000
1626203038749451.500,173.828,-1.465,-20.996,200.195,1.000
1626203038753357.750,-10.742,-2.441,-60.059,-41.992,1.000
1626203038757264.000,-166.504,5.371,-50.293,-220.703,1.000
1626203038761170.250,-24.414,-7.812,-20.020,-20.996,1.000
1626203038765076.500,146.484,-22.949,-21.973,189.453,1.000
1626203038768982.750,41.504,-38.574,-35.645,37.109,1.000
1626203038772889.000,-159.668,-37.598,-38.574,-208.496,1.000
1626203038776795.250,-97.168,-8.301,-39.062,-100.586,1.000
1626203038780701.500,87.891,-14.648,-62.500,140.625,1.000
1626203038784607.750,79.590,-18.555,-56.152,96.680,1.000
1626203038788514.000,-113.770,-13.184,-41.504,1.000,1.000
1626203038792420.250,-153.320,-8.789,-41.992,1.000,1.000
1626203038796326.500,65.918,-35.645,-28.320,1.000,1.000
1626203038800232.750,145.020,-65.430,-22.461,1.000,1.000
1626203038804139.000,-31.250,-21.484,-22.949,1.000,1.000
1626203038808045.250,-153.320,7.812,-35.156,1.000,1.000
1626203038811951.500,-10.254,5.371,-46.387,1.000,1.000
1626203038815857.750,122.559,8.301,-39.062,1.000,1.000
1626203038819764.000,-31.738,-18.066,-38.086,1.000,1.000
1626203038823670.250,-168.945,-32.227,-21.973,1.000,1.000
1626203038827576.500,-45.898,-39.062,-6.836,1.000,1.000
1626203038831482.750,132.324,-41.504,-7.812,1.000,1.000
1626203038835389.000,53.223,-23.926,-20.996,1.000,1.000
1626203038839295.250,-162.109,-11.230,-32.227,1.000,1.000
1626203038843201.500,-112.793,-9.277,-19.531,1.000,1.000
1626203038847107.750,108.887,-12.695,-16.602,1.000,1.000
1626203038851014.000,92.285,-9.277,-30.273,1.000,1.000
1626203038854920.250,-131.836,-18.066,-36.621,1.000,1.000
1626203038858826.500,-162.598,-15.137,-37.598,1.000,1.000
1626203038862732.750,48.340,-29.297,-25.391,1.000,1.000
1626203038866639.000,108.887,-60.547,-29.297,1.000,1.000
1626203038870545.250,-85.449,-50.781,-48.340,1.000,1.000
1626203038874451.500,-186.035,-36.621,-49.316,1.000,1.000
1626203038878357.750,-6.348,-34.668,-29.297,1.000,1.000
1626203038882264.000,-129.395,-30.273,-23.438,-147.949,1.000
1626203038886170.250,71.777,-23.926,-29.297,110.840,1.000
1626203038890076.500,104.004,-22.949,-33.691,126.465,1.000
1626203038893982.750,-99.609,-42.480,-51.270,-143.066,1.000
1626203038897889.000,-169.434,-43.457,-40.039,-206.543,1.000
1626203038901795.250,17.090,-26.855,-17.090,50.293,1.000
1626203038905701.500,132.324,-18.066,-14.648,175.781,1.000
1626203038909607.750,-20.996,-26.855,-17.578,-48.340,1.000
1626203038913514.000,-175.781,-15.625,-20.996,-223.633,1.000
1626203038917420.250,-37.598,-3.418,-16.602,-24.902,1.000
1626203038921326.500,116.211,-5.371,-40.527,159.668,1.000
1626203038925232.750,-6.836,0.000,-57.617,-13.672,1.000
1626203038929139.000,-23.438,-26.855,-17.090,-242.676,1.000
1626203038933045.250,-194.336,-42.480,-41.504,-127.930,1.000
1626203038936951.500,-67.871,-44.434,-35.645,148.926,1.000
1626203038940857.750,123.047,-48.828,-31.250,100.098,1.000
1626203038944764.000,21.973,-36.621,-44.922,-182.617,1.000
1626203038948670.250,-179.688,-19.043,-40.039,-179.688,1.000
1626203038952576.500,-110.352,-30.762,-20.508,121.582,1.000
1626203038956482.750,92.285,-40.527,-17.578,180.664,1.000
1626203038960389.000,69.824,-33.203,-39.551,-128.418,1.000
1626203038964295.250,-112.305,-31.738,-53.711,-250.000,1.000
1626203038968201.500,-133.301,-43.945,-53.711,0.977,1.000
1626203038972107.750,57.129,-27.344,-42.480,166.504,1.000
1626203038976014.000,-219.238,-90.332,6.836,-170.410,1.000
1626203038979920.250,-29.785,-72.266,-2.930,82.031,1.000
1626203038983826.500,-91.309,-75.684,6.836,-13.184,1.000
1626203038987732.750,-311.035,-108.887,19.531,-297.852,1.000
1626203038991639.000,-311.035,-135.254,20.508,-266.113,1.000
1626203038995545.250,-111.328,-102.051,30.273,3.418,1.000
1626203038999451.500,-100.586,-87.891,27.344,3.418,1.000
1626203039003357.750,-295.410,-105.469,10.254,-253.906,1.000
1626203039007264.000,-349.609,-119.141,15.137,-299.316,1.000
1626203039011170.250,-145.996,-126.465,46.875,-29.785,1.000
1626203039015076.500,-38.574,-123.535,47.363,88.867,1.000
1626203039018982.750,-188.965,-106.445,27.832,-129.883,1.000
1626203039022889.000,-300.293,-99.609,31.250,1.000,1.000
1626203039026795.250,-143.555,-100.098,34.180,1.000,1.000
1626203039030701.500,26.855,-94.238,20.996,1.000,1.000
1626203039034607.750,-85.449,-106.934,12.207,1.000,1.000
1626203039038514.000,-263.672,-107.910,-3.418,1.000,1.000
1626203039042420.250,-188.965,-98.633,-12.695,1.000,1.000
1626203039046326.500,26.367,-87.891,3.906,1.000,1.000
1626203039050232.750,25.391,-68.359,12.207,1.000,1.000
1626203039054139.000,-187.988,-63.477,15.137,1.000,1.000
1626203039058045.250,-215.820,-79.590,16.602,1.000,1.000
1626203039061951.500,-13.184,-70.312,8.301,1.000,1.000
1626203039065857.750,31.250,-66.406,-0.488,1.000,1.000
1626203039069764.000,-148.438,-69.336,-12.207,-146.973,1.000
1626203039073670.250,-208.008,-71.777,-4.395,-222.168,1.000
1626203039077576.500,-30.762,-96.191,-11.230,21.973,1.000
1626203039081482.750,85.449,-83.008,-18.066,154.785,1.000
1626203039085389.000,-73.730,-69.824,-17.578,-58.594,1.000
1626203039089295.250,-218.750,-67.871,-23.926,-238.770,1.000
1626203039093201.500,-80.078,-38.086,-7.324,-58.594,1.000
1626203039097107.750,76.660,-33.203,3.418,138.672,1.000
1626203039101014.000,-22.461,-40.039,-2.441,-8.789,1.000
1626203039104920.250,-194.824,-51.270,-12.695,-223.633,1.000
1626203039108826.500,-126.953,-89.355,-24.902,-114.746,1.000
1626203039112732.750,73.730,-81.055,-13.672,144.531,1.000
1626203039116639.000,-174.805,-23.926,-51.758,-213.379,1.000
1626203039120545.250,1.465,-41.992,-45.898,39.551,1.000
1626203039124451.500,102.539,-24.902,-14.160,154.297,1.000
1626203039128357.750,-89.355,-39.551,-29.297,-105.957,1.000
1626203039132264.000,-212.402,-41.992,-34.668,-251.465,1.000
1626203039136170.250,-45.410,-26.855,-39.062,-27.344,1.000
1626203039140076.500,107.422,-30.762,-43.457,165.527,1.000
1626203039143982.750,-5.859,-38.086,-25.879,-1.465,1.000
1626203039147889.000,-210.938,-48.340,-33.691,-251.465,1.000
1626203039151795.250,-140.625,-37.109,-37.109,-135.254,1.000
1626203039155701.500,63.477,-23.438,-26.367,117.188,1.000
1626203039159607.750,28.809,-12.695,-16.602,48.340,1.000
1626203039163514.000,-176.270,-14.648,-29.785,1.000,1.000
1626203039167420.250,-165.527,-41.992,-29.785,1.000,1.000
1626203039171326.500,62.012,-50.781,-25.391,1.000,1.000
1626203039175232.750,73.730,-33.691,-41.992,1.000,1.000
1626203039179139.000,-135.742,-18.066,-10.742,1.000,1.000
1626203039183045.250,-210.449,-40.039,20.508,1.000,1.000
1626203039186951.500,-51.758,-47.363,-14.160,1.000,1.000
1626203039190857.750,26.855,-37.598,-64.453,1.000,1.000
1626203039194764.000,-112.305,-22.461,-50.781,1.000,1.000
1626203039198670.250,-224.121,-13.672,-27.344,1.000,1.000
1626203039202576.500,-93.262,-40.039,-36.621,1.000,1.000
1626203039206482.750,83.984,-53.711,-33.203,1.000,1.000
1626203039210389.000,-25.391,-30.762,-48.828,1.000,1.000
1626203039214295.250,-236.816,-29.297,-66.406,1.000,1.000
1626203039218201.500,-160.156,-43.945,-42.480,1.000,1.000
1626203039222107.750,49.805,-30.273,-26.367,1.000,1.000
1626203039226014.000,30.762,-14.160,-39.062,1.000,1.000
1626203039229920.250,-145.020,-16.602,-53.711,1.000,1.000
1626203039233826.500,-121.582,-27.344,-19.531,1.000,1.000
1626203039237732.750,71.289,-39.062,6.348,1.000,1.000
1626203039241639.000,86.914,-37.109,-27.832,1.000,1.000
1626203039245545.250,-110.840,-18.555,-45.898,1.000,1.000
1626203039249451.500,-212.891,-31.250,-52.734,1.000,1.000
1626203039253357.750,-12.207,-27.832,-48.340,1.000,1.000
1626203039257264.000,-61.523,-6.836,-8.301,83.008,1.000
1626203039261170.250,118.164,-17.578,-29.297,173.340,1.000
1626203039265076.500,88.867,-38.574,-33.691,-57.129,1.000
1626203039268982.750,-127.930,-47.852,-36.133,-185.547,1.000
1626203039272889.000,-158.203,-27.344,-19.043,20.996,1.000
1626203039276795.250,58.105,-7.324,6.348,187.500,1.000
1626203039280701.500,130.859,-17.578,-14.648,-17.578,1.000
1626203039284607.750,-29.785,-25.391,-26.855,-238.281,1.000
1626203039288514.000,-159.668,-32.715,-40.039,-69.336,1.000
1626203039292420.250,-5.859,-50.293,-34.180,189.453,1.000
1626203039296326.500,160.156,-52.246,-18.066,75.684,1.000
1626203039300232.750,-1.465,-22.949,-35.645,-170.898,1.000
1626203039304139.000,-57.129,-22.949,-40.527,-50.293,1.000
1626203039308045.250,104.004,-24.414,-23.438,170.898,1.000
1626203039311951.500,49.805,-11.719,-1.953,60.547,1.000
1626203039315857.750,-129.395,-32.227,-9.277,-191.895,1.000
1626203039319764.000,-92.773,-45.898,-21.484,-127.930,1.000
1626203039323670.250,81.543,-29.785,-40.039,113.281,1.000
1626203039327576.500,60.547,-12.207,-40.527,81.543,1.000
1626203039331482.750,-110.840,-2.441,-36.133,-166.992,1.000
1626203039335389.000,-163.574,-25.879,-68.848,-207.520,1.000
1626203039339295.250,23.926,-42.969,-62.012,63.477,1.000
1626203039343201.500,105.469,-47.363,-36.133,152.344,1.000
1626203039347107.750,-70.312,-49.316,-14.160,-96.680,1.000
1626203039351014.000,-131.348,-44.434,-54.688,-209.961,1.000
1626203039354920.250,-192.871,-30.273,-48.340,18.555,1.000
1626203039358826.500,28.809,7.324,-28.809,192.871,1.000
1626203039362732.750,127.441,14.160,-24.902,-11.230,1.000
1626203039366639.000,-40.527,-17.578,-38.086,-242.188,1.000
1626203039370545.250,-179.199,-44.434,-41.992,-85.938,1.000
1626203039374451.500,-36.621,-32.227,-23.438,173.828,1.000
1626203039378357.750,145.996,-21.973,0.000,69.824,1.000
1626203039382264.000,9.766,-48.828,-41.016,-202.637,1.000
1626203039386170.250,-182.617,-51.758,-77.637,-143.555,1.000
1626203039390076.500,-87.402,-27.344,-46.875,141.113,1.000
1626203039393982.750,133.301,-9.766,1.465,132.812,1.000
1626203039397889.000,12.695,11.719,-6.836,162.109,1.000
1626203039401795.250,95.215,-56.152,-26.855,-10.254,1.000
1626203039405701.500,-47.363,-61.523,-38.086,-254.883,1.000
1626203039409607.750,-177.734,-20.996,-29.297,-142.090,1.000
1626203039413514.000,-63.965,-8.789,-27.344,133.301,1.000
1626203039417420.250,97.168,-20.508,-67.871,84.473,1.000
1626203039421326.500,-1.953,-52.246,-71.777,-159.668,1.000
1626203039425232.750,-194.824,-44.922,-37.109,-144.531,1.000
1626203039429139.000,-137.695,-20.020,-27.344,92.773,1.000
1626203039433045.250,93.750,-22.461,-24.414,129.883,1.000
1626203039436951.500,84.473,-31.738,-38.086,-136.230,1.000
1626203039440857.750,-157.227,-57.129,-49.805,-215.332,1.000
1626203039444764.000,-133.301,-30.273,-15.625,-204.102,1.000
1626203039448670.250,-127.441,-24.414,-37.598,99.609,1.000
1626203039452576.500,77.637,-19.043,-29.297,170.898,1.000
1626203039456482.750,71.289,-35.645,-37.598,-121.582,1.000
1626203039460389.000,-119.629,-52.734,-46.875,-261.719,1.000
1626203039464295.250,-164.062,-70.312,-53.223,-11.719,1.000
1626203039468201.500,16.113,-66.406,-43.945,162.598,1.000
1626203039472107.750,124.023,-18.555,-14.160,-35.156,1.000
1626203039476014.000,-57.129,-6.836,-16.602,-250.000,1.000
1626203039479920.250,-193.848,-16.113,-13.184,-79.102,1.000
1626203039483826.500,-32.715,-27.832,-13.672,171.875,1.000
1626203039487732.750,134.277,-22.461,-18.066,80.566,1.000
1626203039491639.000,-83.984,-22.461,5.859,84.961,1.000
1626203039495545.250,86.426,-37.109,-25.879,130.859,1.000
1626203039499451.500,53.223,-51.758,-44.434,-117.188,1.000
1626203039503357.750,-154.297,-28.809,-33.203,-225.098,1.000
1626203039507264.000,-134.277,-0.977,-14.160,22.949,1.000
1626203039511170.250,106.934,-8.301,-2.441,180.176,1.000
1626203039515076.500,132.812,-22.461,-10.254,-36.133,1.000
1626203039518982.750,-80.566,-27.344,-38.574,-214.844,1.000
1626203039522889.000,-189.941,-30.762,-57.617,-55.176,1.000
1626203039526795.250,16.113,-15.137,-20.996,168.457,1.000
1626203039530701.500,145.020,-6.836,-16.602,27.344,1.000
1626203039534607.750,-14.160,3.418,-31.738,-199.707,1.000
1626203039538514.000,-166.504,-26.367,-39.062,-224.121,1.000
1626203039542420.250,-64.453,-54.688,-32.227,-65.430,1.000
1626203039546326.500,145.996,-6.348,4.883,190.918,1.000
1626203039550232.750,63.477,-2.441,-19.531,48.828,1.000
1626203039554139.000,-178.223,-29.297,-48.828,-250.488,1.000
1626203039558045.250,-140.625,-33.203,-32.227,-169.434,1.000
1626203039561951.500,85.938,-31.250,-18.066,133.301,1.000
1626203039565857.750,92.285,-24.414,-38.574,122.559,1.000
1626203039569764.000,-126.953,-37.109,-58.105,-170.410,1.000
1626203039573670.250,-161.621,-52.734,-33.203,-198.242,1.000
1626203039577576.500,41.504,-48.340,-20.996,78.613,1.000
1626203039581482.750,122.559,-31.738,-20.996,165.039,1.000
1626203039585389.000,-182.617,-44.434,-37.109,-67.871,1.000
1626203039589295.250,-30.762,-29.785,-57.617,160.156,1.000
1626203039593201.500,105.957,-21.973,-53.223,4.883,1.000
1626203039597107.750,-34.180,-28.320,-35.645,-231.934,1.000
1626203039601014.000,-200.195,-46.875,-29.297,-125.977,1.000
1626203039604920.250,-78.613,-43.457,-22.949,125.000,1.000
1626203039608826.500,93.750,-22.949,-27.832,82.031,1.000
1626203039612732.750,-5.371,-32.715,-37.598,-179.688,1.000
1626203039616639.000,-214.844,-58.594,-51.270,-201.172,1.000
1626203039620545.250,-136.230,-30.273,-44.922,69.336,1.000
1626203039624451.500,109.863,-31.250,-41.016,129.395,1.000
1626203039628357.750,97.656,-63.477,-43.945,-123.535,1.000
1626203039632264.000,-120.117,-44.922,-20.020,-166.992,1.000
1626203039636170.250,-152.832,-13.672,-1.465,-193.359,1.000
1626203039640076.500,59.570,2.930,0.000,87.891,1.000
1626203039643982.750,119.629,-13.672,-15.625,150.879,1.000
1626203039647889.000,-72.754,-27.344,-24.902,-115.723,1.000
1626203039651795.250,-171.875,-35.645,-20.020,-237.793,1.000
1626203039655701.500,21.973,-38.086,-7.324,27.832,1.000
1626203039659607.750,163.086,-11.719,-32.715,213.379,1.000
1626203039663514.000,-13.672,-19.531,-69.336,-27.344,1.000
1626203039667420.250,-188.965,-25.879,-39.551,-250.000,1.000
1626203039671326.500,-88.867,-28.320,-31.738,-94.727,1.000
1626203039675232.750,96.680,-30.762,-33.203,145.020,1.000
1626203039679139.000,30.273,-14.648,-24.902,167.969,1.000
1626203039683045.250,145.508,-30.273,-27.344,3.418,1.000
1626203039686951.500,-30.762,-25.879,-45.410,-208.008,1.000
1626203039690857.750,-177.734,-22.949,-40.039,-88.867,1.000
1626203039694764.000,-27.344,-4.883,-1.465,158.203,1.000
1626203039698670.250,133.789,-19.043,3.906,71.777,1.000
1626203039702576.500,7.812,-71.777,-20.996,-203.613,1.000
1626203039706482.750,-173.828,-49.316,-23.438,-145.020,1.000
1626203039710389.000,-100.586,-21.973,-31.738,124.512,1.000
1626203039714295.250,105.957,-38.086,-55.176,108.398,1.000
1626203039718201.500,95.215,-27.344,-39.551,-187.012,1.000
1626203039722107.750,-122.559,-16.602,-11.719,-234.863,1.000
1626203039726014.000,-171.875,-31.250,-16.602,-195.312,1.000
1626203039729920.250,25.391,-34.180,-26.855,69.824,1.000
1626203039733826.500,108.398,-12.695,-10.254,139.648,1.000
1626203039737732.750,-67.871,-20.996,-16.602,-115.723,1.000
1626203039741639.000,-158.691,-36.621,-29.297,-211.914,1.000
1626203039745545.250,27.344,-35.156,-21.973,50.781,1.000
1626203039749451.500,162.109,-18.555,-7.812,210.938,1.000
1626203039753357.750,3.418,1.953,-26.367,-17.090,1.000
1626203039757264.000,-179.688,-23.926,-39.551,-230.957,1.000
1626203039761170.250,-69.824,-65.918,-20.996,-56.152,1.000
1626203039765076.500,113.281,-51.758,-25.391,178.223,1.000
1626203039768982.750,44.434,-21.973,-20.996,52.734,1.000
1626203039772889.000,-167.480,-25.879,-17.578,1.000,1.000
1626203039776795.250,-147.461,-23.926,-17.090,1.000,1.000
1626203039780701.500,47.363,-29.297,-22.949,1.000,1.000
1626203039784607.750,24.902,-35.156,-44.922,1.000,1.000
1626203039788514.000,-155.762,-36.621,-38.574,1.000,1.000
1626203039792420.250,-168.945,-38.574,-39.062,1.000,1.000
1626203039796326.500,15.625,-39.551,-33.691,1.000,1.000
1626203039800232.750,83.496,-28.809,-11.719,1.000,1.000
1626203039804139.000,-109.375,-39.551,-28.320,1.000,1.000
1626203039808045.250,-229.004,-49.805,-36.621,1.000,1.000
1626203039811951.500,-57.617,-37.598,-17.578,1.000,1.000
1626203039815857.750,82.031,-41.504,-19.043,1.000,1.000
1626203039819764.000,104.492,-34.668,-20.996,142.578,1.000
1626203039823670.250,104.980,-38.086,-14.160,132.324,1.000
1626203039827576.500,-110.840,-59.082,-19.531,-161.621,1.000
1626203039831482.750,-170.410,-57.617,-32.715,-233.887,1.000
1626203039835389.000,11.230,-18.555,-35.156,29.297,1.000
1626203039839295.250,107.422,12.695,-27.344,145.508,1.000
1626203039843201.500,-68.359,-10.254,-23.438,-100.586,1.000
1626203039847107.750,-196.777,-38.086,-19.043,-249.512,1.000
1626203039851014.000,-48.340,-34.668,-25.391,-38.086,1.000
1626203039854920.250,119.141,-36.621,-35.645,181.641,1.000
1626203039858826.500,7.324,-48.828,-42.480,15.625,1.000
1626203039862732.750,-183.594,-58.105,-40.527,-237.793,1.000
1626203039866639.000,-118.652,-44.922,-38.086,1.000,1.000
1626203039870545.250,73.730,-29.297,-45.410,1.000,1.000
1626203039874451.500,40.039,-45.898,-52.246,1.000,1.000
1626203039878357.750,-146.484,-27.344,-42.480,1.000,1.000
1626203039882264.000,-138.672,-12.207,-38.086,1.000,1.000
1626203039886170.250,69.336,-30.762,-45.410,1.000,1.000
1626203039890076.500,116.211,-34.180,-45.898,1.000,1.000
1626203039893982.750,-79.590,-36.133,-48.340,1.000,1.000
1626203039897889.000,-157.715,-31.738,-33.203,1.000,1.000
1626203039901795.250,30.762,-34.180,-10.742,1.000,1.000
1626203039905701.500,146.973,-3.906,-20.508,1.000,1.000
1626203039909607.750,-40.039,1.465,-41.992,1.000,1.000
1626203039913514.000,-212.891,-31.250,-44.434,1.000,1.000
1626203039917420.250,-59.570,-26.855,-31.738,1.000,1.000
1626203039921326.500,149.414,-18.066,-25.879,1.000,1.000
1626203039925232.750,37.598,-37.109,-41.992,1.000,1.000
1626203039929139.000,-177.734,-30.762,-60.547,1.000,1.000
1626203039933045.250,-103.027,-6.348,-47.852,1.000,1.000
1626203039936951.500,108.887,-8.301,-11.230,1.000,1.000
1626203039940857.750,87.891,-9.277,6.348,1.000,1.000
1626203039944764.000,-114.746,-31.250,-9.277,1.000,1.000
1626203039948670.250,-159.668,-50.781,-33.691,1.000,1.000
1626203039952576.500,21.484,-28.809,-38.574,1.000,1.000
1626203039956482.750,103.516,-15.625,-28.809,1.000,1.000
1626203039960389.000,-156.250,-16.113,-23.438,-206.055,1.000
1626203039964295.250,29.297,-6.836,-15.137,45.410,1.000
1626203039968201.500,130.859,-8.789,-32.715,178.711,1.000
1626203039972107.750,-16.602,-24.902,-17.578,-40.527,1.000
1626203039976014.000,-126.953,-41.504,5.371,-189.941,1.000
1626203039979920.250,-12.207,-39.551,-19.043,-5.371,1.000
1626203039983826.500,115.723,-19.531,-22.949,173.340,1.000
1626203039987732.750,19.531,-18.555,-6.348,12.207,1.000
1626203039991639.000,-169.434,-26.855,-24.414,-239.746,1.000
1626203039995545.250,-109.863,-36.621,-34.668,-125.000,1.000
1626203039999451.500,101.074,-27.344,-22.949,146.484,1.000
1626203040003357.750,62.988,-31.250,-28.809,71.289,1.000
1626203040007264.000,-147.949,-41.016,-43.457,1.000,1.000
1626203040011170.250,-147.949,-26.367,-46.875,1.000,1.000
1626203040015076.500,69.824,-9.277,-24.902,1.000,1.000
1626203040018982.750,90.820,-30.762,-12.695,1.000,1.000
1626203040022889.000,-118.652,-48.340,-22.461,1.000,1.000
1626203040026795.250,-195.312,-66.895,-31.738,1.000,1.000
1626203040030701.500,-12.207,-77.148,-24.902,1.000,1.000
1626203040034607.750,114.746,-37.598,-32.227,1.000,1.000
1626203040038514.000,-44.922,-12.207,-63.477,1.000,1.000
1626203040042420.250,-206.055,-21.973,-56.152,1.000,1.000
1626203040046326.500,-88.379,-43.945,-38.574,1.000,1.000
1626203040050232.750,104.004,-46.387,-17.578,1.000,1.000
1626203040054139.000,52.734,-0.488,-23.926,155.273,1.000
1626203040058045.250,120.117,-16.602,-48.340,-62.988,1.000
1626203040061951.500,-71.777,-28.809,-59.082,-269.043,1.000
1626203040065857.750,-186.523,-28.320,-57.617,-79.102,1.000
1626203040069764.000,6.348,-11.230,-30.762,185.059,1.000
1626203040073670.250,149.414,-15.625,-14.648,62.012,1.000
1626203040077576.500,-7.812,-37.598,-39.551,-220.215,1.000
1626203040081482.750,-190.918,-60.059,-42.480,-151.855,1.000
1626203040085389.000,-74.219,-59.082,-17.578,127.441,1.000
1626203040089295.250,128.418,-37.598,-2.930,113.281,1.000
1626203040093201.500,46.387,-38.574,-12.207,-157.227,1.000
1626203040097107.750,-185.059,-46.875,-35.645,-188.477,1.000
1626203040101014.000,-167.969,-30.273,-45.898,-188.477,1.000
1626203040104920.250,56.641,-25.879,-36.621,107.422,1.000
1626203040108826.500,85.938,-53.711,-40.039,122.559,1.000
1626203040112732.750,-115.723,-71.289,-57.617,-161.621,1.000
1626203040116639.000,-163.574,-44.434,-48.828,-212.891,1.000
1626203040120545.250,40.527,-3.418,-40.039,68.359,1.000
1626203040124451.500,164.062,9.766,-34.180,209.473,1.000
1626203040128357.750,-16.602,-42.480,-26.367,-50.293,1.000
1626203040132264.000,-219.727,-70.312,-40.527,-283.203,1.000
1626203040136170.250,-88.867,-31.738,-35.645,-75.684,1.000
1626203040140076.500,91.797,-10.742,-27.832,155.762,1.000
1626203040143982.750,-1.465,-15.137,-26.855,6.348,1.000
1626203040147889.000,-169.922,-26.855,-22.949,1.000,1.000
1626203040151795.250,-84.961,-20.020,-43.945,1.000,1.000
1626203040155701.500,128.418,-16.113,-54.688,1.000,1.000
1626203040159607.750,84.961,-27.832,-42.480,1.000,1.000
1626203040163514.000,-120.605,-12.207,-17.578,1.000,1.000
1626203040167420.250,-127.930,-20.996,2.930,1.000,1.000
1626203040171326.500,55.664,-35.645,-8.301,1.000,1.000
1626203040175232.750,85.449,-20.020,-25.879,1.000,1.000
1626203040179139.000,-118.164,-37.598,-52.734,1.000,1.000
1626203040183045.250,-191.895,-51.758,-45.410,1.000,1.000
1626203040186951.500,11.719,-30.273,-24.414,1.000,1.000
1626203040190857.750,125.977,-24.414,-42.480,1.000,1.000
1626203040194764.000,-59.082,-36.133,-7.812,129.883,1.000
1626203040198670.250,119.141,-41.504,-32.715,110.840,1.000
1626203040202576.500,56.641,-24.414,-49.316,-150.879,1.000
1626203040206482.750,-148.926,-11.230,-34.668,-174.805,1.000
1626203040210389.000,-108.887,-12.695,-3.418,96.191,1.000
1626203040214295.250,104.004,-14.648,-4.395,165.527,1.000
1626203040218201.500,98.145,-23.438,-30.273,-108.398,1.000
1626203040222107.750,-124.512,-31.738,-46.875,-235.840,1.000
1626203040226014.000,-192.871,-42.969,-41.992,6.836,1.000
1626203040229920.250,17.090,-52.246,-23.438,182.617,1.000
1626203040233826.500,127.930,-23.926,-16.113,-18.555,1.000
1626203040237732.750,-61.035,-13.672,-38.574,-225.098,1.000
1626203040241639.000,-198.242,-25.391,-52.246,1.000,1.000
1626203040245545.250,-24.902,-32.227,-30.762,1.000,1.000
1626203040249451.500,131.348,-34.180,-27.832,1.000,1.000
1626203040253357.750,9.766,-26.855,-35.156,1.000,1.000
1626203040257264.000,-166.016,-20.996,-37.109,1.000,1.000
1626203040261170.250,-92.285,-21.484,-36.621,1.000,1.000
1626203040265076.500,94.238,-36.621,-24.902,1.000,1.000
1626203040268982.750,40.527,-46.875,-35.156,1.000,1.000
1626203040272889.000,-161.621,-49.316,-49.805,1.000,1.000
1626203040276795.250,-158.203,-41.504,-44.434,1.000,1.000
1626203040280701.500,42.480,-10.254,-38.574,1.000,1.000
1626203040284607.750,98.633,-3.906,-22.461,1.000,1.000
1626203040288514.000,0.000,0.488,-10.742,21.484,1.000
1626203040292420.250,127.930,-24.902,-33.691,174.316,1.000
1626203040296326.500,-24.414,-42.480,-49.316,-39.551,1.000
1626203040300232.750,-176.270,-31.738,-51.270,-238.770,1.000
1626203040304139.000,-64.941,-21.484,-45.410,-70.801,1.000
1626203040308045.250,124.023,-14.648,-43.945,181.641,1.000
1626203040311951.500,41.992,-49.316,-55.664,52.246,1.000
1626203040315857.750,-166.504,-57.617,-33.203,-216.797,1.000
1626203040319764.000,-125.977,-25.879,-4.883,-138.672,1.000
1626203040323670.250,80.078,-25.391,-3.418,140.137,1.000
1626203040327576.500,84.473,-23.438,-8.789,127.930,1.000
1626203040331482.750,-114.258,-13.184,-15.625,-147.949,1.000
1626203040335389.000,-157.227,-31.738,-31.250,1.000,1.000
1626203040339295.250,47.852,-54.688,-30.273,1.000,1.000
1626203040343201.500,124.023,-43.457,-38.086,1.000,1.000
1626203040347107.750,-40.039,-9.766,-32.227,1.000,1.000
1626203040351014.000,-165.039,-20.508,-20.508,1.000,1.000
1626203040354920.250,-50.293,-47.852,-33.691,1.000,1.000
1626203040358826.500,93.750,-32.227,-25.391,1.000,1.000
1626203040362732.750,-8.301,-15.625,-25.391,1.000,1.000
1626203040366639.000,-174.805,-27.344,-59.082,1.000,1.000
1626203040370545.250,-82.031,-32.227,-49.316,1.000,1.000
1626203040374451.500,119.141,-6.836,-12.207,1.000,1.000
1626203040378357.750,76.172,-4.395,0.977,1.000,1.000
1626203040382264.000,-137.207,-35.156,-18.066,1.000,1.000
1626203040386170.250,-124.512,-32.715,-20.508,1.000,1.000
1626203040390076.500,108.398,-41.016,-5.859,1.000,1.000
1626203040393982.750,113.281,-73.730,-33.203,1.000,1.000
1626203040397889.000,-119.629,-44.922,-74.707,1.000,1.000
1626203040401795.250,-174.805,4.883,-63.477,1.000,1.000
1626203040405701.500,35.156,12.207,-12.207,1.000,1.000
1626203040409607.750,128.906,-7.812,-5.371,1.000,1.000
1626203040413514.000,-57.129,-15.137,-30.762,1.000,1.000
1626203040417420.250,-198.730,-27.832,-30.273,1.000,1.000
1626203040421326.500,-53.223,-33.203,-19.043,1.000,1.000
1626203040425232.750,113.281,-19.531,-18.066,1.000,1.000
1626203040429139.000,46.387,-39.551,-4.395,162.598,1.000
1626203040433045.250,111.328,-15.625,-5.859,-47.363,1.000
1626203040436951.500,-73.242,-43.945,-36.133,-241.211,1.000
1626203040440857.750,-169.922,-75.195,-36.621,-53.223,1.000
1626203040444764.000,-12.695,-39.062,-25.391,189.941,1.000
1626203040448670.250,128.418,9.277,-4.395,40.527,1.000
1626203040452576.500,-15.625,-19.043,-8.301,-224.609,1.000
1626203040456482.750,-186.523,-36.133,-29.297,-134.277,1.000
1626203040460389.000,-66.406,-19.043,-20.508,149.902,1.000
1626203040464295.250,126.465,-11.719,-19.531,100.586,1.000
1626203040468201.500,31.250,-27.832,-44.922,-187.012,1.000
1626203040472107.750,-183.105,-45.410,-46.875,-201.172,1.000
1626203040476014.000,-123.535,-31.738,-19.043,1.000,1.000
1626203040479920.250,84.961,-24.902,-20.508,1.000,1.000
1626203040483826.500,68.359,-33.203,-45.898,1.000,1.000
1626203040487732.750,-133.789,-40.527,-41.504,1.000,1.000
1626203040491639.000,-166.504,-33.691,-23.438,1.000,1.000
1626203040495545.250,28.809,-29.785,-21.973,1.000,1.000
1626203040499451.500,107.422,-15.625,-24.902,1.000,1.000
1626203040503357.750,-60.547,0.488,-25.879,1.000,1.000
1626203040507264.000,-178.711,-18.066,-29.785,1.000,1.000
1626203040511170.250,-33.691,-27.344,-42.969,1.000,1.000
1626203040515076.500,102.051,-26.855,-53.711,1.000,1.000
1626203040518982.750,-17.090,-46.875,-56.641,1.000,1.000
1626203040522889.000,88.867,-28.320,-18.066,149.902,1.000
1626203040526795.250,76.172,-14.648,-31.738,100.586,1.000
1626203040530701.500,-139.648,-23.438,-44.434,-187.012,1.000
1626203040534607.750,-175.293,-22.949,-43.457,-197.754,1.000
1626203040538514.000,23.926,-27.832,-47.852,80.078,1.000
1626203040542420.250,99.609,-37.109,-40.527,154.297,1.000
1626203040546326.500,-73.730,-39.062,-37.109,-98.145,1.000
1626203040550232.750,-179.688,-38.086,-30.762,-218.750,1.000
1626203040554139.000,-8.301,-25.391,-16.113,20.996,1.000
1626203040558045.250,122.070,-37.598,-20.020,176.270,1.000
1626203040561951.500,-22.461,-33.691,-24.414,-34.180,1.000
1626203040565857.750,-171.387,-41.992,-25.879,-228.516,1.000
1626203040569764.000,-53.711,-36.133,-38.574,1.000,1.000
1626203040573670.250,104.492,-3.418,-55.664,1.000,1.000
1626203040577576.500,13.672,-13.672,-53.711,1.000,1.000
1626203040581482.750,-184.082,-36.133,-50.293,1.000,1.000
1626203040585389.000,-121.094,-31.738,-36.133,1.000,1.000
1626203040589295.250,102.051,-21.484,-20.996,1.000,1.000
1626203040593201.500,91.797,-32.227,-28.809,1.000,1.000
1626203040597107.750,-110.840,-43.945,-28.320,1.000,1.000
1626203040601014.000,-149.902,-37.109,-29.785,1.000,1.000
1626203040604920.250,62.500,-22.461,-22.461,1.000,1.000
1626203040608826.500,132.324,-23.438,-17.090,1.000,1.000
1626203040612732.750,-79.590,-25.391,-25.879,1.000,1.000
1626203040616639.000,-196.777,-35.156,-40.039,-244.629,1.000
1626203040620545.250,-15.137,-25.391,-33.691,-0.977,1.000
1626203040624451.500,140.625,-3.418,-11.230,194.336,1.000
1626203040628357.750,-5.371,-3.906,-18.555,-6.348,1.000
1626203040632264.000,-176.270,-1.465,-31.250,-225.098,1.000
1626203040636170.250,-71.777,-23.926,-20.996,-65.918,1.000
1626203040640076.500,103.027,-54.199,-28.809,167.480,1.000
1626203040643982.750,22.461,-40.039,-45.898,40.527,1.000
1626203040647889.000,-176.758,-18.555,-41.504,-227.539,1.000
1626203040651795.250,-126.465,-33.203,-42.969,-144.043,1.000
1626203040655701.500,92.773,-37.598,-44.434,149.414,1.000
1626203040659607.750,98.633,-33.691,-26.367,130.859,1.000
1626203040663514.000,132.324,-8.789,-26.855,82.031,1.000
1626203040667420.250,26.367,-25.391,-31.250,-214.355,1.000
1626203040671326.500,-150.879,-44.434,-52.246,-186.035,1.000
1626203040675232.750,-53.223,-23.926,-56.641,117.188,1.000
1626203040679139.000,146.484,-35.645,-12.695,131.348,1.000
1626203040683045.250,82.520,-62.012,5.859,-155.762,1.000
1626203040686951.500,-157.715,-56.152,-17.090,-226.074,1.000
1626203040690857.750,-146.973,-17.578,-9.277,30.273,1.000
1626203040694764.000,82.520,1.953,-0.488,167.480,1.000
1626203040698670.250,102.051,-27.832,-40.527,-62.012,1.000
1626203040702576.500,-101.562,-34.180,-63.965,-250.977,1.000
1626203040706482.750,-171.387,-11.230,-49.805,-48.340,1.000
1626203040710389.000,-6.836,-32.715,-34.180,18.066,1.000
1626203040714295.250,103.516,-44.434,-21.973,147.461,1.000
1626203040718201.500,-36.133,-36.133,-14.160,-61.035,1.000
1626203040722107.750,-198.730,-66.895,-28.320,-248.535,1.000
1626203040726014.000,-52.246,-51.758,-33.203,-48.340,1.000
1626203040729920.250,156.250,-15.625,-21.973,205.566,1.000
1626203040733826.500,50.293,-37.598,-29.785,45.410,1.000
1626203040737732.750,-152.344,-44.434,-30.273,-232.422,1.000
1626203040741639.000,-98.145,-32.715,-24.902,-135.742,1.000
1626203040745545.250,111.328,-23.926,-43.945,145.996,1.000
1626203040749451.500,85.938,-31.738,-55.176,95.703,1.000
1626203040753357.750,-140.625,-48.828,-39.551,-197.266,1.000
1626203040757264.000,-170.410,-41.504,-30.762,1.000,1.000
1626203040761170.250,39.551,-28.809,-41.016,1.000,1.000
1626203040765076.500,120.605,-14.160,-38.086,1.000,1.000
1626203040768982.750,-62.500,-22.949,-41.504,1.000,1.000
1626203040772889.000,-180.664,-50.293,-41.504,1.000,1.000
1626203040776795.250,-8.301,-36.133,-25.879,1.000,1.000
1626203040780701.500,131.348,-21.484,-40.527,1.000,1.000
1626203040784607.750,-27.832,-47.852,-59.082,1.000,1.000
1626203040788514.000,-202.637,-46.387,-48.340,1.000,1.000
1626203040792420.250,-93.750,-25.879,-33.691,1.000,1.000
1626203040796326.500,89.844,-21.484,-31.250,1.000,1.000
1626203040800232.750,31.250,-9.766,-20.508,1.000,1.000
1626203040804139.000,85.938,0.000,-10.254,128.906,1.000
1626203040808045.250,102.051,-19.043,-32.715,137.695,1.000
1626203040811951.500,-102.539,-34.180,-32.715,-140.137,1.000
1626203040815857.750,-172.363,-42.480,-34.668,-221.680,1.000
1626203040819764.000,18.555,-61.035,-29.785,41.992,1.000
1626203040823670.250,123.047,-46.875,-28.320,176.758,1.000
1626203040827576.500,-53.223,-30.762,-41.016,-65.430,1.000
1626203040831482.750,-190.918,-26.367,-26.855,-235.352,1.000
1626203040835389.000,-51.270,-26.855,-8.301,-38.086,1.000
1626203040839295.250,117.676,-26.855,-12.695,175.293,1.000
1626203040843201.500,20.996,-28.809,-33.203,25.391,1.000
1626203040847107.750,-177.246,-40.039,-46.875,-225.586,1.000
1626203040851014.000,-102.539,-36.621,-29.297,1.000,1.000
1626203040854920.250,118.652,-25.879,-14.648,1.000,1.000
1626203040858826.500,98.145,-9.277,-27.344,1.000,1.000
1626203040862732.750,-120.605,-12.695,-54.688,1.000,1.000
1626203040866639.000,-136.230,-30.762,-31.738,1.000,1.000
1626203040870545.250,70.801,-20.508,-12.695,1.000,1.000
1626203040874451.500,104.980,-26.367,-30.273,1.000,1.000
1626203040878357.750,-88.867,-46.875,-38.574,1.000,1.000
1626203040882264.000,-174.316,-51.758,-41.992,1.000,1.000
1626203040886170.250,-7.324,-43.945,-27.832,1.000,1.000
1626203040890076.500,108.398,-3.906,-30.762,1.000,1.000
1626203040893982.750,-34.668,-27.832,-35.645,1.000,1.000
1626203040897889.000,102.051,-28.320,-20.508,169.434,1.000
1626203040901795.250,63.965,-41.504,-34.668,86.914,1.000
1626203040905701.500,-126.465,-33.203,-39.551,-182.129,1.000
1626203040909607.750,-118.164,-13.184,-24.902,-147.949,1.000
1626203040913514.000,80.078,-17.090,-31.250,122.559,1.000
1626203040917420.250,89.844,-16.113,-46.875,126.953,1.000
1626203040921326.500,-117.188,-26.855,-37.109,-151.367,1.000
1626203040925232.750,-191.895,-38.086,-16.113,-233.398,1.000
1626203040929139.000,-0.977,-17.090,-2.930,29.785,1.000
1626203040933045.250,121.094,-20.020,-3.418,171.875,1.000
1626203040936951.500,-44.434,-42.969,-16.113,-65.918,1.000
1626203040940857.750,-171.875,-33.203,-12.207,-226.074,1.000
1626203040944764.000,-18.066,-9.766,-7.324,1.000,1.000
1626203040948670.250,137.207,-25.879,-13.184,1.000,1.000
1626203040952576.500,13.184,-44.434,-33.691,1.000,1.000
1626203040956482.750,-175.293,-30.762,-48.340,1.000,1.000
1626203040960389.000,-100.098,-34.180,-40.527,1.000,1.000
1626203040964295.250,125.000,-32.227,-31.738,1.000,1.000
1626203040968201.500,105.469,-27.832,-33.203,1.000,1.000
1626203040972107.750,-128.906,-38.574,-33.203,1.000,1.000
1626203040976014.000,-142.090,-30.762,-18.066,1.000,1.000
1626203040979920.250,43.945,-16.113,-19.043,1.000,1.000
1626203040983826.500,93.262,-9.277,-16.602,1.000,1.000
1626203040987732.750,-67.871,-22.949,-14.648,1.000,1.000
1626203040991639.000,-159.180,-39.062,-23.926,1.000,1.000
1626203040995545.250,10.254,-17.578,-21.484,1.000,1.000
1626203040999451.500,139.160,-5.371,-20.508,1.000,1.000
1626203041003357.750,-16.113,-36.621,-31.738,1.000,1.000
1626203041007264.000,-182.617,-56.641,-38.574,1.000,1.000
1626203041011170.250,-58.594,-46.875,-21.973,1.000,1.000
1626203041015076.500,113.281,-35.645,-25.879,1.000,1.000
1626203041018982.750,12.695,-18.555,-38.574,1.000,1.000
1626203041022889.000,-170.410,-14.648,-32.715,1.000,1.000
1626203041026795.250,-110.840,-22.949,-23.926,1.000,1.000
1626203041030701.500,82.520,-37.109,-29.297,1.000,1.000
1626203041034607.750,64.941,-48.828,-45.898,1.000,1.000
1626203041038514.000,128.418,-29.785,-28.809,-198.730,1.000
1626203041042420.250,-20.020,-22.949,-53.223,-203.613,1.000
1626203041046326.500,-196.777,-32.715,-60.059,75.195,1.000
1626203041050232.750,-87.402,-55.176,-28.320,132.812,1.000
1626203041054139.000,123.047,-50.293,-10.254,-134.277,1.000
1626203041058045.250,63.965,-44.434,-33.203,-244.141,1.000
1626203041061951.500,-149.414,-41.992,-49.805,17.578,1.000
1626203041065857.750,-128.418,-40.039,-34.668,184.082,1.000
1626203041069764.000,73.730,-43.945,-19.531,-52.734,1.000
1626203041073670.250,96.680,-40.039,-13.184,-265.137,1.000
1626203041077576.500,-95.215,-21.484,-8.301,-74.707,1.000
1626203041081482.750,-167.480,-24.902,-12.207,163.574,1.000
1626203041085389.000,14.160,-38.086,-23.438,41.016,1.000
1626203041089295.250,108.887,-21.973,-28.320,153.809,1.000
1626203041093201.500,-39.062,-0.977,-26.855,-74.707,1.000
1626203041097107.750,-182.129,-26.367,-41.992,-244.141,1.000
1626203041101014.000,-54.199,-37.109,-49.316,-38.086,1.000
1626203041104920.250,116.699,-13.672,-35.645,179.199,1.000
1626203041108826.500,18.066,-27.832,-28.809,20.996,1.000
1626203041112732.750,-149.902,-43.945,-26.367,-210.938,1.000
1626203041116639.000,-84.961,-35.156,-23.438,-89.844,1.000
1626203041120545.250,111.816,-27.344,-29.297,174.805,1.000
1626203041124451.500,71.777,-15.137,-38.086,92.773,1.000
1626203041128357.750,-145.996,-23.926,-20.508,-198.242,1.000
1626203041132264.000,-152.832,-37.598,-5.859,1.000,1.000
1626203041136170.250,46.875,-35.156,-18.555,1.000,1.000
1626203041140076.500,93.262,-30.762,-25.391,1.000,1.000
1626203041143982.750,-105.469,-35.645,-28.320,1.000,1.000
1626203041147889.000,-185.547,-30.762,-30.762,1.000,1.000
1626203041151795.250,9.766,-24.414,-41.016,1.000,1.000
1626203041155701.500,125.000,-22.949,-42.969,1.000,1.000
1626203041159607.750,-32.715,-16.602,-28.809,1.000,1.000
1626203041163514.000,-178.223,-32.715,-32.227,1.000,1.000
1626203041167420.250,-62.012,-58.105,-31.738,1.000,1.000
1626203041171326.500,107.910,-35.645,-15.625,1.000,1.000
1626203041175232.750,36.621,-14.160,-26.855,1.000,1.000
1626203041179139.000,74.707,-62.012,-23.438,155.762,1.000
1626203041183045.250,80.566,-60.547,-33.691,-118.164,1.000
1626203041186951.500,-120.605,-34.180,-30.273,-228.516,1.000
1626203041190857.750,-160.156,-18.555,-12.207,1.465,1.000
1626203041194764.000,23.438,-33.691,-32.227,156.250,1.000
1626203041198670.250,105.957,-34.668,-52.246,-51.758,1.000
1626203041202576.500,-68.848,-38.574,-48.828,-257.324,1.000
1626203041206482.750,-188.477,-36.621,-41.504,-88.867,1.000
1626203041210389.000,-16.602,-19.043,-17.578,161.621,1.000
1626203041214295.250,164.062,-31.738,6.348,55.664,1.000
1626203041218201.500,39.062,-42.480,-24.414,-223.145,1.000
1626203041222107.750,-158.203,-30.762,-49.316,-165.039,1.000
1626203041226014.000,-86.426,-44.922,-31.738,-109.863,1.000
1626203041229920.250,105.469,-42.969,-21.973,141.602,1.000
1626203041233826.500,76.660,-23.438,-25.391,78.125,1.000
1626203041237732.750,-134.277,-31.738,-46.387,-196.777,1.000
1626203041241639.000,-135.254,-35.156,-43.945,-172.363,1.000
1626203041245545.250,73.242,-41.992,-21.973,111.816,1.000
1626203041249451.500,109.863,-28.809,-8.789,146.484,1.000
1626203041253357.750,-77.148,-5.371,-19.531,-121.582,1.000
1626203041257264.000,-163.574,-19.043,-35.645,-213.867,1.000
1626203041261170.250,7.324,-37.109,-31.738,36.133,1.000
1626203041265076.500,120.605,-32.715,-29.785,168.945,1.000
1626203041268982.750,-31.738,-27.344,-29.785,-56.641,1.000
1626203041272889.000,115.723,-11.230,-23.926,178.711,1.000
1626203041276795.250,37.109,-58.105,-51.270,57.129,1.000
1626203041280701.500,-148.438,-67.383,-44.434,-205.078,1.000
1626203041284607.750,-105.957,-18.555,-9.277,-129.395,1.000
1626203041288514.000,90.820,14.160,5.371,149.414,1.000
1626203041292420.250,88.379,-12.207,-14.160,122.070,1.000
1626203041296326.500,-105.469,-36.133,-28.320,-154.785,1.000
1626203041300232.750,-167.969,-39.551,-39.551,-199.707,1.000
1626203041304139.000,8.789,-44.922,-47.363,57.617,1.000
1626203041308045.250,114.746,-38.086,-34.668,162.109,1.000
1626203041311951.500,-49.805,-29.297,-31.738,-78.613,1.000
1626203041315857.750,-178.711,-42.969,-38.086,-231.445,1.000
1626203041319764.000,-24.414,-43.457,-32.715,1.000,1.000
1626203041323670.250,130.859,-24.902,-20.508,1.000,1.000
1626203041327576.500,3.906,-21.973,-23.438,1.000,1.000
1626203041331482.750,-181.152,-21.484,-29.297,1.000,1.000
1626203041335389.000,-87.402,-21.973,-15.625,1.000,1.000
1626203041339295.250,89.844,-26.367,-12.207,1.000,1.000
1626203041343201.500,32.227,-38.574,-25.879,1.000,1.000
1626203041347107.750,-169.922,-47.852,-53.223,1.000,1.000
1626203041351014.000,-168.945,-50.293,-52.734,1.000,1.000
1626203041354920.250,56.641,-32.227,-16.602,1.000,1.000
1626203041358826.500,100.098,-5.371,-3.418,1.000,1.000
1626203041362732.750,-104.492,-15.625,-32.715,1.000,1.000
1626203041366639.000,-187.012,-37.109,-53.711,-229.004,1.000
1626203041370545.250,11.230,-42.969,-22.949,47.852,1.000
1626203041374451.500,125.000,-45.410,4.883,185.059,1.000
1626203041378357.750,-60.059,-42.969,-24.902,-75.684,1.000
1626203041382264.000,-206.543,-47.852,-47.852,-258.301,1.000
1626203041386170.250,-45.410,-21.484,-30.273,-31.738,1.000
1626203041390076.500,133.301,-7.324,-11.719,199.219,1.000
1626203041393982.750,11.719,-40.039,-7.812,26.855,1.000
1626203041397889.000,-183.594,-43.945,-26.367,-227.051,1.000
1626203041401795.250,-90.332,-7.812,-33.203,-94.238,1.000
1626203041405701.500,105.957,-23.926,-25.879,166.016,1.000
1626203041409607.750,62.012,-46.387,-26.855,86.914,1.000
1626203041413514.000,143.066,-12.207,-11.719,7.324,1.000
1626203041417420.250,-12.207,-26.855,-19.531,-233.398,1.000
1626203041421326.500,-189.453,-45.410,-27.832,-125.000,1.000
1626203041425232.750,-58.594,-32.715,-21.973,147.461,1.000
1626203041429139.000,127.930,-23.438,-8.301,96.191,1.000
1626203041433045.250,34.180,-35.645,-13.184,-179.688,1.000
1626203041436951.500,-159.668,-55.664,-16.113,-177.734,1.000
1626203041440857.750,-115.723,-61.523,-4.395,95.703,1.000
1626203041444764.000,87.891,-49.316,-4.883,156.738,1.000
1626203041448670.250,96.680,-37.109,5.371,-118.164,1.000
1626203041452576.500,-116.211,-45.898,3.418,-241.211,1.000
1626203041456482.750,-168.945,-54.199,5.371,13.672,1.000
1626203041460389.000,-37.598,-55.664,49.316,116.211,1.000
1626203041464295.250,152.344,-66.406,44.922,194.336,1.000
1626203041468201.500,167.969,-74.707,43.945,-52.734,1.000
1626203041472107.750,-44.434,-81.543,30.273,-176.270,1.000
1626203041476014.000,-90.820,-62.988,31.250,69.824,1.000
1626203041479920.250,121.582,-49.316,33.203,259.766,1.000
1626203041483826.500,201.660,-65.918,19.043,69.336,1.000
1626203041487732.750,29.297,-70.801,14.160,-136.230,1.000
1626203041491639.000,-104.004,-72.266,1.465,10.254,1.000
1626203041495545.250,52.246,-68.848,10.742,264.648,1.000
1626203041499451.500,208.496,-62.500,28.809,159.180,1.000
1626203041503357.750,82.031,-57.129,18.066,-88.867,1.000
1626203041507264.000,147.949,-15.625,-30.762,192.383,1.000
1626203041511170.250,-48.828,-29.785,-14.160,-89.355,1.000
1626203041515076.500,-156.250,-47.363,-13.672,-206.055,1.000
1626203041518982.750,17.090,-33.691,-19.531,44.922,1.000
1626203041522889.000,139.648,-20.020,-17.090,192.871,1.000
1626203041526795.250,1.953,-30.273,-23.438,-22.461,1.000
1626203041530701.500,-141.602,-44.434,-22.949,-207.520,1.000
1626203041534607.750,-17.090,-31.250,-7.812,-21.973,1.000
1626203041538514.000,152.344,-39.551,-10.742,205.566,1.000
1626203041542420.250,64.453,-58.594,-19.043,66.406,1.000
1626203041546326.500,-155.273,-45.410,-34.668,-214.844,1.000
1626203041550232.750,-94.727,-0.488,-17.578,-114.258,1.000
1626203041554139.000,135.254,0.977,-6.348,1.000,1.000
1626203041558045.250,91.309,-33.203,-51.270,1.000,1.000
1626203041561951.500,-124.512,-45.898,-61.035,1.000,1.000
1626203041565857.750,-166.504,-39.551,-34.180,1.000,1.000
1626203041569764.000,62.500,3.906,12.695,1.000,1.000
1626203041573670.250,114.746,-4.395,-4.395,1.000,1.000
1626203041577576.500,-107.422,-45.898,-41.504,1.000,1.000
1626203041581482.750,-182.129,-50.781,-28.320,1.000,1.000
1626203041585389.000,-24.414,-57.129,-34.668,1.000,1.000
1626203041589295.250,126.953,-27.344,-17.090,1.000,1.000
1626203041593201.500,3.906,-8.789,-15.137,1.000,1.000
1626203041597107.750,-175.781,-28.320,-41.504,1.000,1.000
1626203041601014.000,-64.453,-30.273,-36.621,1.000,1.000
1626203041604920.250,130.371,-27.832,-23.926,1.000,1.000
1626203041608826.500,65.918,-28.809,-24.414,1.000,1.000
1626203041612732.750,-147.949,-36.621,-32.715,1.000,1.000
1626203041616639.000,-128.418,-27.832,-31.250,1.000,1.000
1626203041620545.250,81.543,-13.672,-22.461,1.000,1.000
1626203041624451.500,83.984,-16.602,-30.273,1.000,1.000
1626203041628357.750,-111.816,-24.414,-29.785,1.000,1.000
1626203041632264.000,-160.645,-36.133,-25.879,1.000,1.000
1626203041636170.250,36.133,-37.109,-21.973,1.000,1.000
1626203041640076.500,128.906,-25.879,-30.762,1.000,1.000
1626203041643982.750,-39.062,-28.809,-35.645,1.000,1.000
1626203041647889.000,54.199,-26.855,-50.781,107.910,1.000
1626203041651795.250,-34.668,-11.719,-58.594,-40.527,1.000
1626203041655701.500,-230.957,-22.461,-52.734,-306.152,1.000
1626203041659607.750,-207.520,-18.066,-64.453,-241.211,1.000
1626203041663514.000,-27.344,-8.301,-80.566,-1.465,1.000
1626203041667420.250,-39.062,5.859,-85.938,-45.898,1.000
1626203041671326.500,-241.211,0.488,-104.492,-326.172,1.000
1626203041675232.750,-282.715,-7.324,-111.816,-364.258,1.000
1626203041679139.000,-71.777,25.391,-99.609,-77.148,1.000
1626203041683045.250,-1.953,21.973,-93.750,-6.836,1.000
1626203041686951.500,-218.262,-0.977,-129.395,-309.082,1.000
1626203041690857.750,-321.777,-17.578,-150.879,-433.594,1.000
1626203041694764.000,-144.531,-36.133,-133.789,1.000,1.000
1626203041698670.250,0.977,-8.789,-127.930,1.000,1.000
1626203041702576.500,-133.789,21.973,-115.723,1.000,1.000
1626203041706482.750,-292.480,0.977,-111.816,1.000,1.000
1626203041710389.000,-151.855,12.695,-97.168,1.000,1.000
1626203041714295.250,52.734,21.973,-77.148,1.000,1.000
1626203041718201.500,-40.039,-12.695,-94.238,1.000,1.000
1626203041722107.750,-248.047,-15.625,-112.305,1.000,1.000
1626203041726014.000,-190.430,0.000,-100.098,1.000,1.000
1626203041729920.250,38.086,-7.324,-98.145,1.000,1.000
1626203041733826.500,47.852,-20.020,-102.539,1.000,1.000
1626203041737732.750,-145.020,-18.066,-83.008,1.000,1.000
1626203041741639.000,-183.594,5.859,-80.566,1.000,1.000
1626203041745545.250,7.324,33.203,-83.496,1.000,1.000
1626203041749451.500,91.797,28.809,-70.801,1.000,1.000
1626203041753357.750,-88.379,-9.277,-78.125,1.000,1.000
1626203041757264.000,-206.055,-21.973,-64.453,1.000,1.000
1626203041761170.250,-39.551,-22.461,-42.969,1.000,1.000
1626203041765076.500,110.352,-22.461,-42.480,1.000,1.000
1626203041768982.750,-36.621,-19.531,-55.176,1.000,1.000
1626203041772889.000,-208.496,-19.531,-59.570,1.000,1.000
1626203041776795.250,-108.887,-24.902,-63.965,1.000,1.000
1626203041780701.500,85.938,-17.578,-66.895,1.000,1.000
1626203041784607.750,50.781,1.465,-50.781,1.000,1.000
1626203041788514.000,1.953,-26.855,-37.109,-196.289,1.000
1626203041792420.250,-182.617,-9.766,-34.668,-149.902,1.000
1626203041796326.500,-94.238,-4.395,-44.922,115.723,1.000
1626203041800232.750,99.609,-3.418,-60.059,110.840,1.000
1626203041804139.000,52.246,-13.184,-60.547,-154.297,1.000
1626203041808045.250,-154.785,-32.715,-57.129,-208.984,1.000
1626203041811951.500,-134.766,-31.250,-48.828,51.270,1.000
1626203041815857.750,74.219,-20.020,-36.621,164.551,1.000
1626203041819764.000,98.633,-24.414,-33.203,-79.590,1.000
1626203041823670.250,-85.449,-48.828,-24.902,-213.379,1.000
1626203041827576.500,-163.574,-49.316,-36.133,10.742,1.000
1626203041831482.750,7.812,-23.926,-51.758,190.430,1.000
1626203041835389.000,136.719,-17.578,-19.043,178.223,1.000
1626203041839295.250,-23.438,-28.809,-41.016,-61.523,1.000
1626203041843201.500,-173.340,-12.207,-47.363,-236.328,1.000
1626203041847107.750,-28.320,-2.930,-34.180,-29.297,1.000
1626203041851014.000,144.043,-13.184,-27.344,184.082,1.000
1626203041854920.250,30.762,-41.504,-41.016,18.555,1.000
1626203041858826.500,-168.945,-68.359,-82.031,-231.445,1.000
1626203041862732.750,-92.285,-30.762,-74.707,-106.934,1.000
1626203041866639.000,109.863,-9.277,-30.273,170.410,1.000
1626203041870545.250,54.199,-26.855,-22.461,93.750,1.000
1626203041874451.500,-163.086,-23.926,-34.668,-198.730,1.000
1626203041878357.750,-138.672,-12.207,-7.324,-162.598,1.000
1626203041882264.000,89.355,-14.648,4.395,138.672,1.000
1626203041886170.250,119.629,-18.066,-30.273,163.086,1.000
1626203041890076.500,-89.355,-22.949,-41.016,-120.117,1.000
1626203041893982.750,-190.918,-42.480,-30.273,-231.934,1.000
1626203041897889.000,-6.836,-35.156,-19.043,21.973,1.000
1626203041901795.250,128.418,-16.602,-26.855,190.430,1.000
1626203041905701.500,-18.555,-44.434,-37.109,-32.715,1.000
1626203041909607.750,-187.988,-71.289,-30.273,-240.234,1.000
1626203041913514.000,-54.688,-23.438,-16.113,-41.016,1.000
1626203041917420.250,128.418,-0.977,-20.508,184.570,1.000
1626203041921326.500,10.742,-42.480,-63.477,16.113,1.000
1626203041925232.750,-158.691,-42.969,-45.898,-208.984,1.000
1626203041929139.000,-91.797,-10.254,2.930,-101.562,1.000
1626203041933045.250,74.707,-20.020,-23.438,136.719,1.000
1626203041936951.500,72.754,-38.574,-34.180,105.957,1.000
1626203041940857.750,-123.535,-34.668,-33.691,-169.434,1.000
1626203041944764.000,-166.504,-52.734,-54.199,-207.520,1.000
1626203041948670.250,55.176,-54.199,-27.832,81.055,1.000
1626203041952576.500,128.418,-15.625,-4.883,167.969,1.000
1626203041956482.750,-77.148,-7.812,-20.996,-106.445,1.000
1626203041960389.000,-193.848,-18.555,-37.598,-246.582,1.000
1626203041964295.250,-3.906,-11.719,-37.109,12.695,1.000
1626203041968201.500,148.438,-18.066,-39.551,198.730,1.000
1626203041972107.750,4.395,-23.926,-30.273,-5.371,1.000
1626203041976014.000,102.539,-17.090,-20.508,143.066,1.000
1626203041979920.250,-115.234,-33.203,-28.320,-154.297,1.000
1626203041983826.500,-184.570,-36.621,-34.668,-229.004,1.000
1626203041987732.750,4.395,-42.480,-30.762,37.598,1.000
1626203041991639.000,123.535,-29.785,-20.996,168.457,1.000
1626203041995545.250,-16.602,-18.555,-34.668,-57.129,1.000
1626203041999451.500,-165.527,-37.109,-41.992,-232.422,1.000
1626203042003357.750,-39.551,-19.043,-27.344,-25.879,1.000
1626203042007264.000,115.723,-15.137,-35.645,183.105,1.000
1626203042011170.250,8.301,-29.785,-34.668,9.766,1.000
1626203042015076.500,-166.992,-41.992,-12.207,-226.562,1.000
1626203042018982.750,-99.121,-57.129,-6.348,-110.840,1.000
1626203042022889.000,97.656,-40.527,-14.160,1.000,1.000
1626203042026795.250,69.824,-2.441,-39.062,1.000,1.000
1626203042030701.500,-119.141,-9.277,-47.363,1.000,1.000
1626203042034607.750,-149.414,-53.223,-39.062,1.000,1.000
1626203042038514.000,31.738,-38.086,-34.668,1.000,1.000
1626203042042420.250,92.773,-13.672,-28.809,1.000,1.000
1626203042046326.500,-102.539,-22.461,-36.133,1.000,1.000
1626203042050232.750,-199.219,-25.879,-47.363,1.000,1.000
1626203042054139.000,-12.207,-25.879,-32.227,1.000,1.000
1626203042058045.250,111.816,-37.598,-8.301,1.000,1.000
1626203042061951.500,-34.668,-60.059,-23.438,1.000,1.000
1626203042065857.750,-172.363,-63.477,-35.645,1.000,1.000
1626203042069764.000,-41.504,-41.504,-21.973,1.000,1.000
1626203042073670.250,137.695,-5.859,-13.184,1.000,1.000
1626203042077576.500,34.668,-10.254,-26.855,1.000,1.000
1626203042081482.750,-183.594,-36.621,-62.012,1.000,1.000
1626203042085389.000,-139.160,-28.809,-57.129,1.000,1.000
1626203042089295.250,73.730,-16.602,-26.855,1.000,1.000
1626203042093201.500,82.031,-7.324,-33.691,1.000,1.000
1626203042097107.750,-122.070,-18.066,-38.086,1.000,1.000
1626203042101014.000,-155.762,-39.062,-20.020,1.000,1.000
1626203042104920.250,47.852,-41.016,-18.066,1.000,1.000
1626203042108826.500,104.980,-44.922,-44.434,1.000,1.000
1626203042112732.750,-65.918,-36.621,-37.598,1.000,1.000
1626203042116639.000,44.922,-17.090,-29.785,-162.598,1.000
1626203042120545.250,-177.246,-50.781,-26.367,-208.496,1.000
1626203042124451.500,-147.949,-41.992,-24.414,70.801,1.000
1626203042128357.750,72.754,-26.367,-22.461,147.461,1.000
1626203042132264.000,99.609,-23.438,-20.020,-125.000,1.000
1626203042136170.250,-107.422,-33.203,-28.320,-258.789,1.000
1626203042140076.500,-190.918,-47.852,-37.598,-14.648,1.000
1626203042143982.750,-7.324,-34.668,-37.598,190.918,1.000
1626203042147889.000,110.840,-13.184,-28.320,-1.953,1.000
1626203042151795.250,-44.922,-24.902,-30.762,-251.465,1.000
1626203042155701.500,-181.152,-41.992,-30.762,-101.074,1.000
1626203042159607.750,-38.086,-31.738,-25.879,175.781,1.000
1626203042163514.000,118.652,-41.504,-22.949,160.645,1.000
1626203042167420.250,5.371,-52.734,-12.695,-10.742,1.000
1626203042171326.500,-164.062,-29.785,-20.996,-229.980,1.000
1626203042175232.750,-89.355,-29.785,-69.336,-99.609,1.000
1626203042179139.000,96.680,-35.645,-65.918,153.809,1.000
1626203042183045.250,49.316,-30.273,-30.273,68.359,1.000
1626203042186951.500,-136.230,-21.484,-18.555,-195.312,1.000
1626203042190857.750,-117.188,-12.207,-14.648,-152.832,1.000
1626203042194764.000,65.918,-19.531,-27.344,111.816,1.000
1626203042198670.250,95.215,-23.926,-32.227,135.742,1.000
1626203042202576.500,-84.961,-30.273,-37.598,-128.906,1.000
1626203042206482.750,-153.320,-34.668,-35.156,-194.336,1.000
1626203042210389.000,26.855,-29.297,-28.809,62.012,1.000
1626203042214295.250,106.445,-42.969,-35.156,159.668,1.000
1626203042218201.500,-64.453,-38.574,-38.574,-81.543,1.000
1626203042222107.750,-202.148,-41.016,-36.621,-252.441,1.000
1626203042226014.000,-79.590,-51.270,-30.762,-60.547,1.000
1626203042229920.250,73.730,-20.020,-29.785,143.066,1.000
1626203042233826.500,-30.273,-11.230,-41.504,-20.996,1.000
1626203042237732.750,-208.496,-14.648,-45.410,-266.602,1.000
1626203042241639.000,-128.906,-21.973,-32.227,-149.414,1.000
1626203042245545.250,88.867,-38.086,-29.785,138.184,1.000
1626203042249451.500,51.758,-37.598,-37.109,78.125,1.000
1626203042253357.750,-176.758,-50.293,-34.668,-221.680,1.000
1626203042257264.000,-181.152,-49.805,-40.039,1.000,1.000
1626203042261170.250,12.695,-29.297,-52.734,1.000,1.000
1626203042265076.500,50.293,-26.855,-47.852,1.000,1.000
1626203042268982.750,-133.301,-23.438,-45.898,1.000,1.000
1626203042272889.000,-230.957,-25.391,-37.598,1.000,1.000
1626203042276795.250,-42.969,-28.809,-23.926,1.000,1.000
1626203042280701.500,100.586,-17.578,-31.738,1.000,1.000
1626203042284607.750,-54.688,-21.484,-50.781,1.000,1.000
1626203042288514.000,-219.238,-44.434,-45.410,1.000,1.000
1626203042292420.250,-105.957,-56.641,-38.086,1.000,1.000
1626203042296326.500,71.289,-53.223,-47.363,1.000,1.000
1626203042300232.750,2.930,-39.062,-37.598,1.000,1.000
1626203042304139.000,133.789,-22.461,-18.555,-34.668,1.000
1626203042308045.250,-72.266,-42.480,-55.664,-226.562,1.000
1626203042311951.500,-197.754,-45.410,-61.523,-52.734,1.000
1626203042315857.750,-24.902,-39.062,-38.574,192.383,1.000
1626203042319764.000,147.949,-25.879,-7.812,52.246,1.000
1626203042323670.250,15.625,-20.020,-1.465,-226.562,1.000
1626203042327576.500,-194.336,-39.062,-32.227,-145.996,1.000
1626203042331482.750,-114.746,-65.430,-44.434,141.602,1.000
1626203042335389.000,86.914,-45.410,-46.387,125.488,1.000
1626203042339295.250,51.270,-34.668,-48.828,-150.879,1.000
1626203042343201.500,-147.461,-30.762,-43.457,-185.059,1.000
1626203042347107.750,-130.859,0.000,-35.645,103.516,1.000
1626203042351014.000,78.125,-5.859,-28.320,1.000,1.000
1626203042354920.250,102.051,-25.391,-19.531,1.000,1.000
1626203042358826.500,-101.562,-35.156,-17.578,1.000,1.000
1626203042362732.750,-178.223,-34.668,-22.461,1.000,1.000
1626203042366639.000,16.602,-14.648,-26.855,1.000,1.000
1626203042370545.250,141.113,-1.953,-15.137,1.000,1.000
1626203042374451.500,-10.742,-19.531,-19.531,1.000,1.000
1626203042378357.750,-160.645,-58.105,-38.086,1.000,1.000
1626203042382264.000,-34.180,-42.969,-22.949,1.000,1.000
1626203042386170.250,122.559,-21.484,-35.156,1.000,1.000
1626203042390076.500,18.066,-20.508,-56.641,1.000,1.000
1626203042393982.750,-155.762,-23.438,-29.785,1.000,1.000
1626203042397889.000,105.957,-24.902,-15.137,128.418,1.000
1626203042401795.250,57.617,-2.441,-12.695,-140.625,1.000
1626203042405701.500,-145.508,-12.695,-45.410,-191.895,1.000
1626203042409607.750,-134.766,-13.184,-75.195,79.102,1.000
1626203042413514.000,85.449,-23.438,-32.715,173.828,1.000
1626203042417420.250,113.281,-30.273,-7.812,-88.379,1.000
1626203042421326.500,-87.891,-32.227,-39.551,-250.488,1.000
1626203042425232.750,-159.180,-33.691,-45.410,-32.715,1.000
1626203042429139.000,36.621,-13.184,-18.555,173.340,1.000
1626203042433045.250,152.832,-21.484,0.000,-14.160,1.000
1626203042436951.500,-24.414,-25.391,-13.184,-230.469,1.000
1626203042440857.750,-183.105,-30.273,-30.273,-71.289,1.000
1626203042444764.000,-40.039,-44.922,-31.738,-31.250,1.000
1626203042448670.250,125.000,-59.570,-32.227,180.664,1.000
1626203042452576.500,13.184,-55.176,-47.363,7.324,1.000
1626203042456482.750,-172.363,-24.902,-68.848,-229.980,1.000
1626203042460389.000,-104.004,-28.809,-62.012,-111.328,1.000
1626203042464295.250,107.910,-21.484,-23.438,153.320,1.000
1626203042468201.500,68.359,-15.137,-13.672,77.148,1.000
1626203042472107.750,-138.184,-40.527,-27.344,-200.684,1.000
1626203042476014.000,-143.066,-44.922,-30.273,-184.082,1.000
1626203042479920.250,71.777,-35.645,-18.066,109.863,1.000
1626203042483826.500,128.418,-25.391,-17.090,157.227,1.000
1626203042487732.750,-79.102,-43.457,-31.250,-132.324,1.000
1626203042491639.000,42.969,-31.738,-39.062,-199.219,1.000
1626203042495545.250,-173.340,-42.969,-62.500,-190.430,1.000
1626203042499451.500,-122.070,-26.855,-38.086,103.027,1.000
1626203042503357.750,90.332,-7.812,-6.836,154.785,1.000
1626203042507264.000,89.844,-24.414,-21.973,-135.254,1.000
1626203042511170.250,-120.605,-57.617,-53.711,-252.441,1.000
1626203042515076.500,-166.504,-33.203,-33.203,0.977,1.000
1626203042518982.750,35.156,-15.625,-12.695,179.688,1.000
1626203042522889.000,90.332,-46.875,-37.598,-31.250,1.000
1626203042526795.250,-92.773,-43.457,-59.570,-242.676,1.000
1626203042530701.500,-187.012,-16.113,-59.082,-83.984,1.000
1626203042534607.750,-11.230,-16.602,-32.715,155.762,1.000
1626203042538514.000,113.770,-31.738,-22.461,169.434,1.000
1626203042542420.250,-49.316,-47.363,-40.039,-59.570,1.000
1626203042546326.500,-219.238,-36.621,-46.387,-272.949,1.000
1626203042550232.750,-90.332,-10.254,-27.344,-94.727,1.000
1626203042554139.000,111.328,-2.930,-19.531,167.480,1.000
1626203042558045.250,31.738,-26.367,-42.480,53.223,1.000
1626203042561951.500,-179.199,-55.176,-44.434,-224.121,1.000
1626203042565857.750,-144.531,-42.480,-31.738,-168.945,1.000
1626203042569764.000,80.078,-7.812,-41.504,121.094,1.000
1626203042573670.250,85.938,-22.461,-45.898,116.699,1.000
1626203042577576.500,-119.141,-57.129,-36.133,-163.086,1.000
1626203042581482.750,-163.574,-42.969,-22.461,-203.613,1.000
1626203042585389.000,21.484,-11.719,-29.297,1.000,1.000
1626203042589295.250,96.191,-18.066,-44.922,1.000,1.000
1626203042593201.500,-69.824,-26.367,-32.715,1.000,1.000
1626203042597107.750,-170.410,-13.672,-16.113,1.000,1.000
1626203042601014.000,-3.418,-20.020,-0.488,1.000,1.000
1626203042604920.250,127.930,-46.387,-8.301,1.000,1.000
1626203042608826.500,-15.625,-53.223,-38.086,1.000,1.000
1626203042612732.750,-182.129,-35.156,-57.617,1.000,1.000
1626203042616639.000,-96.191,-24.902,-47.363,1.000,1.000
1626203042620545.250,78.125,-36.133,-15.137,1.000,1.000
1626203042624451.500,14.160,-67.383,-17.578,1.000,1.000
1626203042628357.750,-174.805,-93.262,-25.391,1.000,1.000
1626203042632264.000,112.305,-29.297,-31.738,-57.617,1.000
1626203042636170.250,-96.680,-32.715,-25.879,-252.441,1.000
1626203042640076.500,-185.059,-31.250,-13.672,-61.035,1.000
1626203042643982.750,2.930,-23.438,-7.324,157.715,1.000
1626203042647889.000,123.047,-18.066,-11.719,20.996,1.000
1626203042651795.250,-16.602,-29.785,-20.020,-211.914,1.000
1626203042655701.500,-169.434,-31.738,-33.691,-126.465,1.000
1626203042659607.750,-74.707,-46.875,-41.992,140.625,1.000
1626203042663514.000,113.770,-38.574,-25.391,110.352,1.000
1626203042667420.250,67.383,-17.578,-6.348,-177.246,1.000
1626203042671326.500,-132.324,-33.203,-23.926,-187.012,1.000
1626203042675232.750,-119.141,-25.879,-47.363,99.609,1.000
1626203042679139.000,74.707,-17.090,-37.109,1.000,1.000
1626203042683045.250,82.031,-24.902,-25.391,1.000,1.000
1626203042686951.500,-136.230,-45.410,-37.598,1.000,1.000
1626203042690857.750,-194.336,-54.688,-38.574,1.000,1.000
1626203042694764.000,21.484,-25.391,-16.113,1.000,1.000
1626203042698670.250,112.305,-14.160,-20.996,1.000,1.000
1626203042702576.500,-60.547,-21.973,-22.949,1.000,1.000
1626203042706482.750,-166.992,-36.133,-9.277,1.000,1.000
1626203042710389.000,-14.648,-58.594,-18.555,1.000,1.000
1626203042714295.250,110.840,-54.199,-26.855,1.000,1.000
1626203042718201.500,-17.578,-39.062,-39.551,1.000,1.000
1626203042722107.750,-180.176,-34.180,-48.340,1.000,1.000
1626203042726014.000,57.129,-61.035,-15.625,83.984,1.000
1626203042729920.250,-138.184,-35.645,-28.320,-191.406,1.000
1626203042733826.500,-161.621,-24.414,-47.363,-196.777,1.000
1626203042737732.750,44.434,-10.254,-38.086,86.426,1.000
1626203042741639.000,109.375,-2.441,-21.484,157.715,1.000
1626203042745545.250,-61.035,-3.418,-5.859,-91.797,1.000
1626203042749451.500,-174.316,-24.902,-22.461,-221.191,1.000
1626203042753357.750,-34.668,-51.270,-40.039,5.859,1.000
1626203042757264.000,113.281,-32.227,-19.531,175.293,1.000
1626203042761170.250,-19.043,-28.809,-20.996,-37.109,1.000
1626203042765076.500,-173.828,-47.363,-47.363,-226.562,1.000
1626203042768982.750,-45.898,-29.297,-33.691,-38.574,1.000
1626203042772889.000,137.695,-22.949,-3.418,1.000,1.000
1626203042776795.250,27.832,-46.875,-29.785,1.000,1.000
1626203042780701.500,-185.547,-46.387,-65.430,1.000,1.000
1626203042784607.750,-135.254,-25.391,-48.828,1.000,1.000
1626203042788514.000,63.477,-26.855,-14.160,1.000,1.000
1626203042792420.250,52.246,-32.227,-22.461,1.000,1.000
1626203042796326.500,-127.441,-25.391,-30.273,1.000,1.000
1626203042800232.750,-132.812,-21.484,-19.043,1.000,1.000
1626203042804139.000,46.387,-41.016,-28.320,1.000,1.000
1626203042808045.250,104.980,-41.016,-28.809,1.000,1.000
1626203042811951.500,-72.754,-31.250,-27.344,1.000,1.000
1626203042815857.750,-199.707,-44.434,-26.855,1.000,1.000
1626203042819764.000,-24.414,-30.762,-21.484,1.000,1.000
1626203042823670.250,134.766,-21.484,-23.438,1.000,1.000
1626203042827576.500,-9.277,-41.992,-20.508,1.000,1.000
1626203042831482.750,-178.223,-30.762,-26.367,1.000,1.000
1626203042835389.000,-70.801,-12.207,-34.180,1.000,1.000
1626203042839295.250,114.746,-11.719,-31.738,1.000,1.000
1626203042843201.500,56.152,-7.812,-29.785,1.000,1.000
1626203042847107.750,-149.902,-22.461,-29.785,1.000,1.000
1626203042851014.000,-130.371,-32.227,-21.973,1.000,1.000
1626203042854920.250,97.656,-36.133,-16.113,1.000,1.000
1626203042858826.500,115.723,-38.574,-23.438,1.000,1.000
1626203042862732.750,-108.887,-47.363,-43.457,1.000,1.000
1626203042866639.000,14.648,-23.438,-48.340,-201.172,1.000
1626203042870545.250,-154.785,-19.531,-28.320,-164.062,1.000
1626203042874451.500,-94.727,-33.203,-18.066,104.492,1.000
1626203042878357.750,90.332,-34.180,-14.648,125.000,1.000
1626203042882264.000,79.590,-16.113,-11.230,-140.137,1.000
1626203042886170.250,-129.395,-31.738,-41.016,-212.402,1.000
1626203042890076.500,-150.879,-34.668,-60.547,55.664,1.000
1626203042893982.750,62.988,-20.508,-26.855,179.688,1.000
1626203042897889.000,96.191,-43.457,-14.160,-75.684,1.000
1626203042901795.250,-83.984,-67.871,-13.184,-254.395,1.000
1626203042905701.500,-156.738,-41.992,-23.438,-47.852,1.000
1626203042909607.750,1.465,-32.715,-24.902,166.504,1.000
1626203042913514.000,109.375,-35.645,-8.789,175.293,1.000
1626203042917420.250,-46.387,-28.809,-26.367,-56.641,1.000
1626203042921326.500,-197.754,-27.344,-51.270,-251.953,1.000
1626203042925232.750,-81.543,-24.414,-45.410,-68.848,1.000
1626203042929139.000,96.191,-28.809,-20.996,160.156,1.000
1626203042933045.250,25.391,-25.391,-17.578,33.203,1.000
1626203042936951.500,-138.672,-13.672,-18.066,-198.730,1.000
1626203042940857.750,-73.730,-25.391,-16.602,-89.355,1.000
1626203042944764.000,116.211,-25.879,-23.438,176.758,1.000
1626203042948670.250,81.055,-46.387,-23.926,112.305,1.000
1626203042952576.500,-127.930,-75.684,-32.227,-169.434,1.000
1626203042956482.750,-153.320,-61.523,-35.645,-184.082,1.000
1626203042960389.000,41.992,-42.969,-30.273,1.000,1.000
1626203042964295.250,100.098,-27.344,-39.062,1.000,1.000
1626203042968201.500,-81.543,-18.066,-49.805,1.000,1.000
1626203042972107.750,-185.059,-14.648,-45.410,1.000,1.000
1626203042976014.000,0.488,-20.996,-28.809,1.000,1.000
1626203042979920.250,153.809,-30.762,-25.879,1.000,1.000
1626203042983826.500,-16.113,-41.992,-28.809,1.000,1.000
1626203042987732.750,-196.289,-44.434,-13.184,1.000,1.000
1626203042991639.000,-79.102,-30.273,0.000,1.000,1.000
1626203042995545.250,101.074,-25.879,-10.254,1.000,1.000
1626203042999451.500,25.879,-40.527,-29.785,1.000,1.000
1626203043003357.750,-162.598,-43.457,-41.504,1.000,1.000
1626203043007264.000,-41.504,-22.949,-37.109,-66.406,1.000
1626203043011170.250,-204.102,-35.156,-63.477,-250.977,1.000
1626203043015076.500,-53.223,-48.340,-44.434,-35.645,1.000
1626203043018982.750,113.281,-29.785,-27.832,177.734,1.000
1626203043022889.000,-12.207,-25.879,-35.645,-6.348,1.000
1626203043026795.250,-175.781,-22.461,-33.203,-225.586,1.000
1626203043030701.500,-78.613,-24.902,-9.766,-81.543,1.000
1626203043034607.750,100.098,-51.758,-21.484,164.551,1.000
1626203043038514.000,61.523,-50.293,-43.945,89.355,1.000
1626203043042420.250,-150.391,-41.504,-44.434,-199.707,1.000
1626203043046326.500,-168.945,-34.180,-35.645,-191.895,1.000
1626203043050232.750,55.176,-18.555,-23.926,111.328,1.000
1626203043054139.000,114.258,-20.020,-22.461,151.367,1.000
1626203043058045.250,-96.191,-31.738,-43.457,-138.672,1.000
1626203043061951.500,-187.988,-40.527,-34.668,-228.516,1.000
1626203043065857.750,12.207,-20.996,-10.254,41.504,1.000
1626203043069764.000,125.000,-23.926,-15.137,179.199,1.000
1626203043073670.250,-46.387,-49.316,-33.203,-62.500,1.000
1626203043077576.500,-194.336,-34.180,-60.547,-252.930,1.000
1626203043081482.750,-58.594,-26.855,-43.945,-53.711,1.000
1626203043085389.000,110.352,-37.598,-21.973,170.898,1.000
1626203043089295.250,7.324,-41.992,-38.086,19.531,1.000
1626203043093201.500,-168.457,-33.691,-48.340,-213.379,1.000
1626203043097107.750,-88.867,-21.484,-25.879,-94.238,1.000
1626203043101014.000,100.098,-31.738,-4.883,1.000,1.000
1626203043104920.250,55.176,-40.527,-28.320,1.000,1.000
1626203043108826.500,-158.203,-45.410,-42.480,1.000,1.000
1626203043112732.750,-166.504,-41.016,-32.227,1.000,1.000
1626203043116639.000,37.598,-31.738,-52.246,1.000,1.000
1626203043120545.250,99.609,-17.090,-47.363,1.000,1.000
1626203043124451.500,-79.102,-26.855,-18.555,1.000,1.000
1626203043128357.750,-188.965,-62.500,-36.133,1.000,1.000
1626203043132264.000,-4.883,-39.062,-39.062,1.000,1.000
1626203043136170.250,145.508,8.789,-14.648,1.000,1.000
1626203043140076.500,-13.672,-2.441,-26.367,1.000,1.000
1626203043143982.750,-177.734,-34.180,-42.969,1.000,1.000
1626203043147889.000,119.141,-24.902,-35.156,91.797,1.000
1626203043151795.250,20.020,-21.973,-51.758,-188.477,1.000
1626203043155701.500,-164.551,-53.711,-54.688,-171.875,1.000
1626203043159607.750,-112.793,-69.336,-43.945,112.305,1.000
1626203043163514.000,83.496,-51.270,-17.578,141.602,1.000
1626203043167420.250,64.941,-31.250,-18.066,-136.719,1.000
1626203043171326.500,-145.996,-21.484,-39.551,-216.797,1.000
1626203043175232.750,-172.852,-22.949,-34.668,49.805,1.000
1626203043179139.000,52.734,-11.719,-10.254,176.270,1.000
1626203043183045.250,111.328,-21.484,-9.766,-64.941,1.000
1626203043186951.500,-90.820,-40.527,-23.926,-247.070,1.000
1626203043190857.750,-163.086,-37.109,-30.273,-37.598,1.000
1626203043194764.000,39.062,-33.203,-26.855,1.000,1.000
1626203043198670.250,154.785,-36.133,-32.715,1.000,1.000
1626203043202576.500,-21.484,-21.484,-48.340,1.000,1.000
1626203043206482.750,-187.988,-15.625,-32.227,1.000,1.000
1626203043210389.000,-63.965,-33.691,-12.207,1.000,1.000
1626203043214295.250,96.191,-59.082,-24.414,1.000,1.000
1626203043218201.500,5.371,-49.805,-35.156,1.000,1.000
1626203043222107.750,-173.340,-31.738,-20.020,1.000,1.000
1626203043226014.000,-95.215,-16.602,-1.465,1.000,1.000
1626203043229920.250,119.141,-2.930,-16.113,1.000,1.000
1626203043233826.500,81.055,-8.301,-46.387,1.000,1.000
1626203043237732.750,-123.535,-9.766,-42.480,1.000,1.000
1626203043241639.000,-18.555,-38.086,-34.668,-203.125,1.000
1626203043245545.250,-187.988,-24.902,-48.828,43.945,1.000
1626203043249451.500,-83.984,-16.113,-24.414,113.770,1.000
1626203043253357.750,117.188,-12.207,-8.789,-129.395,1.000
1626203043257264.000,60.059,-27.832,-29.297,-237.305,1.000
1626203043261170.250,-148.438,-33.203,-31.738,9.766,1.000
1626203043265076.500,-132.812,-24.902,-17.090,178.711,1.000
1626203043268982.750,64.453,-26.855,-20.020,-31.738,1.000
1626203043272889.000,67.871,-34.180,-39.551,-237.793,1.000
1626203043276795.250,-139.648,-54.688,-48.340,-63.965,1.000
1626203043280701.500,-190.430,-52.246,-33.691,188.965,1.000
1626203043284607.750,8.301,-35.645,-17.090,65.918,1.000
1626203043288514.000,122.070,-34.180,-22.949,189.941,1.000
1626203043292420.250,-54.199,-56.152,-44.922,-59.570,1.000
1626203043296326.500,-203.613,-64.453,-32.715,-236.328,1.000
1626203043300232.750,-38.574,-49.805,-11.230,-12.695,1.000
1626203043304139.000,120.605,-25.391,-13.184,186.523,1.000
1626203043308045.250,14.648,3.906,-23.438,17.578,1.000
1626203043311951.500,-156.250,2.441,-30.273,-213.867,1.000
1626203043315857.750,-97.656,-22.461,-30.273,-99.609,1.000
1626203043319764.000,71.289,-43.945,-35.156,141.602,1.000
1626203043323670.250,36.621,-40.527,-32.227,63.477,1.000
1626203043327576.500,-141.113,-36.621,-18.555,-185.547,1.000
1626203043331482.750,-148.438,-40.527,-22.949,-170.898,1.000
1626203043335389.000,42.969,-56.641,-38.086,93.750,1.000
1626203043339295.250,89.844,-43.945,-41.504,134.277,1.000
1626203043343201.500,-101.074,-39.551,-39.062,-144.531,1.000
1626203043347107.750,-179.199,-49.805,-28.320,-234.375,1.000
1626203043351014.000,7.812,-42.969,-20.020,35.156,1.000
1626203043354920.250,125.000,-29.785,-17.090,184.570,1.000
1626203043358826.500,-22.461,-19.531,-27.832,-40.527,1.000
1626203043362732.750,-172.363,-19.531,-33.203,-230.957,1.000
1626203043366639.000,-53.711,-25.391,-26.855,-48.828,1.000
1626203043370545.250,116.699,-38.574,-41.016,171.387,1.000
1626203043374451.500,16.113,-27.344,-51.270,15.137,1.000
1626203043378357.750,-193.848,-51.758,-37.598,-247.070,1.000
1626203043382264.000,-131.348,-66.406,-21.484,-141.113,1.000
1626203043386170.250,86.914,-40.527,-25.391,135.742,1.000
1626203043390076.500,70.801,-44.922,-30.273,92.285,1.000
1626203043393982.750,-119.629,-37.598,-25.391,-180.664,1.000
1626203043397889.000,-131.348,1.465,-20.020,-177.734,1.000
1626203043401795.250,63.965,12.207,-39.551,98.633,1.000
1626203043405701.500,114.258,-16.602,-62.500,147.949,1.000
1626203043409607.750,-63.477,-43.945,-44.922,-108.887,1.000
1626203043413514.000,-176.758,-47.363,-31.250,-229.980,1.000
1626203043417420.250,-19.043,-44.434,-19.531,-1.465,1.000
1626203043421326.500,107.910,-42.969,-31.738,155.762,1.000
1626203043425232.750,-31.738,-55.176,-57.617,-49.316,1.000
1626203043429139.000,-49.316,-30.762,-22.461,-79.590,1.000
1626203043433045.250,-170.410,-41.016,-42.480,-222.656,1.000
1626203043436951.500,-10.254,-25.391,-22.949,15.137,1.000
1626203043440857.750,129.395,-24.902,-13.672,190.918,1.000
1626203043444764.000,-15.137,-25.391,-27.344,-20.996,1.000
1626203043448670.250,-185.059,-27.832,-46.387,-241.211,1.000
1626203043452576.500,-79.102,-29.785,-47.852,-82.031,1.000
1626203043456482.750,119.141,-8.789,-16.113,176.270,1.000
1626203043460389.000,55.664,-28.809,-6.836,72.266,1.000
1626203043464295.250,-160.156,-55.176,-15.625,-206.055,1.000
1626203043468201.500,-148.438,-29.297,-32.715,-167.480,1.000
1626203043472107.750,68.848,-8.301,-33.203,119.141,1.000
1626203043476014.000,117.188,9.766,-13.184,1.000,1.000
1626203043479920.250,-79.102,-19.531,-31.250,1.000,1.000
1626203043483826.500,-161.133,-60.547,-44.434,1.000,1.000
1626203043487732.750,16.113,-36.133,-27.832,1.000,1.000
1626203043491639.000,100.586,-37.598,-25.879,1.000,1.000
1626203043495545.250,-56.641,-30.273,-16.113,1.000,1.000
1626203043499451.500,-179.688,-18.066,-24.414,1.000,1.000
1626203043503357.750,-30.273,-39.062,-42.480,1.000,1.000
1626203043507264.000,132.324,-40.039,-41.992,1.000,1.000
1626203043511170.250,15.137,-30.273,-35.156,1.000,1.000
1626203043515076.500,-164.551,-21.484,-31.738,1.000,1.000
1626203043518982.750,-83.984,-21.484,-26.855,1.000,1.000
1626203043522889.000,108.398,-23.926,-15.625,1.000,1.000
1626203043526795.250,55.176,-35.156,-24.902,1.000,1.000
1626203043530701.500,-153.320,-56.152,-23.926,1.000,1.000
1626203043534607.750,-154.297,-44.922,-15.137,1.000,1.000
1626203043538514.000,52.734,-43.945,-22.461,1.000,1.000
1626203043542420.250,105.469,-32.227,-20.020,1.000,1.000
1626203043546326.500,-74.707,-13.672,-16.113,1.000,1.000
1626203043550232.750,-162.109,-31.250,-25.391,1.000,1.000
1626203043554139.000,7.324,-33.203,-40.527,1.000,1.000
1626203043558045.250,119.629,-14.648,-51.270,1.000,1.000
1626203043561951.500,-26.367,-17.090,-48.828,1.000,1.000
1626203043565857.750,-167.480,-35.645,-44.922,1.000,1.000
1626203043569764.000,123.047,-35.156,-34.668,34.668,1.000
1626203043573670.250,-0.488,-29.785,-38.086,-233.398,1.000
1626203043577576.500,-166.504,-34.668,-26.367,-168.945,1.000
1626203043581482.750,-84.473,-39.062,-28.320,120.605,1.000
1626203043585389.000,107.910,-25.879,-21.973,115.234,1.000
1626203043589295.250,49.316,-39.062,-24.902,-172.363,1.000
1626203043593201.500,-165.039,-63.477,-37.109,-205.566,1.000
1626203043597107.750,-149.414,-45.410,-37.598,80.566,1.000
1626203043601014.000,65.918,-35.156,-20.020,156.250,1.000
1626203043604920.250,100.586,-58.105,-18.555,-120.117,1.000
1626203043608826.500,-91.797,-69.824,-51.758,-253.906,1.000
1626203043612732.750,-157.227,-41.016,-50.781,-5.371,1.000
1626203043616639.000,31.250,-28.809,-31.738,1.000,1.000
1626203043620545.250,116.699,-35.645,-28.320,1.000,1.000
1626203043624451.500,-72.266,-26.855,-35.645,1.000,1.000
1626203043628357.750,-208.008,-23.926,-41.504,1.000,1.000
1626203043632264.000,-48.340,-37.598,-25.879,1.000,1.000
1626203043636170.250,117.188,-44.434,-28.809,1.000,1.000
1626203043640076.500,7.324,-31.250,-48.340,1.000,1.000
1626203043643982.750,-162.598,-2.930,-35.645,1.000,1.000
1626203043647889.000,-77.637,-4.883,-9.766,1.000,1.000
1626203043651795.250,112.793,-33.691,-13.184,1.000,1.000
1626203043655701.500,75.195,-49.316,-36.133,1.000,1.000
1626203043659607.750,-141.113,-58.594,-48.828,1.000,1.000
1626203043663514.000,-172.852,-35.156,-31.738,-166.016,1.000
1626203043667420.250,-85.449,-20.508,-15.137,117.676,1.000
1626203043671326.500,107.910,-38.574,-21.973,135.742,1.000
1626203043675232.750,73.242,-42.480,-30.762,-145.996,1.000
1626203043679139.000,-125.488,-34.668,-19.043,-225.098,1.000
1626203043683045.250,-146.973,-31.738,-11.230,38.574,1.000
1626203043686951.500,47.363,-38.086,-9.766,185.059,1.000
1626203043690857.750,111.328,-26.367,-23.926,-40.039,1.000
1626203043694764.000,-78.125,-24.902,-37.109,-225.098,1.000
1626203043698670.250,-184.570,-43.457,-17.578,-36.133,1.000
1626203043702576.500,-19.531,-41.016,-26.855,168.945,1.000
1626203043706482.750,112.305,-24.414,-53.711,1.465,1.000
1626203043710389.000,-42.480,-35.645,-34.668,-55.664,1.000
1626203043714295.250,-216.309,-42.480,-36.621,-270.996,1.000
1626203043718201.500,-80.566,-43.457,-23.926,-76.172,1.000
1626203043722107.750,127.930,-48.828,0.488,189.941,1.000
1626203043726014.000,62.988,-9.277,-6.348,80.078,1.000
1626203043729920.250,-147.461,-0.488,-41.992,-194.824,1.000
1626203043733826.500,-131.348,-25.391,-35.156,-145.020,1.000
1626203043737732.750,66.895,-27.832,-20.020,124.023,1.000
1626203043741639.000,70.312,-46.387,-34.668,102.051,1.000
1626203043745545.250,-123.535,-60.547,-33.691,-172.363,1.000
1626203043749451.500,-153.809,-35.156,-33.691,-202.148,1.000
1626203043753357.750,44.434,-28.320,-33.203,68.359,1.000
1626203043757264.000,72.754,-19.043,-11.230,122.559,1.000
1626203043761170.250,86.914,0.488,-27.832,115.723,1.000
1626203043765076.500,-111.816,-16.602,-44.922,-155.273,1.000
1626203043768982.750,-149.414,-15.137,-20.020,-186.035,1.000
1626203043772889.000,40.527,-15.137,-16.602,75.195,1.000
1626203043776795.250,104.980,-39.551,-40.039,155.273,1.000
1626203043780701.500,-81.543,-34.180,-50.781,-107.422,1.000
1626203043784607.750,-197.754,-41.504,-51.270,-253.418,1.000
1626203043788514.000,-33.203,-56.152,-36.133,-16.113,1.000
1626203043792420.250,136.230,-34.668,-19.531,198.730,1.000
1626203043796326.500,6.348,-27.344,-39.062,11.719,1.000
1626203043800232.750,-196.777,-30.762,-52.246,-236.816,1.000
1626203043804139.000,-96.191,-53.223,-31.250,-127.441,1.000
1626203043808045.250,-178.223,-68.848,-37.109,-225.586,1.000
1626203043811951.500,14.160,-35.156,-9.277,37.109,1.000
1626203043815857.750,119.629,-13.184,-18.555,177.734,1.000
1626203043819764.000,-41.992,-14.648,-50.781,-56.641,1.000
1626203043823670.250,-188.477,-20.020,-49.805,-248.535,1.000
1626203043827576.500,-69.824,-24.414,-43.945,-63.477,1.000
1626203043831482.750,126.465,-8.301,-31.250,180.664,1.000
1626203043835389.000,38.086,-28.320,-29.785,34.668,1.000
1626203043839295.250,-161.621,-62.988,-36.133,-230.469,1.000
1626203043843201.500,-108.887,-46.875,-29.297,-141.602,1.000
1626203043847107.750,87.402,-10.254,-21.484,139.160,1.000
1626203043851014.000,80.078,-26.855,-13.184,1.000,1.000
1626203043854920.250,-130.371,-43.457,-14.160,1.000,1.000
1626203043858826.500,-166.504,-22.949,-19.043,1.000,1.000
1626203043862732.750,34.668,-16.113,-30.273,1.000,1.000
1626203043866639.000,111.816,-28.320,-35.645,1.000,1.000
1626203043870545.250,-63.477,-36.133,-44.434,1.000,1.000
1626203043874451.500,-194.336,-37.598,-56.152,1.000,1.000
1626203043878357.750,-33.203,-31.250,-35.645,1.000,1.000
1626203043882264.000,135.742,-13.184,-1.953,1.000,1.000
1626203043886170.250,-2.930,-40.039,-1.465,1.000,1.000
1626203043890076.500,-198.242,-68.848,-22.949,1.000,1.000
1626203043893982.750,-109.863,-55.664,-43.457,1.000,1.000
1626203043897889.000,87.891,-32.227,-44.434,1.000,1.000
1626203043901795.250,29.297,-23.926,-34.668,1.000,1.000
1626203043905701.500,-167.480,-39.551,-35.645,1.000,1.000
1626203043909607.750,-125.000,-31.250,-32.227,1.000,1.000
1626203043913514.000,74.219,-10.254,-34.180,1.000,1.000
1626203043917420.250,74.219,-20.508,-38.086,1.000,1.000
1626203043921326.500,-114.258,-16.113,-31.250,1.000,1.000
1626203043925232.750,-152.344,-26.855,-30.762,1.000,1.000
1626203043929139.000,26.367,-70.312,-39.062,1.000,1.000
1626203043933045.250,103.027,-46.875,-27.832,1.000,1.000
1626203043936951.500,-56.152,-5.859,-19.043,1.000,1.000
1626203043940857.750,-174.316,-4.395,-37.598,1.000,1.000
1626203043944764.000,-153.320,-20.996,-13.672,-200.684,1.000
1626203043948670.250,-165.039,-51.758,-19.531,-179.199,1.000
1626203043952576.500,62.012,-52.246,-15.137,117.188,1.000
1626203043956482.750,120.117,-41.992,-32.227,156.250,1.000
1626203043960389.000,-84.961,-37.109,-40.039,-122.070,1.000
1626203043964295.250,-171.875,-27.344,-22.949,-207.520,1.000
1626203043968201.500,17.090,-17.578,-12.207,49.316,1.000
1626203043972107.750,123.535,-25.391,-30.273,172.363,1.000
1626203043976014.000,-50.781,-34.668,-47.363,-73.730,1.000
1626203043979920.250,-180.176,-14.160,-37.109,-237.793,1.000
1626203043983826.500,-57.129,-20.996,-23.438,-46.387,1.000
1626203043987732.750,107.910,-29.297,-7.812,174.805,1.000
1626203043991639.000,25.879,-34.180,-20.996,1.000,1.000
1626203043995545.250,-170.898,-56.152,-41.016,1.000,1.000
1626203043999451.500,-112.793,-48.340,-33.203,1.000,1.000
1626203044003357.750,88.379,-21.484,-35.645,1.000,1.000
1626203044007264.000,75.684,-8.301,-48.828,1.000,1.000
1626203044011170.250,-115.234,-5.859,-42.969,1.000,1.000
1626203044015076.500,-139.648,-18.066,-18.555,1.000,1.000
1626203044018982.750,58.105,-22.949,1.953,1.000,1.000
1626203044022889.000,106.445,-32.715,-25.391,1.000,1.000
1626203044026795.250,-84.473,-52.734,-43.457,1.000,1.000
1626203044030701.500,-172.363,-54.688,-27.344,1.000,1.000
1626203044034607.750,0.488,-26.855,-22.461,1.000,1.000
1626203044038514.000,117.676,-27.832,-34.180,1.000,1.000
1626203044042420.250,-37.109,-67.383,-47.852,1.000,1.000
1626203044046326.500,-191.406,-52.246,-38.574,1.000,1.000
1626203044050232.750,-77.148,-25.879,-30.762,1.000,1.000
1626203044054139.000,126.465,0.000,-20.020,1.000,1.000
1626203044058045.250,63.965,7.324,-12.695,1.000,1.000
1626203044061951.500,-148.438,-28.320,-22.461,1.000,1.000
1626203044065857.750,-120.605,-40.039,-32.227,1.000,1.000
1626203044069764.000,80.566,-27.344,-32.227,1.000,1.000
1626203044073670.250,93.750,-25.391,-23.926,1.000,1.000
1626203044077576.500,-120.605,-45.898,-55.664,1.000,1.000
1626203044081482.750,-168.945,-69.824,-53.711,1.000,1.000
1626203044085389.000,-34.180,-40.527,-21.973,-248.535,1.000
1626203044089295.250,-188.477,-39.062,-17.090,-104.980,1.000
1626203044093201.500,-39.062,-11.230,-2.441,176.270,1.000
1626203044097107.750,114.258,-31.738,-24.414,97.168,1.000
1626203044101014.000,17.578,-58.594,-23.438,-186.035,1.000
1626203044104920.250,-152.344,-41.992,-15.137,-168.457,1.000
1626203044108826.500,-109.863,-36.621,-38.086,104.492,1.000
1626203044112732.750,73.242,-38.086,-36.133,131.348,1.000
1626203044116639.000,35.156,-23.926,-27.344,-145.996,1.000
1626203044120545.250,-168.945,-14.648,-39.551,-220.703,1.000
1626203044124451.500,-166.992,-17.578,-39.551,37.598,1.000
1626203044128357.750,43.457,-24.902,-24.902,189.941,1.000
1626203044132264.000,92.285,-41.992,-38.574,1.000,1.000
1626203044136170.250,-91.797,-49.316,-44.922,1.000,1.000
1626203044140076.500,-168.945,-40.527,-31.738,1.000,1.000
1626203044143982.750,1.465,-32.715,-32.227,1.000,1.000
1626203044147889.000,119.629,-27.832,-30.762,1.000,1.000
1626203044151795.250,-14.160,-28.320,-24.902,1.000,1.000
1626203044155701.500,-160.156,-20.020,-12.695,1.000,1.000
1626203044159607.750,-36.133,-17.090,-5.371,1.000,1.000
1626203044163514.000,139.160,-14.648,0.488,1.000,1.000
1626203044167420.250,33.691,-20.020,-18.066,1.000,1.000
1626203044171326.500,-196.289,-38.086,-65.430,1.000,1.000
1626203044175232.750,-136.719,-39.062,-50.293,1.000,1.000
1626203044179139.000,-83.496,-47.363,-2.441,153.320,1.000
1626203044183045.250,104.980,-32.715,-1.953,117.676,1.000
1626203044186951.500,61.035,-24.902,-25.879,-167.969,1.000
1626203044190857.750,-150.391,-33.203,-43.945,-197.266,1.000
1626203044194764.000,-135.742,-23.438,-19.531,95.215,1.000
1626203044198670.250,83.008,-6.348,-2.930,178.223,1.000
1626203044202576.500,83.008,-19.531,-20.996,-89.844,1.000
1626203044206482.750,-113.281,-26.855,-40.527,-224.121,1.000
1626203044210389.000,-150.879,-45.410,-48.340,2.930,1.000
1626203044214295.250,28.320,-60.059,-24.414,192.871,1.000
1626203044218201.500,104.492,-39.062,-27.344,-13.672,1.000
1626203044222107.750,-61.035,-36.621,-43.945,-245.605,1.000
1626203044226014.000,-104.980,-35.645,-34.180,-132.812,1.000
1626203044229920.250,-171.875,-37.109,-35.645,-209.473,1.000
1626203044233826.500,22.949,-39.062,-20.996,55.664,1.000
1626203044237732.750,118.164,-36.621,-15.137,168.945,1.000
1626203044241639.000,-58.594,-16.602,-36.133,-81.543,1.000
1626203044245545.250,-196.289,-19.531,-48.340,-246.582,1.000
1626203044249451.500,-60.059,-30.762,-53.711,-45.898,1.000
1626203044253357.750,123.047,-27.832,-25.391,175.781,1.000
1626203044257264.000,28.809,-35.156,-10.254,16.602,1.000
1626203044261170.250,-171.875,-40.527,-31.738,-240.234,1.000
1626203044265076.500,-121.582,-53.711,-29.297,-133.301,1.000
1626203044268982.750,102.051,-34.668,-12.695,146.484,1.000
1626203044272889.000,87.891,-25.879,-37.109,1.000,1.000
1626203044276795.250,-139.648,-43.457,-51.270,1.000,1.000
1626203044280701.500,-150.879,-33.691,-20.996,1.000,1.000
1626203044284607.750,76.172,-12.207,-9.277,1.000,1.000
1626203044288514.000,138.184,-1.465,-23.438,1.000,1.000
1626203044292420.250,-76.172,-15.137,-35.156,1.000,1.000
1626203044296326.500,-164.551,-28.809,-10.742,1.000,1.000
1626203044300232.750,12.207,-53.711,0.977,1.000,1.000
1626203044304139.000,110.352,-59.570,-15.137,1.000,1.000
1626203044308045.250,-38.086,-41.504,-28.320,1.000,1.000
1626203044311951.500,-196.777,-21.973,-41.504,1.000,1.000
1626203044315857.750,-62.012,-20.996,-30.762,1.000,1.000
1626203044319764.000,129.883,-36.621,-20.020,1.000,1.000
1626203044323670.250,32.227,-46.875,-27.832,1.000,1.000
1626203044327576.500,-178.223,-51.270,-40.527,1.000,1.000
1626203044331482.750,-118.164,-41.016,-19.531,1.000,1.000
1626203044335389.000,96.680,-35.156,-12.695,1.000,1.000
1626203044339295.250,61.523,-20.996,-41.992,1.000,1.000
1626203044343201.500,-154.785,-10.742,-45.410,1.000,1.000
1626203044347107.750,-177.246,-31.250,-41.504,1.000,1.000
1626203044351014.000,34.668,-31.738,-23.926,1.000,1.000
1626203044354920.250,103.516,-36.621,-18.066,1.000,1.000
1626203044358826.500,-89.844,-53.711,-47.852,1.000,1.000
1626203044362732.750,-180.176,-27.832,-36.133,1.000,1.000
1626203044366639.000,-166.016,-50.293,-40.039,-227.051,1.000
1626203044370545.250,-139.160,-55.664,-47.852,62.988,1.000
1626203044374451.500,83.496,-32.715,-28.320,172.852,1.000
1626203044378357.750,95.215,-33.203,-19.531,-94.727,1.000
1626203044382264.000,-107.910,-29.297,-31.250,-242.676,1.000
1626203044386170.250,-176.758,-24.902,-47.852,1.953,1.000
1626203044390076.500,8.789,-23.926,-25.391,188.965,1.000
1626203044393982.750,121.582,-8.789,-8.301,-21.973,1.000
1626203044397889.000,-63.965,-28.320,-42.969,-254.395,1.000
1626203044401795.250,-205.078,-44.922,-28.320,-96.680,1.000
1626203044405701.500,-32.227,-42.969,-10.254,160.156,1.000
1626203044409607.750,141.113,-38.574,-20.996,51.758,1.000
1626203044413514.000,2.930,-58.594,-31.250,0.977,1.000
1626203044417420.250,-188.965,-80.566,-35.156,-245.117,1.000
1626203044421326.500,-101.562,-44.434,-22.949,-103.516,1.000
1626203044425232.750,85.938,-0.488,-19.043,149.414,1.000
1626203044429139.000,43.945,0.000,-49.316,67.871,1.000
1626203044433045.250,-138.672,-19.043,-54.199,-185.059,1.000
1626203044436951.500,-123.535,-32.715,-17.578,-143.066,1.000
1626203044440857.750,83.984,-29.785,1.953,137.207,1.000
1626203044444764.000,97.656,-18.066,-8.301,149.902,1.000
1626203044448670.250,-111.328,-24.902,-27.344,-139.160,1.000
1626203044452576.500,-180.176,-34.180,-39.062,-220.215,1.000
1626203044456482.750,31.250,-27.344,-24.414,63.477,1.000
1626203044460389.000,165.527,-36.133,4.395,213.379,1.000
1626203044464295.250,-18.555,-34.180,-7.324,-44.434,1.000
1626203044468201.500,-186.523,-11.719,-39.062,-252.441,1.000
1626203044472107.750,-45.410,-6.836,-37.109,-49.316,1.000
1626203044476014.000,155.762,-14.648,-19.043,198.730,1.000
1626203044479920.250,64.453,-8.789,-40.039,51.758,1.000
1626203044483826.500,-162.109,-15.137,-60.547,-221.191,1.000
1626203044487732.750,-117.188,-53.711,-40.527,-137.695,1.000
1626203044491639.000,92.773,-46.387,-19.043,132.812,1.000
1626203044495545.250,67.383,-17.090,-25.391,80.566,1.000
1626203044499451.500,-134.766,-15.625,-26.855,-196.289,1.000
1626203044503357.750,-139.648,-20.508,-8.789,-183.105,1.000
1626203044507264.000,-87.402,-22.461,-43.945,-233.398,1.000
1626203044511170.250,-200.684,-45.898,-45.410,-65.430,1.000
1626203044515076.500,-14.648,-45.410,-28.809,182.129,1.000
1626203044518982.750,149.902,-35.156,-16.602,60.547,1.000
1626203044522889.000,-6.836,-48.828,-21.484,-214.844,1.000
1626203044526795.250,-212.891,-62.012,-26.367,-147.949,1.000
1626203044530701.500,-118.652,-42.480,-23.438,149.414,1.000
1626203044534607.750,79.590,-30.273,-25.879,125.977,1.000
1626203044538514.000,33.691,-20.020,-42.480,-178.711,1.000
1626203044542420.250,-162.598,-24.414,-51.758,-227.539,1.000
1626203044546326.500,-143.066,-25.879,-42.480,41.504,1.000
1626203044550232.750,95.215,-0.977,-27.344,139.648,1.000
1626203044554139.000,134.766,3.418,-20.508,1.000,1.000
1626203044558045.250,-82.031,-33.203,-19.043,1.000,1.000
1626203044561951.500,-163.086,-60.547,-18.555,1.000,1.000
1626203044565857.750,33.203,-35.645,-5.859,1.000,1.000
1626203044569764.000,123.535,-17.578,-15.625,1.000,1.000
1626203044573670.250,-65.918,-20.508,-52.734,1.000,1.000
1626203044577576.500,-206.543,-30.762,-60.547,1.000,1.000
1626203044581482.750,-46.387,-24.902,-34.180,1.000,1.000
1626203044585389.000,128.906,-11.719,-20.020,1.000,1.000
1626203044589295.250,15.625,-32.227,-48.828,1.000,1.000
1626203044593201.500,-153.320,-46.875,-55.176,1.000,1.000
1626203044597107.750,-41.016,-30.762,-15.625,1.000,1.000
1626203044601014.000,41.504,-20.508,-26.367,-151.855,1.000
1626203044604920.250,-147.461,-40.527,-22.461,-195.312,1.000
1626203044608826.500,-144.043,-51.758,-45.898,74.219,1.000
1626203044612732.750,36.621,-41.992,-58.594,173.340,1.000
1626203044616639.000,65.430,-30.762,-30.273,-96.191,1.000
1626203044620545.250,-133.789,-37.109,-29.785,-250.488,1.000
1626203044624451.500,-188.965,-41.504,-41.504,-2.930,1.000
1626203044628357.750,39.062,0.977,-32.227,174.805,1.000
1626203044632264.000,130.371,19.531,-32.227,-23.438,1.000
1626203044636170.250,-67.383,-43.945,-41.992,-224.121,1.000
1626203044640076.500,-174.316,-56.641,-26.367,-83.984,1.000
1626203044643982.750,-20.996,-34.180,-15.137,150.391,1.000
1626203044647889.000,107.910,-43.457,-34.668,1.000,1.000
1626203044651795.250,-22.949,-49.805,-53.223,1.000,1.000
1626203044655701.500,-193.848,-30.762,-37.598,1.000,1.000
1626203044659607.750,-122.070,-32.715,-35.156,1.000,1.000
1626203044663514.000,82.520,-39.062,-32.227,1.000,1.000
1626203044667420.250,71.289,-12.207,-19.043,1.000,1.000
1626203044671326.500,-153.320,-6.348,-46.875,1.000,1.000
1626203044675232.750,-158.203,-16.602,-36.133,1.000,1.000
1626203044679139.000,53.711,-25.879,-14.160,1.000,1.000
1626203044683045.250,95.703,-33.691,-12.207,1.000,1.000
1626203044686951.500,-111.816,-46.387,-24.414,1.000,1.000
1626203044690857.750,-212.891,-55.176,-54.199,1.000,1.000
1626203044694764.000,-181.641,-41.504,-35.156,-196.289,1.000
1626203044698670.250,-107.422,-40.039,-30.273,98.633,1.000
1626203044702576.500,108.887,-24.414,-23.926,143.066,1.000
1626203044706482.750,86.914,-9.766,-17.578,-114.746,1.000
1626203044710389.000,-132.812,-32.715,-42.480,-209.473,1.000
1626203044714295.250,-171.875,-49.316,-53.711,41.016,1.000
1626203044718201.500,37.598,-35.645,-45.410,192.383,1.000
1626203044722107.750,113.281,-27.832,-30.273,-42.480,1.000
1626203044726014.000,-55.664,-15.625,-30.273,-243.164,1.000
1626203044729920.250,-152.832,-33.691,-37.598,-61.523,1.000
1626203044733826.500,7.324,-51.270,-22.461,174.316,1.000
1626203044737732.750,122.559,-28.320,-22.949,39.062,1.000
1626203044741639.000,-20.508,-10.742,-34.180,-43.457,1.000
1626203044745545.250,-177.734,-2.441,-33.691,-250.488,1.000
1626203044749451.500,-45.410,16.602,-13.184,-65.918,1.000
1626203044753357.750,138.184,-7.812,-30.762,168.457,1.000
1626203044757264.000,39.551,-41.016,-65.430,23.926,1.000
1626203044761170.250,-140.137,-29.297,-61.035,-217.285,1.000
1626203044765076.500,-97.168,-24.902,-54.688,-144.043,1.000
1626203044768982.750,88.867,-47.363,-41.016,112.305,1.000
1626203044772889.000,72.754,-58.594,-32.227,84.961,1.000
1626203044776795.250,-138.184,-37.598,-40.527,-197.754,1.000
1626203044780701.500,-180.176,-21.973,-65.430,-236.816,1.000
1626203044784607.750,42.969,0.977,-52.734,67.383,1.000
1626203044788514.000,151.855,7.812,-14.160,1.000,1.000
1626203044792420.250,-34.668,-25.391,-22.461,1.000,1.000
1626203044796326.500,-177.734,-44.922,-34.668,1.000,1.000
1626203044800232.750,-50.781,-33.691,-43.945,1.000,1.000
1626203044804139.000,103.027,-7.812,-38.086,1.000,1.000
1626203044808045.250,-6.348,-6.836,-29.785,1.000,1.000
1626203044811951.500,-183.594,-35.645,-56.152,1.000,1.000
1626203044815857.750,-91.797,-38.574,-66.895,1.000,1.000
1626203044819764.000,106.934,-9.277,-45.898,1.000,1.000
1626203044823670.250,72.754,0.488,-11.230,1.000,1.000
1626203044827576.500,-126.465,-28.809,-9.766,1.000,1.000
1626203044831482.750,-131.836,-40.527,-34.668,1.000,1.000
1626203044835389.000,-182.129,-45.898,-48.340,-240.723,1.000
1626203044839295.250,-54.688,-45.410,-45.898,-55.664,1.000
1626203044843201.500,109.375,-31.250,-32.227,158.691,1.000
1626203044847107.750,27.832,-10.254,-25.391,13.184,1.000
1626203044851014.000,-155.273,-19.531,-41.992,-228.516,1.000
1626203044854920.250,-110.352,-19.043,-61.523,-136.719,1.000
1626203044858826.500,98.633,1.465,-37.598,133.789,1.000
1626203044862732.750,90.332,-9.766,-17.578,102.539,1.000
1626203044866639.000,-138.184,-59.082,-39.551,-194.336,1.000
1626203044870545.250,-170.410,-50.293,-42.480,-209.473,1.000
1626203044874451.500,24.902,-12.695,-49.316,57.129,1.000
1626203044878357.750,95.703,-3.906,-48.340,129.883,1.000
1626203044882264.000,-81.543,-23.926,-46.387,1.000,1.000
1626203044886170.250,-194.824,-32.227,-62.012,1.000,1.000
1626203044890076.500,-13.184,-25.391,-41.016,1.000,1.000
1626203044893982.750,139.648,-31.250,-12.207,1.000,1.000
1626203044897889.000,1.465,-45.898,-14.648,1.000,1.000
1626203044901795.250,-151.367,-44.922,-20.996,1.000,1.000
1626203044905701.500,-64.941,-29.297,-29.297,1.000,1.000
1626203044909607.750,96.680,-3.418,-34.180,1.000,1.000
1626203044913514.000,25.391,-8.301,-41.504,1.000,1.000
1626203044917420.250,-148.926,-17.578,-28.320,1.000,1.000
1626203044921326.500,-104.004,-41.992,-27.832,1.000,1.000
1626203044925232.750,84.473,-65.430,-53.223,1.000,1.000
1626203044929139.000,84.961,-40.527,-47.852,1.000,1.000
1626203044933045.250,-104.492,-27.832,-22.949,1.000,1.000
1626203044936951.500,-122.559,0.488,-6.836,1.000,1.000
1626203044940857.750,60.059,-20.020,-21.484,1.000,1.000
1626203044944764.000,116.699,-55.664,-45.898,1.000,1.000
1626203044948670.250,-69.824,-40.527,-45.898,1.000,1.000
1626203044952576.500,-191.406,-39.551,-41.016,1.000,1.000
1626203044956482.750,-21.973,-34.180,-41.504,1.000,1.000
1626203044960389.000,123.047,-22.461,-42.969,1.000,1.000
1626203044964295.250,-14.160,-30.273,-37.109,1.000,1.000
1626203044968201.500,-185.059,-40.039,-23.438,1.000,1.000
1626203044972107.750,-77.148,-26.855,-29.785,1.000,1.000
1626203044976014.000,-167.480,-41.504,-53.223,-221.191,1.000
1626203044979920.250,-196.289,-56.152,-53.711,-225.098,1.000
1626203044983826.500,26.367,-69.824,-32.227,65.430,1.000
1626203044987732.750,106.445,-77.148,-20.020,130.371,1.000
1626203044991639.000,-71.289,-54.688,-28.320,-131.348,1.000
1626203044995545.250,-171.875,-23.438,-44.922,-244.141,1.000
1626203044999451.500,-28.809,-21.484,-55.664,-26.367,1.000
1626203045003357.750,91.797,-15.625,-32.227,127.441,1.000
1626203045007264.000,-34.668,-16.602,-24.414,-73.242,1.000
1626203045011170.250,-196.777,-42.969,-50.293,-275.391,1.000
1626203045015076.500,-87.891,-52.246,-50.293,-91.797,1.000
1626203045018982.750,109.863,-55.664,-20.996,159.180,1.000
1626203045022889.000,51.270,-51.270,-9.766,1.000,1.000
1626203045026795.250,-169.922,-57.129,-46.387,1.000,1.000
1626203045030701.500,-134.277,-36.621,-47.852,1.000,1.000
1626203045034607.750,95.703,-17.578,-26.855,1.000,1.000
1626203045038514.000,93.750,-26.855,-16.602,1.000,1.000
1626203045042420.250,-118.164,-24.414,-26.367,1.000,1.000
1626203045046326.500,-163.086,-27.344,-42.969,1.000,1.000
1626203045050232.750,28.320,-50.781,-34.668,1.000,1.000
1626203045054139.000,94.238,-77.637,-31.250,1.000,1.000
1626203045058045.250,-76.172,-60.059,-21.973,1.000,1.000
1626203045061951.500,-165.527,-20.508,-23.438,1.000,1.000
1626203045065857.750,-13.184,-8.789,-34.180,1.000,1.000
1626203045069764.000,121.582,-7.812,-27.344,1.000,1.000
1626203045073670.250,1.465,-17.090,-44.922,1.000,1.000
1626203045077576.500,-172.852,-31.250,-60.547,1.000,1.000
1626203045081482.750,-66.406,-31.738,-28.809,1.000,1.000
1626203045085389.000,124.512,-40.527,-3.418,1.000,1.000
1626203045089295.250,38.574,-64.453,-1.465,1.000,1.000
1626203045093201.500,-165.527,-62.500,-18.555,1.000,1.000
1626203045097107.750,-118.652,-38.086,-28.809,1.000,1.000
1626203045101014.000,67.383,-22.461,-35.156,1.000,1.000
1626203045104920.250,59.570,-4.395,-31.738,1.000,1.000
1626203045108826.500,-138.672,-20.508,-45.898,1.000,1.000
1626203045112732.750,-182.129,-46.387,-45.410,1.000,1.000
1626203045116639.000,-150.879,-12.207,-17.578,-160.156,1.000
1626203045120545.250,-71.777,-28.809,-40.039,127.930,1.000
1626203045124451.500,127.441,-19.043,-43.457,143.555,1.000
1626203045128357.750,82.520,-2.441,-26.367,-150.391,1.000
1626203045132264.000,-143.555,-25.391,-30.762,-206.055,1.000
1626203045136170.250,-157.715,-47.852,-39.062,74.219,1.000
1626203045140076.500,48.828,-31.738,-32.227,153.809,1.000
1626203045143982.750,109.863,-17.090,-18.555,-104.980,1.000
1626203045147889.000,-82.031,-20.996,-20.996,-253.906,1.000
1626203045151795.250,-154.297,-35.645,-21.484,-16.602,1.000
1626203045155701.500,22.949,-41.504,-23.926,189.453,1.000
1626203045159607.750,129.883,-18.555,-25.391,14.648,1.000
1626203045163514.000,-20.020,-18.066,-30.762,-39.062,1.000
1626203045167420.250,-166.504,-25.879,-35.645,-222.168,1.000
1626203045171326.500,-34.668,-24.414,-34.668,-28.320,1.000
1626203045175232.750,131.348,-27.832,-41.992,190.430,1.000
1626203045179139.000,18.555,-34.180,-50.781,25.391,1.000
1626203045183045.250,-188.965,-42.969,-44.922,-241.211,1.000
1626203045186951.500,-122.070,-31.250,-27.832,-132.812,1.000
1626203045190857.750,85.938,-21.484,-20.508,145.996,1.000
1626203045194764.000,70.801,-23.926,-22.461,96.191,1.000
1626203045198670.250,-145.996,-24.902,-44.434,-199.219,1.000
1626203045202576.500,-173.340,-29.785,-42.969,-208.496,1.000
1626203045206482.750,57.129,-31.738,-22.461,93.262,1.000
1626203045210389.000,128.906,-39.062,-25.391,164.551,1.000
1626203045214295.250,-68.359,-45.898,-37.109,-103.027,1.000
1626203045218201.500,-172.852,-32.227,-39.551,-220.703,1.000
1626203045222107.750,-8.789,-15.625,-41.016,18.555,1.000
1626203045226014.000,128.906,-30.762,-35.156,188.965,1.000
1626203045229920.250,-15.625,-47.363,-46.387,-28.809,1.000
1626203045233826.500,-193.848,-36.621,-51.758,-249.023,1.000
1626203045237732.750,-63.477,-20.020,-12.207,-64.453,1.000
1626203045241639.000,108.887,-22.949,-23.438,165.527,1.000
1626203045245545.250,9.277,-40.039,-65.430,22.949,1.000
1626203045249451.500,-161.133,-51.270,-51.270,-217.285,1.000
1626203045253357.750,-121.094,-54.688,-21.484,-141.602,1.000
1626203045257264.000,-220.703,-45.898,-42.969,-272.949,1.000
1626203045261170.250,-64.453,-39.062,-40.527,-48.340,1.000
1626203045265076.500,104.004,-35.156,-37.598,169.434,1.000
1626203045268982.750,-3.418,-27.344,-20.508,1.465,1.000
1626203045272889.000,-186.523,-35.645,-28.809,-233.398,1.000
1626203045276795.250,-104.980,-27.832,-45.898,-102.051,1.000
1626203045280701.500,97.656,-23.926,-43.945,158.203,1.000
1626203045284607.750,45.898,-52.734,-29.297,73.242,1.000
1626203045288514.000,-168.457,-65.918,-33.203,-204.102,1.000
1626203045292420.250,-158.203,-40.527,-29.297,-176.758,1.000
1626203045296326.500,65.430,4.395,-33.203,110.840,1.000
1626203045300232.750,100.586,1.465,-49.316,137.207,1.000
1626203045304139.000,-108.398,-18.066,-38.086,-140.625,1.000
1626203045308045.250,-187.012,-13.672,-31.250,-224.121,1.000
1626203045311951.500,12.207,-2.930,-32.715,40.527,1.000
1626203045315857.750,130.859,0.488,-37.598,176.270,1.000
1626203045319764.000,-45.410,-32.715,-41.016,-75.684,1.000
1626203045323670.250,-212.402,-63.477,-40.527,-272.949,1.000
1626203045327576.500,-68.848,-49.805,-32.227,-67.383,1.000
1626203045331482.750,128.418,-33.203,-28.809,164.551,1.000
1626203045335389.000,39.062,-16.602,-36.621,15.625,1.000
1626203045339295.250,-151.855,-11.230,-32.227,-229.492,1.000
1626203045343201.500,-85.449,-4.395,-23.438,-121.094,1.000
1626203045347107.750,102.051,-2.930,-33.203,138.184,1.000
1626203045351014.000,63.477,-16.113,-41.992,1.000,1.000
1626203045354920.250,-132.812,-31.250,-31.738,1.000,1.000
1626203045358826.500,-136.230,-21.973,-28.809,1.000,1.000
1626203045362732.750,66.895,-2.441,-19.531,1.000,1.000
1626203045366639.000,103.516,-22.949,-25.391,1.000,1.000
1626203045370545.250,-90.332,-32.227,-66.895,1.000,1.000
1626203045374451.500,-181.152,-22.949,-70.312,1.000,1.000
1626203045378357.750,-1.465,-45.410,-31.738,1.000,1.000
1626203045382264.000,131.836,-37.598,-9.277,1.000,1.000
1626203045386170.250,-19.043,-9.766,-26.855,1.000,1.000
1626203045390076.500,-186.523,-17.090,-40.039,1.000,1.000
1626203045393982.750,-55.664,-9.277,-38.086,1.000,1.000
1626203045397889.000,-178.223,-33.203,-42.969,11.719,1.000
1626203045401795.250,8.789,-61.523,-49.316,182.617,1.000
1626203045405701.500,104.492,-56.641,-35.156,-41.016,1.000
1626203045409607.750,-49.316,-22.461,-28.320,-269.531,1.000
1626203045413514.000,-182.129,-16.602,-37.598,-96.191,1.000
1626203045417420.250,-41.016,-11.719,-23.926,178.223,1.000
1626203045421326.500,100.098,-22.949,-15.137,64.941,1.000
1626203045425232.750,-33.691,-47.363,-28.809,-207.520,1.000
1626203045429139.000,-201.172,-61.523,-32.715,-156.738,1.000
1626203045433045.250,-71.777,-39.551,-7.324,99.609,1.000
1626203045436951.500,131.836,-29.297,-11.719,85.449,1.000
1626203045440857.750,72.754,-43.945,-25.879,-188.477,1.000
1626203045444764.000,-134.766,-47.852,-27.832,-178.711,1.000
1626203045448670.250,-139.160,-45.410,-23.926,-160.156,1.000
1626203045452576.500,69.824,-16.113,-16.602,120.605,1.000
1626203045456482.750,80.566,-7.812,-35.645,122.559,1.000
1626203045460389.000,-129.395,-21.484,-36.621,-162.598,1.000
1626203045464295.250,-178.711,-34.668,-15.625,-219.727,1.000
1626203045468201.500,23.438,-39.062,-2.930,54.688,1.000
1626203045472107.750,121.582,-31.250,-0.488,176.270,1.000
1626203045476014.000,-59.082,-34.180,-20.508,-75.195,1.000
1626203045479920.250,-193.848,-36.621,-38.574,-245.605,1.000
1626203045483826.500,-37.598,-29.785,-28.320,-24.902,1.000
1626203045487732.750,129.395,-11.230,-12.695,193.848,1.000
1626203045491639.000,21.973,-20.020,-18.555,1.000,1.000
1626203045495545.250,-181.152,-51.758,-41.504,1.000,1.000
1626203045499451.500,-103.027,-34.668,-30.273,1.000,1.000
1626203045503357.750,110.352,-21.973,-8.301,1.000,1.000
1626203045507264.000,80.078,-31.250,-7.812,1.000,1.000
1626203045511170.250,-123.535,-39.062,-20.020,1.000,1.000
1626203045515076.500,-155.273,-61.035,-36.133,1.000,1.000
1626203045518982.750,47.363,-56.152,-33.691,1.000,1.000
1626203045522889.000,101.562,-37.598,-26.367,1.000,1.000
1626203045526795.250,-68.359,-29.297,-12.207,1.000,1.000
1626203045530701.500,-152.344,-22.461,-16.602,1.000,1.000
1626203045534607.750,6.836,-18.555,-34.668,1.000,1.000
1626203045538514.000,119.629,-26.855,-56.641,181.641,1.000
1626203045542420.250,-47.852,-38.086,-64.453,-61.523,1.000
1626203045546326.500,-195.801,-33.203,-34.668,-248.535,1.000
1626203045550232.750,-71.289,-40.039,-24.902,-52.734,1.000
1626203045554139.000,86.914,-55.176,-22.461,150.879,1.000
1626203045558045.250,5.371,-34.668,-22.949,0.977,1.000
1626203045561951.500,-174.316,-23.438,-37.109,-234.375,1.000
1626203045565857.750,-127.441,-31.738,-22.949,-138.184,1.000
1626203045569764.000,75.684,-19.531,-16.113,134.766,1.000
1626203045573670.250,65.918,-5.859,-20.996,89.844,1.000
1626203045577576.500,-120.605,-14.648,-20.996,-179.688,1.000
1626203045581482.750,-123.047,-33.203,-32.715,-167.480,1.000
1626203045585389.000,-167.480,-18.555,-16.113,110.840,1.000
1626203045589295.250,-98.633,-43.945,-35.156,151.855,1.000
1626203045593201.500,84.473,-39.062,-44.922,-122.559,1.000
1626203045597107.750,14.160,-45.898,-48.340,-244.629,1.000
1626203045601014.000,-187.988,-67.871,-50.293,19.531,1.000
1626203045604920.250,-148.926,-66.406,-32.715,196.289,1.000
1626203045608826.500,71.777,-48.828,-19.531,-35.645,1.000
1626203045612732.750,83.496,-45.410,-28.320,-258.789,1.000
1626203045616639.000,-108.398,-35.156,-34.668,-85.449,1.000
1626203045620545.250,-159.180,-15.137,-37.109,171.875,1.000
1626203045624451.500,15.625,-20.508,-29.785,55.664,1.000
1626203045628357.750,112.793,-28.320,-21.973,-208.008,1.000
1626203045632264.000,-53.223,-23.926,-23.926,1.000,1.000
1626203045636170.250,-198.242,-37.109,-28.809,1.000,1.000
1626203045640076.500,-43.945,-51.270,-21.484,1.000,1.000
1626203045643982.750,110.840,-53.711,-17.090,1.000,1.000
1626203045647889.000,-27.344,-57.617,-31.250,1.000,1.000
1626203045651795.250,-192.383,-61.523,-36.133,1.000,1.000
1626203045655701.500,-82.520,-36.621,-32.227,1.000,1.000
1626203045659607.750,139.648,11.719,-15.137,1.000,1.000
1626203045663514.000,78.613,2.930,-19.043,1.000,1.000
1626203045667420.250,-154.785,-20.020,-34.668,1.000,1.000
1626203045671326.500,-142.578,-15.137,-28.809,1.000,1.000
1626203045675232.750,75.684,-10.254,-15.625,1.000,1.000
1626203045679139.000,-206.055,-36.133,-48.340,-248.047,1.000
1626203045683045.250,-29.297,-13.672,-37.109,5.859,1.000
1626203045686951.500,149.414,7.812,-23.926,206.543,1.000
1626203045690857.750,8.301,-4.883,-35.156,-13.184,1.000
1626203045694764.000,-167.969,-41.992,-39.551,-230.957,1.000
1626203045698670.250,-61.035,-43.457,-36.133,-62.988,1.000
1626203045702576.500,121.582,-12.207,-26.855,179.688,1.000
1626203045706482.750,71.289,-10.742,-1.465,77.148,1.000
1626203045710389.000,-142.578,-36.133,-27.832,-204.590,1.000
1626203045714295.250,-132.812,-41.504,-49.805,-156.250,1.000
1626203045718201.500,76.172,-32.227,-23.926,125.488,1.000
1626203045722107.750,66.406,-41.016,-24.414,104.980,1.000
1626203045726014.000,-136.719,-62.988,-31.738,1.000,1.000
1626203045729920.250,-181.152,-50.781,-38.574,1.000,1.000
1626203045733826.500,28.809,-10.254,-39.551,1.000,1.000
1626203045737732.750,121.582,-14.648,-36.133,1.000,1.000
1626203045741639.000,-50.293,-9.766,-29.297,1.000,1.000
1626203045745545.250,-163.574,-12.695,-21.484,1.000,1.000
1626203045749451.500,-15.137,-43.457,-25.879,1.000,1.000
1626203045753357.750,124.512,-45.898,-31.738,1.000,1.000
1626203045757264.000,-20.020,-33.203,-41.016,1.000,1.000
1626203045761170.250,-202.148,-32.227,-36.133,1.000,1.000
1626203045765076.500,-91.309,-25.879,-15.137,1.000,1.000
1626203045768982.750,110.840,-20.996,-20.508,1.000,1.000
1626203045772889.000,42.969,-43.457,-47.852,1.000,1.000
1626203045776795.250,-175.781,-61.035,-54.199,1.000,1.000
1626203045780701.500,-146.484,-52.246,-35.156,1.000,1.000
1626203045784607.750,64.941,-34.180,-23.926,1.000,1.000
1626203045788514.000,93.262,-32.715,-14.648,1.000,1.000
1626203045792420.250,-96.680,-42.480,-45.898,1.000,1.000
1626203045796326.500,-187.500,-37.109,-84.961,1.000,1.000
1626203045800232.750,-1.465,-32.227,-40.527,1.000,1.000
1626203045804139.000,98.633,-47.852,-15.137,1.000,1.000
1626203045808045.250,-78.613,-45.410,-25.879,1.000,1.000
1626203045811951.500,-201.172,-39.062,-21.973,1.000,1.000
1626203045815857.750,-25.879,-21.484,-0.977,1.000,1.000
1626203045819764.000,-153.320,-37.598,-12.207,28.320,1.000
1626203045823670.250,52.246,-16.602,-6.836,158.691,1.000
1626203045827576.500,122.559,-4.883,-27.344,-68.359,1.000
1626203045831482.750,-62.988,-36.621,-46.875,-254.395,1.000
1626203045835389.000,-163.574,-62.500,-22.949,-60.059,1.000
1626203045839295.250,5.859,-44.434,-2.441,162.109,1.000
1626203045843201.500,124.512,-24.414,-17.090,16.113,1.000
1626203045847107.750,-33.203,-35.645,-33.691,-215.332,1.000
1626203045851014.000,-185.547,-40.527,-39.551,-105.469,1.000
1626203045854920.250,-54.199,-14.648,-33.691,153.809,1.000
1626203045858826.500,119.141,-16.113,-33.203,90.820,1.000
1626203045862732.750,23.438,-37.598,-41.992,-185.547,1.000
1626203045866639.000,1.465,-50.293,-30.273,-222.168,1.000
1626203045870545.250,-189.941,-56.152,-30.273,-136.719,1.000
1626203045874451.500,-83.008,-24.902,-21.973,172.852,1.000
1626203045878357.750,97.168,-16.602,-23.926,146.973,1.000
1626203045882264.000,41.504,-33.203,-23.926,-169.922,1.000
1626203045886170.250,-137.695,-30.273,-30.273,-206.543,1.000
1626203045890076.500,-122.070,-27.832,-29.785,85.449,1.000
1626203045893982.750,68.848,-41.016,-29.785,175.781,1.000
1626203045897889.000,85.938,-42.969,-35.645,-90.820,1.000
1626203045901795.250,-82.520,-26.855,-14.648,-239.258,1.000
1626203045905701.500,-136.719,-19.531,-21.484,0.977,1.000
1626203045909607.750,38.086,-25.879,-30.762,197.754,1.000
1626203045913514.000,-163.574,-15.137,-6.348,-126.953,1.000
1626203045917420.250,-57.129,-60.059,-18.066,151.367,1.000
1626203045921326.500,115.234,-49.805,-36.133,92.285,1.000
1626203045925232.750,41.504,-22.949,-41.504,-187.988,1.000
1626203045929139.000,-148.438,-23.438,-37.109,-183.105,1.000
1626203045933045.250,-110.352,-22.949,-25.391,86.426,1.000
1626203045936951.500,75.195,-20.508,-11.719,132.812,1.000
1626203045940857.750,62.012,-32.715,-17.578,-113.770,1.000
1626203045944764.000,-155.273,-47.852,-37.109,-220.703,1.000
1626203045948670.250,-175.781,-31.250,-22.949,33.691,1.000
1626203045952576.500,41.016,-23.926,-14.648,172.852,1.000
1626203045956482.750,118.164,-28.809,-12.695,-58.105,1.000
1626203045960389.000,-62.012,-23.926,-19.043,1.000,1.000
1626203045964295.250,-176.758,-26.367,-38.574,1.000,1.000
1626203045968201.500,11.719,-20.020,-18.066,1.000,1.000
1626203045972107.750,145.508,-24.902,-26.367,1.000,1.000
1626203045976014.000,-21.973,-44.922,-62.988,1.000,1.000
1626203045979920.250,-184.082,-38.574,-43.945,1.000,1.000
1626203045983826.500,-75.684,-30.762,-15.625,1.000,1.000
1626203045987732.750,126.465,-1.953,-2.441,1.000,1.000
1626203045991639.000,57.617,15.137,-25.391,1.000,1.000
1626203045995545.250,-169.922,-25.879,-48.340,1.000,1.000
1626203045999451.500,-138.184,-48.340,-34.180,1.000,1.000
1626203046003357.750,82.520,-43.945,-23.438,1.000,1.000
1626203046007264.000,-177.734,-55.664,-60.547,-244.141,1.000
1626203046011170.250,3.906,-49.316,-40.527,14.648,1.000
1626203046015076.500,127.930,-25.391,-17.090,166.016,1.000
1626203046018982.750,-37.109,-28.809,-29.785,-73.730,1.000
1626203046022889.000,-199.219,-36.133,-39.062,-263.184,1.000
1626203046026795.250,-65.918,-6.348,-40.527,-62.988,1.000
1626203046030701.500,106.934,-8.301,-51.758,155.762,1.000
1626203046034607.750,20.508,-23.926,-46.387,19.043,1.000
1626203046038514.000,-160.645,-12.695,-27.832,-223.145,1.000
1626203046042420.250,-102.051,-38.574,-14.160,-126.953,1.000
1626203046046326.500,95.215,-60.059,-14.160,139.648,1.000
1626203046050232.750,65.430,-38.086,-30.273,88.867,1.000
1626203046054139.000,-139.160,-30.273,-31.250,1.000,1.000
1626203046058045.250,-164.062,-26.367,-28.320,1.000,1.000
1626203046061951.500,40.039,-24.902,-42.969,1.000,1.000
1626203046065857.750,115.723,-17.578,-64.941,1.000,1.000
1626203046069764.000,-86.426,-18.555,-50.781,1.000,1.000
1626203046073670.250,-157.715,-21.973,-29.297,1.000,1.000
1626203046077576.500,41.992,-26.855,-24.902,1.000,1.000
1626203046081482.750,136.230,-31.738,-21.973,1.000,1.000
1626203046085389.000,-26.855,-62.012,-23.438,1.000,1.000
1626203046089295.250,-192.383,-68.359,-15.137,1.000,1.000
1626203046093201.500,-63.965,-31.738,-7.812,1.000,1.000
1626203046097107.750,126.953,-18.555,-7.812,1.000,1.000
1626203046101014.000,37.598,-20.996,-31.250,1.000,1.000
1626203046104920.250,-175.293,-26.855,-50.293,1.000,1.000
1626203046108826.500,-125.977,-19.043,-30.273,1.000,1.000
1626203046112732.750,75.684,-19.531,-27.832,1.000,1.000
1626203046116639.000,72.266,-31.250,-44.434,1.000,1.000
1626203046120545.250,-117.188,-45.410,-49.316,1.000,1.000
1626203046124451.500,-166.504,-51.758,-38.086,1.000,1.000
1626203046128357.750,27.344,-40.039,-24.414,1.000,1.000
1626203046132264.000,112.305,-37.109,-21.484,1.000,1.000
1626203046136170.250,-71.289,-35.645,-26.855,1.000,1.000
1626203046140076.500,-186.523,-34.180,-32.715,1.000,1.000
1626203046143982.750,-12.207,-33.691,-30.273,1.000,1.000
1626203046147889.000,-133.789,-19.043,-30.762,-156.250,1.000
1626203046151795.250,48.828,-25.879,-27.344,111.816,1.000
1626203046155701.500,83.496,-30.762,-22.949,137.695,1.000
1626203046159607.750,-86.426,-24.414,-34.180,-114.746,1.000
1626203046163514.000,-131.348,-20.996,-28.320,-168.457,1.000
1626203046167420.250,49.805,-39.551,-21.484,83.008,1.000
1626203046171326.500,102.539,-62.988,-33.691,161.621,1.000
1626203046175232.750,-71.777,-45.898,-25.879,-87.402,1.000
1626203046179139.000,-200.195,-26.855,-27.344,-251.953,1.000
1626203046183045.250,-57.617,-22.461,-27.832,-37.598,1.000
1626203046186951.500,128.906,-15.625,-7.812,192.383,1.000
1626203046190857.750,16.113,-16.602,-18.066,22.461,1.000
1626203046194764.000,-194.824,-40.039,-34.668,1.000,1.000
1626203046198670.250,-127.930,-44.434,-36.621,1.000,1.000
1626203046202576.500,102.051,-22.949,-18.066,1.000,1.000
1626203046206482.750,91.797,-16.113,-17.578,1.000,1.000
1626203046210389.000,-141.113,-40.527,-49.316,1.000,1.000
1626203046214295.250,-167.480,-36.621,-55.176,1.000,1.000
1626203046218201.500,51.270,-29.297,-37.598,1.000,1.000
1626203046222107.750,104.004,-55.176,-17.090,1.000,1.000
1626203046226014.000,-85.449,-40.039,-20.020,1.000,1.000
1626203046229920.250,-168.457,-15.137,-26.367,1.000,1.000
1626203046233826.500,13.672,-25.879,-23.438,1.000,1.000
1626203046237732.750,141.113,-7.324,-15.625,1.000,1.000
1626203046241639.000,-1.465,-5.371,-4.883,1.000,1.000
1626203046245545.250,-174.805,-40.527,-27.832,1.000,1.000
1626203046249451.500,-67.871,-36.133,-39.062,1.000,1.000
1626203046253357.750,106.445,-32.227,-34.180,1.000,1.000
1626203046257264.000,21.484,-33.691,-33.203,1.000,1.000
1626203046261170.250,-164.551,-39.551,-36.621,1.000,1.000
1626203046265076.500,-109.863,-39.551,-43.457,1.000,1.000
1626203046268982.750,105.957,-7.812,-22.949,1.000,1.000
1626203046272889.000,79.590,-30.273,-9.766,1.000,1.000
1626203046276795.250,-127.441,-41.016,-9.277,1.000,1.000
