timestamps,TP9,AF7,AF8,TP10,Right AUX
1626202998429139.000,116.699,-19.531,-5.859,132.324,1.000
1626202998433045.250,-98.145,-26.855,-20.020,-134.277,1.000
1626202998436951.500,-193.848,-35.156,-28.320,-222.168,1.000
1626202998440857.750,0.000,-37.109,-22.949,20.996,1.000
1626202998444764.000,111.816,-21.973,-27.344,138.672,1.000
1626202998448670.250,-56.641,-16.602,-32.715,-78.125,1.000
1626202998452576.500,-193.359,-26.855,-31.250,-225.098,1.000
1626202998456482.750,-53.711,-45.898,-27.344,-37.109,1.000
1626202998460389.000,108.398,-44.922,-32.715,151.855,1.000
1626202998464295.250,0.000,-36.621,-49.805,5.859,1.000
1626202998468201.500,-204.590,-56.152,-59.570,-231.445,1.000
1626202998472107.750,-147.461,-56.641,-47.852,-135.742,1.000
1626202998476014.000,-68.848,-41.992,-29.297,-57.129,1.000
1626202998479920.250,116.699,-42.969,-39.551,150.391,1.000
1626202998483826.500,27.832,-33.203,-47.852,23.438,1.000
1626202998487732.750,-171.387,-19.043,-30.762,-203.613,1.000
1626202998491639.000,-125.977,-17.578,-25.879,-120.117,1.000
1626202998495545.250,84.473,-24.902,-28.320,125.977,1.000
1626202998499451.500,68.359,-36.133,-23.438,82.031,1.000
1626202998503357.750,-146.484,-36.621,-28.320,-179.199,1.000
1626202998507264.000,-167.480,-24.902,-31.250,-191.895,1.000
1626202998511170.250,56.152,-28.320,-24.414,78.613,1.000
1626202998515076.500,116.699,-40.039,-31.250,141.602,1.000
1626202998518982.750,-91.797,-52.734,-50.781,-111.328,1.000
1626202998522889.000,-120.605,-32.227,-50.781,-162.598,1.000
1626202998526795.250,-188.965,-40.527,-78.125,-214.355,1.000
1626202998530701.500,25.391,-24.902,-64.453,48.340,1.000
1626202998534607.750,122.070,-17.090,-33.203,137.695,1.000
1626202998538514.000,-70.312,-46.387,-40.527,-103.027,1.000
1626202998542420.250,-172.852,-54.199,-39.062,-210.449,1.000
1626202998546326.500,-13.672,-34.668,-25.391,-0.977,1.000
1626202998550232.750,119.629,-2.930,-40.039,155.762,1.000
1626202998554139.000,-5.371,13.672,-49.316,-16.602,1.000
1626202998558045.250,-193.359,-13.672,-45.898,-228.516,1.000
1626202998561951.500,-96.191,-58.594,-27.344,-90.820,1.000
1626202998565857.750,125.977,-47.363,-17.090,166.016,1.000
1626202998569764.000,120.117,-6.836,-32.715,157.715,1.000
1626202998573670.250,10.742,-3.418,-27.832,1.465,1.000
1626202998577576.500,-162.598,-0.488,-22.461,-228.516,1.000
1626202998581482.750,-68.359,-12.207,-14.160,-93.750,1.000
1626202998585389.000,119.141,-41.992,-22.461,150.391,1.000
1626202998589295.250,62.012,-28.809,-25.391,68.848,1.000
1626202998593201.500,-176.270,-30.762,-31.738,-208.496,1.000
1626202998597107.750,-199.707,-47.363,-28.320,-199.707,1.000
1626202998601014.000,31.250,-47.363,-9.277,82.031,1.000
1626202998604920.250,72.754,-52.246,0.000,114.258,1.000
1626202998608826.500,-153.320,-66.895,-9.766,-151.367,1.000
1626202998612732.750,-256.348,-70.801,6.348,-240.723,1.000
1626202998616639.000,-249.023,-109.375,18.555,1.000,1.000
1626202998620545.250,-42.480,-104.980,26.855,1.000,1.000
1626202998624451.500,36.133,-87.891,26.855,1.000,1.000
1626202998628357.750,-139.648,-88.867,23.926,1.000,1.000
1626202998632264.000,-226.074,-96.191,9.277,1.000,1.000
1626202998636170.250,-30.273,-81.543,11.230,1.000,1.000
1626202998640076.500,101.562,-68.848,13.184,1.000,1.000
1626202998643982.750,-66.895,-74.707,-9.277,1.000,1.000
1626202998647889.000,-230.957,-69.336,-13.184,1.000,1.000
1626202998651795.250,-101.562,-61.523,-1.953,1.000,1.000
1626202998655701.500,93.262,-58.594,-5.371,1.000,1.000
1626202998659607.750,15.625,-54.688,-17.578,1.000,1.000
1626202998663514.000,4.395,-30.273,-24.414,-5.859,1.000
1626202998667420.250,-172.363,-46.387,-23.926,-210.449,1.000
1626202998671326.500,-83.496,-52.246,-7.812,-76.660,1.000
1626202998675232.750,108.398,-32.715,-14.648,157.227,1.000
1626202998679139.000,36.133,-32.715,-37.598,46.387,1.000
1626202998683045.250,-156.250,-33.203,-43.945,-204.102,1.000
1626202998686951.500,-106.445,-24.902,-55.664,-128.418,1.000
1626202998690857.750,99.121,-16.602,-62.500,125.000,1.000
1626202998694764.000,83.496,-24.414,-46.387,89.844,1.000
1626202998698670.250,-154.297,-59.082,-26.367,-191.895,1.000
1626202998702576.500,-206.055,-58.594,-20.020,-231.934,1.000
1626202998706482.750,20.020,-33.691,-16.602,45.898,1.000
1626202998710389.000,68.848,-39.551,-24.902,110.840,1.000
1626202998714295.250,106.934,-22.949,-25.391,143.555,1.000
1626202998718201.500,-96.191,-12.695,-47.852,-125.000,1.000
1626202998722107.750,-174.805,-19.531,-62.012,-207.031,1.000
1626202998726014.000,23.926,-35.156,-26.367,52.246,1.000
1626202998729920.250,142.578,-19.043,-2.441,180.664,1.000
1626202998733826.500,-47.852,-31.738,-37.109,-68.359,1.000
1626202998737732.750,-197.266,-51.758,-37.598,-235.840,1.000
1626202998741639.000,-46.387,-31.250,-11.719,-21.973,1.000
1626202998745545.250,125.000,-23.926,-24.414,178.711,1.000
1626202998749451.500,5.859,-31.738,-32.715,6.836,1.000
1626202998753357.750,-208.496,-35.156,-24.414,-240.234,1.000
1626202998757264.000,-204.590,-79.102,9.277,-244.141,1.000
1626202998761170.250,-92.285,-83.008,-4.395,-75.684,1.000
1626202998765076.500,105.957,-25.879,-18.066,159.668,1.000
1626202998768982.750,18.555,-1.465,-38.574,27.344,1.000
1626202998772889.000,-196.777,-20.020,-61.523,-227.051,1.000
1626202998776795.250,-133.789,-16.113,-47.363,-128.418,1.000
1626202998780701.500,104.004,2.930,-12.695,160.156,1.000
1626202998784607.750,94.727,-8.789,-15.625,122.559,1.000
1626202998788514.000,-141.602,-49.805,-32.715,-175.781,1.000
1626202998792420.250,-197.266,-48.828,-48.340,-217.773,1.000
1626202998796326.500,30.273,-18.555,-29.785,66.895,1.000
1626202998800232.750,129.395,-14.648,-2.441,166.016,1.000
1626202998804139.000,89.844,-11.230,-33.203,122.559,1.000
1626202998808045.250,-132.324,-41.992,-38.574,-170.410,1.000
1626202998811951.500,-180.664,-38.086,-20.020,-202.148,1.000
1626202998815857.750,29.785,-41.504,10.742,77.637,1.000
1626202998819764.000,70.801,-62.988,4.395,128.418,1.000
1626202998823670.250,-153.320,-65.918,-17.090,-156.250,1.000
1626202998827576.500,-295.410,-53.223,-34.180,-311.523,1.000
1626202998831482.750,-112.793,-40.527,-39.551,-72.266,1.000
1626202998835389.000,85.449,-45.898,-44.922,144.043,1.000
1626202998839295.250,-62.988,-60.547,-38.086,-62.500,1.000
1626202998843201.500,-270.996,-45.410,-2.441,-306.641,1.000
1626202998847107.750,-171.875,-41.992,3.906,-165.039,1.000
1626202998851014.000,-49.805,-29.297,-20.020,1.000,1.000
1626202998854920.250,134.766,-13.184,-15.625,1.000,1.000
1626202998858826.500,23.438,-16.602,-20.508,1.000,1.000
1626202998862732.750,-178.223,-47.852,-33.203,1.000,1.000
1626202998866639.000,-102.051,-54.199,-16.113,1.000,1.000
1626202998870545.250,109.863,-46.387,-10.742,1.000,1.000
1626202998874451.500,61.035,-55.664,-29.785,1.000,1.000
1626202998878357.750,-155.762,-58.105,-27.832,1.000,1.000
1626202998882264.000,-158.691,-46.875,-24.414,1.000,1.000
1626202998886170.250,38.574,-18.066,-35.645,1.000,1.000
1626202998890076.500,85.449,-9.766,-25.391,1.000,1.000
1626202998893982.750,-104.492,-36.621,-37.109,1.000,1.000
1626202998897889.000,-158.203,-25.391,-50.781,-193.848,1.000
1626202998901795.250,-155.273,-25.879,-24.414,-183.105,1.000
1626202998905701.500,64.941,-26.367,-35.156,96.680,1.000
1626202998909607.750,112.793,-9.277,-58.594,141.602,1.000
1626202998913514.000,-81.543,-38.086,-54.199,-117.188,1.000
1626202998917420.250,-154.785,-67.871,-26.367,-206.055,1.000
1626202998921326.500,18.066,-47.852,-12.695,31.250,1.000
1626202998925232.750,146.484,-30.273,-18.066,186.523,1.000
1626202998929139.000,2.930,-16.113,-26.367,-21.973,1.000
1626202998933045.250,-181.152,-3.418,-36.621,-235.352,1.000
1626202998936951.500,-44.922,18.555,-38.086,-41.504,1.000
1626202998940857.750,141.602,0.000,-58.594,186.523,1.000
1626202998944764.000,123.047,-33.203,-29.297,165.039,1.000
1626202998948670.250,9.277,-19.531,-34.668,-6.348,1.000
1626202998952576.500,-174.805,-34.180,-51.758,-230.957,1.000
1626202998956482.750,-63.477,-15.625,-42.969,-73.730,1.000
1626202998960389.000,128.418,-10.254,-48.340,174.316,1.000
1626202998964295.250,50.781,-31.250,-40.039,60.059,1.000
1626202998968201.500,-146.973,-22.949,-43.457,-201.660,1.000
1626202998972107.750,-105.957,-13.184,-27.344,-131.348,1.000
1626202998976014.000,105.469,-45.410,-12.695,143.555,1.000
1626202998979920.250,87.891,-68.359,-41.992,119.141,1.000
1626202998983826.500,-134.277,-40.527,-46.387,-168.945,1.000
1626202998987732.750,-174.316,-9.277,-23.438,-207.520,1.000
1626202998991639.000,-168.457,-59.570,-57.617,1.000,1.000
1626202998995545.250,46.875,-55.664,-54.688,1.000,1.000
1626202998999451.500,103.516,-29.297,-27.832,1.000,1.000
1626202999003357.750,-97.168,-31.250,-19.043,1.000,1.000
1626202999007264.000,-165.039,-77.148,-20.508,1.000,1.000
1626202999011170.250,37.598,-61.035,-5.859,1.000,1.000
1626202999015076.500,140.625,0.000,-13.184,1.000,1.000
1626202999018982.750,-44.922,2.930,-48.340,1.000,1.000
1626202999022889.000,-205.078,-26.855,-59.082,1.000,1.000
1626202999026795.250,-62.012,-36.621,-46.875,1.000,1.000
1626202999030701.500,113.281,-22.461,-40.527,1.000,1.000
1626202999034607.750,27.832,-6.836,-32.715,1.000,1.000
1626202999038514.000,-9.277,-36.621,-13.672,-31.250,1.000
1626202999042420.250,-192.871,-22.949,-17.090,-251.953,1.000
1626202999046326.500,-76.172,-28.320,-23.438,-82.031,1.000
1626202999050232.750,119.141,-38.086,-49.316,161.133,1.000
1626202999054139.000,56.152,6.836,-61.523,49.316,1.000
1626202999058045.250,-154.297,-0.977,-50.293,-222.168,1.000
1626202999061951.500,-139.160,-54.199,-32.715,-170.898,1.000
1626202999065857.750,75.684,-52.734,-16.113,111.328,1.000
1626202999069764.000,83.496,-47.363,-19.531,103.516,1.000
1626202999073670.250,-86.426,-6.836,-13.184,-139.160,1.000
1626202999077576.500,-125.977,0.488,-34.180,-166.992,1.000
1626202999081482.750,16.602,-49.316,-62.012,56.152,1.000
1626202999085389.000,45.410,-39.062,-35.645,100.098,1.000
1626202999089295.250,69.824,-41.992,-48.340,109.375,1.000
1626202999093201.500,-114.258,-37.598,-56.641,-148.438,1.000
1626202999097107.750,-176.270,-40.039,-61.035,-213.379,1.000
1626202999101014.000,22.949,-52.246,-40.527,56.641,1.000
1626202999104920.250,135.742,-48.828,-16.113,184.570,1.000
1626202999108826.500,-31.250,-11.230,-26.855,-60.059,1.000
1626202999112732.750,-180.176,-3.418,-58.594,-233.398,1.000
1626202999116639.000,-52.246,-21.973,-57.129,-36.133,1.000
1626202999120545.250,111.328,-28.809,-23.926,164.551,1.000
1626202999124451.500,-2.441,-53.223,-18.555,-6.836,1.000
1626202999128357.750,-190.430,-69.336,-53.223,-237.793,1.000
1626202999132264.000,-171.875,-32.715,-32.227,-232.910,1.000
1626202999136170.250,-21.484,-49.316,-14.160,-23.438,1.000
1626202999140076.500,143.555,-36.133,-11.230,183.594,1.000
1626202999143982.750,45.898,2.930,-28.809,24.902,1.000
1626202999147889.000,-145.020,-17.578,-41.504,-213.867,1.000
1626202999151795.250,-94.238,-16.113,-37.598,-113.770,1.000
1626202999155701.500,94.238,-17.578,-36.621,139.648,1.000
1626202999159607.750,54.199,-63.477,-36.133,74.707,1.000
1626202999163514.000,-138.184,-35.156,-41.016,-185.547,1.000
1626202999167420.250,-125.000,24.414,-38.086,-157.227,1.000
1626202999171326.500,79.102,19.043,-25.391,114.746,1.000
1626202999175232.750,110.840,-33.691,-34.668,148.438,1.000
1626202999179139.000,78.613,-21.973,-22.949,108.887,1.000
1626202999183045.250,-145.020,-29.785,-43.457,-181.641,1.000
1626202999186951.500,-160.156,-24.414,-46.875,-188.477,1.000
1626202999190857.750,64.453,-18.555,-33.203,101.074,1.000
1626202999194764.000,108.398,-36.621,-42.480,145.996,1.000
1626202999198670.250,-97.656,-53.223,-41.992,-134.277,1.000
1626202999202576.500,-204.102,-54.199,-38.086,-252.441,1.000
1626202999206482.750,-22.461,-24.902,-24.414,1.465,1.000
1626202999210389.000,123.047,-16.113,-17.090,177.734,1.000
1626202999214295.250,-19.043,-40.527,-32.227,-30.273,1.000
1626202999218201.500,-181.641,-37.109,-39.062,-240.234,1.000
1626202999222107.750,-57.617,-32.227,-14.648,-60.059,1.000
1626202999226014.000,-29.297,-50.293,-23.926,1.000,1.000
1626202999229920.250,116.699,-36.133,-50.293,1.000,1.000
1626202999233826.500,-1.465,-11.230,-57.617,1.000,1.000
1626202999237732.750,-187.500,-24.902,-40.527,1.000,1.000
1626202999241639.000,-100.586,-41.992,-9.277,1.000,1.000
1626202999245545.250,112.305,-12.207,-2.441,1.000,1.000
1626202999249451.500,66.406,3.906,-39.551,1.000,1.000
1626202999253357.750,-156.738,-23.926,-40.527,1.000,1.000
1626202999257264.000,-157.227,-42.480,-11.719,1.000,1.000
1626202999261170.250,57.129,-21.973,-2.930,1.000,1.000
1626202999265076.500,86.426,-18.066,-11.719,1.000,1.000
1626202999268982.750,-125.000,-48.340,-33.691,1.000,1.000
1626202999272889.000,-159.668,-30.762,-44.434,-208.496,1.000
1626202999276795.250,-143.066,-42.969,-18.066,-173.828,1.000
1626202999280701.500,67.383,-50.781,12.695,114.258,1.000
1626202999284607.750,92.773,-62.012,-1.953,135.254,1.000
1626202999288514.000,-119.629,-81.055,-34.180,-149.414,1.000
1626202999292420.250,-212.891,-42.480,-53.711,-245.605,1.000
1626202999296326.500,-26.855,-21.484,-56.641,17.090,1.000
1626202999300232.750,115.723,-27.344,-30.273,174.805,1.000
1626202999304139.000,-35.156,-3.418,-30.762,-51.270,1.000
1626202999308045.250,-199.707,-23.926,-39.062,-241.699,1.000
1626202999311951.500,-68.848,-34.180,-26.855,-50.781,1.000
1626202999315857.750,115.234,-23.438,-10.254,172.363,1.000
1626202999319764.000,122.070,-64.453,-43.945,181.152,1.000
1626202999323670.250,-25.879,-70.312,-5.859,-33.203,1.000
1626202999327576.500,-166.504,-22.949,12.207,-217.285,1.000
1626202999331482.750,-65.430,0.488,-16.602,-54.199,1.000
1626202999335389.000,91.797,6.348,-33.203,158.691,1.000
1626202999339295.250,36.133,-11.719,-18.555,47.852,1.000
1626202999343201.500,-155.273,-33.691,-38.086,-208.984,1.000
1626202999347107.750,-124.512,-21.484,-48.340,-139.648,1.000
1626202999351014.000,72.266,-23.926,-42.969,126.953,1.000
1626202999354920.250,59.570,-41.504,-34.668,95.215,1.000
1626202999358826.500,-128.906,-52.734,-23.438,-172.852,1.000
1626202999362732.750,-148.926,-42.480,-21.973,-189.941,1.000
1626202999366639.000,-122.559,-54.199,-23.926,1.000,1.000
1626202999370545.250,102.539,-51.758,-11.719,1.000,1.000
1626202999374451.500,110.352,-33.691,-52.734,1.000,1.000
1626202999378357.750,-96.191,-26.855,-68.359,1.000,1.000
1626202999382264.000,-156.250,-19.531,-41.016,1.000,1.000
1626202999386170.250,36.133,-1.953,-7.812,1.000,1.000
1626202999390076.500,142.090,-1.953,10.742,1.000,1.000
1626202999393982.750,-44.434,-24.414,-5.859,1.000,1.000
1626202999397889.000,-200.684,-35.156,-17.578,1.000,1.000
1626202999401795.250,-63.965,-36.621,-24.902,1.000,1.000
1626202999405701.500,98.145,-36.133,-35.156,1.000,1.000
1626202999409607.750,7.812,-38.086,-25.879,1.000,1.000
1626202999413514.000,-41.992,-41.992,-32.715,-51.758,1.000
1626202999417420.250,-180.176,-43.945,-64.941,-224.609,1.000
1626202999421326.500,-58.105,-29.297,-43.457,-31.250,1.000
1626202999425232.750,119.141,-15.137,2.441,187.988,1.000
1626202999429139.000,17.578,-30.762,-0.488,26.855,1.000
1626202999433045.250,-170.898,-16.113,-3.418,-214.355,1.000
1626202999436951.500,-94.238,-3.906,-3.418,-95.215,1.000
1626202999440857.750,90.820,-34.668,-21.484,154.785,1.000
1626202999444764.000,39.551,-53.711,-40.039,77.148,1.000
1626202999448670.250,-146.484,-23.926,-30.762,-187.500,1.000
1626202999452576.500,-137.207,-23.926,-18.066,-171.875,1.000
1626202999456482.750,68.848,-33.691,-31.250,101.562,1.000
1626202999460389.000,88.867,-15.625,-34.180,141.602,1.000
1626202999464295.250,67.871,-8.301,-24.902,94.727,1.000
1626202999468201.500,-144.043,-19.531,-28.320,-185.547,1.000
1626202999472107.750,-156.738,-22.461,-27.832,-186.035,1.000
1626202999476014.000,52.734,-11.230,-34.668,95.703,1.000
1626202999479920.250,120.117,-4.883,-12.207,172.363,1.000
1626202999483826.500,-73.730,-40.527,-9.766,-93.262,1.000
1626202999487732.750,-197.266,-55.664,-32.227,-236.816,1.000
1626202999491639.000,-32.227,-38.086,-36.621,0.977,1.000
1626202999495545.250,126.465,-23.926,-26.855,189.941,1.000
1626202999499451.500,0.000,-40.527,-37.598,-11.719,1.000
1626202999503357.750,-173.828,-82.520,-51.270,-233.887,1.000
1626202999507264.000,-204.590,-38.086,-47.363,-252.441,1.000
1626202999511170.250,-70.312,-53.711,-41.992,-42.969,1.000
1626202999515076.500,96.680,-37.109,-38.086,154.297,1.000
1626202999518982.750,-7.812,-39.062,-20.508,-17.578,1.000
1626202999522889.000,-182.129,-47.363,-21.973,-246.094,1.000
1626202999526795.250,-83.984,-34.668,-31.250,-103.027,1.000
1626202999530701.500,110.352,-41.504,-32.715,144.531,1.000
1626202999534607.750,81.543,-20.996,-41.504,67.871,1.000
1626202999538514.000,-123.047,-21.484,-53.711,-206.543,1.000
1626202999542420.250,-134.766,-24.902,-37.598,-179.199,1.000
1626202999546326.500,59.082,-5.371,-30.273,95.215,1.000
1626202999550232.750,80.078,-35.645,-29.297,104.004,1.000
1626202999554139.000,68.848,-9.277,-18.066,93.262,1.000
1626202999558045.250,-151.855,-43.945,-30.762,-202.637,1.000
1626202999561951.500,-163.086,-44.922,-37.109,-193.848,1.000
1626202999565857.750,68.359,-27.344,-36.133,104.980,1.000
1626202999569764.000,127.441,-21.484,-39.062,163.574,1.000
1626202999573670.250,-75.684,-24.414,-28.320,-117.676,1.000
1626202999577576.500,-202.637,-72.266,-42.969,-255.859,1.000
1626202999581482.750,-17.090,-62.012,-33.691,3.906,1.000
1626202999585389.000,128.418,-29.785,-15.625,169.922,1.000
1626202999589295.250,-8.301,-18.066,-28.809,-43.457,1.000
1626202999593201.500,-141.602,-15.137,-27.832,-210.938,1.000
1626202999597107.750,-44.434,-41.504,-25.879,-45.410,1.000
1626202999601014.000,-5.859,-6.836,-22.461,1.000,1.000
1626202999604920.250,112.305,-27.832,-47.852,1.000,1.000
1626202999608826.500,-21.973,-38.574,-40.039,1.000,1.000
1626202999612732.750,-182.129,-22.461,-36.133,1.000,1.000
1626202999616639.000,-74.707,-24.414,-30.273,1.000,1.000
1626202999620545.250,100.098,-26.855,-30.762,1.000,1.000
1626202999624451.500,21.484,-38.574,-50.781,1.000,1.000
1626202999628357.750,-154.785,-55.176,-46.387,1.000,1.000
1626202999632264.000,-106.934,-38.574,-20.020,1.000,1.000
1626202999636170.250,92.773,-8.301,-13.184,1.000,1.000
1626202999640076.500,79.102,-11.230,-32.715,1.000,1.000
1626202999643982.750,-122.559,-32.715,-41.016,1.000,1.000
1626202999647889.000,-187.988,-40.039,-11.230,-210.938,1.000
1626202999651795.250,-178.223,-38.574,-34.668,-175.781,1.000
1626202999655701.500,51.270,-27.832,-22.461,125.000,1.000
1626202999659607.750,93.262,-36.133,-24.414,149.414,1.000
1626202999663514.000,-108.887,-34.180,-41.992,-134.766,1.000
1626202999667420.250,-177.734,-36.621,-43.457,-210.449,1.000
1626202999671326.500,16.113,-45.410,-27.344,55.176,1.000
1626202999675232.750,126.465,-27.832,-19.043,184.570,1.000
1626202999679139.000,-44.922,-19.531,-35.156,-60.547,1.000
1626202999683045.250,-188.477,-41.504,-23.438,-229.004,1.000
1626202999686951.500,-35.645,-33.203,-14.160,-12.207,1.000
1626202999690857.750,129.883,-4.883,-5.859,195.801,1.000
1626202999694764.000,122.559,-24.902,-48.340,182.617,1.000
1626202999698670.250,-68.359,-65.430,-56.641,-71.777,1.000
1626202999702576.500,-208.496,-54.199,-28.320,-255.371,1.000
1626202999706482.750,-70.801,-37.598,-19.043,-56.152,1.000
1626202999710389.000,114.258,-16.602,-11.230,182.129,1.000
1626202999714295.250,20.020,-16.113,-22.461,28.809,1.000
1626202999718201.500,-179.688,-51.758,-42.480,-233.887,1.000
1626202999722107.750,-117.188,-59.570,-30.762,-132.812,1.000
1626202999726014.000,93.262,-27.832,-32.715,142.578,1.000
1626202999729920.250,84.473,-10.254,-26.367,101.562,1.000
1626202999733826.500,-127.441,-27.832,-20.996,-187.988,1.000
1626202999737732.750,-157.715,-22.461,-27.832,-198.730,1.000
1626202999741639.000,-142.578,-16.602,-38.086,-165.039,1.000
1626202999745545.250,83.496,-11.719,-40.527,126.953,1.000
1626202999749451.500,81.543,-46.387,-33.203,99.609,1.000
1626202999753357.750,-116.211,-61.035,-27.344,-172.363,1.000
1626202999757264.000,-131.348,-27.344,-11.719,-169.434,1.000
1626202999761170.250,61.035,-24.902,-9.766,102.539,1.000
1626202999765076.500,96.680,-48.340,-27.832,147.461,1.000
1626202999768982.750,-88.379,-42.480,-46.875,-121.094,1.000
1626202999772889.000,-186.523,-35.156,-48.340,-242.188,1.000
1626202999776795.250,-18.555,-17.090,-32.715,-5.371,1.000
1626202999780701.500,133.789,15.625,-51.758,183.105,1.000
1626202999784607.750,17.090,18.066,-57.129,-2.441,1.000
1626202999788514.000,-34.668,-24.414,-35.156,-67.383,1.000
1626202999792420.250,-197.266,-62.500,-41.504,-248.047,1.000
1626202999796326.500,-54.688,-74.219,-42.969,-41.504,1.000
1626202999800232.750,140.137,-41.992,-17.578,187.012,1.000
1626202999804139.000,17.578,-17.578,-28.809,6.836,1.000
1626202999808045.250,-174.805,-31.738,-42.480,-232.910,1.000
1626202999811951.500,-99.121,-35.645,-48.340,-107.422,1.000
1626202999815857.750,104.004,-7.812,-34.668,157.227,1.000
1626202999819764.000,73.242,-0.488,-14.160,90.820,1.000
1626202999823670.250,-147.949,-24.414,-36.621,-202.148,1.000
1626202999827576.500,-152.832,-32.227,-50.293,-188.965,1.000
1626202999831482.750,62.988,-22.461,-42.969,100.098,1.000
1626202999835389.000,106.934,-44.922,-45.898,160.156,1.000
1626202999839295.250,51.270,-56.152,-69.824,73.242,1.000
1626202999843201.500,-144.531,-26.855,-40.527,-198.242,1.000
1626202999847107.750,-142.578,-15.625,-28.320,-180.176,1.000
1626202999851014.000,50.293,-14.160,-44.922,92.285,1.000
1626202999854920.250,82.031,-20.996,-47.852,127.930,1.000
1626202999858826.500,-111.816,-27.832,-74.219,-146.484,1.000
1626202999862732.750,-172.852,-10.254,-57.129,-224.609,1.000
1626202999866639.000,9.277,-35.645,-23.926,39.551,1.000
1626202999870545.250,123.047,-50.781,-24.414,178.711,1.000
1626202999874451.500,-12.207,-29.785,-29.785,-35.156,1.000
1626202999878357.750,-164.551,-12.695,-37.598,-225.586,1.000
1626202999882264.000,-211.426,-47.363,-48.340,-263.672,1.000
1626202999886170.250,-55.176,-61.523,-69.336,-37.109,1.000
1626202999890076.500,108.887,-29.785,-70.312,158.691,1.000
1626202999893982.750,-14.160,-20.996,-31.250,-27.832,1.000
1626202999897889.000,-167.969,-22.461,-16.113,-237.305,1.000
1626202999901795.250,-60.547,-17.090,-29.297,-75.684,1.000
1626202999905701.500,110.840,-16.113,-23.438,159.180,1.000
1626202999909607.750,28.320,-8.789,-29.297,26.855,1.000
1626202999913514.000,-176.758,-22.461,-40.039,-246.094,1.000
1626202999917420.250,-125.977,-36.621,-19.531,-156.738,1.000
1626202999921326.500,97.168,-41.992,-14.648,139.648,1.000
1626202999925232.750,85.938,-55.664,-34.180,115.723,1.000
1626202999929139.000,34.180,-33.691,-20.020,56.641,1.000
1626202999933045.250,-164.551,-46.875,-18.066,-203.125,1.000
1626202999936951.500,-135.254,-38.574,-14.160,-150.391,1.000
1626202999940857.750,94.238,-10.742,-20.508,147.461,1.000
1626202999944764.000,117.188,-0.977,-44.922,162.109,1.000
1626202999948670.250,-81.543,-23.926,-18.555,-117.188,1.000
1626202999952576.500,-167.480,-44.434,-8.301,-210.449,1.000
1626202999956482.750,16.113,-36.621,-19.531,46.387,1.000
1626202999960389.000,125.000,-38.086,-18.066,174.805,1.000
1626202999964295.250,-63.965,-41.504,-35.156,-91.797,1.000
1626202999968201.500,-201.660,-29.785,-35.156,-259.277,1.000
1626202999972107.750,-43.457,-25.879,-31.738,-31.250,1.000
1626202999976014.000,5.859,-11.719,-1.465,40.527,1.000
1626202999979920.250,90.332,-34.668,-18.555,156.250,1.000
1626202999983826.500,-65.918,-58.105,-25.391,-67.383,1.000
1626202999987732.750,-187.500,-44.922,-18.555,-233.398,1.000
1626202999991639.000,-73.242,-32.715,-34.180,-51.270,1.000
1626202999995545.250,104.004,-39.551,-31.738,174.805,1.000
1626202999999451.500,23.438,-66.406,-24.414,37.598,1.000
1626203000003357.750,-178.711,-83.008,-26.367,-221.680,1.000
1626203000007264.000,-137.207,-52.246,-46.387,-138.672,1.000
1626203000011170.250,69.824,-25.391,-32.715,134.277,1.000
1626203000015076.500,55.176,-35.645,-4.395,86.914,1.000
1626203000018982.750,-151.367,-46.875,-11.719,-200.195,1.000
1626203000022889.000,-172.363,-41.992,-49.316,-225.098,1.000
1626203000026795.250,-122.070,-25.879,-31.738,-142.090,1.000
1626203000030701.500,91.309,-28.809,-25.879,138.184,1.000
1626203000034607.750,99.121,-41.504,-22.949,123.047,1.000
1626203000038514.000,-103.516,-20.996,-12.695,-153.809,1.000
1626203000042420.250,-158.691,-22.461,-20.020,-200.684,1.000
1626203000046326.500,27.344,-33.691,-24.414,65.430,1.000
1626203000050232.750,108.398,-23.926,-25.879,157.715,1.000
1626203000054139.000,-74.219,-43.945,-42.969,-108.887,1.000
1626203000058045.250,-209.961,-53.223,-62.988,-269.531,1.000
1626203000061951.500,-41.992,-33.203,-38.086,-30.762,1.000
1626203000065857.750,124.023,-16.113,-24.414,172.363,1.000
1626203000069764.000,123.535,-0.488,-18.555,182.617,1.000
1626203000073670.250,-62.988,-45.898,-45.410,-78.613,1.000
1626203000077576.500,-184.082,-49.316,-44.922,-227.051,1.000
1626203000081482.750,-30.273,-25.391,-36.133,-10.254,1.000
1626203000085389.000,113.770,-22.949,-34.668,178.711,1.000
1626203000089295.250,11.719,-15.625,-35.156,13.672,1.000
1626203000093201.500,-155.762,-41.992,-41.504,-215.332,1.000
1626203000097107.750,-75.684,-48.828,-28.320,-83.008,1.000
1626203000101014.000,99.121,-23.438,-21.973,156.250,1.000
1626203000104920.250,31.738,-23.438,-33.203,52.246,1.000
1626203000108826.500,-159.668,-34.668,-37.598,-217.773,1.000
1626203000112732.750,-142.090,-20.508,-32.227,-178.711,1.000
1626203000116639.000,-110.352,-36.621,-39.551,-122.559,1.000
1626203000120545.250,102.539,-37.109,-34.180,166.992,1.000
1626203000124451.500,74.219,-43.457,-32.715,104.492,1.000
1626203000128357.750,-131.348,-51.758,-43.945,-179.688,1.000
1626203000132264.000,-149.902,-39.551,-35.156,-178.223,1.000
1626203000136170.250,34.180,-33.203,-31.738,83.984,1.000
1626203000140076.500,72.266,-48.828,-41.504,119.141,1.000
1626203000143982.750,-108.398,-38.574,-38.574,-138.184,1.000
1626203000147889.000,-167.969,-9.277,-28.320,-210.938,1.000
1626203000151795.250,19.043,-5.371,-24.902,43.457,1.000
1626203000155701.500,132.812,-31.250,-33.691,188.477,1.000
1626203000159607.750,-31.738,-57.129,-47.363,-41.016,1.000
1626203000163514.000,-76.660,-26.855,-41.504,-109.863,1.000
1626203000167420.250,-187.012,-33.691,-50.781,-240.723,1.000
1626203000171326.500,-20.508,-37.109,-49.316,-1.953,1.000
1626203000175232.750,125.000,-13.672,-27.832,183.594,1.000
1626203000179139.000,0.488,-3.418,-29.297,-15.625,1.000
1626203000183045.250,-173.340,-19.531,-37.598,-244.629,1.000
1626203000186951.500,-81.055,-28.809,-22.461,-88.379,1.000
1626203000190857.750,109.375,-41.504,-21.973,161.133,1.000
1626203000194764.000,53.711,-68.848,-36.621,60.059,1.000
1626203000198670.250,-152.832,-44.434,-49.316,-211.426,1.000
1626203000202576.500,-120.117,-12.695,-29.785,-155.273,1.000
1626203000206482.750,95.215,-31.738,-12.695,133.301,1.000
1626203000210389.000,108.887,-20.020,-12.207,149.902,1.000
1626203000214295.250,50.781,-40.039,-26.855,63.477,1.000
1626203000218201.500,-165.039,-47.363,-43.945,-219.727,1.000
1626203000222107.750,-144.043,-30.762,-25.879,-169.434,1.000
1626203000226014.000,67.383,-23.926,-22.461,119.629,1.000
1626203000229920.250,83.496,-42.969,-51.758,116.699,1.000
1626203000233826.500,-126.953,-66.406,-74.219,-170.410,1.000
1626203000237732.750,-185.059,-44.434,-64.941,-228.027,1.000
1626203000241639.000,21.484,-3.418,-23.438,60.059,1.000
1626203000245545.250,127.930,-6.836,-9.766,187.012,1.000
1626203000249451.500,-68.848,-59.570,-48.828,-87.891,1.000
1626203000253357.750,-222.168,-51.758,-46.875,-271.484,1.000
1626203000257264.000,-152.344,-13.184,-17.578,-211.914,1.000
1626203000261170.250,0.977,-30.762,-32.715,23.926,1.000
1626203000265076.500,97.656,-38.086,-44.922,156.738,1.000
1626203000268982.750,-60.059,-49.316,-65.918,-63.965,1.000
1626203000272889.000,-198.730,-43.945,-55.176,-245.117,1.000
1626203000276795.250,-65.430,-25.879,-14.648,-53.223,1.000
1626203000280701.500,100.586,-43.457,-14.160,169.922,1.000
1626203000284607.750,20.020,-36.133,-25.879,35.645,1.000
1626203000288514.000,-143.066,-8.301,-5.371,-190.918,1.000
1626203000292420.250,-117.676,-37.598,-13.672,-118.652,1.000
1626203000296326.500,65.918,-58.105,-29.785,133.789,1.000
1626203000300232.750,66.406,-37.598,-32.715,101.074,1.000
1626203000304139.000,46.875,0.000,-74.219,40.039,1.000
1626203000308045.250,-145.020,3.418,-74.707,-220.215,1.000
1626203000311951.500,-91.797,3.418,-58.105,-132.812,1.000
1626203000315857.750,124.023,-14.648,-39.062,156.250,1.000
1626203000319764.000,125.000,-22.461,-31.738,131.836,1.000
1626203000323670.250,-85.938,-11.230,-47.852,-157.227,1.000
1626203000327576.500,-167.969,-29.785,-56.152,-224.121,1.000
1626203000331482.750,11.719,-32.227,-42.969,35.645,1.000
1626203000335389.000,112.793,-41.504,-49.316,145.508,1.000
1626203000339295.250,-61.523,-38.086,-59.570,-107.422,1.000
1626203000343201.500,-188.965,-26.367,-51.270,-255.859,1.000
1626203000347107.750,-26.367,-27.832,-37.109,-21.484,1.000
1626203000351014.000,48.828,-22.949,-51.270,1.000,1.000
1626203000354920.250,112.305,-41.016,-58.105,1.000,1.000
1626203000358826.500,-56.641,-32.227,-48.828,1.000,1.000
1626203000362732.750,-186.523,-38.574,-49.316,1.000,1.000
1626203000366639.000,-20.020,-30.273,-21.973,1.000,1.000
1626203000370545.250,127.441,-24.414,-24.902,1.000,1.000
1626203000374451.500,-12.207,-40.527,-32.715,1.000,1.000
1626203000378357.750,-187.012,-32.227,-16.602,1.000,1.000
1626203000382264.000,-123.535,-30.273,-27.344,1.000,1.000
1626203000386170.250,65.918,-38.086,-35.156,1.000,1.000
1626203000390076.500,35.645,-23.926,-39.551,1.000,1.000
1626203000393982.750,-147.461,-1.465,-37.598,1.000,1.000
1626203000397889.000,-160.645,19.043,-21.973,-226.562,1.000
1626203000401795.250,-107.910,12.207,-22.461,-126.465,1.000
1626203000405701.500,66.895,-40.039,-39.551,117.188,1.000
1626203000409607.750,35.156,-54.199,-54.199,53.711,1.000
1626203000413514.000,-161.133,-35.156,-37.598,-216.797,1.000
1626203000417420.250,-171.387,-38.574,-27.344,-208.496,1.000
1626203000421326.500,57.129,-23.438,-23.438,91.797,1.000
1626203000425232.750,116.699,-0.488,-26.855,152.344,1.000
1626203000429139.000,-85.449,-39.551,-43.945,-124.023,1.000
1626203000433045.250,-198.730,-67.383,-50.781,-247.070,1.000
1626203000436951.500,-31.250,-39.062,-37.598,-7.324,1.000
1626203000440857.750,112.305,-14.160,-16.602,166.016,1.000
1626203000444764.000,145.508,-28.809,-6.348,189.453,1.000
1626203000448670.250,-62.012,-37.598,-22.949,-98.633,1.000
1626203000452576.500,-204.590,-53.711,-34.180,-253.418,1.000
1626203000456482.750,-50.781,-43.457,-50.781,-21.973,1.000
1626203000460389.000,113.770,-23.926,-45.898,166.504,1.000
1626203000464295.250,-18.066,-42.480,-41.016,-37.109,1.000
1626203000468201.500,-201.172,-71.289,-36.133,-260.742,1.000
1626203000472107.750,-89.355,-65.430,-31.738,-91.309,1.000
1626203000476014.000,114.746,-52.734,-35.645,168.457,1.000
1626203000479920.250,66.406,-41.016,-17.578,68.359,1.000
1626203000483826.500,-122.559,-27.832,-9.277,-200.195,1.000
1626203000487732.750,-94.727,-3.906,-10.742,-135.254,1.000
1626203000491639.000,-93.262,-44.922,-22.461,-84.473,1.000
1626203000495545.250,101.562,-53.223,-10.254,177.246,1.000
1626203000499451.500,20.020,-63.477,-21.484,59.082,1.000
1626203000503357.750,-199.219,-61.523,-19.531,-235.352,1.000
1626203000507264.000,-160.156,-61.523,-8.789,-180.664,1.000
1626203000511170.250,52.246,-63.965,-6.348,110.352,1.000
1626203000515076.500,61.523,-50.781,-23.926,121.582,1.000
1626203000518982.750,-126.465,-28.809,-23.438,-145.508,1.000
1626203000522889.000,-181.152,-28.809,-18.555,-208.984,1.000
1626203000526795.250,12.207,-62.012,-13.184,59.082,1.000
1626203000530701.500,117.676,-56.152,-20.996,190.430,1.000
1626203000534607.750,-41.504,-29.785,-23.926,-38.086,1.000
1626203000538514.000,-95.703,-43.945,-27.832,-119.629,1.000
1626203000542420.250,-180.176,-34.180,-33.691,-212.891,1.000
1626203000546326.500,-3.906,-39.062,-37.598,41.504,1.000
1626203000550232.750,132.324,-24.902,-30.273,194.824,1.000
1626203000554139.000,-25.879,-43.945,-24.902,-38.574,1.000
1626203000558045.250,-183.594,-54.199,-5.859,-233.398,1.000
1626203000561951.500,-74.707,-36.133,-12.695,-57.617,1.000
1626203000565857.750,96.680,-24.414,-36.621,163.574,1.000
1626203000569764.000,34.180,-17.578,-32.715,34.180,1.000
1626203000573670.250,-162.598,-38.574,-29.297,-220.215,1.000
1626203000577576.500,-107.910,-36.621,-43.945,-120.117,1.000
1626203000581482.750,112.305,-21.973,-44.922,162.109,1.000
1626203000585389.000,122.070,-44.922,-29.785,1.000,1.000
1626203000589295.250,27.344,-43.945,-52.734,1.000,1.000
1626203000593201.500,-183.105,-38.086,-56.641,1.000,1.000
1626203000597107.750,-144.531,-29.785,-40.527,1.000,1.000
1626203000601014.000,68.359,-14.648,-24.414,1.000,1.000
1626203000604920.250,75.684,-22.949,-22.461,1.000,1.000
1626203000608826.500,-115.723,-43.945,-19.531,1.000,1.000
1626203000612732.750,-168.457,-42.480,-24.414,1.000,1.000
1626203000616639.000,34.180,-15.137,-23.438,1.000,1.000
1626203000620545.250,130.371,3.418,-12.695,1.000,1.000
1626203000624451.500,-73.730,-30.273,-29.785,1.000,1.000
1626203000628357.750,-196.777,-59.082,-42.480,1.000,1.000
1626203000632264.000,-175.781,-36.133,-32.715,-211.914,1.000
1626203000636170.250,12.695,-25.391,-22.461,53.223,1.000
1626203000640076.500,108.398,-30.273,-27.832,159.180,1.000
1626203000643982.750,-62.988,-61.035,-42.969,-87.891,1.000
1626203000647889.000,-186.035,-54.688,-39.551,-238.281,1.000
1626203000651795.250,-34.668,-19.531,-32.715,-15.137,1.000
1626203000655701.500,130.859,-10.254,-20.508,190.918,1.000
1626203000659607.750,-4.395,-24.902,-28.320,-13.672,1.000
1626203000663514.000,-194.336,-48.828,-55.664,-249.023,1.000
1626203000667420.250,-105.957,-48.828,-55.664,-104.980,1.000
1626203000671326.500,99.609,-22.949,-25.391,163.086,1.000
1626203000675232.750,59.570,-25.879,-22.461,77.148,1.000
1626203000679139.000,41.992,-32.227,-43.945,51.270,1.000
1626203000683045.250,-167.969,-50.293,-31.250,-216.797,1.000
1626203000686951.500,-110.352,-38.086,-20.020,-117.188,1.000
1626203000690857.750,81.543,-35.645,-31.250,144.043,1.000
1626203000694764.000,53.711,-24.902,-50.293,83.496,1.000
1626203000698670.250,-130.371,-8.301,-46.875,-183.105,1.000
1626203000702576.500,-148.438,-31.738,-30.273,-189.453,1.000
1626203000706482.750,72.266,-29.785,-12.695,99.609,1.000
1626203000710389.000,142.090,-12.695,-28.809,171.387,1.000
1626203000714295.250,-49.316,-25.391,-51.270,-100.586,1.000
1626203000718201.500,-151.855,-31.738,-48.340,-218.262,1.000
1626203000722107.750,10.254,-39.062,-23.438,16.602,1.000
1626203000726014.000,37.598,-54.688,-39.062,78.613,1.000
1626203000729920.250,107.910,-50.781,-60.059,151.367,1.000
1626203000733826.500,-74.707,-26.855,-70.312,-113.281,1.000
1626203000737732.750,-190.918,-30.762,-53.223,-244.141,1.000
1626203000741639.000,-1.953,-9.766,-36.133,10.742,1.000
1626203000745545.250,153.320,24.414,-19.531,193.848,1.000
1626203000749451.500,5.371,-2.930,-23.438,-19.531,1.000
1626203000753357.750,-166.992,-15.137,-38.574,-240.723,1.000
1626203000757264.000,-72.266,-5.371,-40.039,-86.914,1.000
1626203000761170.250,105.957,-16.602,-40.527,162.598,1.000
1626203000765076.500,60.059,-0.977,-23.926,78.613,1.000
1626203000768982.750,-145.020,-4.883,-25.879,-193.848,1.000
1626203000772889.000,-193.848,-32.227,-27.344,-252.930,1.000
1626203000776795.250,-95.703,-37.598,-23.438,-107.422,1.000
1626203000780701.500,132.812,-24.902,-21.973,173.828,1.000
1626203000784607.750,77.148,-28.809,-28.809,79.590,1.000
1626203000788514.000,-165.039,-27.344,-43.945,-229.980,1.000
1626203000792420.250,-162.109,-7.812,-46.875,-199.707,1.000
1626203000796326.500,52.246,-4.395,-24.902,87.891,1.000
1626203000800232.750,83.496,-9.277,-19.043,105.957,1.000
1626203000804139.000,-124.512,-45.898,-41.504,-174.316,1.000
1626203000808045.250,-207.520,-47.363,-49.316,-259.277,1.000
1626203000811951.500,-3.906,-12.207,-27.832,16.113,1.000
1626203000815857.750,121.582,-5.859,-4.883,168.945,1.000
1626203000819764.000,100.098,-76.660,-16.113,148.438,1.000
1626203000823670.250,-91.797,-43.945,-24.414,-120.117,1.000
1626203000827576.500,-188.965,0.488,-49.316,-230.957,1.000
1626203000831482.750,-31.250,-5.371,-49.805,3.906,1.000
1626203000835389.000,98.145,-5.371,-17.090,158.691,1.000
1626203000839295.250,-41.016,-19.531,-12.695,-51.758,1.000
1626203000843201.500,-198.730,-37.109,-8.789,-240.723,1.000
1626203000847107.750,-85.449,-49.316,-23.438,-61.523,1.000
1626203000851014.000,93.262,-52.734,-19.531,168.457,1.000
1626203000854920.250,22.461,-76.172,-5.371,45.898,1.000
1626203000858826.500,-162.109,-77.637,-24.902,-198.242,1.000
1626203000862732.750,-129.395,-44.922,-37.598,-128.418,1.000
1626203000866639.000,-41.504,-14.160,-2.930,-60.059,1.000
1626203000870545.250,110.840,-37.598,-29.297,149.414,1.000
1626203000874451.500,38.574,-25.391,-39.551,30.273,1.000
1626203000878357.750,-153.320,-17.578,-35.645,-224.609,1.000
1626203000882264.000,-125.977,-32.227,-32.715,-153.320,1.000
1626203000886170.250,87.891,-24.902,-22.461,139.648,1.000
1626203000890076.500,103.516,-24.902,-24.902,145.020,1.000
1626203000893982.750,-103.516,-48.828,-25.391,-133.301,1.000
1626203000897889.000,-155.762,-45.898,-20.996,-180.176,1.000
1626203000901795.250,49.316,-10.742,-24.414,105.957,1.000
1626203000905701.500,113.770,-32.227,-31.250,185.059,1.000
1626203000909607.750,-88.379,-48.340,-36.133,-94.238,1.000
1626203000913514.000,-60.059,4.395,-9.766,-112.305,1.000
1626203000917420.250,-162.598,-28.809,-30.762,-209.473,1.000
1626203000921326.500,9.766,-48.828,-24.902,39.062,1.000
1626203000925232.750,115.723,-39.551,-24.902,161.133,1.000
1626203000929139.000,-72.266,-44.922,-42.480,-101.074,1.000
1626203000933045.250,-212.402,-28.809,-47.363,-270.996,1.000
1626203000936951.500,-59.570,-27.832,-44.434,-49.805,1.000
1626203000940857.750,102.539,-47.852,-31.250,162.598,1.000
1626203000944764.000,0.488,-42.480,-25.879,0.977,1.000
1626203000948670.250,-172.363,-31.250,-40.039,-230.957,1.000
1626203000952576.500,-91.309,-35.645,-33.691,-104.980,1.000
1626203000956482.750,92.285,-40.527,-23.926,149.414,1.000
1626203000960389.000,127.441,-27.344,-11.230,1.000,1.000
1626203000964295.250,22.461,-32.715,-32.715,1.000,1.000
1626203000968201.500,-176.270,-48.828,-29.785,1.000,1.000
1626203000972107.750,-126.465,-47.852,-20.020,1.000,1.000
1626203000976014.000,88.867,-16.113,-15.137,1.000,1.000
1626203000979920.250,86.914,-12.207,-1.465,1.000,1.000
1626203000983826.500,-139.648,-36.621,-31.250,1.000,1.000
1626203000987732.750,-183.105,-58.594,-52.734,1.000,1.000
1626203000991639.000,49.316,-46.387,-30.273,1.000,1.000
1626203000995545.250,122.070,-33.691,-17.090,1.000,1.000
1626203000999451.500,-86.914,-29.297,-28.809,1.000,1.000
1626203001003357.750,-177.734,-2.441,-33.691,1.000,1.000
1626203001007264.000,-166.504,-52.734,-32.715,-208.496,1.000
1626203001011170.250,38.574,-55.664,-19.531,80.078,1.000
1626203001015076.500,121.094,-34.668,-20.996,166.992,1.000
1626203001018982.750,-69.824,-39.551,-44.922,-96.191,1.000
1626203001022889.000,-186.523,-23.438,-37.109,-228.027,1.000
1626203001026795.250,-5.859,-4.883,-20.508,18.555,1.000
1626203001030701.500,118.164,-32.227,-40.039,179.688,1.000
1626203001034607.750,-24.414,-47.363,-40.527,-25.391,1.000
1626203001038514.000,-173.828,-21.973,-54.688,-224.609,1.000
1626203001042420.250,-66.406,-10.254,-68.359,-63.965,1.000
1626203001046326.500,118.652,-37.109,-24.902,169.922,1.000
1626203001050232.750,41.992,-48.340,-8.789,45.898,1.000
1626203001054139.000,9.766,-25.879,-37.109,5.859,1.000
1626203001058045.250,-170.410,-44.434,-34.668,-223.633,1.000
1626203001061951.500,-91.309,-20.508,-25.391,-94.727,1.000
1626203001065857.750,100.586,-0.488,-27.832,157.227,1.000
1626203001069764.000,50.781,-18.066,-34.668,74.707,1.000
1626203001073670.250,-147.461,-37.109,-34.180,-201.660,1.000
1626203001077576.500,-135.742,-30.762,-34.668,-167.480,1.000
1626203001081482.750,92.773,-10.742,-30.762,137.695,1.000
1626203001085389.000,131.348,-15.137,-39.062,161.621,1.000
1626203001089295.250,-80.078,-13.672,-42.480,-125.488,1.000
1626203001093201.500,-163.574,-13.672,-33.203,-201.660,1.000
1626203001097107.750,5.859,-26.855,-33.203,48.828,1.000
1626203001101014.000,48.340,-36.133,-10.742,104.004,1.000
1626203001104920.250,83.008,-23.438,-45.898,136.230,1.000
1626203001108826.500,-107.422,-33.203,-66.895,-145.020,1.000
1626203001112732.750,-189.941,-44.922,-40.527,-236.328,1.000
1626203001116639.000,-6.836,-39.062,-19.043,21.973,1.000
1626203001120545.250,142.090,-13.672,-6.836,187.500,1.000
1626203001124451.500,-5.371,-16.602,-14.160,-35.156,1.000
1626203001128357.750,-173.340,-50.293,-21.973,-243.652,1.000
1626203001132264.000,-55.176,-51.270,-27.344,-63.477,1.000
1626203001136170.250,109.375,-23.926,-39.062,164.062,1.000
1626203001140076.500,17.578,-34.180,-42.969,24.414,1.000
1626203001143982.750,-179.199,-51.758,-47.852,-238.770,1.000
1626203001147889.000,-179.199,-44.922,-31.250,-230.957,1.000
1626203001151795.250,-67.871,-26.855,-23.926,-57.617,1.000
1626203001155701.500,121.094,-29.297,-15.137,188.477,1.000
1626203001159607.750,60.059,-41.016,-12.695,75.684,1.000
1626203001163514.000,-148.438,-36.133,-15.625,-202.148,1.000
1626203001167420.250,-141.113,-44.922,-35.156,-163.086,1.000
1626203001171326.500,59.570,-48.828,-46.875,107.422,1.000
1626203001175232.750,82.031,-44.922,-35.156,110.352,1.000
1626203001179139.000,-104.980,-48.828,-42.480,-153.809,1.000
1626203001183045.250,-152.832,-37.598,-35.156,-203.125,1.000
1626203001186951.500,29.297,-25.391,-13.184,64.453,1.000
1626203001190857.750,97.168,-33.203,-29.297,148.926,1.000
1626203001194764.000,100.586,-25.391,-40.039,136.719,1.000
1626203001198670.250,-101.074,-46.875,-36.133,-141.602,1.000
1626203001202576.500,-167.480,-63.477,-40.527,-209.961,1.000
1626203001206482.750,15.625,-51.270,-46.875,52.246,1.000
1626203001210389.000,121.582,-29.297,-31.250,175.293,1.000
1626203001214295.250,-41.992,-22.949,-28.809,-66.406,1.000
1626203001218201.500,-173.828,-17.578,-44.434,-238.281,1.000
1626203001222107.750,-20.020,-17.578,-47.852,-27.344,1.000
1626203001226014.000,125.488,-51.270,-29.785,173.340,1.000
1626203001229920.250,-4.883,-58.105,-25.391,-6.348,1.000
1626203001233826.500,-187.988,-48.340,-33.691,-238.281,1.000
1626203001237732.750,-109.863,-48.828,-27.832,-108.887,1.000
1626203001241639.000,-59.082,-22.949,-16.113,-48.340,1.000
1626203001245545.250,99.609,-29.785,-32.227,169.434,1.000
1626203001249451.500,23.926,-24.902,-36.133,29.297,1.000
1626203001253357.750,-162.109,-38.574,-34.180,-224.609,1.000
1626203001257264.000,-102.539,-41.504,-35.156,-120.117,1.000
1626203001261170.250,112.305,-37.598,-49.316,161.133,1.000
1626203001265076.500,74.219,-39.062,-58.105,84.961,1.000
1626203001268982.750,-129.883,-14.160,-21.484,-190.430,1.000
1626203001272889.000,-152.344,-18.066,-8.301,-190.430,1.000
1626203001276795.250,49.805,-30.273,-15.137,85.938,1.000
1626203001280701.500,117.676,-12.695,-27.832,149.902,1.000
1626203001284607.750,-68.359,-11.230,-41.504,-113.281,1.000
1626203001288514.000,-117.188,-12.695,-30.762,-162.109,1.000
1626203001292420.250,-156.250,-8.789,-28.809,-194.336,1.000
1626203001296326.500,47.363,-29.785,-23.438,83.496,1.000
1626203001300232.750,142.090,-18.555,-14.648,179.199,1.000
1626203001304139.000,-45.410,-18.066,-16.602,-82.520,1.000
1626203001308045.250,-195.801,-41.992,-32.715,-247.070,1.000
1626203001311951.500,-60.059,-40.039,-44.434,-37.598,1.000
1626203001315857.750,96.680,-32.227,-20.508,157.715,1.000
1626203001319764.000,-14.648,-40.039,-14.648,-17.578,1.000
1626203001323670.250,-178.223,-41.016,-22.949,-231.934,1.000
1626203001327576.500,-78.613,-25.879,-27.344,-74.219,1.000
1626203001331482.750,100.586,-20.020,-32.715,161.133,1.000
1626203001335389.000,121.094,-8.301,-20.996,1.000,1.000
1626203001339295.250,-0.488,-21.973,-26.855,1.000,1.000
1626203001343201.500,-187.500,-34.668,-34.668,1.000,1.000
1626203001347107.750,-99.609,-40.039,-39.551,1.000,1.000
1626203001351014.000,99.121,-36.621,-30.273,1.000,1.000
1626203001354920.250,71.777,-20.996,-10.254,1.000,1.000
1626203001358826.500,-147.949,-51.270,-24.414,1.000,1.000
1626203001362732.750,-152.344,-66.895,-29.297,1.000,1.000
1626203001366639.000,76.660,-32.715,-7.812,1.000,1.000
1626203001370545.250,133.301,-9.766,-3.906,1.000,1.000
1626203001374451.500,-82.520,-27.832,-41.016,1.000,1.000
1626203001378357.750,-195.801,-35.645,-62.012,1.000,1.000
1626203001382264.000,-158.691,-41.504,-27.344,-172.363,1.000
1626203001386170.250,41.992,-22.949,-25.879,99.121,1.000
1626203001390076.500,115.723,-3.418,-21.973,166.504,1.000
1626203001393982.750,-65.918,-0.488,-26.367,-92.285,1.000
1626203001397889.000,-167.480,-21.973,-30.762,-211.426,1.000
1626203001401795.250,-8.789,-42.480,-33.203,21.973,1.000
1626203001405701.500,111.816,-41.992,-25.879,167.480,1.000
1626203001409607.750,-15.137,-21.484,-15.625,-30.762,1.000
1626203001413514.000,-166.504,-40.527,-28.320,-216.797,1.000
1626203001417420.250,-57.617,-41.992,-22.949,-58.594,1.000
1626203001421326.500,121.094,-27.832,-18.555,169.434,1.000
1626203001425232.750,32.227,-44.434,-30.273,33.203,1.000
1626203001429139.000,-24.902,-16.602,-51.270,-44.434,1.000
1626203001433045.250,-209.961,-44.922,-55.176,-264.648,1.000
1626203001436951.500,-86.426,-43.945,-30.273,-89.844,1.000
1626203001440857.750,131.836,-17.578,-8.301,179.199,1.000
1626203001444764.000,56.641,-22.949,-18.555,60.547,1.000
1626203001448670.250,-162.109,-52.246,-38.574,-218.262,1.000
1626203001452576.500,-156.250,-63.965,-54.688,-181.152,1.000
1626203001456482.750,64.941,-22.949,-43.945,106.934,1.000
1626203001460389.000,79.590,-3.418,-42.969,104.492,1.000
1626203001464295.250,-129.395,-23.926,-44.922,-179.688,1.000
1626203001468201.500,-168.945,-39.551,-37.598,-213.867,1.000
1626203001472107.750,34.180,-23.438,-42.480,68.359,1.000
1626203001476014.000,72.266,-49.805,-10.254,122.559,1.000
1626203001479920.250,92.773,-55.664,-28.809,134.766,1.000
1626203001483826.500,-98.633,-51.270,-49.316,-137.695,1.000
1626203001487732.750,-144.043,-11.719,-43.457,-182.617,1.000
1626203001491639.000,40.039,0.000,-35.645,80.566,1.000
1626203001495545.250,125.000,-7.324,-27.832,182.129,1.000
1626203001499451.500,-62.012,-23.438,-39.062,-78.613,1.000
1626203001503357.750,-192.871,-22.949,-45.410,-246.094,1.000
1626203001507264.000,-40.039,-22.461,-29.297,-33.691,1.000
1626203001511170.250,137.207,-16.602,-8.301,187.500,1.000
1626203001515076.500,24.414,-22.461,-41.016,18.066,1.000
1626203001518982.750,-186.035,-51.758,-72.266,-247.070,1.000
1626203001522889.000,-169.922,-25.879,-15.137,-226.074,1.000
1626203001526795.250,-68.848,-36.621,-26.855,-62.988,1.000
1626203001530701.500,118.164,-21.973,-22.461,170.410,1.000
1626203001534607.750,48.340,-22.949,-31.250,44.434,1.000
1626203001538514.000,-147.949,-40.527,-38.086,-216.309,1.000
1626203001542420.250,-104.004,-49.316,-25.879,-127.930,1.000
1626203001546326.500,85.938,-41.016,-29.297,140.625,1.000
1626203001550232.750,89.355,-3.906,-27.832,107.910,1.000
1626203001554139.000,-110.840,-16.602,-38.086,-172.852,1.000
1626203001558045.250,-130.859,-54.199,-30.273,-171.387,1.000
1626203001561951.500,86.426,-34.668,-9.766,128.418,1.000
1626203001565857.750,119.629,-18.066,-33.203,165.527,1.000
1626203001569764.000,64.453,-19.531,-33.203,99.609,1.000
1626203001573670.250,-132.324,-15.137,-46.387,-177.246,1.000
1626203001577576.500,-166.016,-17.090,-52.246,-210.938,1.000
1626203001581482.750,43.945,-12.695,-32.715,76.172,1.000
1626203001585389.000,131.836,-24.414,-12.207,171.387,1.000
1626203001589295.250,-63.477,-44.922,-17.090,-90.332,1.000
1626203001593201.500,-197.266,-49.805,-39.551,-245.117,1.000
1626203001597107.750,-19.043,-30.762,-42.480,-3.418,1.000
1626203001601014.000,120.605,-16.602,-48.340,179.688,1.000
1626203001604920.250,2.441,-13.672,-41.016,-8.301,1.000
1626203001608826.500,-160.645,-20.508,-23.926,-226.074,1.000
1626203001612732.750,-97.168,-19.043,-28.320,-98.145,1.000
1626203001616639.000,-56.152,-42.480,-29.785,-33.203,1.000
1626203001620545.250,101.074,-27.832,-40.039,170.898,1.000
1626203001624451.500,3.906,-14.160,-38.574,3.906,1.000
1626203001628357.750,-166.504,-9.766,-35.645,-230.469,1.000
1626203001632264.000,-75.195,-9.766,-17.578,-97.168,1.000
1626203001636170.250,130.371,-24.414,3.418,175.293,1.000
1626203001640076.500,61.523,-59.082,-17.090,80.566,1.000
1626203001643982.750,-154.297,-77.148,-22.949,-204.102,1.000
1626203001647889.000,-143.555,-52.734,-12.695,-176.270,1.000
1626203001651795.250,80.566,-8.301,-11.230,123.047,1.000
1626203001655701.500,117.676,-0.488,-27.344,156.738,1.000
1626203001659607.750,-98.633,-20.996,-47.852,-139.648,1.000
1626203001663514.000,-126.465,-33.691,-16.602,-173.340,1.000
1626203001667420.250,-143.555,-35.156,-21.973,-183.105,1.000
1626203001671326.500,63.477,-23.926,-20.020,99.609,1.000
1626203001675232.750,120.605,-40.039,-20.508,157.227,1.000
1626203001679139.000,-57.129,-53.711,-48.340,-104.492,1.000
1626203001683045.250,-160.645,-53.711,-55.176,-226.562,1.000
1626203001686951.500,-6.836,-46.875,-30.762,6.348,1.000
1626203001690857.750,150.391,2.441,-15.625,189.453,1.000
1626203001694764.000,4.883,3.418,-30.762,-18.066,1.000
1626203001698670.250,-188.477,-32.227,-46.387,-246.582,1.000
1626203001702576.500,-70.312,-22.461,-32.715,-75.195,1.000
1626203001706482.750,123.047,-16.602,-10.742,175.293,1.000
1626203001710389.000,131.836,-7.812,-22.949,1.000,1.000
1626203001714295.250,-19.531,-37.598,-43.457,1.000,1.000
1626203001718201.500,-199.219,-48.828,-41.504,1.000,1.000
1626203001722107.750,-78.613,-30.273,-24.414,1.000,1.000
1626203001726014.000,117.676,-10.254,-27.344,1.000,1.000
1626203001729920.250,51.270,-31.250,-41.992,1.000,1.000
1626203001733826.500,-172.852,-55.664,-59.082,1.000,1.000
1626203001737732.750,-155.273,-34.180,-46.875,1.000,1.000
1626203001741639.000,67.871,-21.484,-22.461,1.000,1.000
1626203001745545.250,95.215,-31.738,-17.578,1.000,1.000
1626203001749451.500,-119.141,-41.992,-38.086,1.000,1.000
1626203001753357.750,-194.824,-41.016,-48.340,1.000,1.000
1626203001757264.000,-144.043,-31.250,-25.391,-161.133,1.000
1626203001761170.250,56.641,-26.367,-38.086,113.770,1.000
1626203001765076.500,104.004,-8.301,-33.691,146.484,1.000
1626203001768982.750,-74.707,-3.418,-21.973,-118.652,1.000
1626203001772889.000,-160.156,-24.414,-28.320,-206.543,1.000
1626203001776795.250,19.531,-23.438,-29.785,51.270,1.000
1626203001780701.500,124.023,-22.461,-34.668,182.129,1.000
1626203001784607.750,-33.691,-50.293,-38.086,-51.758,1.000
1626203001788514.000,-165.039,-50.781,-33.691,-225.098,1.000
1626203001792420.250,-30.273,-27.832,-16.602,-26.855,1.000
1626203001796326.500,122.559,-14.160,-13.184,176.758,1.000
1626203001800232.750,5.859,-14.160,-38.086,0.000,1.000
1626203001804139.000,-17.578,-30.273,-15.625,-34.180,1.000
1626203001808045.250,-169.922,-37.109,-28.809,-222.656,1.000
1626203001811951.500,-43.945,-27.344,-26.367,-39.551,1.000
1626203001815857.750,148.438,-5.371,-17.578,197.754,1.000
1626203001819764.000,60.547,-11.230,-30.273,59.082,1.000
1626203001823670.250,-152.344,-26.855,-37.109,-210.449,1.000
1626203001827576.500,-124.512,-38.574,-40.039,-139.160,1.000
1626203001831482.750,95.215,-18.555,-16.113,146.484,1.000
1626203001835389.000,101.562,-21.484,-1.465,128.906,1.000
1626203001839295.250,-122.070,-59.082,-20.020,-168.945,1.000
1626203001843201.500,-156.738,-38.086,-27.344,-199.707,1.000
1626203001847107.750,49.805,-14.648,-38.574,81.543,1.000
1626203001851014.000,83.008,-46.387,-46.387,120.117,1.000
1626203001854920.250,92.285,-29.785,-35.156,106.934,1.000
1626203001858826.500,-98.145,-18.555,-20.020,-155.273,1.000
1626203001862732.750,-141.113,-32.715,-25.879,-188.965,1.000
1626203001866639.000,34.668,-25.879,-45.898,65.430,1.000
1626203001870545.250,108.398,-18.555,-46.387,155.762,1.000
1626203001874451.500,-85.938,-42.480,-45.410,-111.816,1.000
1626203001878357.750,-214.844,-55.664,-36.133,-264.160,1.000
1626203001882264.000,-44.434,-51.758,-15.625,-22.949,1.000
1626203001886170.250,120.605,-52.734,-18.066,185.059,1.000
1626203001890076.500,-11.719,-65.430,-38.574,-6.348,1.000
1626203001893982.750,-197.266,-50.781,-51.758,-237.305,1.000
1626203001897889.000,-199.219,-36.133,-24.902,-247.559,1.000
1626203001901795.250,-55.176,-28.320,-35.156,-35.645,1.000
1626203001905701.500,133.301,-7.812,-18.066,192.871,1.000
1626203001909607.750,20.508,-17.090,-28.320,12.695,1.000
1626203001913514.000,-183.105,-33.691,-48.828,-244.141,1.000
1626203001917420.250,-105.469,-29.297,-37.598,-114.746,1.000
1626203001921326.500,97.656,-25.879,-29.297,149.414,1.000
1626203001925232.750,70.801,-46.387,-29.297,87.891,1.000
1626203001929139.000,-143.555,-57.617,-29.785,-194.336,1.000
1626203001933045.250,-145.996,-47.363,-17.578,-172.363,1.000
1626203001936951.500,80.078,-31.250,0.977,120.117,1.000
1626203001940857.750,102.539,-31.250,-15.625,139.648,1.000
1626203001944764.000,62.500,-11.230,-10.742,1.000,1.000
1626203001948670.250,-140.625,-35.645,-15.137,1.000,1.000
1626203001952576.500,-166.504,-41.016,-18.066,1.000,1.000
1626203001956482.750,34.668,-36.133,-27.344,1.000,1.000
1626203001960389.000,92.285,-40.527,-30.273,1.000,1.000
1626203001964295.250,-94.727,-46.875,-31.738,1.000,1.000
1626203001968201.500,-188.965,-43.457,-35.156,1.000,1.000
1626203001972107.750,-0.977,-22.461,-14.648,1.000,1.000
1626203001976014.000,124.023,-30.762,-12.695,1.000,1.000
1626203001979920.250,-10.254,-38.574,-19.043,1.000,1.000
1626203001983826.500,-147.949,-13.184,-3.906,1.000,1.000
1626203001987732.750,-49.316,-27.344,-3.418,1.000,1.000
1626203001991639.000,-13.184,-8.301,-27.344,7.324,1.000
1626203001995545.250,121.094,-1.953,-34.668,187.500,1.000
1626203001999451.500,-22.461,-19.043,-40.527,-19.043,1.000
1626203002003357.750,-189.453,-30.762,-26.855,-239.746,1.000
1626203002007264.000,-88.379,-31.738,-29.785,-87.402,1.000
1626203002011170.250,120.605,-42.480,-28.320,179.199,1.000
1626203002015076.500,59.570,-58.105,-26.367,72.266,1.000
1626203002018982.750,-154.785,-38.086,-20.508,-204.590,1.000
1626203002022889.000,-121.094,-14.648,0.488,-138.672,1.000
1626203002026795.250,97.168,-17.090,3.906,146.973,1.000
1626203002030701.500,95.703,-39.551,-12.695,136.230,1.000
1626203002034607.750,-118.164,-36.133,-29.785,-152.832,1.000
1626203002038514.000,-142.090,-32.227,-42.480,-184.082,1.000
1626203002042420.250,-170.898,-21.484,-53.711,-182.617,1.000
1626203002046326.500,37.109,-20.996,-43.457,101.074,1.000
1626203002050232.750,97.168,-20.508,-35.645,145.996,1.000
1626203002054139.000,-93.262,-34.180,-52.246,-129.395,1.000
1626203002058045.250,-184.570,-56.152,-53.223,-228.027,1.000
1626203002061951.500,9.766,-35.156,-26.855,37.598,1.000
1626203002065857.750,123.535,-15.137,-11.719,170.898,1.000
1626203002069764.000,-48.340,-35.156,-22.461,-79.590,1.000
1626203002073670.250,-187.988,-35.645,-32.715,-255.371,1.000
1626203002077576.500,-33.203,-25.391,-12.695,-34.180,1.000
1626203002081482.750,139.160,-25.879,-2.441,190.918,1.000
1626203002085389.000,111.816,-45.898,-32.227,181.152,1.000
1626203002089295.250,-44.434,-46.387,-55.664,-45.898,1.000
1626203002093201.500,-206.055,-47.363,-68.848,-256.348,1.000
1626203002097107.750,-67.383,-34.668,-28.320,-63.965,1.000
1626203002101014.000,124.512,-18.555,0.000,180.664,1.000
1626203002104920.250,50.293,-3.906,1.465,49.805,1.000
1626203002108826.500,-183.594,-24.902,-30.273,-244.141,1.000
1626203002112732.750,-159.668,-36.133,-47.852,-173.828,1.000
1626203002116639.000,73.730,-11.230,-48.828,122.559,1.000
1626203002120545.250,79.590,-21.973,-44.434,105.469,1.000
1626203002124451.500,-126.953,-67.871,-28.809,-181.641,1.000
1626203002128357.750,-162.109,-67.383,-24.902,-202.148,1.000
1626203002132264.000,-141.602,-20.996,-24.902,-160.645,1.000
1626203002136170.250,47.852,-23.926,-20.996,101.562,1.000
1626203002140076.500,63.965,-28.809,-33.203,104.004,1.000
1626203002143982.750,-126.953,-38.086,-34.180,-163.574,1.000
1626203002147889.000,-177.246,-43.945,-27.344,-211.914,1.000
1626203002151795.250,31.250,-43.457,-18.555,69.824,1.000
1626203002155701.500,114.258,-35.156,-23.438,156.250,1.000
1626203002159607.750,-77.148,-41.016,-34.668,-116.211,1.000
1626203002163514.000,-202.148,-42.969,-33.691,-262.207,1.000
1626203002167420.250,-29.785,-26.367,-26.367,-13.672,1.000
1626203002171326.500,116.699,-16.113,-54.199,176.758,1.000
1626203002175232.750,-16.113,-20.020,-57.617,-19.043,1.000
1626203002179139.000,-45.410,-26.367,-23.438,-67.871,1.000
1626203002183045.250,-188.965,-28.809,-41.016,-241.211,1.000
1626203002186951.500,-39.062,-26.855,-50.293,-24.414,1.000
1626203002190857.750,125.488,-42.969,-35.156,185.059,1.000
1626203002194764.000,-5.371,-61.035,-32.715,-2.441,1.000
1626203002198670.250,-188.965,-46.387,-39.551,-250.000,1.000
1626203002202576.500,-112.305,-16.602,-51.270,-123.535,1.000
1626203002206482.750,105.469,-8.789,-24.414,160.156,1.000
1626203002210389.000,86.426,-19.043,-2.930,104.004,1.000
1626203002214295.250,-149.902,-32.715,-37.109,-204.102,1.000
1626203002218201.500,-173.340,-47.363,-44.434,-205.078,1.000
1626203002222107.750,43.945,-48.340,-27.832,96.191,1.000
1626203002226014.000,88.379,-20.020,-32.227,128.418,1.000
1626203002229920.250,60.059,-37.109,-20.996,78.613,1.000
1626203002233826.500,-134.766,-56.641,-23.926,-196.289,1.000
1626203002237732.750,-143.555,-29.785,-22.461,-189.453,1.000
1626203002241639.000,52.246,-3.906,-22.949,87.891,1.000
1626203002245545.250,108.887,-14.160,-25.391,150.391,1.000
1626203002249451.500,-75.684,-38.086,-38.086,-114.746,1.000
1626203002253357.750,-167.969,-29.297,-38.086,-219.727,1.000
1626203002257264.000,-20.508,-24.414,-40.527,11.230,1.000
1626203002261170.250,107.910,-32.227,-35.156,170.410,1.000
1626203002265076.500,-17.090,-48.828,-31.738,-24.902,1.000
1626203002268982.750,-187.988,-53.711,-39.062,-239.258,1.000
1626203002272889.000,-153.809,-18.066,-23.926,-208.496,1.000
1626203002276795.250,-17.578,-4.395,-31.250,-8.301,1.000
1626203002280701.500,129.883,-6.348,-33.691,167.480,1.000
1626203002284607.750,17.090,-20.020,-45.410,-10.254,1.000
1626203002288514.000,-155.273,-9.766,-46.387,-228.027,1.000
1626203002292420.250,-65.430,-9.766,-38.086,-81.055,1.000
1626203002296326.500,106.445,-44.922,-45.898,158.691,1.000
1626203002300232.750,61.035,-32.715,-47.363,57.617,1.000
1626203002304139.000,-134.766,-21.973,-42.969,-204.590,1.000
1626203002308045.250,-125.488,-14.160,-31.250,-155.762,1.000
1626203002311951.500,85.938,-4.395,-30.762,125.000,1.000
1626203002315857.750,108.887,-2.441,-50.293,132.812,1.000
1626203002319764.000,57.617,-50.293,-29.297,1.000,1.000
1626203002323670.250,-148.926,-64.941,-46.387,1.000,1.000
1626203002327576.500,-145.996,-32.227,-44.434,1.000,1.000
1626203002331482.750,77.148,-3.906,-13.184,1.000,1.000
1626203002335389.000,105.957,-28.320,-17.090,1.000,1.000
1626203002339295.250,-107.422,-22.461,-40.039,1.000,1.000
1626203002343201.500,-186.035,-22.461,-46.387,1.000,1.000
1626203002347107.750,5.859,-19.531,-33.691,1.000,1.000
1626203002351014.000,135.254,-5.371,-14.648,1.000,1.000
1626203002354920.250,-19.043,-13.672,-22.949,1.000,1.000
1626203002358826.500,-169.434,-22.949,-39.551,1.000,1.000
1626203002362732.750,-46.387,-28.809,-43.457,1.000,1.000
1626203002366639.000,-27.344,-60.059,-20.508,-1.953,1.000
1626203002370545.250,117.676,-22.949,-17.090,172.363,1.000
1626203002374451.500,-12.695,-21.484,-19.043,-31.250,1.000
1626203002378357.750,-180.176,-27.832,-23.926,-239.258,1.000
1626203002382264.000,-49.805,-11.719,-3.906,-51.270,1.000
1626203002386170.250,140.137,-9.766,-14.160,193.359,1.000
1626203002390076.500,36.133,-27.832,-48.828,39.551,1.000
1626203002393982.750,-167.480,-39.551,-45.898,-232.422,1.000
1626203002397889.000,-119.629,-29.297,-20.508,-140.137,1.000
1626203002401795.250,96.191,-24.414,3.906,150.879,1.000
1626203002405701.500,70.801,-52.734,-25.391,104.492,1.000
1626203002409607.750,-136.230,-42.480,-52.734,-182.617,1.000
1626203002413514.000,-151.367,-40.527,-22.461,-206.543,1.000
1626203002417420.250,-161.133,-58.105,-26.367,-181.641,1.000
1626203002421326.500,56.641,-33.691,-27.832,104.492,1.000
1626203002425232.750,91.309,-5.859,-50.293,120.605,1.000
1626203002429139.000,-104.492,-5.371,-46.875,-156.738,1.000
1626203002433045.250,-153.809,-6.348,-5.371,-194.336,1.000
1626203002436951.500,39.551,-15.137,15.137,76.172,1.000
1626203002440857.750,133.789,-30.273,11.719,175.781,1.000
1626203002444764.000,-51.758,-38.574,-12.207,-76.660,1.000
1626203002448670.250,-194.824,-43.945,-26.367,-239.258,1.000
1626203002452576.500,-49.805,-37.598,-34.180,-24.902,1.000
1626203002456482.750,91.797,-38.574,-43.457,162.598,1.000
1626203002460389.000,122.559,-25.391,-31.738,1.000,1.000
1626203002464295.250,-60.547,-33.203,-53.223,1.000,1.000
1626203002468201.500,-192.383,-42.969,-44.922,1.000,1.000
1626203002472107.750,-17.090,-43.457,-14.160,1.000,1.000
1626203002476014.000,148.438,-26.855,-3.418,1.000,1.000
1626203002479920.250,12.695,-32.715,-24.902,1.000,1.000
1626203002483826.500,-187.988,-47.363,-50.293,1.000,1.000
1626203002487732.750,-122.559,-28.809,-50.293,1.000,1.000
1626203002491639.000,83.984,-20.020,-27.344,1.000,1.000
1626203002495545.250,66.895,-29.785,-14.160,1.000,1.000
1626203002499451.500,-150.879,-25.879,-23.438,1.000,1.000
1626203002503357.750,-172.852,-28.320,-34.668,1.000,1.000
1626203002507264.000,-124.023,-77.637,-36.133,-143.555,1.000
1626203002511170.250,81.543,-37.598,-41.504,134.766,1.000
1626203002515076.500,73.242,-13.672,-57.129,98.633,1.000
1626203002518982.750,-129.395,-10.254,-37.109,-184.082,1.000
1626203002522889.000,-145.508,-2.930,-9.766,-191.406,1.000
1626203002526795.250,61.035,-22.461,-16.602,90.820,1.000
1626203002530701.500,118.652,-53.711,-26.855,154.785,1.000
1626203002534607.750,-62.500,-33.203,-22.949,-108.887,1.000
1626203002538514.000,-166.992,-36.133,-24.414,-225.098,1.000
1626203002542420.250,2.441,-51.270,-29.785,20.020,1.000
1626203002546326.500,135.254,-33.203,-39.551,182.129,1.000
1626203002550232.750,-33.203,-35.156,-59.570,-50.781,1.000
1626203002554139.000,-63.477,-46.875,-53.711,-89.844,1.000
1626203002558045.250,-188.965,-42.969,-61.035,-242.188,1.000
1626203002561951.500,-22.949,-11.230,-33.691,-15.137,1.000
1626203002565857.750,131.348,-3.418,-24.902,176.270,1.000
1626203002569764.000,-11.230,-23.926,-47.852,-28.809,1.000
1626203002573670.250,-187.500,-22.461,-38.574,-248.047,1.000
1626203002577576.500,-99.121,-40.527,-47.852,-104.980,1.000
1626203002581482.750,93.262,-64.941,-43.457,145.020,1.000
1626203002585389.000,54.688,-53.223,-9.277,60.059,1.000
1626203002589295.250,-152.344,-37.598,-9.766,-215.332,1.000
1626203002593201.500,-163.086,-39.551,-33.203,-191.895,1.000
1626203002597107.750,47.852,-43.945,-33.691,98.145,1.000
1626203002601014.000,107.910,-34.180,-14.160,164.062,1.000
1626203002604920.250,55.664,-49.805,-32.715,77.148,1.000
1626203002608826.500,-149.414,-57.617,-53.223,-196.777,1.000
1626203002612732.750,-136.719,-49.316,-60.547,-165.039,1.000
1626203002616639.000,55.664,-34.180,-39.062,103.516,1.000
1626203002620545.250,88.867,-19.043,-17.090,132.324,1.000
1626203002624451.500,-109.375,-45.898,-22.461,-144.531,1.000
1626203002628357.750,-191.406,-56.152,-19.531,-238.770,1.000
1626203002632264.000,-18.066,-47.363,-27.344,7.324,1.000
1626203002636170.250,108.887,-21.973,-32.715,153.809,1.000
1626203002640076.500,-45.410,-23.438,-42.969,-70.312,1.000
1626203002643982.750,-189.941,-43.945,-34.180,-242.188,1.000
1626203002647889.000,-191.895,-42.480,-20.020,-240.234,1.000
1626203002651795.250,-10.254,-37.598,-22.949,18.066,1.000
1626203002655701.500,128.906,-31.250,-12.207,188.477,1.000
1626203002659607.750,-28.809,-43.945,-20.020,-28.809,1.000
1626203002663514.000,-183.105,-50.781,-50.293,-226.074,1.000
1626203002667420.250,-73.242,-37.598,-49.805,-56.152,1.000
1626203002671326.500,96.191,-49.805,-48.340,166.992,1.000
1626203002675232.750,31.738,-50.781,-32.715,55.664,1.000
1626203002679139.000,-188.477,-38.086,-20.508,-224.609,1.000
1626203002683045.250,-159.180,-32.715,-8.301,-161.133,1.000
1626203002686951.500,73.730,-27.344,-10.742,138.672,1.000
1626203002690857.750,83.008,-44.434,-37.598,121.582,1.000
1626203002694764.000,69.336,-16.113,-9.766,1.000,1.000
1626203002698670.250,-142.090,-39.062,-33.203,1.000,1.000
1626203002702576.500,-114.746,-44.922,-29.785,1.000,1.000
1626203002706482.750,114.746,-20.508,1.953,1.000,1.000
1626203002710389.000,128.418,-16.602,-9.277,1.000,1.000
1626203002714295.250,-110.840,-36.621,-48.340,1.000,1.000
1626203002718201.500,-182.617,-46.387,-59.082,1.000,1.000
1626203002722107.750,31.738,-23.926,-40.527,1.000,1.000
1626203002726014.000,121.094,-13.184,-26.855,1.000,1.000
1626203002729920.250,-51.758,-21.973,-26.367,1.000,1.000
1626203002733826.500,-179.688,-19.043,-29.297,1.000,1.000
1626203002737732.750,-37.109,-16.113,-29.297,1.000,1.000
1626203002741639.000,26.367,-17.578,-34.668,57.129,1.000
1626203002745545.250,112.305,-21.484,-50.293,163.086,1.000
1626203002749451.500,-52.734,-42.969,-35.645,-73.242,1.000
1626203002753357.750,-175.293,-30.762,-32.227,-230.469,1.000
1626203002757264.000,-39.062,-16.602,-25.879,-25.879,1.000
1626203002761170.250,125.000,-29.785,-17.578,185.059,1.000
1626203002765076.500,12.207,-47.363,-34.668,11.230,1.000
1626203002768982.750,-166.992,-38.574,-50.293,-230.469,1.000
1626203002772889.000,-74.707,-15.625,-30.762,-91.309,1.000
1626203002776795.250,133.301,-19.043,2.441,180.176,1.000
1626203002780701.500,90.332,-32.715,-11.230,100.098,1.000
1626203002784607.750,-136.230,-49.316,-35.156,-198.730,1.000
1626203002788514.000,-175.781,-19.531,-45.898,-238.281,1.000
1626203002792420.250,-113.281,-35.156,-61.523,-141.602,1.000
1626203002796326.500,97.168,-25.391,-57.129,138.672,1.000
1626203002800232.750,100.586,-11.719,-19.531,123.047,1.000
1626203002804139.000,-109.375,-21.973,-24.902,-158.203,1.000
1626203002808045.250,-151.855,-30.273,-31.738,-183.594,1.000
1626203002811951.500,48.828,-57.617,-7.324,90.820,1.000
1626203002815857.750,111.816,-68.359,0.000,150.879,1.000
1626203002819764.000,-80.078,-46.875,-26.367,-120.117,1.000
1626203002823670.250,-193.848,-18.555,-48.828,-243.652,1.000
1626203002827576.500,-30.273,-8.301,-49.316,-6.836,1.000
1626203002831482.750,121.094,-13.184,-37.109,170.898,1.000
1626203002835389.000,130.859,-12.695,-20.020,175.781,1.000
1626203002839295.250,-62.500,-16.602,-46.387,-79.102,1.000
1626203002843201.500,-187.500,-36.621,-48.340,-226.074,1.000
1626203002847107.750,-16.602,-41.992,-14.648,11.719,1.000
1626203002851014.000,129.395,-45.898,-7.812,200.195,1.000
1626203002854920.250,-0.488,-46.875,-16.602,9.277,1.000
1626203002858826.500,-182.129,-47.852,-52.246,-222.168,1.000
1626203002862732.750,-75.684,-40.527,-48.828,-70.801,1.000
1626203002866639.000,112.305,-41.504,-40.039,172.852,1.000
1626203002870545.250,42.480,-41.992,-41.992,59.570,1.000
1626203002874451.500,-149.902,-34.668,-28.809,-207.520,1.000
1626203002878357.750,-134.277,-36.133,-28.320,-162.109,1.000
1626203002882264.000,-104.492,-28.320,-25.391,-111.816,1.000
1626203002886170.250,104.980,-39.062,-18.066,156.250,1.000
1626203002890076.500,74.707,-34.180,-41.504,82.520,1.000
1626203002893982.750,-137.207,-12.695,-48.828,-198.730,1.000
1626203002897889.000,-162.109,-25.879,-29.785,-195.312,1.000
1626203002901795.250,53.223,-18.555,-13.184,90.332,1.000
1626203002905701.500,101.074,-29.785,-14.648,130.371,1.000
1626203002909607.750,-82.520,-46.875,-10.742,-132.324,1.000
1626203002913514.000,-153.809,-37.598,-16.602,-213.379,1.000
1626203002917420.250,29.297,-28.809,-35.156,47.363,1.000
1626203002921326.500,132.324,-28.809,-43.457,172.852,1.000
1626203002925232.750,-48.828,-43.457,-52.734,-77.148,1.000
1626203002929139.000,-84.961,-53.223,-58.105,-108.398,1.000
1626203002933045.250,-200.195,-29.785,-52.734,-232.422,1.000
1626203002936951.500,-32.227,-25.879,-18.555,6.836,1.000
1626203002940857.750,114.258,-21.484,0.977,173.340,1.000
1626203002944764.000,-16.602,-32.715,-0.488,-33.691,1.000
1626203002948670.250,-187.500,-22.461,-10.254,-236.816,1.000
1626203002952576.500,-85.938,-23.926,-28.809,-69.824,1.000
1626203002956482.750,110.840,-48.340,-31.738,175.781,1.000
1626203002960389.000,47.363,-30.762,-41.504,59.082,1.000
1626203002964295.250,-149.902,-5.859,-47.363,-205.078,1.000
1626203002968201.500,-121.094,-20.996,-23.438,-136.230,1.000
1626203002972107.750,68.848,-43.945,-17.090,126.953,1.000
1626203002976014.000,132.812,-19.531,-6.836,185.547,1.000
1626203002979920.250,43.457,-36.133,-37.598,57.617,1.000
1626203002983826.500,-160.645,-38.086,-37.598,-213.379,1.000
1626203002987732.750,-135.742,-33.203,-33.691,-160.156,1.000
1626203002991639.000,71.289,-27.832,-27.832,128.418,1.000
1626203002995545.250,103.516,-32.227,-22.949,144.043,1.000
1626203002999451.500,-104.980,-70.801,-50.293,-142.578,1.000
1626203003003357.750,-166.016,-38.574,-43.457,-205.078,1.000
1626203003007264.000,32.715,0.488,-17.578,62.500,1.000
1626203003011170.250,116.699,-20.996,-14.648,166.016,1.000
1626203003015076.500,-51.270,-36.621,-21.484,-75.195,1.000
1626203003018982.750,-179.199,-32.227,-25.879,-233.398,1.000
1626203003022889.000,-201.172,-54.199,-39.062,-251.465,1.000
1626203003026795.250,-19.531,-40.527,-41.016,8.301,1.000
1626203003030701.500,104.980,-32.715,-39.062,155.762,1.000
1626203003034607.750,-56.641,-41.992,-47.363,-75.684,1.000
1626203003038514.000,-193.359,-55.176,-38.574,-247.559,1.000
1626203003042420.250,-54.688,-34.668,-26.367,-41.504,1.000
1626203003046326.500,110.352,-3.418,-28.809,175.293,1.000
1626203003050232.750,3.906,-18.066,-29.297,16.602,1.000
1626203003054139.000,-201.660,-32.227,-49.316,-243.164,1.000
1626203003058045.250,-115.723,-25.879,-23.926,-115.234,1.000
1626203003061951.500,91.309,-45.410,-5.859,153.809,1.000
1626203003065857.750,33.691,-60.059,-45.898,69.336,1.000
1626203003069764.000,12.695,-46.875,-37.109,1.000,1.000
1626203003073670.250,-176.758,-41.504,-29.785,1.000,1.000
1626203003077576.500,-115.723,-21.973,-25.391,1.000,1.000
1626203003081482.750,86.426,-29.297,-31.738,1.000,1.000
1626203003085389.000,93.750,-24.414,-34.668,1.000,1.000
1626203003089295.250,-92.773,-17.090,-38.086,1.000,1.000
1626203003093201.500,-164.062,-33.691,-40.527,1.000,1.000
1626203003097107.750,24.414,-14.160,-22.949,1.000,1.000
1626203003101014.000,104.492,-8.789,-20.996,1.000,1.000
1626203003104920.250,-77.637,-20.508,-33.691,1.000,1.000
1626203003108826.500,-194.336,-34.668,-41.016,1.000,1.000
1626203003112732.750,-16.602,-46.387,-26.855,1.000,1.000
1626203003116639.000,43.945,-28.809,-27.344,76.660,1.000
1626203003120545.250,101.562,-23.926,-40.039,152.832,1.000
1626203003124451.500,-79.102,-34.180,-39.062,-108.398,1.000
1626203003128357.750,-195.801,-36.621,-46.387,-251.953,1.000
1626203003132264.000,-43.457,-19.043,-46.875,-29.297,1.000
1626203003136170.250,118.652,-11.719,-25.391,172.363,1.000
1626203003140076.500,-8.789,-48.340,-40.039,-16.602,1.000
1626203003143982.750,-181.152,-39.062,-51.758,-239.258,1.000
1626203003147889.000,-72.754,-23.438,-20.996,-79.590,1.000
1626203003151795.250,127.930,-28.320,4.883,179.688,1.000
1626203003155701.500,51.758,-34.668,-17.578,67.871,1.000
1626203003159607.750,-176.270,-62.500,-47.852,-229.492,1.000
1626203003163514.000,-206.055,-46.875,-45.410,-265.137,1.000
1626203003167420.250,-129.883,-66.895,-29.297,-136.719,1.000
1626203003171326.500,102.051,-40.527,-7.812,154.297,1.000
1626203003175232.750,75.684,-12.207,-32.227,90.820,1.000
1626203003179139.000,-144.531,-18.066,-47.363,-199.219,1.000
1626203003183045.250,-137.695,-3.906,-25.391,-173.828,1.000
1626203003186951.500,73.730,-8.301,-20.508,113.770,1.000
1626203003190857.750,99.121,-23.926,-41.504,137.207,1.000
1626203003194764.000,-100.586,-44.922,-44.434,-140.137,1.000
1626203003198670.250,-166.504,-61.035,-18.066,-221.680,1.000
1626203003202576.500,25.879,-36.133,-18.555,45.898,1.000
1626203003206482.750,132.324,-38.574,-32.715,187.500,1.000
1626203003210389.000,117.188,-19.531,-38.086,145.996,1.000
1626203003214295.250,-82.520,-45.898,-62.988,-127.441,1.000
1626203003218201.500,-185.059,-35.156,-70.312,-247.559,1.000
1626203003222107.750,-5.859,-11.230,-56.152,2.930,1.000
1626203003226014.000,146.973,-16.113,-38.086,185.059,1.000
1626203003229920.250,5.859,-21.973,-27.344,-19.043,1.000
1626203003233826.500,-198.730,-54.688,-57.129,-264.160,1.000
1626203003237732.750,-74.219,-45.410,-48.828,-90.332,1.000
1626203003241639.000,138.672,-21.484,-20.020,180.664,1.000
1626203003245545.250,63.477,-10.742,-17.090,62.500,1.000
1626203003249451.500,-144.043,-14.160,-32.715,-212.402,1.000
1626203003253357.750,-111.328,-44.434,-46.387,-146.484,1.000
1626203003257264.000,-69.336,-3.906,-22.461,-80.566,1.000
1626203003261170.250,96.191,-20.020,-46.387,147.949,1.000
1626203003265076.500,40.039,-24.414,-40.039,49.316,1.000
1626203003268982.750,-141.113,-20.020,-19.531,-193.848,1.000
1626203003272889.000,-133.789,-37.598,-32.715,-157.715,1.000
1626203003276795.250,81.543,-41.504,-34.180,123.535,1.000
1626203003280701.500,96.680,-32.715,-43.457,127.441,1.000
1626203003284607.750,-79.102,-34.668,-34.668,-138.184,1.000
1626203003288514.000,-135.254,-23.438,-21.484,-202.148,1.000
1626203003292420.250,23.438,-3.906,-28.320,44.434,1.000
1626203003296326.500,113.281,-18.555,-15.625,156.250,1.000
1626203003300232.750,-58.105,-31.738,-35.645,-88.379,1.000
1626203003304139.000,-81.055,-31.250,-20.996,1.000,1.000
1626203003308045.250,-178.711,-58.594,-39.551,1.000,1.000
1626203003311951.500,27.344,-20.020,-36.133,1.000,1.000
1626203003315857.750,149.414,5.371,-26.367,1.000,1.000
1626203003319764.000,-20.020,-15.625,-22.949,1.000,1.000
1626203003323670.250,-166.992,-43.945,-20.020,1.000,1.000
1626203003327576.500,-55.176,-62.012,-33.691,1.000,1.000
1626203003331482.750,122.559,-38.574,-27.344,1.000,1.000
1626203003335389.000,33.691,-20.508,-25.879,1.000,1.000
1626203003339295.250,-167.480,-18.066,-22.949,1.000,1.000
1626203003343201.500,-128.418,-24.414,-20.508,1.000,1.000
1626203003347107.750,67.871,-34.668,-25.879,1.000,1.000
1626203003351014.000,133.301,-48.340,-12.207,193.359,1.000
1626203003354920.250,43.945,-48.340,-40.039,50.781,1.000
1626203003358826.500,-168.457,-39.062,-56.152,-228.516,1.000
1626203003362732.750,-121.582,-22.461,-30.273,-138.672,1.000
1626203003366639.000,96.680,-14.160,-6.836,152.832,1.000
1626203003370545.250,73.730,-19.043,-27.832,111.816,1.000
1626203003374451.500,-153.320,-30.762,-52.246,-194.336,1.000
1626203003378357.750,-161.621,-24.902,-21.973,-196.777,1.000
1626203003382264.000,53.223,-43.945,-14.648,88.867,1.000
1626203003386170.250,111.328,-55.664,-26.367,148.926,1.000
1626203003390076.500,-89.355,-50.781,-44.434,-123.047,1.000
1626203003393982.750,-208.496,-78.125,-55.176,-257.812,1.000
1626203003397889.000,-151.367,-15.137,-27.344,-202.148,1.000
1626203003401795.250,32.715,-15.137,-33.203,58.594,1.000
1626203003405701.500,125.488,-13.184,-35.645,173.340,1.000
1626203003409607.750,-45.410,-16.113,-45.410,-74.707,1.000
1626203003413514.000,-182.617,-27.832,-48.828,-242.676,1.000
1626203003417420.250,-32.227,-20.508,-27.832,-17.090,1.000
1626203003421326.500,108.887,-44.922,-36.621,168.457,1.000
1626203003425232.750,2.441,-50.293,-41.504,-5.371,1.000
1626203003429139.000,-155.762,-35.645,-20.996,-221.191,1.000
1626203003433045.250,-84.473,-33.691,-21.973,-96.191,1.000
1626203003436951.500,99.121,-17.578,-23.438,155.273,1.000
1626203003440857.750,63.477,-32.227,-12.695,80.078,1.000
1626203003444764.000,1.953,-18.555,-26.367,1.000,1.000
1626203003448670.250,-194.336,-46.875,-55.176,1.000,1.000
1626203003452576.500,-110.352,-37.109,-43.457,1.000,1.000
1626203003456482.750,126.465,-9.766,-22.461,1.000,1.000
1626203003460389.000,88.867,-4.883,-34.180,1.000,1.000
1626203003464295.250,-159.668,-27.832,-57.617,1.000,1.000
1626203003468201.500,-205.566,-58.105,-71.777,1.000,1.000
1626203003472107.750,24.902,-63.965,-37.109,1.000,1.000
1626203003476014.000,91.309,-47.363,-15.137,1.000,1.000
1626203003479920.250,-93.750,-24.414,-14.648,1.000,1.000
1626203003483826.500,-185.059,-40.527,-30.762,1.000,1.000
1626203003487732.750,-15.137,-33.691,-46.387,1.000,1.000
1626203003491639.000,35.645,-26.855,-10.254,91.797,1.000
1626203003495545.250,86.426,-52.734,-31.250,144.531,1.000
1626203003499451.500,-100.586,-41.504,-46.387,-122.559,1.000
1626203003503357.750,-180.176,-29.297,-28.809,-224.121,1.000
1626203003507264.000,-19.531,-32.715,-20.996,6.348,1.000
1626203003511170.250,110.840,-23.438,-13.672,169.922,1.000
1626203003515076.500,-30.273,-28.320,-35.156,-32.227,1.000
1626203003518982.750,-199.219,-29.785,-44.434,-248.047,1.000
1626203003522889.000,-84.473,-43.457,-30.762,-83.496,1.000
1626203003526795.250,125.000,-25.391,-20.508,178.711,1.000
1626203003530701.500,55.176,-3.906,-23.926,66.406,1.000
1626203003534607.750,-174.805,-48.340,-41.016,-223.145,1.000
1626203003538514.000,-182.129,-22.949,-34.668,-231.445,1.000
1626203003542420.250,-100.098,-30.273,-43.945,-94.727,1.000
1626203003546326.500,92.773,-30.762,-21.973,160.156,1.000
1626203003550232.750,42.480,-34.180,-13.672,71.777,1.000
1626203003554139.000,-146.484,-44.922,-16.602,-187.988,1.000
1626203003558045.250,-131.348,-51.270,-20.020,-148.438,1.000
1626203003561951.500,44.922,-66.406,-37.598,107.422,1.000
1626203003565857.750,72.266,-32.227,-39.062,121.582,1.000
1626203003569764.000,-102.051,-28.320,-35.645,-141.602,1.000
1626203003573670.250,-167.969,-50.781,-24.902,-210.938,1.000
1626203003577576.500,23.438,-16.113,-3.906,54.688,1.000
1626203003581482.750,113.770,0.000,-27.344,166.504,1.000
1626203003585389.000,93.262,-19.531,-18.066,134.766,1.000
1626203003589295.250,-101.562,-34.668,-30.273,-142.090,1.000
1626203003593201.500,-166.504,-39.062,-27.344,-223.633,1.000
1626203003597107.750,10.254,-27.832,-37.598,36.621,1.000
1626203003601014.000,92.773,-20.020,-63.965,150.879,1.000
1626203003604920.250,-63.477,-30.762,-56.641,-86.426,1.000
1626203003608826.500,-207.031,-53.711,-38.086,-271.973,1.000
1626203003612732.750,-67.871,-56.641,-24.902,-65.918,1.000
1626203003616639.000,129.395,-44.434,-3.906,179.199,1.000
1626203003620545.250,44.922,-30.762,-7.324,35.156,1.000
1626203003624451.500,-155.273,-21.484,-24.902,-230.957,1.000
1626203003628357.750,-117.676,-38.086,-29.297,-139.648,1.000
1626203003632264.000,-54.199,-35.645,-20.508,-56.641,1.000
1626203003636170.250,91.797,-38.574,-52.734,150.391,1.000
1626203003640076.500,7.812,-37.598,-57.617,13.672,1.000
1626203003643982.750,-187.012,-65.430,-35.156,-245.605,1.000
1626203003647889.000,-136.230,-50.293,-13.672,-153.320,1.000
1626203003651795.250,85.938,-12.207,-10.254,142.578,1.000
1626203003655701.500,76.660,-38.574,-31.738,109.375,1.000
1626203003659607.750,-108.887,-41.016,-29.297,-167.969,1.000
1626203003663514.000,-144.043,-16.113,-28.809,-194.824,1.000
1626203003667420.250,39.062,-24.902,-22.949,71.289,1.000
1626203003671326.500,109.375,-31.738,-20.996,146.484,1.000
1626203003675232.750,-96.191,-36.621,-48.828,-129.883,1.000
1626203003679139.000,-80.566,-33.203,4.395,1.000,1.000
1626203003683045.250,-168.457,-47.852,-34.180,1.000,1.000
1626203003686951.500,-1.465,-33.203,-41.016,1.000,1.000
1626203003690857.750,93.750,-11.719,-20.996,1.000,1.000
1626203003694764.000,-65.430,-2.930,-32.715,1.000,1.000
1626203003698670.250,-188.477,-13.184,-39.062,1.000,1.000
1626203003702576.500,-41.504,-44.922,-38.086,1.000,1.000
1626203003706482.750,146.973,-27.832,-22.949,1.000,1.000
1626203003710389.000,32.227,-40.527,-23.438,1.000,1.000
1626203003714295.250,-187.988,-66.895,-42.969,1.000,1.000
1626203003718201.500,-114.258,-36.621,-29.785,1.000,1.000
1626203003722107.750,93.262,-32.715,-26.855,1.000,1.000
1626203003726014.000,148.438,-3.418,-23.438,190.918,1.000
1626203003729920.250,16.602,-23.438,-34.668,8.789,1.000
1626203003733826.500,-184.082,-41.016,-47.363,-247.070,1.000
1626203003737732.750,-81.543,-2.930,-21.484,-102.539,1.000
1626203003741639.000,131.348,-5.371,-0.488,174.805,1.000
1626203003745545.250,77.148,-42.969,-19.043,92.285,1.000
1626203003749451.500,-150.391,-47.852,-52.246,-210.938,1.000
1626203003753357.750,-161.621,-28.809,-51.270,-202.148,1.000
1626203003757264.000,69.336,-24.902,-26.367,108.398,1.000
1626203003761170.250,142.090,-13.184,-14.648,176.270,1.000
1626203003765076.500,-66.895,-12.695,-26.855,-110.840,1.000
1626203003768982.750,-188.477,-38.574,-37.598,-240.723,1.000
1626203003772889.000,-166.016,-51.270,-41.504,-213.379,1.000
1626203003776795.250,17.090,-53.711,-44.434,48.828,1.000
1626203003780701.500,98.633,-12.695,-38.086,139.648,1.000
1626203003784607.750,-74.219,-1.953,-48.828,-109.863,1.000
1626203003788514.000,-185.547,-27.344,-47.363,-239.746,1.000
1626203003792420.250,-5.371,0.000,-4.395,14.160,1.000
1626203003796326.500,105.469,-22.949,-25.391,158.691,1.000
1626203003800232.750,-31.250,-77.148,-43.945,-44.922,1.000
1626203003804139.000,-157.715,-59.570,-16.113,-214.355,1.000
1626203003808045.250,-57.617,-39.062,-8.301,-53.223,1.000
1626203003811951.500,109.375,-24.414,-24.902,169.434,1.000
1626203003815857.750,23.438,-15.625,-52.734,42.969,1.000
1626203003819764.000,42.480,-28.809,-30.273,17.578,1.000
1626203003823670.250,-180.664,-53.223,-24.902,-239.258,1.000
1626203003827576.500,-98.633,-30.273,-14.648,-99.609,1.000
1626203003831482.750,107.910,-32.227,-15.137,167.969,1.000
1626203003835389.000,54.199,-45.410,-11.230,71.777,1.000
1626203003839295.250,-137.207,-24.414,-17.578,-190.430,1.000
1626203003843201.500,-133.301,-11.719,-28.320,-153.809,1.000
1626203003847107.750,72.266,-11.230,-25.879,122.070,1.000
1626203003851014.000,114.258,-7.324,-29.297,147.461,1.000
1626203003854920.250,-73.242,-7.812,-29.297,-120.117,1.000
1626203003858826.500,-164.062,-49.805,-31.250,-212.402,1.000
1626203003862732.750,11.230,-47.363,-17.578,41.504,1.000
1626203003866639.000,61.523,-20.508,-17.090,97.656,1.000
1626203003870545.250,124.512,-18.555,-15.137,151.855,1.000
1626203003874451.500,-72.754,-35.156,-49.316,-126.953,1.000
1626203003878357.750,-152.832,-40.527,-39.551,-213.867,1.000
1626203003882264.000,28.809,-18.066,-12.695,38.574,1.000
1626203003886170.250,139.648,-0.488,-20.508,173.828,1.000
1626203003890076.500,-27.832,-15.625,-47.852,-60.059,1.000
1626203003893982.750,-189.941,-32.227,-46.875,-254.883,1.000
1626203003897889.000,-62.500,-43.945,-27.832,-58.105,1.000
1626203003901795.250,124.512,-50.781,-14.648,177.246,1.000
1626203003905701.500,32.715,-49.316,-16.113,24.902,1.000
1626203003909607.750,-160.156,-29.297,-27.344,-226.562,1.000
1626203003913514.000,-184.082,-26.855,-41.504,-237.305,1.000
1626203003917420.250,-79.102,-61.523,-36.133,-74.219,1.000
1626203003921326.500,108.887,-47.363,-23.926,167.480,1.000
1626203003925232.750,42.480,-21.973,-15.625,51.758,1.000
1626203003929139.000,-165.039,-30.762,-41.992,-222.656,1.000
1626203003933045.250,-139.160,-17.090,-58.105,-158.691,1.000
1626203003936951.500,72.266,-4.883,-39.062,128.418,1.000
1626203003940857.750,98.633,-12.207,-15.137,134.277,1.000
1626203003944764.000,-108.398,-20.020,-38.086,-150.879,1.000
1626203003948670.250,-160.156,-24.902,-50.781,-195.801,1.000
1626203003952576.500,42.480,-12.695,-27.344,87.891,1.000
1626203003956482.750,115.234,-22.949,-49.316,166.992,1.000
1626203003960389.000,102.539,-17.090,-27.344,151.367,1.000
1626203003964295.250,-116.211,-27.832,-38.574,-146.973,1.000
1626203003968201.500,-182.129,-25.391,-41.504,-214.355,1.000
1626203003972107.750,28.320,-11.719,-39.062,67.383,1.000
1626203003976014.000,128.906,-6.348,-30.762,184.082,1.000
1626203003979920.250,-46.387,-28.809,-27.344,-64.941,1.000
1626203003983826.500,-182.129,-45.410,-31.738,-233.398,1.000
1626203003987732.750,-21.484,-21.973,-28.809,-6.348,1.000
1626203003991639.000,144.531,-9.766,-31.250,208.008,1.000
1626203003995545.250,22.461,-14.160,-31.738,29.785,1.000
1626203003999451.500,-158.691,-23.926,-19.043,-208.984,1.000
1626203004003357.750,-101.074,-46.387,-27.832,-95.703,1.000
1626203004007264.000,-35.156,-34.668,-31.250,-50.781,1.000
1626203004011170.250,108.887,-44.434,-54.688,145.508,1.000
1626203004015076.500,-4.883,-42.969,-61.523,-17.090,1.000
1626203004018982.750,-183.594,-34.180,-41.992,-251.953,1.000
1626203004022889.000,-119.141,-40.039,-35.156,-145.020,1.000
1626203004026795.250,77.637,-26.855,-34.668,121.582,1.000
1626203004030701.500,48.828,-22.949,-34.180,69.336,1.000
1626203004034607.750,-133.301,-19.531,-21.484,-188.965,1.000
1626203004038514.000,-129.395,-17.578,-13.672,-174.316,1.000
1626203004042420.250,75.195,-21.973,-18.066,104.004,1.000
1626203004046326.500,109.863,-14.648,-24.902,139.160,1.000
1626203004050232.750,-103.027,-30.273,-33.203,-140.625,1.000
1626203004054139.000,-117.676,-41.016,-20.996,1.000,1.000
1626203004058045.250,-177.246,-60.059,-32.227,1.000,1.000
1626203004061951.500,28.809,-35.156,-34.668,1.000,1.000
1626203004065857.750,115.723,-23.926,-35.156,1.000,1.000
1626203004069764.000,-69.824,-50.293,-30.273,1.000,1.000
1626203004073670.250,-190.918,-63.965,-26.855,1.000,1.000
1626203004077576.500,-36.621,-55.664,-41.016,1.000,1.000
1626203004081482.750,124.023,-29.297,-36.621,1.000,1.000
1626203004085389.000,-8.789,-16.113,-8.789,1.000,1.000
1626203004089295.250,-189.453,-34.668,-4.395,1.000,1.000
1626203004093201.500,-111.328,-57.129,-23.438,1.000,1.000
1626203004097107.750,52.246,-65.918,-31.250,1.000,1.000
1626203004101014.000,124.023,-46.387,-5.859,182.129,1.000
1626203004104920.250,-6.348,-40.039,-26.367,-13.184,1.000
1626203004108826.500,-183.105,-9.766,-41.992,-247.559,1.000
1626203004112732.750,-76.660,-11.719,-43.945,-100.586,1.000
1626203004116639.000,115.723,-38.574,-37.109,151.855,1.000
1626203004120545.250,53.711,-33.203,-32.715,52.246,1.000
1626203004124451.500,-163.574,-48.340,-48.828,-231.445,1.000
1626203004128357.750,-143.555,-45.898,-44.922,-180.664,1.000
1626203004132264.000,83.496,-20.996,-17.090,124.023,1.000
1626203004136170.250,124.023,-8.789,0.000,153.320,1.000
1626203004140076.500,-88.379,-26.855,-16.113,-141.602,1.000
1626203004143982.750,-174.805,-64.453,-35.645,-230.469,1.000
1626203004147889.000,-155.273,-41.504,-15.137,-182.617,1.000
1626203004151795.250,63.965,-17.578,-15.625,113.281,1.000
1626203004155701.500,108.398,-10.254,-31.250,159.668,1.000
1626203004159607.750,-87.402,-17.578,-58.105,-125.488,1.000
1626203004163514.000,-159.668,-13.672,-43.457,-216.797,1.000
1626203004167420.250,24.414,-32.227,-19.043,41.504,1.000
1626203004171326.500,97.656,-68.359,-46.875,148.926,1.000
1626203004175232.750,-50.293,-35.156,-25.391,-69.336,1.000
1626203004179139.000,-189.453,-11.230,-12.695,-250.977,1.000
1626203004183045.250,-83.496,-31.250,-40.527,-73.242,1.000
1626203004186951.500,104.980,-29.785,-34.668,169.434,1.000
1626203004190857.750,5.371,-49.316,-29.785,14.648,1.000
1626203004194764.000,15.625,-20.508,-7.812,-2.441,1.000
1626203004198670.250,-179.688,-43.457,-43.945,-246.094,1.000
1626203004202576.500,-67.383,-24.902,-39.062,-75.684,1.000
1626203004206482.750,136.719,-0.488,-20.996,182.617,1.000
1626203004210389.000,66.406,-20.996,-36.621,57.617,1.000
1626203004214295.250,-142.090,-33.691,-55.176,-212.402,1.000
1626203004218201.500,-135.254,-28.320,-55.176,-160.645,1.000
1626203004222107.750,83.984,-12.207,-30.762,129.395,1.000
1626203004226014.000,118.164,-6.836,-8.301,147.461,1.000
1626203004229920.250,-81.543,-28.809,-7.324,-135.254,1.000
1626203004233826.500,-151.855,-40.039,-21.973,-201.660,1.000
1626203004237732.750,30.273,-40.527,-35.645,64.941,1.000
1626203004241639.000,97.656,-17.090,-25.879,134.277,1.000
1626203004245545.250,100.586,-25.879,-36.133,125.000,1.000
1626203004249451.500,-107.422,-38.574,-56.641,-159.180,1.000
1626203004253357.750,-166.504,-31.250,-53.223,-216.309,1.000
1626203004257264.000,19.531,-19.531,-27.344,48.340,1.000
1626203004261170.250,131.348,-23.926,-13.184,175.781,1.000
1626203004265076.500,-62.988,-65.918,-38.574,-93.750,1.000
1626203004268982.750,-208.008,-48.828,-42.480,-267.578,1.000
1626203004272889.000,-20.020,-10.742,-7.324,-14.160,1.000
1626203004276795.250,138.672,-17.090,-14.160,198.242,1.000
1626203004280701.500,3.906,-11.230,-45.898,7.324,1.000
1626203004284607.750,-178.711,-25.879,-45.410,-236.328,1.000
1626203004288514.000,-180.176,-50.781,-18.555,-229.492,1.000
1626203004292420.250,-56.152,-40.527,-22.949,-40.039,1.000
1626203004296326.500,124.512,-25.391,-19.043,185.547,1.000
1626203004300232.750,10.742,-22.949,-40.527,24.414,1.000
1626203004304139.000,-183.594,-35.645,-47.852,-231.934,1.000
1626203004308045.250,-102.539,-41.992,-18.066,-116.699,1.000
1626203004311951.500,104.492,-21.484,-20.020,152.832,1.000
1626203004315857.750,97.656,-0.977,-34.180,112.793,1.000
1626203004319764.000,-112.305,-14.160,-36.133,-165.527,1.000
1626203004323670.250,-149.902,-29.297,-31.738,-180.664,1.000
1626203004327576.500,43.945,-31.738,-32.227,91.797,1.000
1626203004331482.750,92.773,-47.852,-36.133,140.625,1.000
1626203004335389.000,86.914,-44.922,-17.090,114.258,1.000
1626203004339295.250,-127.930,-29.297,-45.898,-178.711,1.000
1626203004343201.500,-157.227,-15.137,-44.922,-199.707,1.000
1626203004347107.750,49.316,-5.859,-20.996,87.402,1.000
1626203004351014.000,120.117,-8.301,-19.531,164.551,1.000
1626203004354920.250,-64.453,-35.156,-30.762,-92.285,1.000
1626203004358826.500,-199.219,-96.191,-56.152,-241.699,1.000
1626203004362732.750,-38.086,-90.332,-51.270,-15.625,1.000
1626203004366639.000,120.117,-35.645,-47.363,175.293,1.000
1626203004370545.250,-2.441,-2.930,-34.180,-9.277,1.000
1626203004374451.500,-174.805,-16.113,-22.461,-229.492,1.000
1626203004378357.750,-91.797,-41.504,-26.367,-86.914,1.000
1626203004382264.000,-22.461,-14.648,-30.273,-13.184,1.000
1626203004386170.250,136.230,-7.324,-13.672,195.801,1.000
1626203004390076.500,11.230,-23.926,-30.762,11.719,1.000
1626203004393982.750,-156.738,-36.621,-28.320,-214.844,1.000
1626203004397889.000,-75.684,-41.504,-18.555,-81.055,1.000
1626203004401795.250,93.262,-49.316,-36.621,153.809,1.000
1626203004405701.500,37.598,-35.156,-51.758,62.012,1.000
1626203004409607.750,-163.086,-22.949,-45.410,-211.426,1.000
1626203004413514.000,-167.969,-49.316,-39.551,-194.824,1.000
1626203004417420.250,53.711,-32.715,-22.949,98.633,1.000
1626203004421326.500,98.145,-7.324,-29.785,128.906,1.000
1626203004425232.750,-112.305,-24.902,-41.016,-156.250,1.000
1626203004429139.000,-117.188,-20.020,-30.273,1.000,1.000
1626203004433045.250,-158.691,-48.340,-36.621,1.000,1.000
1626203004436951.500,37.109,-37.109,-32.715,1.000,1.000
1626203004440857.750,116.211,-4.883,-30.762,1.000,1.000
1626203004444764.000,-92.285,-42.480,-45.898,1.000,1.000
1626203004448670.250,-197.266,-46.875,-41.016,1.000,1.000
1626203004452576.500,-19.043,-35.156,-32.715,1.000,1.000
1626203004456482.750,112.305,-28.809,-32.715,1.000,1.000
1626203004460389.000,-25.391,-26.367,-40.527,1.000,1.000
1626203004464295.250,-158.691,-18.555,-37.598,1.000,1.000
1626203004468201.500,-30.273,-20.020,-24.414,1.000,1.000
1626203004472107.750,110.840,-41.504,-33.691,1.000,1.000
1626203004476014.000,129.395,-20.996,-17.578,189.941,1.000
1626203004479920.250,-19.043,-41.016,-37.598,-32.227,1.000
1626203004483826.500,-204.590,-54.199,-50.293,-262.207,1.000
1626203004487732.750,-79.590,-33.203,-40.527,-76.172,1.000
1626203004491639.000,120.605,-11.230,-31.250,184.570,1.000
1626203004495545.250,52.734,-16.113,-32.227,72.754,1.000
1626203004499451.500,-165.039,-35.156,-44.434,-209.473,1.000
1626203004503357.750,-129.883,-33.691,-30.762,-144.043,1.000
1626203004507264.000,76.660,-40.039,-13.184,142.090,1.000
1626203004511170.250,88.379,-36.621,-20.508,137.695,1.000
1626203004515076.500,-106.445,-31.250,-31.738,-147.949,1.000
1626203004518982.750,-181.152,-39.551,-40.527,-222.656,1.000
1626203004522889.000,-144.531,-40.039,-36.621,-176.270,1.000
1626203004526795.250,77.148,-40.527,-41.016,111.816,1.000
1626203004530701.500,103.516,-36.621,-29.297,129.883,1.000
1626203004534607.750,-79.102,-30.762,-12.207,-129.395,1.000
1626203004538514.000,-154.785,-28.809,-27.832,-211.426,1.000
1626203004542420.250,15.137,-16.602,-36.133,41.992,1.000
1626203004546326.500,93.262,-45.410,-52.734,148.438,1.000
1626203004550232.750,-64.941,-48.340,-48.340,-84.961,1.000
1626203004554139.000,-180.664,-28.809,-25.879,-230.469,1.000
1626203004558045.250,-25.391,-14.160,-12.207,-10.742,1.000
1626203004561951.500,141.602,-9.277,-13.672,198.730,1.000
1626203004565857.750,15.137,-25.879,-43.457,20.020,1.000
1626203004569764.000,-45.410,-38.574,-17.090,-58.594,1.000
1626203004573670.250,-207.031,-47.852,-25.879,-262.207,1.000
1626203004577576.500,-81.055,-37.109,-22.461,-66.895,1.000
1626203004581482.750,106.934,-24.414,-28.320,166.504,1.000
1626203004585389.000,30.762,-12.207,-29.297,29.785,1.000
1626203004589295.250,-164.551,-34.668,-27.344,-225.586,1.000
1626203004593201.500,-127.441,-60.547,-36.133,-149.902,1.000
1626203004597107.750,90.332,-30.762,-23.438,136.230,1.000
1626203004601014.000,102.539,-7.324,-2.441,122.559,1.000
1626203004604920.250,-111.328,-21.484,-10.254,-169.922,1.000
1626203004608826.500,-169.434,-53.223,-31.738,-205.078,1.000
1626203004612732.750,23.438,-57.617,-54.688,74.707,1.000
1626203004616639.000,104.492,1.465,-27.832,151.855,1.000
1626203004620545.250,91.309,-21.973,-20.508,120.117,1.000
1626203004624451.500,-122.559,-50.781,-13.184,-171.875,1.000
1626203004628357.750,-145.508,-49.805,-8.301,-187.988,1.000
1626203004632264.000,50.781,-30.762,-21.973,85.938,1.000
1626203004636170.250,104.004,-39.062,-52.246,146.973,1.000
1626203004640076.500,-91.797,-53.711,-62.500,-123.535,1.000
1626203004643982.750,-193.848,-26.855,-39.062,-247.559,1.000
1626203004647889.000,-23.438,-24.902,-24.414,-8.301,1.000
1626203004651795.250,138.672,-18.555,-18.555,186.523,1.000
1626203004655701.500,15.625,-13.184,-36.133,-3.906,1.000
1626203004659607.750,-163.086,-27.344,-40.039,-225.586,1.000
1626203004663514.000,-178.223,-44.434,-11.719,-227.051,1.000
1626203004667420.250,-21.973,-46.387,-13.672,-13.184,1.000
1626203004671326.500,138.184,-13.672,-19.043,191.406,1.000
1626203004675232.750,24.902,-13.672,-16.602,22.461,1.000
1626203004679139.000,-167.480,-41.504,-21.973,-219.727,1.000
1626203004683045.250,-78.613,-46.875,-8.301,-81.543,1.000
1626203004686951.500,121.094,-48.340,-6.836,179.688,1.000
1626203004690857.750,72.754,-11.719,-31.250,87.891,1.000
1626203004694764.000,-147.461,-11.719,-64.453,-207.520,1.000
1626203004698670.250,-162.598,-38.574,-73.730,-195.312,1.000
1626203004702576.500,66.406,-23.926,-31.250,104.492,1.000
1626203004706482.750,124.512,-17.090,-5.371,155.762,1.000
1626203004710389.000,83.496,-27.832,6.348,114.258,1.000
1626203004714295.250,-120.117,-21.484,-17.090,-166.016,1.000
1626203004718201.500,-143.555,-36.133,-29.297,-169.434,1.000
1626203004722107.750,57.617,-12.207,-21.973,100.586,1.000
1626203004726014.000,91.309,4.395,-37.598,131.348,1.000
1626203004729920.250,-110.840,-20.020,-51.270,-146.484,1.000
1626203004733826.500,-206.055,-57.129,-75.684,-258.301,1.000
1626203004737732.750,-20.020,-54.199,-49.805,2.930,1.000
1626203004741639.000,119.141,-16.602,-17.090,170.410,1.000
1626203004745545.250,-28.320,-4.883,-34.180,-47.852,1.000
1626203004749451.500,-186.035,-27.344,-27.832,-239.746,1.000
1626203004753357.750,-58.594,-46.387,-9.766,-56.152,1.000
1626203004757264.000,5.859,-3.418,-16.602,27.832,1.000
1626203004761170.250,125.488,-14.648,-23.926,184.082,1.000
1626203004765076.500,-37.109,-27.344,-57.617,-39.551,1.000
1626203004768982.750,-177.734,-6.836,-54.199,-230.469,1.000
1626203004772889.000,-48.340,-7.324,-20.020,-51.758,1.000
1626203004776795.250,125.000,-27.344,-15.137,181.152,1.000
1626203004780701.500,21.973,-45.410,-37.109,42.480,1.000
1626203004784607.750,-172.363,-46.875,-33.691,-214.844,1.000
1626203004788514.000,-114.258,-33.203,-13.184,-123.047,1.000
1626203004792420.250,103.516,-29.297,-7.324,164.551,1.000
1626203004796326.500,102.539,-23.438,-23.438,140.625,1.000
1626203004800232.750,-120.605,-53.223,-30.762,-152.344,1.000
1626203004804139.000,-187.500,-20.996,-46.875,1.000,1.000
1626203004808045.250,-188.477,-49.805,-38.086,1.000,1.000
1626203004811951.500,49.316,-38.574,-18.066,1.000,1.000
1626203004815857.750,119.141,-4.883,-3.418,1.000,1.000
1626203004819764.000,-92.773,-23.926,-21.973,1.000,1.000
1626203004823670.250,-164.062,-28.809,-29.297,1.000,1.000
1626203004827576.500,25.391,-31.250,-21.484,1.000,1.000
1626203004831482.750,137.695,-21.973,-20.996,1.000,1.000
1626203004835389.000,-39.551,-29.785,-38.574,1.000,1.000
1626203004839295.250,-193.848,-41.992,-44.434,1.000,1.000
1626203004843201.500,-57.617,-53.223,-34.180,1.000,1.000
1626203004847107.750,111.816,-64.941,-39.551,1.000,1.000
1626203004851014.000,124.512,-16.113,-31.250,178.711,1.000
1626203004854920.250,-31.738,-29.785,-36.621,-52.246,1.000
1626203004858826.500,-166.992,-30.273,-31.250,-230.469,1.000
1626203004862732.750,-27.344,-15.625,-19.043,-28.320,1.000
1626203004866639.000,135.254,-24.902,-13.184,186.523,1.000
1626203004870545.250,27.344,-44.922,-20.996,33.203,1.000
1626203004874451.500,-185.059,-57.129,-57.129,-226.562,1.000
1626203004878357.750,-109.863,-25.879,-52.734,-115.234,1.000
1626203004882264.000,89.844,-19.531,-14.648,141.602,1.000
1626203004886170.250,64.941,-34.668,-0.977,88.379,1.000
1626203004890076.500,-140.137,-37.598,-17.090,-189.453,1.000
1626203004893982.750,-203.613,-52.734,-51.270,-236.328,1.000
1626203004897889.000,-103.027,5.371,-5.859,-124.023,1.000
1626203004901795.250,90.820,-22.949,-7.324,146.973,1.000
1626203004905701.500,62.500,-62.988,-42.969,105.469,1.000
1626203004909607.750,-141.113,-51.758,-58.594,-176.758,1.000
1626203004913514.000,-178.223,-29.785,-40.527,-211.426,1.000
1626203004917420.250,26.855,-8.789,-20.508,73.242,1.000
1626203004921326.500,91.797,-25.879,-30.762,157.227,1.000
1626203004925232.750,-72.266,-38.086,-20.996,-88.867,1.000
1626203004929139.000,-178.711,-24.902,-32.715,-226.074,1.000
1626203004933045.250,-17.578,-14.648,-35.645,9.277,1.000
1626203004936951.500,118.164,-31.250,-22.461,188.477,1.000
1626203004940857.750,-54.199,-54.688,-37.109,-44.922,1.000
1626203004944764.000,-54.688,-22.461,-32.227,-74.219,1.000
1626203004948670.250,-224.609,-55.664,-41.504,-268.066,1.000
1626203004952576.500,-68.359,-27.344,-27.344,-45.410,1.000
1626203004956482.750,113.281,-7.812,1.465,182.617,1.000
1626203004960389.000,-6.836,-35.645,-22.461,7.324,1.000
1626203004964295.250,-183.105,-36.621,-37.598,-226.074,1.000
1626203004968201.500,-104.004,-55.664,-37.598,-105.957,1.000
1626203004972107.750,108.398,-70.801,-20.508,168.945,1.000
1626203004976014.000,61.523,-50.781,-24.414,95.703,1.000
1626203004979920.250,-149.902,-6.348,-33.203,-193.359,1.000
1626203004983826.500,-151.367,-7.324,-36.621,-178.223,1.000
1626203004987732.750,48.828,-32.715,-59.570,93.750,1.000
1626203004991639.000,96.680,-5.371,-1.465,177.246,1.000
1626203004995545.250,71.777,-29.785,-13.672,121.582,1.000
1626203004999451.500,-142.578,-31.738,-31.738,-172.363,1.000
1626203005003357.750,-148.926,-4.395,-14.160,-166.016,1.000
1626203005007264.000,39.551,-38.086,-25.391,101.562,1.000
1626203005011170.250,95.703,-68.848,-34.668,155.762,1.000
1626203005015076.500,-112.305,-72.266,-41.504,-143.066,1.000
1626203005018982.750,-187.012,-25.879,-19.043,-244.141,1.000
1626203005022889.000,16.113,0.977,-5.859,24.902,1.000
1626203005026795.250,132.812,-3.418,-24.902,170.410,1.000
1626203005030701.500,-23.926,-5.859,-42.969,-53.711,1.000
1626203005034607.750,-198.730,-34.668,-52.246,-265.137,1.000
1626203005038514.000,-186.523,-33.691,-11.230,-215.332,1.000
1626203005042420.250,-38.574,-47.363,-16.602,11.230,1.000
1626203005046326.500,113.281,-32.715,-14.648,202.148,1.000
1626203005050232.750,-23.438,-46.875,-21.973,0.977,1.000
1626203005054139.000,-219.238,-74.707,-40.039,-242.676,1.000
1626203005058045.250,-120.117,-38.574,-23.438,-85.938,1.000
1626203005061951.500,51.270,-7.812,-28.809,148.438,1.000
1626203005065857.750,-34.180,-19.531,-55.176,18.555,1.000
1626203005069764.000,-247.070,-43.945,-69.336,-263.184,1.000
1626203005073670.250,-202.637,-31.738,-58.594,-190.918,1.000
1626203005077576.500,14.160,-26.855,-48.340,98.633,1.000
1626203005081482.750,14.160,-43.945,-49.316,80.078,1.000
1626203005085389.000,58.594,-26.367,-50.293,67.871,1.000
1626203005089295.250,-163.086,-33.203,-62.012,-224.609,1.000
1626203005093201.500,-144.043,-31.250,-39.551,-178.711,1.000
1626203005097107.750,93.750,-17.578,-18.555,127.441,1.000
1626203005101014.000,126.465,-10.742,-6.348,147.949,1.000
1626203005104920.250,-74.219,-14.648,-6.348,-126.465,1.000
1626203005108826.500,-164.551,-45.898,-51.758,-228.027,1.000
1626203005112732.750,20.508,-39.551,-58.105,26.855,1.000
1626203005116639.000,127.930,-13.184,-27.832,158.691,1.000
1626203005120545.250,-15.137,-20.020,-20.508,-65.918,1.000
1626203005124451.500,-158.203,-41.016,-28.809,-238.770,1.000
1626203005128357.750,-51.758,-45.898,-61.035,-58.594,1.000
1626203005132264.000,16.113,-23.926,-22.461,18.066,1.000
1626203005136170.250,144.531,-1.953,-31.250,160.645,1.000
1626203005140076.500,-16.113,-23.438,-54.688,-69.336,1.000
1626203005143982.750,-165.527,-41.504,-55.664,-249.512,1.000
1626203005147889.000,-40.527,-29.785,-39.062,-64.453,1.000
1626203005151795.250,155.762,-12.207,-25.879,175.781,1.000
1626203005155701.500,58.105,-35.645,-50.781,24.414,1.000
1626203005159607.750,-129.883,-28.809,-42.969,-219.727,1.000
1626203005163514.000,-60.059,-26.367,-15.625,-107.910,1.000
1626203005167420.250,145.508,-23.438,-9.766,166.016,1.000
1626203005171326.500,133.301,-16.602,-13.184,128.418,1.000
1626203005175232.750,-116.699,-52.734,-39.062,-187.012,1.000
1626203005179139.000,-181.641,-29.785,-30.273,1.000,1.000
1626203005183045.250,-143.555,-24.414,-49.316,1.000,1.000
1626203005186951.500,67.383,-25.391,-47.363,1.000,1.000
1626203005190857.750,92.285,-6.836,-15.137,1.000,1.000
1626203005194764.000,-101.074,-15.625,-12.207,1.000,1.000
1626203005198670.250,-139.160,-28.320,-6.348,1.000,1.000
1626203005202576.500,31.738,-47.852,-33.691,1.000,1.000
1626203005206482.750,122.559,-38.574,-38.086,1.000,1.000
1626203005210389.000,-44.434,-10.742,-27.344,1.000,1.000
1626203005214295.250,-188.477,-2.930,-25.879,1.000,1.000
1626203005218201.500,-55.176,-17.578,-40.039,1.000,1.000
1626203005222107.750,61.523,-60.547,-63.477,1.000,1.000
1626203005226014.000,114.258,-26.855,-19.043,168.457,1.000
1626203005229920.250,-53.223,-34.180,-30.762,-77.148,1.000
1626203005233826.500,-197.266,-38.574,-38.574,-253.906,1.000
1626203005237732.750,-39.062,-29.785,-33.203,-28.320,1.000
1626203005241639.000,119.629,-30.273,-27.832,173.340,1.000
1626203005245545.250,19.043,-28.320,-36.621,14.648,1.000
1626203005249451.500,-151.367,-13.672,-53.711,-215.332,1.000
1626203005253357.750,-86.426,-24.414,-32.227,-97.656,1.000
1626203005257264.000,96.191,-44.922,-9.277,153.809,1.000
1626203005261170.250,35.645,-39.551,-14.160,48.340,1.000
1626203005265076.500,-160.156,-35.645,-46.387,-217.285,1.000
1626203005268982.750,-171.875,-50.293,-70.312,-203.125,1.000
1626203005272889.000,-116.699,-50.781,-26.855,-137.207,1.000
1626203005276795.250,92.285,-33.203,-34.180,135.254,1.000
1626203005280701.500,59.570,-18.555,-47.363,77.148,1.000
1626203005284607.750,-135.742,-7.812,-39.551,-185.547,1.000
1626203005288514.000,-146.973,-15.137,-26.367,-183.594,1.000
1626203005292420.250,56.152,-31.250,-27.832,90.332,1.000
1626203005296326.500,102.051,-41.016,-60.547,136.719,1.000
1626203005300232.750,-79.590,-39.551,-52.246,-121.094,1.000
1626203005304139.000,-169.922,-40.527,-21.973,-226.074,1.000
1626203005308045.250,-6.348,-48.828,-12.695,11.230,1.000
1626203005311951.500,113.281,-37.598,-19.043,165.039,1.000
1626203005315857.750,-34.180,-44.922,-42.480,-51.270,1.000
1626203005319764.000,-53.223,-32.227,-45.410,-91.797,1.000
1626203005323670.250,-186.035,-33.691,-30.762,-245.605,1.000
1626203005327576.500,-20.996,-24.902,-20.020,-13.672,1.000
1626203005331482.750,141.602,-13.672,-12.207,186.523,1.000
1626203005335389.000,-9.277,-38.574,-24.414,-24.902,1.000
1626203005339295.250,-181.152,-41.504,-34.668,-242.188,1.000
1626203005343201.500,-97.656,-63.477,-52.246,-101.562,1.000
1626203005347107.750,115.723,-42.969,-35.645,166.992,1.000
1626203005351014.000,90.332,-5.859,-26.367,94.238,1.000
1626203005354920.250,-146.973,-37.598,-49.316,-209.473,1.000
1626203005358826.500,-143.555,-46.875,-32.715,-170.410,1.000
1626203005362732.750,77.637,-31.250,-30.273,120.117,1.000
1626203005366639.000,92.773,-36.133,-0.488,155.762,1.000
1626203005370545.250,45.410,-46.387,-13.184,69.824,1.000
1626203005374451.500,-173.340,-32.227,-37.598,-223.145,1.000
1626203005378357.750,-162.109,-36.133,-34.668,-188.477,1.000
1626203005382264.000,70.312,-26.367,-22.461,115.723,1.000
1626203005386170.250,129.883,0.488,-24.414,166.504,1.000
1626203005390076.500,-91.309,-22.461,-58.594,-138.672,1.000
1626203005393982.750,-168.457,-20.996,-37.598,-220.215,1.000
1626203005397889.000,38.574,-8.789,-2.930,63.477,1.000
1626203005401795.250,130.859,-33.203,-12.695,177.246,1.000
1626203005405701.500,-45.410,-59.082,-32.227,-72.266,1.000
1626203005409607.750,-201.660,-50.293,-43.457,-263.672,1.000
1626203005413514.000,-178.223,-36.621,-35.645,1.000,1.000
1626203005417420.250,8.789,-17.578,-12.695,1.000,1.000
1626203005421326.500,129.883,-22.461,-16.602,1.000,1.000
1626203005425232.750,-7.812,-14.160,-20.508,1.000,1.000
1626203005429139.000,-150.391,-12.695,-24.414,1.000,1.000
1626203005433045.250,-25.879,-12.695,-30.762,1.000,1.000
1626203005436951.500,116.699,-54.199,-52.734,1.000,1.000
1626203005440857.750,23.438,-46.387,-44.434,1.000,1.000
1626203005444764.000,-155.762,-5.371,-31.738,1.000,1.000
1626203005448670.250,-106.445,-16.602,-35.645,1.000,1.000
1626203005452576.500,107.910,-26.855,-37.598,1.000,1.000
1626203005456482.750,82.031,-48.828,-51.758,1.000,1.000
1626203005460389.000,48.340,-26.367,-34.180,70.312,1.000
1626203005464295.250,-162.598,-62.500,-48.340,-214.844,1.000
1626203005468201.500,-131.348,-58.105,-22.949,-155.273,1.000
1626203005472107.750,100.586,5.859,-6.348,145.020,1.000
1626203005476014.000,108.887,2.441,-17.090,144.043,1.000
1626203005479920.250,-113.281,-37.109,-57.129,-148.438,1.000
1626203005483826.500,-183.105,-43.945,-95.703,-215.332,1.000
1626203005487732.750,39.551,-20.508,-40.039,86.426,1.000
1626203005491639.000,130.859,-9.766,-0.488,198.242,1.000
1626203005495545.250,-61.035,-25.879,-9.766,-76.172,1.000
1626203005499451.500,-182.617,-60.547,-18.066,-228.027,1.000
1626203005503357.750,-44.922,-65.430,-31.250,-16.113,1.000
1626203005507264.000,26.855,-13.672,-22.949,67.383,1.000
1626203005511170.250,107.422,-36.133,-33.203,164.551,1.000
1626203005515076.500,-60.059,-45.410,-34.180,-83.496,1.000
1626203005518982.750,-180.664,-22.949,-30.273,-234.863,1.000
1626203005522889.000,-38.086,-17.090,-20.020,-27.832,1.000
1626203005526795.250,120.117,-25.391,-13.672,172.363,1.000
1626203005530701.500,-13.184,-70.312,-35.645,-14.160,1.000
1626203005534607.750,-193.848,-63.965,-37.109,-254.883,1.000
1626203005538514.000,-99.121,-26.367,-25.879,-115.723,1.000
1626203005542420.250,97.656,-19.043,-36.133,156.738,1.000
1626203005546326.500,50.293,-20.996,-56.641,72.266,1.000
1626203005550232.750,-171.387,-30.762,-50.781,-219.238,1.000
1626203005554139.000,-157.227,-31.250,-20.996,-173.340,1.000
1626203005558045.250,-127.930,-57.129,-23.438,119.141,1.000
1626203005561951.500,79.590,-34.180,-13.672,145.020,1.000
1626203005565857.750,84.961,-8.789,-18.066,-125.488,1.000
1626203005569764.000,-145.020,-26.855,-42.969,-221.191,1.000
1626203005573670.250,-175.293,-35.156,-41.016,48.828,1.000
1626203005577576.500,28.320,-39.062,-44.922,185.059,1.000
1626203005581482.750,86.426,-45.898,-36.133,-59.082,1.000
1626203005585389.000,-95.703,-46.875,-29.785,-257.324,1.000
1626203005589295.250,-204.590,-47.363,-37.598,-75.195,1.000
1626203005593201.500,-28.320,-27.832,-35.156,166.504,1.000
1626203005597107.750,107.422,-14.648,-30.273,37.598,1.000
1626203005601014.000,130.371,1.465,-14.160,182.617,1.000
1626203005604920.250,-65.918,-38.086,-34.668,-83.984,1.000
1626203005608826.500,-189.941,-47.363,-53.711,-229.492,1.000
1626203005612732.750,-14.648,-20.996,-31.738,12.207,1.000
1626203005616639.000,130.371,-17.090,-29.297,198.730,1.000
1626203005620545.250,-16.113,-40.039,-60.547,-11.230,1.000
1626203005624451.500,-216.797,-67.383,-67.871,-265.625,1.000
1626203005628357.750,-106.934,-51.270,-23.926,-106.445,1.000
1626203005632264.000,109.863,-22.949,-3.906,165.039,1.000
1626203005636170.250,45.898,-23.438,-25.391,59.570,1.000
1626203005640076.500,-159.180,-40.039,-38.574,-212.402,1.000
1626203005643982.750,-147.949,-56.641,-39.551,-175.781,1.000
1626203005647889.000,-84.961,-30.762,-38.086,-89.355,1.000
1626203005651795.250,94.238,-38.086,-43.457,155.762,1.000
1626203005655701.500,41.992,-20.508,-45.898,61.523,1.000
1626203005659607.750,-137.695,-8.789,-37.109,-199.707,1.000
1626203005663514.000,-120.605,-8.301,-18.066,-166.504,1.000
1626203005667420.250,93.750,-2.930,1.465,121.094,1.000
1626203005671326.500,103.516,-17.090,-24.902,128.418,1.000
1626203005675232.750,-101.562,-15.137,-50.781,-158.691,1.000
1626203005679139.000,-174.805,-20.996,-38.086,-245.605,1.000
1626203005683045.250,11.719,-19.531,-20.508,16.113,1.000
1626203005686951.500,129.395,-10.742,-22.949,163.086,1.000
1626203005690857.750,-41.016,-25.391,-47.852,-74.219,1.000
1626203005694764.000,-103.516,-31.738,-36.133,-144.043,1.000
1626203005698670.250,-199.707,-41.992,-28.809,-250.000,1.000
1626203005702576.500,-25.879,-34.668,-33.691,-3.418,1.000
1626203005706482.750,124.023,-24.902,-24.414,176.270,1.000
1626203005710389.000,-22.461,-35.156,-28.809,-41.992,1.000
1626203005714295.250,-188.965,-38.086,-37.598,-245.117,1.000
1626203005718201.500,-91.797,-77.148,-57.617,-81.055,1.000
1626203005722107.750,102.539,-68.359,-56.641,160.156,1.000
1626203005726014.000,50.781,-30.273,-28.809,58.105,1.000
1626203005729920.250,-151.367,-28.809,-13.672,-200.684,1.000
1626203005733826.500,-124.023,-33.203,-7.812,-133.301,1.000
1626203005737732.750,67.871,-52.734,-24.902,135.254,1.000
1626203005741639.000,109.863,-39.551,-0.977,178.223,1.000
1626203005745545.250,35.156,-31.250,-22.461,56.641,1.000
1626203005749451.500,-170.898,-29.785,-41.992,-224.121,1.000
1626203005753357.750,-144.043,-20.996,-32.227,-161.133,1.000
1626203005757264.000,76.172,-24.414,-19.043,131.348,1.000
1626203005761170.250,106.445,-49.316,-16.113,136.230,1.000
1626203005765076.500,-106.445,-68.848,-35.645,-152.832,1.000
1626203005768982.750,-172.363,-36.621,-49.316,-215.820,1.000
1626203005772889.000,25.391,-13.672,-33.691,57.617,1.000
1626203005776795.250,123.047,-16.113,-20.996,166.504,1.000
1626203005780701.500,-53.711,-20.508,-28.809,-87.402,1.000
1626203005784607.750,-198.242,-42.480,-41.504,-252.441,1.000
1626203005788514.000,-187.988,-28.320,-44.922,1.000,1.000
1626203005792420.250,-1.465,-41.016,-28.809,1.000,1.000
1626203005796326.500,91.797,-35.645,-27.344,1.000,1.000
1626203005800232.750,-45.410,-35.645,-32.227,1.000,1.000
1626203005804139.000,-179.688,-41.504,-43.457,1.000,1.000
1626203005808045.250,-47.363,-18.555,-41.504,1.000,1.000
1626203005811951.500,103.516,-28.809,-44.434,1.000,1.000
1626203005815857.750,5.859,-40.527,-31.738,1.000,1.000
1626203005819764.000,-164.062,-43.945,-6.836,1.000,1.000
1626203005823670.250,-106.934,-33.203,-8.301,1.000,1.000
1626203005827576.500,83.984,-34.668,-24.902,1.000,1.000
1626203005831482.750,45.410,-48.340,-44.434,1.000,1.000
1626203005835389.000,60.059,-14.160,-19.043,62.012,1.000
1626203005839295.250,-172.363,-38.086,-41.016,-230.469,1.000
1626203005843201.500,-131.836,-47.852,-34.180,-153.809,1.000
1626203005847107.750,98.633,-19.531,-5.859,142.578,1.000
1626203005851014.000,84.473,-4.883,-26.855,110.352,1.000
1626203005854920.250,-115.234,-9.277,-36.133,-167.969,1.000
1626203005858826.500,-138.184,-37.598,-22.461,-182.617,1.000
1626203005862732.750,61.035,-66.406,-26.367,93.262,1.000
1626203005866639.000,97.656,-66.895,-44.434,138.184,1.000
1626203005870545.250,-96.191,-37.598,-56.641,-123.535,1.000
1626203005874451.500,-200.195,-26.367,-56.641,-240.723,1.000
1626203005878357.750,-41.992,-38.574,-37.598,-11.230,1.000
1626203005882264.000,-183.105,-30.273,-27.832,-238.770,1.000
1626203005886170.250,-109.375,-18.066,-34.668,-117.676,1.000
1626203005890076.500,101.074,-17.578,-32.227,157.715,1.000
1626203005893982.750,80.566,-27.344,-33.691,104.004,1.000
1626203005897889.000,-128.418,-35.156,-41.016,-179.688,1.000
1626203005901795.250,-139.648,-31.250,-30.762,-165.527,1.000
1626203005905701.500,79.590,-33.691,-4.395,130.859,1.000
1626203005909607.750,144.043,-28.809,10.254,181.641,1.000
1626203005913514.000,-61.035,-20.508,-5.371,-103.027,1.000
1626203005917420.250,-178.223,-22.949,-20.020,-221.191,1.000
1626203005921326.500,-3.418,-20.996,-26.367,29.785,1.000
1626203005925232.750,110.840,-35.645,-38.574,173.828,1.000
1626203005929139.000,113.281,-28.320,-26.855,157.715,1.000
1626203005933045.250,-77.148,-33.691,-32.227,-116.211,1.000
1626203005936951.500,-182.129,-57.617,-37.598,-223.145,1.000
1626203005940857.750,6.836,-29.297,-41.992,35.645,1.000
1626203005944764.000,138.184,-10.742,-33.203,195.312,1.000
1626203005948670.250,-12.207,-22.461,-29.297,-28.809,1.000
1626203005952576.500,-195.312,-37.109,-43.945,-249.512,1.000
1626203005956482.750,-64.941,-37.109,-17.090,-64.453,1.000
1626203005960389.000,135.254,-16.113,-6.348,187.012,1.000
1626203005964295.250,38.086,-21.973,-32.715,49.316,1.000
1626203005968201.500,-160.645,-40.527,-40.039,-220.703,1.000
1626203005972107.750,-130.859,-45.410,-51.758,-157.715,1.000
1626203005976014.000,-63.965,-12.207,-28.809,-73.242,1.000
1626203005979920.250,120.605,-12.695,-46.875,174.316,1.000
1626203005983826.500,45.410,-15.625,-50.293,60.547,1.000
1626203005987732.750,-163.086,-29.785,-29.297,-211.426,1.000
1626203005991639.000,-135.742,-25.391,-10.254,-155.762,1.000
1626203005995545.250,91.797,-25.879,-3.418,137.695,1.000
1626203005999451.500,105.957,-40.527,-28.809,140.625,1.000
1626203006003357.750,-103.027,-37.109,-31.738,-146.973,1.000
1626203006007264.000,-173.828,-34.668,-33.691,-217.773,1.000
1626203006011170.250,20.508,-51.270,-41.992,59.570,1.000
1626203006015076.500,137.695,-52.734,-32.227,195.312,1.000
1626203006018982.750,-45.410,-38.574,-54.199,-69.824,1.000
1626203006022889.000,-68.848,-23.438,-39.062,-106.445,1.000
1626203006026795.250,-157.715,-23.438,-35.645,-204.590,1.000
1626203006030701.500,18.555,-0.488,-34.180,46.387,1.000
1626203006034607.750,133.301,-2.441,-16.113,186.035,1.000
1626203006038514.000,-32.227,-40.039,-13.184,-50.293,1.000
1626203006042420.250,-193.359,-50.293,-25.879,-241.211,1.000
1626203006046326.500,-84.473,-59.082,-45.898,-68.848,1.000
1626203006050232.750,97.168,-56.152,-34.180,158.203,1.000
1626203006054139.000,27.832,-24.414,-32.227,29.785,1.000
1626203006058045.250,-154.785,-25.879,-42.480,-220.215,1.000
1626203006061951.500,-102.539,-28.809,-41.016,-130.371,1.000
1626203006065857.750,90.820,-27.832,-46.875,131.836,1.000
1626203006069764.000,128.418,-55.664,-3.418,194.336,1.000
1626203006073670.250,40.039,-24.902,-21.484,60.547,1.000
1626203006077576.500,-168.945,-15.137,-47.363,-215.332,1.000
1626203006081482.750,-132.812,-17.578,-51.270,-147.461,1.000
1626203006085389.000,83.008,-19.531,-22.461,138.672,1.000
1626203006089295.250,98.633,-21.973,-20.508,124.512,1.000
1626203006093201.500,-139.648,-36.133,-57.129,-189.941,1.000
1626203006097107.750,-188.965,-27.344,-50.781,-226.562,1.000
1626203006101014.000,24.902,-18.066,-32.715,69.824,1.000
1626203006104920.250,97.168,-27.832,-36.621,149.414,1.000
1626203006108826.500,-79.590,-13.672,-31.250,-114.258,1.000
1626203006112732.750,-187.500,-17.090,-25.391,-241.211,1.000
1626203006116639.000,-168.945,-37.598,-31.738,1.000,1.000
1626203006120545.250,39.062,-23.438,-25.879,1.000,1.000
1626203006124451.500,124.512,-41.504,-34.180,1.000,1.000
1626203006128357.750,-51.270,-45.898,-37.109,1.000,1.000
1626203006132264.000,-169.922,-33.203,-43.457,1.000,1.000
1626203006136170.250,-15.137,-29.297,-49.805,1.000,1.000
1626203006140076.500,112.793,-33.691,-44.922,1.000,1.000
1626203006143982.750,-8.301,-30.273,-21.973,1.000,1.000
1626203006147889.000,-191.895,-30.273,-29.785,1.000,1.000
1626203006151795.250,-117.188,-29.785,-32.227,1.000,1.000
1626203006155701.500,77.637,-24.902,-23.926,1.000,1.000
1626203006159607.750,32.715,-24.902,-36.621,1.000,1.000
1626203006163514.000,49.805,-3.906,-17.578,37.598,1.000
1626203006167420.250,-168.457,-59.570,-51.270,-232.422,1.000
1626203006171326.500,-122.070,-71.289,-48.828,-136.719,1.000
1626203006175232.750,107.422,-11.719,-14.648,158.691,1.000
1626203006179139.000,93.262,-4.395,-10.742,109.375,1.000
1626203006183045.250,-126.465,-32.715,-33.203,-184.082,1.000
1626203006186951.500,-167.969,-42.480,-54.199,-195.312,1.000
1626203006190857.750,49.316,-25.391,-27.344,99.121,1.000
1626203006194764.000,123.047,-17.578,-7.812,160.645,1.000
1626203006198670.250,-77.148,-21.484,-19.043,-114.746,1.000
1626203006202576.500,-169.434,-21.973,-18.066,-212.891,1.000
1626203006206482.750,7.812,-24.902,-22.461,37.109,1.000
1626203006210389.000,55.664,-22.461,-30.762,95.703,1.000
1626203006214295.250,113.770,-24.414,-35.645,155.762,1.000
1626203006218201.500,-78.613,-29.785,-37.598,-120.117,1.000
1626203006222107.750,-184.082,-18.066,-45.410,-242.676,1.000
1626203006226014.000,-25.879,-21.484,-49.316,-3.906,1.000
1626203006229920.250,127.930,-25.391,-28.320,187.012,1.000
1626203006233826.500,-11.719,-37.598,-33.203,-24.902,1.000
1626203006237732.750,-197.754,-36.621,-40.527,-254.883,1.000
1626203006241639.000,-92.285,-31.250,-24.902,-85.449,1.000
1626203006245545.250,103.516,-37.109,-29.785,162.109,1.000
1626203006249451.500,41.504,-50.781,-41.016,45.898,1.000
1626203006253357.750,-162.598,-63.477,-41.992,-219.727,1.000
1626203006257264.000,-182.617,-28.320,-23.926,-239.258,1.000
1626203006261170.250,-97.168,-45.410,-19.043,-103.027,1.000
1626203006265076.500,82.031,-44.922,-32.227,135.742,1.000
1626203006268982.750,51.270,-25.879,-36.621,64.941,1.000
1626203006272889.000,-142.578,-35.156,-42.969,-192.871,1.000
1626203006276795.250,-142.578,-28.320,-58.105,-160.156,1.000
1626203006280701.500,51.758,-19.043,-58.105,103.027,1.000
1626203006284607.750,82.031,-30.762,-19.043,118.652,1.000
1626203006288514.000,-100.586,-15.137,9.277,-137.207,1.000
1626203006292420.250,-174.316,-18.555,-2.441,-208.984,1.000
1626203006296326.500,-2.441,-48.828,-21.973,38.086,1.000
1626203006300232.750,97.656,-48.340,-41.504,149.414,1.000
1626203006304139.000,107.910,-17.578,-18.066,146.484,1.000
1626203006308045.250,-106.445,-52.734,-40.527,-145.020,1.000
1626203006311951.500,-175.781,-33.203,-41.992,-225.586,1.000
1626203006315857.750,31.250,-9.277,-21.973,54.199,1.000
1626203006319764.000,155.273,-18.066,-2.930,198.242,1.000
1626203006323670.250,-12.207,-8.789,-16.602,-39.062,1.000
1626203006327576.500,-192.383,-20.508,-53.711,-251.465,1.000
1626203006331482.750,-65.430,-33.203,-36.621,-62.500,1.000
1626203006335389.000,116.211,-32.715,-21.484,175.293,1.000
1626203006339295.250,38.086,-17.578,-19.043,41.504,1.000
1626203006343201.500,-167.480,-33.691,-25.879,-224.609,1.000
1626203006347107.750,-157.715,-64.453,-45.898,-165.039,1.000
1626203006351014.000,-57.617,-11.230,-44.922,1.000,1.000
1626203006354920.250,130.859,-18.066,-44.434,1.000,1.000
1626203006358826.500,38.574,-39.551,-43.457,1.000,1.000
1626203006362732.750,-154.297,-29.785,-39.062,1.000,1.000
1626203006366639.000,-122.559,-32.227,-30.273,1.000,1.000
1626203006370545.250,81.055,-30.762,-13.672,1.000,1.000
1626203006374451.500,70.801,-45.898,-30.273,1.000,1.000
1626203006378357.750,-134.277,-57.129,-43.945,1.000,1.000
1626203006382264.000,-159.180,-39.551,-32.715,1.000,1.000
1626203006386170.250,31.738,-38.574,-27.832,1.000,1.000
1626203006390076.500,103.516,-26.367,-27.832,1.000,1.000
1626203006393982.750,-90.332,-20.508,-50.293,1.000,1.000
1626203006397889.000,-98.145,-18.555,-30.273,-143.066,1.000
1626203006401795.250,-169.434,-24.902,-38.086,-215.332,1.000
1626203006405701.500,21.484,-32.227,-34.180,46.387,1.000
