timestamps,TP9,AF7,AF8,TP10,Right AUX
1626294725889479.250,51.758,8.301,-17.578,144.531,1.000
1626294725893385.500,-56.152,-76.660,-55.176,-78.125,1.000
1626294725897291.750,-135.254,-81.055,-58.105,-211.426,1.000
1626294725901198.000,-50.293,-29.297,-34.180,-20.508,1.000
1626294725905104.250,41.504,-35.645,-18.066,147.461,1.000
1626294725909010.500,-13.672,-49.805,-25.879,-1.465,1.000
1626294725912916.750,-140.625,-99.121,-83.496,-227.051,1.000
1626294725916823.000,-71.289,-31.738,-41.016,-93.750,1.000
1626294725920729.250,54.199,30.273,1.953,136.719,1.000
1626294725924635.500,34.668,3.906,-13.184,75.684,1.000
1626294725928541.750,-69.824,-28.809,-13.672,-140.625,1.000
1626294725932448.000,-125.000,-71.777,-50.781,-162.598,1.000
1626294725936354.250,-0.488,-23.926,-40.527,1.000,1.000
1626294725940260.500,72.266,6.348,-6.348,1.000,1.000
1626294725944166.750,-35.645,-5.371,-12.695,1.000,1.000
1626294725948073.000,-98.145,-16.113,-26.367,1.000,1.000
1626294725951979.250,-28.320,-36.133,-29.297,1.000,1.000
1626294725955885.500,50.293,-0.488,-9.766,1.000,1.000
1626294725959791.750,0.000,6.348,-9.766,1.000,1.000
1626294725963698.000,-84.473,-25.391,-28.809,1.000,1.000
1626294725967604.250,-54.688,-41.504,-40.039,1.000,1.000
1626294725971510.500,35.156,-28.809,-26.855,1.000,1.000
1626294725975416.750,14.160,-17.578,-32.715,1.000,1.000
1626294725979323.000,-80.566,-25.391,-41.504,1.000,1.000
1626294725983229.250,-56.152,-12.207,-23.926,1.000,1.000
1626294725987135.500,11.719,-46.387,-45.410,1.000,1.000
1626294725991041.750,16.602,-27.832,-36.133,1.000,1.000
1626294725994948.000,-61.523,2.441,-8.789,1.000,1.000
1626294725998854.250,-77.148,8.301,-13.184,1.000,1.000
1626294726002760.500,10.742,0.488,-24.414,1.000,1.000
1626294726006666.750,33.691,-52.734,-46.387,1.000,1.000
1626294726010573.000,-35.645,-48.828,-39.062,1.000,1.000
1626294726014479.250,-99.609,-64.453,-28.809,1.000,1.000
1626294726018385.500,-41.504,-35.645,-34.668,1.000,1.000
1626294726022291.750,9.277,-14.648,-53.223,1.000,1.000
1626294726026198.000,-44.922,-58.105,-55.176,1.000,1.000
1626294726030104.250,48.340,-9.277,-29.785,-74.707,1.000
1626294726034010.500,-22.949,14.648,-19.043,-184.082,1.000
1626294726037916.750,-66.406,-5.859,-25.879,4.883,1.000
1626294726041823.000,4.883,-28.320,-19.043,152.832,1.000
1626294726045729.250,56.641,-49.805,-18.555,-5.371,1.000
1626294726049635.500,-2.441,-35.156,-18.066,-166.992,1.000
1626294726053541.750,-86.914,-33.203,-30.762,-86.914,1.000
1626294726057448.000,-40.039,-23.926,-36.133,120.605,1.000
1626294726061354.250,36.133,-30.273,-38.086,72.266,1.000
1626294726065260.500,-1.465,-38.574,-43.945,-144.043,1.000
1626294726069166.750,-94.238,-31.250,-40.039,-114.746,1.000
1626294726073073.000,-73.242,-31.250,-21.973,79.102,1.000
1626294726076979.250,25.391,-12.695,-15.625,1.000,1.000
1626294726080885.500,13.184,-49.316,-38.574,1.000,1.000
1626294726084791.750,-68.848,-41.504,-28.809,1.000,1.000
1626294726088698.000,-75.195,-11.230,-6.836,1.000,1.000
1626294726092604.250,11.719,-5.859,-9.277,1.000,1.000
1626294726096510.500,39.551,6.348,-21.484,1.000,1.000
1626294726100416.750,-62.988,-42.480,-53.711,1.000,1.000
1626294726104323.000,-120.605,-56.152,-62.012,1.000,1.000
1626294726108229.250,-47.363,-34.668,-38.574,1.000,1.000
1626294726112135.500,24.414,-12.695,-15.137,1.000,1.000
1626294726116041.750,-34.180,-24.902,-18.555,1.000,1.000
1626294726119948.000,-118.652,-78.125,-38.574,1.000,1.000
1626294726123854.250,13.184,12.207,-34.668,18.066,1.000
1626294726127760.500,-78.125,-59.082,-61.035,-183.594,1.000
1626294726131666.750,-81.543,-42.969,-52.246,-144.043,1.000
1626294726135573.000,21.484,3.418,-27.832,77.637,1.000
1626294726139479.250,51.270,-21.484,-23.438,96.680,1.000
1626294726143385.500,-38.574,-35.645,-21.973,-106.445,1.000
1626294726147291.750,-96.680,-87.402,-41.504,-176.270,1.000
1626294726151198.000,-16.602,-54.688,-42.969,20.020,1.000
1626294726155104.250,35.645,-17.090,-52.734,111.328,1.000
1626294726159010.500,-29.785,6.836,-47.363,-61.523,1.000
1626294726162916.750,-93.750,-15.625,-34.180,-180.664,1.000
1626294726166823.000,-40.039,-70.312,-32.715,-28.320,1.000
1626294726170729.250,39.062,-18.555,-23.926,124.512,1.000
1626294726174635.500,18.555,-20.996,-9.766,15.137,1.000
1626294726178541.750,-61.035,-25.879,-10.742,-145.996,1.000
1626294726182448.000,-72.754,-19.043,-44.922,-89.355,1.000
1626294726186354.250,-1.465,-49.805,-53.711,78.125,1.000
1626294726190260.500,8.789,-32.715,-35.645,51.758,1.000
1626294726194166.750,-79.102,-24.902,-30.762,-141.113,1.000
1626294726198073.000,-87.891,-8.301,-23.926,-126.465,1.000
1626294726201979.250,2.930,-37.598,-14.648,78.613,1.000
1626294726205885.500,34.180,-58.105,-9.277,108.398,1.000
1626294726209791.750,-43.945,-20.508,-16.113,-85.938,1.000
1626294726213698.000,-105.469,-22.949,-38.574,-170.410,1.000
1626294726217604.250,-29.785,-13.672,-25.391,1.000,1.000
1626294726221510.500,33.691,-25.879,-18.555,1.000,1.000
1626294726225416.750,-36.133,-27.832,-35.156,1.000,1.000
1626294726229323.000,-113.770,-21.973,-47.852,1.000,1.000
1626294726233229.250,-58.594,-21.973,-40.527,1.000,1.000
1626294726237135.500,36.133,-13.672,-12.207,1.000,1.000
1626294726241041.750,0.977,-43.457,-26.855,1.000,1.000
1626294726244948.000,-76.660,-20.020,-27.344,1.000,1.000
1626294726248854.250,-53.711,-0.977,0.977,1.000,1.000
1626294726252760.500,17.090,-9.766,-7.812,1.000,1.000
1626294726256666.750,7.324,-45.410,-28.320,1.000,1.000
1626294726260573.000,-84.961,-102.051,-41.016,1.000,1.000
1626294726264479.250,38.574,-1.953,-23.926,-43.457,1.000
1626294726268385.500,-25.879,-36.621,-16.602,-202.637,1.000
1626294726272291.750,-88.867,-41.504,-26.367,-78.125,1.000
1626294726276198.000,-26.367,-16.602,-20.996,107.422,1.000
1626294726280104.250,60.547,2.441,-0.488,37.109,1.000
1626294726284010.500,24.902,-35.645,-18.555,-145.996,1.000
1626294726287916.750,-78.613,-123.535,-59.570,-104.004,1.000
1626294726291823.000,-54.688,-61.035,-39.062,103.027,1.000
1626294726295729.250,40.527,-1.953,-9.766,97.656,1.000
1626294726299635.500,33.691,-7.324,-8.301,-124.512,1.000
1626294726303541.750,-59.570,-22.461,-22.461,-164.062,1.000
1626294726307448.000,-96.680,-73.730,-37.109,36.621,1.000
1626294726311354.250,5.859,-27.832,-13.184,1.000,1.000
1626294726315260.500,63.477,12.207,-10.742,1.000,1.000
1626294726319166.750,-33.203,2.441,-34.668,1.000,1.000
1626294726323073.000,-91.797,-48.340,-33.691,1.000,1.000
1626294726326979.250,-28.320,-83.496,-45.898,1.000,1.000
1626294726330885.500,26.855,-14.160,-53.711,1.000,1.000
1626294726334791.750,-21.484,12.207,-35.645,1.000,1.000
1626294726338698.000,-83.984,-6.348,-13.184,1.000,1.000
1626294726342604.250,-46.387,-45.410,-11.230,1.000,1.000
1626294726346510.500,31.738,-49.316,-14.160,1.000,1.000
1626294726350416.750,19.531,3.418,-13.672,1.000,1.000
1626294726354323.000,-69.824,8.789,-30.273,1.000,1.000
1626294726358229.250,-72.266,-13.672,-36.133,1.000,1.000
1626294726362135.500,-10.254,-71.777,-50.293,1.000,1.000
1626294726366041.750,0.488,-59.570,-36.621,1.000,1.000
1626294726369948.000,-79.102,-28.320,-29.297,1.000,1.000
1626294726373854.250,-104.492,-34.180,-41.504,1.000,1.000
1626294726377760.500,-12.695,-18.066,-39.551,1.000,1.000
1626294726381666.750,28.320,-46.875,-43.457,1.000,1.000
1626294726385573.000,-43.457,-24.902,-23.438,1.000,1.000
1626294726389479.250,-105.957,-22.461,-18.066,1.000,1.000
1626294726393385.500,-27.344,-10.254,-9.277,1.000,1.000
1626294726397291.750,61.035,-14.648,6.836,1.000,1.000
1626294726401198.000,-13.184,-93.262,-26.367,1.000,1.000
1626294726405104.250,24.902,-30.273,-40.039,-93.262,1.000
1626294726409010.500,-62.012,-11.230,-23.926,-197.266,1.000
1626294726412916.750,-91.309,-17.578,-8.301,-37.109,1.000
1626294726416823.000,-3.906,-36.133,1.465,111.816,1.000
1626294726420729.250,34.180,-41.016,-12.695,-11.230,1.000
1626294726424635.500,-40.039,-29.785,-40.039,-187.012,1.000
1626294726428541.750,-108.887,-50.293,-43.457,-87.402,1.000
1626294726432448.000,-44.922,-28.809,-5.371,112.793,1.000
1626294726436354.250,32.715,-23.926,-14.648,53.711,1.000
1626294726440260.500,-15.625,-38.086,-52.246,-149.414,1.000
1626294726444166.750,-97.656,-25.391,-57.129,-139.160,1.000
1626294726448073.000,-89.844,-30.762,-51.270,62.500,1.000
1626294726451979.250,-2.441,-19.043,-26.855,1.000,1.000
1626294726455885.500,8.301,-50.293,-24.414,1.000,1.000
1626294726459791.750,-74.219,-55.176,-20.020,1.000,1.000
1626294726463698.000,-89.355,-29.785,-20.508,1.000,1.000
1626294726467604.250,7.324,-32.715,-25.879,1.000,1.000
1626294726471510.500,41.016,-44.922,-19.043,1.000,1.000
1626294726475416.750,-54.199,-70.312,-24.902,1.000,1.000
1626294726479323.000,-95.215,-16.113,-31.738,1.000,1.000
1626294726483229.250,-20.996,8.789,-53.711,1.000,1.000
1626294726487135.500,45.410,8.301,-44.922,1.000,1.000
1626294726491041.750,-19.043,-23.438,-21.973,1.000,1.000
1626294726494948.000,-124.023,-74.707,-28.320,1.000,1.000
1626294726498854.250,34.668,11.719,-18.555,65.430,1.000
1626294726502760.500,-78.613,-33.203,-33.203,-155.273,1.000
1626294726506666.750,-97.656,-54.199,-51.270,-141.602,1.000
1626294726510573.000,21.484,-7.324,-24.414,96.680,1.000
1626294726514479.250,44.922,-2.441,-11.719,121.094,1.000
1626294726518385.500,-55.664,-24.902,-25.879,-95.703,1.000
1626294726522291.750,-115.723,-58.594,-36.621,-162.598,1.000
1626294726526198.000,-20.996,-38.574,-10.254,56.152,1.000
1626294726530104.250,61.035,-36.133,0.000,167.480,1.000
1626294726534010.500,1.953,-34.180,0.000,-6.836,1.000
1626294726537916.750,-86.914,-33.203,-4.883,-147.949,1.000
1626294726541823.000,-72.754,-65.918,-30.273,-32.227,1.000
1626294726545729.250,33.203,-8.789,-24.414,1.000,1.000
1626294726549635.500,17.578,14.160,-37.598,1.000,1.000
1626294726553541.750,-75.195,-10.742,-39.062,1.000,1.000
1626294726557448.000,-56.152,-23.438,-17.090,1.000,1.000
1626294726561354.250,18.555,-59.570,-24.414,1.000,1.000
1626294726565260.500,20.020,-28.809,-28.320,1.000,1.000
1626294726569166.750,-63.965,-11.719,-35.156,1.000,1.000
1626294726573073.000,-81.543,-29.297,-41.016,1.000,1.000
1626294726576979.250,3.906,-40.527,-28.809,1.000,1.000
1626294726580885.500,42.480,-49.316,-14.648,1.000,1.000
1626294726584791.750,-32.715,-32.715,-8.301,1.000,1.000
1626294726588698.000,-89.844,-20.508,-9.277,1.000,1.000
1626294726592604.250,-15.137,15.625,-24.902,1.000,1.000
1626294726596510.500,39.062,-19.531,-57.129,1.000,1.000
1626294726600416.750,-27.344,-36.621,-51.758,1.000,1.000
1626294726604323.000,-94.238,-15.625,-35.645,1.000,1.000
1626294726608229.250,-34.668,4.395,-39.062,1.000,1.000
1626294726612135.500,55.664,7.324,-39.062,1.000,1.000
1626294726616041.750,7.812,-109.375,-54.199,1.000,1.000
1626294726619948.000,-83.984,-92.285,-40.527,1.000,1.000
1626294726623854.250,-77.148,-18.555,-34.180,1.000,1.000
1626294726627760.500,13.184,8.301,-25.879,1.000,1.000
1626294726631666.750,25.391,-19.531,-17.578,1.000,1.000
1626294726635573.000,-65.430,-103.516,-24.414,1.000,1.000
1626294726639479.250,-2.930,-53.711,-20.996,-8.301,1.000
1626294726643385.500,-83.984,-32.227,-25.391,-174.316,1.000
1626294726647291.750,-66.895,-8.301,-17.090,-78.613,1.000
1626294726651198.000,4.883,-30.762,-17.578,89.844,1.000
1626294726655104.250,-28.809,-89.355,-46.387,3.418,1.000
1626294726659010.500,-104.980,-39.551,-36.133,-175.781,1.000
1626294726662916.750,-97.168,-18.555,-30.273,-138.672,1.000
1626294726666823.000,20.996,0.488,-8.301,96.680,1.000
1626294726670729.250,55.664,-24.414,-6.348,122.559,1.000
1626294726674635.500,-41.016,-61.523,-31.250,-103.516,1.000
1626294726678541.750,-79.590,-29.297,-40.039,-157.227,1.000
1626294726682448.000,-3.418,-14.648,-46.875,41.504,1.000
1626294726686354.250,53.223,-9.277,-30.762,1.000,1.000
1626294726690260.500,-55.176,-93.262,-63.965,1.000,1.000
1626294726694166.750,-128.418,-87.402,-52.734,1.000,1.000
1626294726698073.000,-42.480,-10.742,-4.883,1.000,1.000
1626294726701979.250,43.945,-6.348,-8.789,1.000,1.000
1626294726705885.500,4.395,-23.438,-18.555,1.000,1.000
1626294726709791.750,-120.605,-104.004,-53.223,1.000,1.000
1626294726713698.000,-84.473,-56.641,-54.199,1.000,1.000
1626294726717604.250,29.785,7.324,-27.344,1.000,1.000
1626294726721510.500,20.508,8.789,-24.902,1.000,1.000
1626294726725416.750,-97.168,-41.016,-41.504,1.000,1.000
1626294726729323.000,-147.949,-131.836,-62.500,1.000,1.000
1626294726733229.250,-15.137,-62.012,-31.738,1.000,1.000
1626294726737135.500,47.852,-10.742,-11.719,1.000,1.000
1626294726741041.750,-45.410,-7.324,-27.344,1.000,1.000
1626294726744948.000,-103.027,-17.090,-33.203,1.000,1.000
1626294726748854.250,-32.715,-41.016,-32.715,1.000,1.000
1626294726752760.500,35.645,1.953,-24.414,1.000,1.000
1626294726756666.750,-25.391,-3.906,-20.020,1.000,1.000
1626294726760573.000,-79.590,-16.113,0.000,1.000,1.000
1626294726764479.250,-57.129,-46.387,-20.996,1.000,1.000
1626294726768385.500,-4.395,-69.824,-49.805,1.000,1.000
1626294726772291.750,-7.324,-24.414,-49.316,1.000,1.000
1626294726776198.000,-81.543,-26.367,-41.504,1.000,1.000
1626294726780104.250,-72.266,-22.461,-13.672,1.000,1.000
1626294726784010.500,2.930,-55.664,-28.809,1.000,1.000
1626294726787916.750,27.344,-26.855,-30.273,1.000,1.000
1626294726791823.000,-49.316,12.207,-22.949,1.000,1.000
1626294726795729.250,-96.191,0.000,-36.133,1.000,1.000
1626294726799635.500,-11.719,3.418,-27.344,1.000,1.000
1626294726803541.750,8.301,-71.777,-48.828,1.000,1.000
1626294726807448.000,-53.711,-49.805,-40.039,1.000,1.000
1626294726811354.250,-97.656,-31.738,-24.902,1.000,1.000
1626294726815260.500,-30.273,-23.926,-28.809,1.000,1.000
1626294726819166.750,35.156,-18.066,-41.016,1.000,1.000
1626294726823073.000,-34.180,-82.031,-69.336,1.000,1.000
1626294726826979.250,41.016,-13.184,-30.762,-84.961,1.000
1626294726830885.500,-43.945,-25.879,-30.273,-201.660,1.000
1626294726834791.750,-98.145,-33.691,-23.438,-34.668,1.000
1626294726838698.000,-22.461,-32.715,-20.996,133.301,1.000
1626294726842604.250,34.180,-41.016,-21.973,12.695,1.000
1626294726846510.500,-2.441,-19.531,-12.207,-160.156,1.000
1626294726850416.750,-68.848,-43.945,-31.250,-77.148,1.000
1626294726854323.000,-34.180,-27.344,-35.156,108.887,1.000
1626294726858229.250,40.039,-4.883,-32.227,40.527,1.000
1626294726862135.500,3.418,-13.672,-45.410,-153.809,1.000
1626294726866041.750,-83.008,-11.719,-46.875,-128.906,1.000
1626294726869948.000,-68.359,-21.973,-29.297,58.105,1.000
1626294726873854.250,44.922,0.977,-14.648,1.000,1.000
1626294726877760.500,25.879,-50.293,-46.387,1.000,1.000
1626294726881666.750,-90.332,-54.199,-68.359,1.000,1.000
1626294726885573.000,-79.590,-3.418,-27.832,1.000,1.000
1626294726889479.250,19.043,-18.066,2.930,1.000,1.000
1626294726893385.500,41.016,-39.062,-8.301,1.000,1.000
1626294726897291.750,-64.453,-83.984,-51.270,1.000,1.000
1626294726901198.000,-106.445,-38.086,-59.082,1.000,1.000
1626294726905104.250,-24.414,-12.207,-37.109,1.000,1.000
1626294726909010.500,36.133,-15.625,-15.625,1.000,1.000
1626294726912916.750,-18.066,-20.020,-35.645,1.000,1.000
1626294726916823.000,-99.609,-66.406,-63.965,1.000,1.000
1626294726920729.250,37.109,22.949,-50.781,52.734,1.000
1626294726924635.500,-88.867,-47.852,-79.102,-170.898,1.000
1626294726928541.750,-85.449,-45.410,-39.062,-129.883,1.000
1626294726932448.000,26.367,-11.230,1.465,90.332,1.000
1626294726936354.250,46.387,-12.207,-1.465,103.027,1.000
1626294726940260.500,-31.250,-2.930,-14.160,-99.121,1.000
1626294726944166.750,-116.699,-106.445,-61.035,-203.613,1.000
1626294726948073.000,-48.340,-52.246,-58.594,-9.766,1.000
1626294726951979.250,37.109,6.348,-45.898,107.422,1.000
1626294726955885.500,-26.367,-22.949,-41.992,-71.777,1.000
1626294726959791.750,-110.840,-39.062,-44.922,-205.078,1.000
1626294726963698.000,-66.406,-76.172,-53.223,-60.059,1.000
1626294726967604.250,44.434,-22.949,-37.598,1.000,1.000
1626294726971510.500,20.508,10.254,-35.645,1.000,1.000
1626294726975416.750,-73.242,-17.090,-20.020,1.000,1.000
1626294726979323.000,-61.523,-41.016,-11.719,1.000,1.000
1626294726983229.250,12.695,-43.457,-27.344,1.000,1.000
1626294726987135.500,16.113,1.953,-24.902,1.000,1.000
1626294726991041.750,-76.172,-8.789,-32.227,1.000,1.000
1626294726994948.000,-78.613,-11.230,-39.551,1.000,1.000
1626294726998854.250,20.508,-26.367,-36.621,1.000,1.000
1626294727002760.500,44.434,-51.270,-31.250,1.000,1.000
1626294727006666.750,-39.551,-22.949,-58.105,1.000,1.000
1626294727010573.000,-97.168,-9.766,-59.570,1.000,1.000
1626294727014479.250,-26.367,-20.996,-21.484,1.000,1.000
1626294727018385.500,32.715,-63.477,-23.438,1.000,1.000
1626294727022291.750,-15.137,-38.086,-30.762,1.000,1.000
1626294727026198.000,-89.355,-14.648,-27.344,1.000,1.000
1626294727030104.250,-41.016,-9.766,-2.930,1.000,1.000
1626294727034010.500,46.875,-10.254,-13.672,1.000,1.000
1626294727037916.750,-19.043,-100.586,-53.223,1.000,1.000
1626294727041823.000,-100.098,-61.523,-42.480,1.000,1.000
1626294727045729.250,-72.266,-5.859,-34.180,1.000,1.000
1626294727049635.500,22.461,3.906,-25.879,1.000,1.000
1626294727053541.750,34.180,-18.066,-36.133,1.000,1.000
1626294727057448.000,-87.402,-108.887,-62.012,1.000,1.000
1626294727061354.250,6.836,-20.508,-37.109,-2.441,1.000
1626294727065260.500,-64.941,-6.836,-16.602,-140.625,1.000
1626294727069166.750,-41.016,-4.883,5.371,-34.668,1.000
1626294727073073.000,32.715,-15.137,-15.625,127.930,1.000
1626294727076979.250,-18.555,-89.844,-61.035,18.066,1.000
1626294727080885.500,-98.633,-42.969,-37.109,-175.293,1.000
1626294727084791.750,-86.914,0.000,-19.043,-128.418,1.000
1626294727088698.000,30.273,1.465,-3.906,107.422,1.000
1626294727092604.250,31.738,-52.246,-29.785,102.051,1.000
1626294727096510.500,-82.520,-85.449,-68.359,-136.230,1.000
1626294727100416.750,-98.145,-12.207,-31.738,-163.086,1.000
1626294727104323.000,-9.277,10.254,-7.812,46.387,1.000
1626294727108229.250,43.457,-12.207,-24.902,1.000,1.000
1626294727112135.500,-41.504,-89.844,-63.477,1.000,1.000
1626294727116041.750,-93.750,-90.332,-55.176,1.000,1.000
1626294727119948.000,-20.996,-19.531,-27.344,1.000,1.000
1626294727123854.250,49.316,9.277,-23.926,1.000,1.000
1626294727127760.500,1.953,7.324,-20.996,1.000,1.000
1626294727131666.750,-107.910,-27.344,-35.156,1.000,1.000
1626294727135573.000,-78.125,-12.207,-24.414,1.000,1.000
1626294727139479.250,28.809,-4.883,-11.230,1.000,1.000
1626294727143385.500,47.363,14.160,-9.766,1.000,1.000
1626294727147291.750,-57.617,-13.184,-30.762,1.000,1.000
1626294727151198.000,-112.305,-100.098,-57.617,1.000,1.000
1626294727155104.250,19.043,-39.551,-14.160,1.000,1.000
1626294727159010.500,48.828,-15.137,-6.348,1.000,1.000
1626294727162916.750,-40.039,-13.184,-32.715,1.000,1.000
1626294727166823.000,-104.980,-34.668,-65.918,1.000,1.000
1626294727170729.250,-70.801,-99.609,-80.078,1.000,1.000
1626294727174635.500,25.879,-33.203,-37.109,1.000,1.000
1626294727178541.750,-19.531,0.000,-24.902,1.000,1.000
1626294727182448.000,-105.957,-0.977,-25.879,1.000,1.000
1626294727186354.250,-65.918,-22.461,-18.555,1.000,1.000
1626294727190260.500,36.621,-31.738,-12.695,1.000,1.000
1626294727194166.750,37.109,5.859,-3.906,1.000,1.000
1626294727198073.000,-61.523,-20.996,-22.949,1.000,1.000
1626294727201979.250,-65.430,-25.879,-22.461,-102.051,1.000
1626294727205885.500,-9.766,-90.332,-39.062,66.406,1.000
1626294727209791.750,1.953,-77.637,-51.270,42.480,1.000
1626294727213698.000,-60.059,-9.766,-36.621,-128.906,1.000
1626294727217604.250,-91.309,-16.113,-27.832,-142.578,1.000
1626294727221510.500,-7.812,-20.508,-19.531,61.523,1.000
1626294727225416.750,-9.766,-116.211,-64.941,78.125,1.000
1626294727229323.000,-49.805,-66.895,-36.621,-87.402,1.000
1626294727233229.250,-80.566,-2.930,-18.066,-163.086,1.000
1626294727237135.500,-30.762,-7.812,-28.809,-0.977,1.000
1626294727241041.750,39.551,-26.855,-15.625,133.301,1.000
1626294727244948.000,-42.969,-121.094,-46.875,-48.828,1.000
1626294727248854.250,40.039,-19.043,-17.578,-41.992,1.000
1626294727252760.500,-23.438,11.719,-4.883,-197.266,1.000
1626294727256666.750,-80.078,-7.324,-26.367,-31.250,1.000
1626294727260573.000,-26.367,-36.133,-54.688,148.438,1.000
1626294727264479.250,22.949,-74.219,-49.316,11.719,1.000
1626294727268385.500,-14.160,-32.715,-27.832,-170.898,1.000
1626294727272291.750,-101.074,-20.508,-36.621,-88.379,1.000
1626294727276198.000,-50.781,0.000,-10.742,114.258,1.000
1626294727280104.250,26.855,-24.414,-8.301,31.738,1.000
1626294727284010.500,-4.883,-35.156,-23.438,-152.344,1.000
1626294727287916.750,-76.172,-0.977,-19.043,-121.094,1.000
1626294727291823.000,-70.801,-19.043,-19.043,53.223,1.000
1626294727295729.250,26.855,-37.598,-6.348,1.000,1.000
1626294727299635.500,3.418,-92.285,-58.594,1.000,1.000
1626294727303541.750,-75.684,-57.617,-66.895,1.000,1.000
1626294727307448.000,-62.988,-1.465,-22.949,1.000,1.000
1626294727311354.250,20.508,5.859,-32.715,1.000,1.000
1626294727315260.500,53.711,1.953,-34.180,1.000,1.000
1626294727319166.750,-62.988,-111.816,-59.570,1.000,1.000
1626294727323073.000,-104.492,-99.609,-40.527,1.000,1.000
1626294727326979.250,-16.113,-32.715,-9.277,1.000,1.000
1626294727330885.500,58.105,14.160,-15.625,1.000,1.000
1626294727334791.750,-0.977,16.602,-26.367,1.000,1.000
1626294727338698.000,-104.004,-58.594,-48.340,1.000,1.000
1626294727342604.250,35.645,-10.742,-5.371,74.219,1.000
1626294727346510.500,-78.125,-56.152,-37.109,-155.762,1.000
1626294727350416.750,-81.055,-37.598,-23.926,-125.000,1.000
1626294727354323.000,14.160,-22.461,-12.695,88.379,1.000
1626294727358229.250,36.621,-36.621,-26.855,95.703,1.000
1626294727362135.500,-51.758,-41.016,-45.410,-113.770,1.000
1626294727366041.750,-134.277,-110.840,-78.125,-206.055,1.000
1626294727369948.000,-28.320,-55.664,-27.344,13.672,1.000
1626294727373854.250,57.129,-1.953,0.977,138.672,1.000
1626294727377760.500,-7.812,-14.648,-29.297,-34.668,1.000
1626294727381666.750,-95.703,-26.367,-48.340,-183.594,1.000
1626294727385573.000,-81.055,-72.266,-52.734,-69.336,1.000
1626294727389479.250,30.762,-8.301,-17.090,1.000,1.000
1626294727393385.500,20.996,28.809,-4.883,1.000,1.000
1626294727397291.750,-55.176,15.137,13.672,1.000,1.000
1626294727401198.000,-55.176,-25.879,-5.371,1.000,1.000
1626294727405104.250,6.348,-80.566,-41.504,1.000,1.000
1626294727409010.500,36.133,-30.273,-13.672,1.000,1.000
1626294727412916.750,-61.035,-27.832,-24.414,1.000,1.000
1626294727416823.000,-93.750,-32.227,-32.715,1.000,1.000
1626294727420729.250,-14.648,-39.062,-30.762,1.000,1.000
1626294727424635.500,14.648,-59.570,-50.781,1.000,1.000
1626294727428541.750,-40.039,-13.184,-33.691,1.000,1.000
1626294727432448.000,-93.262,-6.836,-25.879,1.000,1.000
1626294727436354.250,-15.625,-18.066,-17.578,1.000,1.000
1626294727440260.500,40.039,-58.594,-44.922,1.000,1.000
1626294727444166.750,-20.996,-39.551,-52.246,1.000,1.000
1626294727448073.000,-68.848,-10.742,-5.371,1.000,1.000
1626294727451979.250,-22.461,-34.668,13.672,1.000,1.000
1626294727455885.500,25.879,-36.133,-2.441,1.000,1.000
1626294727459791.750,-42.969,-74.219,-52.734,1.000,1.000
1626294727463698.000,-116.699,-44.922,-66.895,1.000,1.000
1626294727467604.250,-90.332,1.465,-36.621,1.000,1.000
1626294727471510.500,15.137,24.414,-4.395,1.000,1.000
1626294727475416.750,35.156,0.000,-21.973,1.000,1.000
1626294727479323.000,-79.590,-86.426,-68.848,1.000,1.000
1626294727483229.250,2.930,-31.250,-22.949,-125.488,1.000
1626294727487135.500,-75.195,-36.133,-23.926,-142.578,1.000
1626294727491041.750,-62.500,-47.363,-33.691,62.012,1.000
1626294727494948.000,19.531,-39.062,-23.438,91.309,1.000
1626294727498854.250,5.371,-73.242,-34.180,-111.816,1.000
1626294727502760.500,-64.941,-19.043,-23.926,-148.438,1.000
1626294727506666.750,-64.453,19.043,-11.719,26.855,1.000
1626294727510573.000,33.691,31.738,-20.508,117.676,1.000
1626294727514479.250,47.363,-35.645,-43.457,-57.617,1.000
1626294727518385.500,-52.734,-100.098,-41.016,-176.270,1.000
1626294727522291.750,-85.938,-44.922,-34.180,-30.762,1.000
1626294727526198.000,-12.695,-23.926,-51.270,99.121,1.000
1626294727530104.250,53.711,-16.602,-26.367,1.000,1.000
1626294727534010.500,-5.859,-69.336,-12.207,1.000,1.000
1626294727537916.750,-90.332,-74.219,-34.668,1.000,1.000
1626294727541823.000,-46.387,-14.160,-37.598,1.000,1.000
1626294727545729.250,42.969,7.324,-11.230,1.000,1.000
1626294727549635.500,17.090,8.789,-20.996,1.000,1.000
1626294727553541.750,-103.516,-85.449,-72.266,1.000,1.000
1626294727557448.000,-71.777,-61.035,-45.410,1.000,1.000
1626294727561354.250,31.738,-11.230,-31.250,1.000,1.000
1626294727565260.500,39.551,-7.324,-31.250,1.000,1.000
1626294727569166.750,-57.129,-28.809,-30.762,1.000,1.000
1626294727573073.000,-126.953,-97.168,-69.336,1.000,1.000
1626294727576979.250,41.016,-31.738,-29.297,-62.012,1.000
1626294727580885.500,-29.785,22.949,-1.953,-202.148,1.000
1626294727584791.750,-83.008,9.766,-10.742,-38.574,1.000
1626294727588698.000,-6.836,-6.348,-2.441,137.207,1.000
1626294727592604.250,23.438,-65.430,-16.113,14.160,1.000
1626294727596510.500,-28.809,-36.621,-30.273,-165.527,1.000
1626294727600416.750,-89.844,-11.719,-38.086,-108.398,1.000
1626294727604323.000,-33.203,-11.719,-19.043,92.773,1.000
1626294727608229.250,41.016,-50.781,-9.277,55.664,1.000
1626294727612135.500,-7.324,-66.895,-30.273,-143.555,1.000
1626294727616041.750,-81.055,-8.301,-20.996,-142.090,1.000
1626294727619948.000,-67.871,1.953,-31.250,29.785,1.000
1626294727623854.250,26.367,18.555,-48.828,1.000,1.000
1626294727627760.500,17.090,-76.660,-63.477,1.000,1.000
1626294727631666.750,-77.148,-116.211,-52.246,1.000,1.000
1626294727635573.000,-75.195,-27.344,-13.672,1.000,1.000
1626294727639479.250,33.203,23.926,12.695,1.000,1.000
1626294727643385.500,71.777,18.555,9.766,1.000,1.000
1626294727647291.750,-63.477,-103.516,-52.734,1.000,1.000
1626294727651198.000,-130.371,-77.637,-61.523,1.000,1.000
1626294727655104.250,-53.223,-7.324,-39.551,1.000,1.000
1626294727659010.500,19.043,-26.367,-41.016,1.000,1.000
1626294727662916.750,-20.508,-53.711,-40.527,1.000,1.000
1626294727666823.000,-123.047,-107.910,-61.523,1.000,1.000
1626294727670729.250,26.367,-15.625,-21.484,63.965,1.000
1626294727674635.500,-111.328,-105.469,-58.105,-189.453,1.000
1626294727678541.750,-130.371,-85.938,-65.918,-170.410,1.000
1626294727682448.000,0.000,8.789,-23.438,81.543,1.000
1626294727686354.250,48.340,27.344,0.488,123.047,1.000
1626294727690260.500,-30.762,8.301,-8.301,-78.613,1.000
1626294727694166.750,-145.996,-110.840,-92.285,-211.914,1.000
1626294727698073.000,-42.969,-66.895,-67.383,5.371,1.000
1626294727701979.250,72.266,5.859,-4.395,157.227,1.000
1626294727705885.500,3.418,9.277,-19.043,-21.973,1.000
1626294727709791.750,-85.449,-27.832,-47.852,-176.758,1.000
1626294727713698.000,-67.871,-106.934,-68.359,-57.617,1.000
1626294727717604.250,42.969,-33.203,-25.879,1.000,1.000
1626294727721510.500,28.809,-1.953,-19.043,1.000,1.000
1626294727725416.750,-70.801,-8.301,-30.762,1.000,1.000
1626294727729323.000,-78.125,-18.555,-43.457,1.000,1.000
1626294727733229.250,0.488,-46.387,-56.152,1.000,1.000
1626294727737135.500,32.715,0.488,-29.785,1.000,1.000
1626294727741041.750,-64.941,-6.348,-35.645,1.000,1.000
1626294727744948.000,-77.637,-0.977,-20.020,1.000,1.000
1626294727748854.250,15.137,-29.785,-18.555,1.000,1.000
1626294727752760.500,28.809,-83.496,-50.781,1.000,1.000
1626294727756666.750,-50.293,-34.180,-46.387,1.000,1.000
1626294727760573.000,-106.445,-10.742,-48.828,1.000,1.000
1626294727764479.250,-19.531,-1.465,-27.832,1.000,1.000
1626294727768385.500,19.043,-93.750,-39.551,1.000,1.000
1626294727772291.750,-43.457,-107.422,-41.992,1.000,1.000
1626294727776198.000,-93.750,-23.926,-19.531,1.000,1.000
1626294727780104.250,-48.340,7.812,-11.719,1.000,1.000
1626294727784010.500,35.645,14.648,-17.578,1.000,1.000
1626294727787916.750,-24.414,-80.078,-58.594,1.000,1.000
1626294727791823.000,-97.168,-41.016,-50.781,1.000,1.000
1626294727795729.250,-75.684,12.207,-41.504,1.000,1.000
1626294727799635.500,17.578,3.906,-33.691,1.000,1.000
1626294727803541.750,32.227,-12.207,-20.508,1.000,1.000
1626294727807448.000,-80.078,-88.379,-38.574,1.000,1.000
1626294727811354.250,-89.844,-49.316,-25.879,-158.691,1.000
1626294727815260.500,17.090,9.277,0.977,72.266,1.000
1626294727819166.750,78.613,13.184,4.883,151.855,1.000
1626294727823073.000,-16.113,-46.875,-22.461,-59.570,1.000
1626294727826979.250,-107.910,-82.520,-60.059,-194.336,1.000
1626294727830885.500,-26.855,0.488,-41.016,0.977,1.000
1626294727834791.750,53.711,25.879,-4.883,147.949,1.000
1626294727838698.000,7.812,19.531,-7.812,-2.930,1.000
1626294727842604.250,-74.219,-13.672,-35.645,-176.270,1.000
1626294727846510.500,-55.664,-41.504,-40.039,-73.242,1.000
1626294727850416.750,33.203,6.836,-28.809,122.070,1.000
1626294727854323.000,33.203,13.184,-25.879,58.594,1.000
1626294727858229.250,11.719,-27.832,-25.391,-144.531,1.000
1626294727862135.500,-73.242,-5.371,-17.578,-125.000,1.000
1626294727866041.750,-50.293,-2.441,-10.254,97.168,1.000
1626294727869948.000,21.973,-21.973,-22.461,117.188,1.000
1626294727873854.250,6.348,-92.285,-41.504,-115.234,1.000
1626294727877760.500,-55.664,-75.684,-32.715,-173.340,1.000
1626294727881666.750,-61.035,-39.062,-37.109,34.180,1.000
1626294727885573.000,14.160,-1.953,-35.156,128.418,1.000
1626294727889479.250,34.180,-16.113,-19.531,-48.828,1.000
1626294727893385.500,-46.387,-29.785,-29.785,-173.828,1.000
1626294727897291.750,-75.684,7.324,-23.926,-15.137,1.000
1626294727901198.000,-16.113,4.395,-24.902,140.137,1.000
1626294727905104.250,29.785,-8.301,-39.551,1.000,1.000
1626294727909010.500,-13.672,-79.102,-35.156,1.000,1.000
1626294727912916.750,-86.426,-83.984,-28.809,1.000,1.000
1626294727916823.000,-40.527,-17.578,-23.438,1.000,1.000
1626294727920729.250,33.691,-14.648,-42.480,1.000,1.000
1626294727924635.500,6.836,-44.922,-49.805,1.000,1.000
1626294727928541.750,-93.750,-141.602,-41.992,1.000,1.000
1626294727932448.000,-83.496,-73.730,-19.531,1.000,1.000
1626294727936354.250,9.277,-5.371,-11.719,1.000,1.000
1626294727940260.500,-1.953,-9.277,-43.945,1.000,1.000
1626294727944166.750,-94.238,-17.578,-57.617,1.000,1.000
1626294727948073.000,-130.371,-81.543,-66.895,1.000,1.000
1626294727951979.250,-35.645,-5.859,-30.273,-66.895,1.000
1626294727955885.500,-130.859,-82.520,-54.688,-211.914,1.000
1626294727959791.750,-71.777,-73.730,-38.086,-47.852,1.000
1626294727963698.000,46.387,8.789,-7.324,132.324,1.000
1626294727967604.250,17.578,-8.789,-16.113,5.859,1.000
1626294727971510.500,-63.965,-20.508,-16.602,-162.109,1.000
1626294727975416.750,-66.406,-103.027,-53.223,-89.844,1.000
1626294727979323.000,22.461,-54.688,-37.598,107.422,1.000
1626294727983229.250,28.809,5.859,-5.859,74.707,1.000
1626294727987135.500,-65.430,-4.883,-26.855,-136.719,1.000
1626294727991041.750,-90.820,-29.785,-45.410,-141.113,1.000
1626294727994948.000,-28.320,-115.234,-61.035,44.922,1.000
1626294727998854.250,35.156,-53.223,-33.691,1.000,1.000
1626294728002760.500,-32.715,-2.441,-23.926,1.000,1.000
1626294728006666.750,-77.637,-17.090,-17.578,1.000,1.000
1626294728010573.000,-14.160,-46.387,-9.766,1.000,1.000
1626294728014479.250,11.230,-56.152,-21.973,1.000,1.000
1626294728018385.500,-29.785,0.977,-27.832,1.000,1.000
1626294728022291.750,-93.750,-4.883,-44.922,1.000,1.000
1626294728026198.000,-48.340,2.441,-27.344,1.000,1.000
1626294728030104.250,34.668,-29.297,-24.902,1.000,1.000
1626294728034010.500,-11.230,-92.773,-60.547,1.000,1.000
1626294728037916.750,-91.309,-54.688,-47.852,1.000,1.000
1626294728041823.000,-62.500,-23.438,-17.578,1.000,1.000
1626294728045729.250,35.156,-1.465,-6.836,1.000,1.000
1626294728049635.500,5.859,-73.730,-35.156,1.000,1.000
1626294728053541.750,-82.031,-88.867,-41.016,1.000,1.000
1626294728057448.000,-70.801,-17.090,-27.344,1.000,1.000
1626294728061354.250,4.395,10.742,-33.203,1.000,1.000
1626294728065260.500,31.738,7.812,-34.668,1.000,1.000
1626294728069166.750,-85.938,-120.605,-72.754,1.000,1.000
1626294728073073.000,-126.465,-68.848,-60.547,1.000,1.000
1626294728076979.250,-29.785,11.230,-20.996,1.000,1.000
1626294728080885.500,43.457,1.953,-14.160,1.000,1.000
1626294728084791.750,-18.066,-38.574,-22.461,1.000,1.000
1626294728088698.000,-132.812,-145.020,-50.293,1.000,1.000
1626294728092604.250,33.203,5.859,-7.324,64.941,1.000
1626294728096510.500,-73.730,-69.824,-33.203,-156.738,1.000
1626294728100416.750,-80.566,-52.734,-39.551,-136.230,1.000
1626294728104323.000,10.254,10.742,-41.504,77.148,1.000
1626294728108229.250,39.551,11.230,-32.715,104.004,1.000
1626294728112135.500,-23.438,-5.371,-30.273,-84.961,1.000
1626294728116041.750,-106.445,-131.836,-58.105,-187.988,1.000
1626294728119948.000,-24.414,-79.102,-25.879,16.113,1.000
1626294728123854.250,59.570,-2.930,-5.371,146.484,1.000
1626294728127760.500,-7.324,-15.625,-30.273,-25.879,1.000
1626294728131666.750,-87.402,-31.738,-40.527,-171.875,1.000
1626294728135573.000,-66.895,-104.980,-49.805,-57.617,1.000
1626294728139479.250,51.270,-26.855,-29.785,1.000,1.000
1626294728143385.500,39.062,19.043,-44.434,1.000,1.000
1626294728147291.750,-64.453,4.395,-47.852,1.000,1.000
1626294728151198.000,-58.105,-9.766,-28.809,1.000,1.000
1626294728155104.250,6.348,-55.664,-56.641,1.000,1.000
1626294728159010.500,23.438,-25.391,-42.480,1.000,1.000
1626294728162916.750,-48.828,-3.418,-10.254,1.000,1.000
1626294728166823.000,-71.289,4.883,-17.090,1.000,1.000
1626294728170729.250,-12.207,-51.758,-49.805,1.000,1.000
1626294728174635.500,10.254,-94.238,-57.617,1.000,1.000
1626294728178541.750,-36.133,-16.602,-42.480,1.000,1.000
1626294728182448.000,-73.730,13.184,-36.133,1.000,1.000
1626294728186354.250,-8.301,14.160,-9.277,1.000,1.000
1626294728190260.500,19.531,-41.016,-49.805,1.000,1.000
1626294728194166.750,-21.484,-40.039,-66.895,1.000,1.000
1626294728198073.000,-62.012,-1.953,-18.066,1.000,1.000
1626294728201979.250,-36.133,-22.949,-5.371,1.000,1.000
1626294728205885.500,38.574,-13.184,-28.809,1.000,1.000
1626294728209791.750,-7.812,-90.820,-63.477,1.000,1.000
1626294728213698.000,-76.660,-68.359,-26.855,1.000,1.000
1626294728217604.250,-59.082,-9.277,0.977,1.000,1.000
1626294728221510.500,23.926,8.301,-20.996,1.000,1.000
1626294728225416.750,23.926,-13.184,-47.852,1.000,1.000
1626294728229323.000,-103.516,-116.699,-80.566,1.000,1.000
1626294728233229.250,-2.441,-35.156,-22.461,-139.648,1.000
1626294728237135.500,-86.426,7.812,-22.461,-150.391,1.000
1626294728241041.750,-68.359,6.348,-27.344,46.875,1.000
1626294728244948.000,42.969,9.766,-12.695,102.539,1.000
1626294728248854.250,43.945,-17.090,-29.297,-106.445,1.000
1626294728252760.500,-58.105,-20.020,-33.203,-168.945,1.000
1626294728256666.750,-94.727,-30.273,-35.645,-3.418,1.000
1626294728260573.000,8.301,0.488,-25.879,108.887,1.000
1626294728264479.250,34.180,-15.625,-41.504,-41.992,1.000
1626294728268385.500,-71.777,-69.824,-62.500,-168.945,1.000
1626294728272291.750,-98.633,-24.902,-24.902,-7.324,1.000
1626294728276198.000,-3.906,3.906,-0.488,114.258,1.000
1626294728280104.250,76.172,18.555,-12.207,1.000,1.000
1626294728284010.500,-27.832,-68.848,-70.801,1.000,1.000
1626294728287916.750,-118.652,-85.938,-66.406,1.000,1.000
1626294728291823.000,-23.438,-0.977,-17.090,1.000,1.000
1626294728295729.250,70.312,-3.418,-10.742,1.000,1.000
1626294728299635.500,20.020,-14.160,-24.414,1.000,1.000
1626294728303541.750,-111.328,-85.449,-68.359,1.000,1.000
1626294728307448.000,-99.609,-43.945,-71.289,1.000,1.000
1626294728311354.250,6.348,7.812,-57.617,1.000,1.000
1626294728315260.500,19.043,1.953,-40.527,1.000,1.000
1626294728319166.750,-78.613,-21.973,-39.551,1.000,1.000
1626294728323073.000,-117.188,-84.961,-55.664,1.000,1.000
1626294728326979.250,-24.414,-4.395,-30.273,-52.734,1.000
1626294728330885.500,-105.469,-69.336,-25.879,-187.500,1.000
1626294728334791.750,-41.992,-80.078,-24.902,-23.926,1.000
1626294728338698.000,43.457,-20.996,-17.578,133.789,1.000
1626294728342604.250,-2.441,-19.531,-17.578,-5.371,1.000
1626294728346510.500,-101.074,-33.691,-33.691,-196.777,1.000
1626294728350416.750,-90.820,-85.449,-46.875,-120.605,1.000
1626294728354323.000,26.855,-21.484,-19.043,96.191,1.000
1626294728358229.250,35.156,5.859,-18.555,62.500,1.000
1626294728362135.500,-67.871,-5.371,-34.668,-152.344,1.000
1626294728366041.750,-89.844,-10.254,-45.898,-150.879,1.000
1626294728369948.000,-13.184,-86.426,-41.016,42.969,1.000
1626294728373854.250,53.223,-39.062,-7.812,108.887,1.000
1626294728377760.500,-14.648,-21.484,-31.250,-79.590,1.000
1626294728381666.750,-104.004,-33.203,-39.062,-187.500,1.000
1626294728385573.000,-47.363,-47.363,-12.695,-8.301,1.000
1626294728389479.250,9.766,-95.703,-31.738,95.215,1.000
1626294728393385.500,-37.598,-22.461,-40.039,-56.152,1.000
1626294728397291.750,-94.727,-4.883,-20.996,-180.176,1.000
1626294728401198.000,-55.176,-10.742,-20.996,-44.434,1.000
1626294728405104.250,11.719,-47.363,-30.762,105.957,1.000
1626294728409010.500,-16.602,-103.027,-33.203,-7.812,1.000
1626294728412916.750,-81.055,-39.551,-30.273,-173.340,1.000
1626294728416823.000,-80.566,-6.836,-45.410,-105.469,1.000
1626294728420729.250,8.301,25.391,-16.113,1.000,1.000
1626294728424635.500,23.438,-25.391,-4.883,1.000,1.000
1626294728428541.750,-84.473,-85.938,-50.781,1.000,1.000
1626294728432448.000,-104.004,-43.457,-52.246,1.000,1.000
1626294728436354.250,7.324,2.441,-11.719,1.000,1.000
1626294728440260.500,56.641,9.766,2.930,1.000,1.000
1626294728444166.750,-38.574,-82.031,-24.414,1.000,1.000
1626294728448073.000,-101.074,-53.711,-31.250,1.000,1.000
1626294728451979.250,-29.785,-12.695,-32.227,1.000,1.000
1626294728455885.500,50.781,-5.859,-24.414,1.000,1.000
1626294728459791.750,12.695,-19.531,-15.137,1.000,1.000
1626294728463698.000,-94.238,-106.445,-33.203,1.000,1.000
1626294728467604.250,-46.387,-57.129,-30.762,-108.887,1.000
1626294728471510.500,-86.426,-11.719,-39.062,-159.180,1.000
1626294728475416.750,-20.020,3.418,-26.855,32.227,1.000
1626294728479323.000,41.992,-12.207,-6.836,124.512,1.000
1626294728483229.250,-38.086,-80.566,-38.574,-75.195,1.000
1626294728487135.500,-94.238,-27.344,-53.223,-184.570,1.000
1626294728491041.750,-23.926,-6.836,-14.648,-15.625,1.000
1626294728494948.000,53.711,4.883,-5.371,138.672,1.000
1626294728498854.250,7.324,-12.695,-17.090,10.742,1.000
1626294728502760.500,-87.891,-56.641,-29.785,-187.012,1.000
1626294728506666.750,-69.824,-20.996,-41.504,-104.980,1.000
1626294728510573.000,16.602,-4.395,-33.691,92.773,1.000
1626294728514479.250,21.973,-14.160,-30.273,1.000,1.000
1626294728518385.500,-68.359,-73.730,-37.598,1.000,1.000
1626294728522291.750,-81.543,-50.781,-40.039,1.000,1.000
1626294728526198.000,11.230,-4.395,-19.531,1.000,1.000
1626294728530104.250,36.621,-14.160,-18.066,1.000,1.000
1626294728534010.500,-40.039,0.000,-28.809,1.000,1.000
1626294728537916.750,-103.027,-91.309,-27.344,1.000,1.000
1626294728541823.000,-29.297,-59.082,-25.879,1.000,1.000
1626294728545729.250,42.969,18.555,-34.668,1.000,1.000
1626294728549635.500,-28.320,5.859,-42.480,1.000,1.000
1626294728553541.750,-106.934,-54.199,-35.156,1.000,1.000
1626294728557448.000,-66.895,-119.629,-38.574,1.000,1.000
1626294728561354.250,41.016,-29.785,-14.648,1.000,1.000
1626294728565260.500,13.672,-32.715,-21.484,1.000,1.000
1626294728569166.750,-90.820,-19.043,-34.668,1.000,1.000
1626294728573073.000,-79.590,5.859,-16.602,1.000,1.000
1626294728576979.250,10.742,-36.621,-26.855,1.000,1.000
1626294728580885.500,36.133,-0.488,-29.297,1.000,1.000
1626294728584791.750,-59.570,-5.371,-43.457,1.000,1.000
1626294728588698.000,-78.125,4.883,-25.879,1.000,1.000
1626294728592604.250,1.953,-23.438,-9.277,1.000,1.000
1626294728596510.500,3.906,-95.215,-39.062,1.000,1.000
1626294728600416.750,-62.500,-49.805,-41.016,1.000,1.000
1626294728604323.000,-107.910,-19.043,-33.203,1.000,1.000
1626294728608229.250,-37.109,-22.949,-30.273,1.000,1.000
1626294728612135.500,28.809,-81.055,-41.016,1.000,1.000
1626294728616041.750,-12.695,-69.336,-41.992,1.000,1.000
1626294728619948.000,-72.266,5.371,-44.434,1.000,1.000
1626294728623854.250,-48.340,19.531,-39.062,1.000,1.000
1626294728627760.500,40.527,6.836,-11.719,1.000,1.000
1626294728631666.750,-6.348,-107.422,-57.129,1.000,1.000
1626294728635573.000,-95.215,-96.191,-53.711,1.000,1.000
1626294728639479.250,-83.984,-42.480,-6.836,1.000,1.000
1626294728643385.500,6.348,-9.277,0.977,1.000,1.000
1626294728647291.750,20.996,-3.418,-22.461,1.000,1.000
1626294728651198.000,-93.750,-118.652,-67.383,1.000,1.000
1626294728655104.250,0.977,-22.461,-49.805,-147.461,1.000
1626294728659010.500,-66.406,27.832,-41.016,-141.113,1.000
1626294728662916.750,-65.918,-10.742,-36.621,69.824,1.000
1626294728666823.000,11.230,-44.434,-35.156,99.609,1.000
1626294728670729.250,-3.418,-94.238,-49.316,-114.746,1.000
1626294728674635.500,-71.289,-40.039,-43.457,-174.805,1.000
1626294728678541.750,-85.938,-6.348,-35.156,0.000,1.000
1626294728682448.000,27.344,34.180,-6.348,114.258,1.000
1626294728686354.250,56.641,-7.812,-20.996,-55.664,1.000
1626294728690260.500,-64.453,-75.684,-60.547,-187.500,1.000
1626294728694166.750,-102.539,-15.625,-50.293,-41.016,1.000
1626294728698073.000,-18.066,9.277,-27.344,78.125,1.000
1626294728701979.250,65.430,9.277,-8.301,1.000,1.000
1626294728705885.500,-26.855,-90.332,-44.922,1.000,1.000
1626294728709791.750,-126.953,-105.469,-64.453,1.000,1.000
1626294728713698.000,-40.039,-15.137,-18.066,1.000,1.000
1626294728717604.250,63.477,11.230,12.207,1.000,1.000
1626294728721510.500,28.320,23.926,3.418,1.000,1.000
1626294728725416.750,-108.887,-103.027,-36.621,1.000,1.000
1626294728729323.000,-93.262,-84.961,-24.414,1.000,1.000
1626294728733229.250,17.090,-8.789,-9.766,1.000,1.000
1626294728737135.500,21.484,-8.301,-28.320,1.000,1.000
1626294728741041.750,-59.570,-19.531,-53.711,1.000,1.000
1626294728744948.000,-110.840,-95.215,-57.617,1.000,1.000
1626294728748854.250,-14.160,-3.418,-37.109,-45.410,1.000
1626294728752760.500,-105.957,-97.168,-44.434,-193.848,1.000
1626294728756666.750,-70.312,-96.680,-45.898,-56.641,1.000
1626294728760573.000,34.668,-11.719,-29.297,122.070,1.000
1626294728764479.250,21.484,-9.766,-34.180,20.508,1.000
1626294728768385.500,-82.031,-29.785,-55.664,-177.734,1.000
1626294728772291.750,-99.121,-130.859,-44.922,-127.930,1.000
1626294728776198.000,22.949,-62.500,0.977,102.051,1.000
1626294728780104.250,37.598,12.207,-8.301,78.613,1.000
1626294728784010.500,-83.984,-6.836,-33.203,-149.902,1.000
1626294728787916.750,-111.816,-40.039,-35.156,-160.645,1.000
1626294728791823.000,-38.574,-123.047,-61.035,28.809,1.000
1626294728795729.250,22.949,-34.180,-43.457,1.000,1.000
1626294728799635.500,-31.738,17.090,-30.273,1.000,1.000
1626294728803541.750,-93.262,-18.066,-32.715,1.000,1.000
1626294728807448.000,-36.133,-25.391,-32.227,1.000,1.000
1626294728811354.250,23.438,-69.336,-46.875,1.000,1.000
1626294728815260.500,-25.391,-39.062,-34.668,1.000,1.000
1626294728819166.750,-101.562,-7.324,-26.855,1.000,1.000
1626294728823073.000,-63.477,-11.230,-30.273,1.000,1.000
1626294728826979.250,21.484,-34.180,-25.391,1.000,1.000
1626294728830885.500,8.301,-57.129,-28.809,1.000,1.000
1626294728834791.750,-77.148,-15.625,-46.387,1.000,1.000
1626294728838698.000,-77.637,-0.977,-35.156,1.000,1.000
1626294728842604.250,21.973,0.000,-13.672,1.000,1.000
1626294728846510.500,7.324,-63.965,-42.969,1.000,1.000
1626294728850416.750,-98.145,-82.031,-45.410,1.000,1.000
1626294728854323.000,-104.492,-18.555,-24.902,1.000,1.000
1626294728858229.250,-2.930,5.859,-10.742,1.000,1.000
1626294728862135.500,52.246,-3.418,-8.301,1.000,1.000
1626294728866041.750,-50.293,-100.098,-59.082,1.000,1.000
1626294728869948.000,-101.562,-78.613,-58.594,1.000,1.000
1626294728873854.250,-22.461,-12.207,-28.809,1.000,1.000
1626294728877760.500,41.504,6.836,-20.508,1.000,1.000
1626294728881666.750,-11.230,2.441,-28.809,1.000,1.000
1626294728885573.000,-120.605,-80.078,-55.176,1.000,1.000
1626294728889479.250,-50.781,-87.891,-48.340,-166.992,1.000
1626294728893385.500,-67.871,-27.832,-16.113,-6.836,1.000
1626294728897291.750,4.395,-12.207,-6.836,130.371,1.000
1626294728901198.000,46.387,-27.832,-19.531,7.812,1.000
1626294728905104.250,-38.086,-112.305,-38.086,-152.344,1.000
1626294728909010.500,-104.492,-57.617,-35.645,-49.316,1.000
1626294728912916.750,-47.363,-8.789,-27.344,101.074,1.000
1626294728916823.000,23.438,-4.395,-20.996,50.293,1.000
1626294728920729.250,-31.250,-37.109,-41.016,-122.070,1.000
1626294728924635.500,-125.488,-77.148,-56.152,-97.656,1.000
1626294728928541.750,-74.219,-18.555,-34.180,108.398,1.000
1626294728932448.000,18.555,-11.230,-24.414,98.633,1.000
1626294728936354.250,16.602,-26.367,-30.273,1.000,1.000
1626294728940260.500,-72.754,-66.895,-55.176,1.000,1.000
1626294728944166.750,-96.191,-71.777,-53.223,1.000,1.000
1626294728948073.000,-0.488,-23.926,-19.531,1.000,1.000
1626294728951979.250,52.246,-3.418,-2.441,1.000,1.000
1626294728955885.500,-27.832,-5.371,-17.090,1.000,1.000
1626294728959791.750,-115.234,-82.520,-54.688,1.000,1.000
1626294728963698.000,-27.344,-46.387,-20.996,1.000,1.000
1626294728967604.250,53.711,3.906,3.906,1.000,1.000
1626294728971510.500,0.977,-5.859,-4.395,1.000,1.000
1626294728975416.750,-85.938,-29.785,-38.086,1.000,1.000
1626294728979323.000,-66.895,-93.262,-74.219,1.000,1.000
1626294728983229.250,44.922,-36.133,-26.855,1.000,1.000
1626294728987135.500,22.949,-20.996,-8.789,1.000,1.000
1626294728991041.750,-81.543,-28.320,-18.555,1.000,1.000
1626294728994948.000,-73.730,-20.508,-34.668,1.000,1.000
1626294728998854.250,12.207,-73.242,-43.457,1.000,1.000
1626294729002760.500,56.152,-28.320,-12.207,1.000,1.000
1626294729006666.750,-16.113,-14.648,-3.418,1.000,1.000
1626294729010573.000,-68.359,-17.578,-18.555,1.000,1.000
1626294729014479.250,2.441,-32.715,-52.246,1.000,1.000
1626294729018385.500,36.133,-71.777,-62.012,1.000,1.000
1626294729022291.750,-43.457,-31.250,-41.992,1.000,1.000
1626294729026198.000,-96.680,-5.371,-33.203,1.000,1.000
1626294729030104.250,-5.859,25.879,-8.789,1.000,1.000
1626294729034010.500,48.828,-42.480,-18.066,1.000,1.000
1626294729037916.750,-22.949,-69.336,-49.805,1.000,1.000
1626294729041823.000,-89.355,-11.230,-35.645,1.000,1.000
1626294729045729.250,-57.617,-12.207,-22.949,1.000,1.000
1626294729049635.500,27.344,-8.301,-36.133,1.000,1.000
1626294729053541.750,20.020,2.441,-44.922,1.000,1.000
1626294729057448.000,-63.477,-16.602,-32.715,1.000,1.000
1626294729061354.250,-66.895,-43.457,-17.578,1.000,1.000
1626294729065260.500,14.648,-13.672,-13.672,1.000,1.000
1626294729069166.750,15.137,-30.273,-36.133,1.000,1.000
1626294729073073.000,-85.449,-122.559,-73.730,1.000,1.000
1626294729076979.250,-0.977,-38.086,-44.922,-169.922,1.000
1626294729080885.500,-84.473,-9.766,-30.273,-158.203,1.000
1626294729084791.750,-65.918,-7.324,-25.879,60.059,1.000
1626294729088698.000,17.578,-8.789,-24.902,93.262,1.000
1626294729092604.250,6.836,-51.270,-38.574,-120.117,1.000
1626294729096510.500,-82.031,-43.457,-29.297,-175.781,1.000
1626294729100416.750,-84.961,-31.250,-20.508,25.879,1.000
1626294729104323.000,5.859,-21.973,-23.438,124.023,1.000
1626294729108229.250,38.086,-35.645,-12.695,-45.410,1.000
1626294729112135.500,-43.945,-52.246,-24.414,-163.086,1.000
1626294729116041.750,-86.914,-21.484,-32.227,-11.719,1.000
1626294729119948.000,-20.508,-9.766,-28.809,132.812,1.000
1626294729123854.250,39.551,5.371,-29.297,1.000,1.000
1626294729127760.500,-30.762,-41.504,-45.898,1.000,1.000
1626294729131666.750,-111.816,-50.293,-48.340,1.000,1.000
1626294729135573.000,-54.199,10.742,-18.555,1.000,1.000
1626294729139479.250,28.809,-1.465,-15.137,1.000,1.000
1626294729143385.500,0.977,-41.504,-44.434,1.000,1.000
1626294729147291.750,-105.957,-124.023,-76.660,1.000,1.000
1626294729151198.000,-96.680,-91.797,-68.359,1.000,1.000
1626294729155104.250,16.113,-29.785,-31.250,1.000,1.000
1626294729159010.500,39.062,-17.090,-14.160,1.000,1.000
1626294729162916.750,-51.270,-32.715,-18.555,1.000,1.000
1626294729166823.000,-112.305,-89.844,-43.457,1.000,1.000
1626294729170729.250,-28.320,-15.137,-42.969,-59.082,1.000
1626294729174635.500,-116.699,-48.828,-51.270,-209.473,1.000
1626294729178541.750,-59.082,-51.270,-35.156,-49.316,1.000
1626294729182448.000,33.691,-18.555,-23.926,120.117,1.000
1626294729186354.250,-20.996,-22.461,-58.105,-17.578,1.000
1626294729190260.500,-116.699,-24.902,-62.500,-204.590,1.000
1626294729194166.750,-118.164,-99.121,-62.012,-139.648,1.000
1626294729198073.000,-25.391,-65.430,-48.340,61.523,1.000
1626294729201979.250,7.812,-2.441,-28.320,48.340,1.000
1626294729205885.500,-71.777,-21.484,-19.043,-145.020,1.000
1626294729209791.750,-109.863,-34.668,-34.180,-162.109,1.000
1626294729213698.000,-45.898,-99.121,-65.430,13.672,1.000
1626294729217604.250,-1.465,-83.008,-65.430,1.000,1.000
1626294729221510.500,-73.730,-43.945,-62.500,1.000,1.000
1626294729225416.750,-114.258,-17.090,-41.504,1.000,1.000
1626294729229323.000,-42.480,-22.949,-41.504,1.000,1.000
1626294729233229.250,0.000,-80.566,-62.500,1.000,1.000
1626294729237135.500,-40.039,-24.414,-44.922,1.000,1.000
1626294729241041.750,-104.004,-3.906,-42.969,1.000,1.000
1626294729244948.000,-61.035,-14.648,-43.457,1.000,1.000
1626294729248854.250,28.809,-29.785,-13.184,1.000,1.000
1626294729252760.500,-9.277,-80.078,-17.090,1.000,1.000
1626294729256666.750,-91.797,-32.227,-20.508,1.000,1.000
1626294729260573.000,-75.195,5.371,-16.602,1.000,1.000
1626294729264479.250,33.691,23.438,-8.789,1.000,1.000
1626294729268385.500,22.949,-64.941,-23.926,1.000,1.000
1626294729272291.750,-93.262,-107.422,-51.758,1.000,1.000
1626294729276198.000,-109.863,-24.902,-42.480,1.000,1.000
1626294729280104.250,2.441,14.648,-27.832,1.000,1.000
1626294729284010.500,51.270,8.789,-37.109,1.000,1.000
1626294729287916.750,-53.223,-87.402,-60.059,1.000,1.000
1626294729291823.000,-98.145,-58.594,-42.480,1.000,1.000
1626294729295729.250,-23.926,-9.766,-24.414,1.000,1.000
1626294729299635.500,51.758,-7.812,-7.812,1.000,1.000
1626294729303541.750,-13.672,-23.438,-37.598,1.000,1.000
1626294729307448.000,-125.488,-139.160,-75.195,1.000,1.000
1626294729311354.250,-56.152,-52.734,-46.875,-130.859,1.000
1626294729315260.500,-99.121,-26.367,-43.457,-180.176,1.000
1626294729319166.750,-27.832,-9.766,-32.227,14.648,1.000
1626294729323073.000,54.199,7.812,-26.367,133.301,1.000
1626294729326979.250,-10.742,-63.965,-53.223,-43.945,1.000
1626294729330885.500,-98.633,-45.898,-47.363,-185.059,1.000
1626294729334791.750,-41.016,-11.719,-17.578,-28.320,1.000
1626294729338698.000,63.477,-1.465,6.348,151.367,1.000
1626294729342604.250,19.531,-23.926,-1.953,29.297,1.000
1626294729346510.500,-93.750,-59.570,-41.016,-182.129,1.000
1626294729350416.750,-74.707,-12.207,-34.180,-102.539,1.000
1626294729354323.000,22.949,20.020,-18.066,107.910,1.000
1626294729358229.250,31.250,5.371,-31.738,1.000,1.000
1626294729362135.500,-70.801,-83.496,-56.152,1.000,1.000
1626294729366041.750,-94.238,-80.078,-56.152,1.000,1.000
1626294729369948.000,7.324,0.977,-24.902,1.000,1.000
1626294729373854.250,41.504,-0.488,-14.160,1.000,1.000
1626294729377760.500,-38.086,1.953,-8.789,1.000,1.000
1626294729381666.750,-90.820,-55.176,-16.602,1.000,1.000
1626294729385573.000,-22.461,-50.781,-30.762,1.000,1.000
1626294729389479.250,41.016,-3.418,-39.062,1.000,1.000
1626294729393385.500,-28.320,-2.930,-44.922,1.000,1.000
1626294729397291.750,-114.746,-32.227,-39.551,1.000,1.000
1626294729401198.000,-84.473,-93.750,-47.363,1.000,1.000
1626294729405104.250,-83.008,-1.465,-49.805,-164.551,1.000
1626294729409010.500,-95.703,-15.137,-60.547,-155.273,1.000
1626294729412916.750,4.395,-5.859,-24.414,66.895,1.000
1626294729416823.000,54.199,16.602,-27.344,118.652,1.000
1626294729420729.250,-34.180,21.973,-62.012,-100.586,1.000
1626294729424635.500,-82.520,14.160,-54.199,-171.875,1.000
1626294729428541.750,-13.672,-52.734,-43.945,15.625,1.000
1626294729432448.000,45.898,-24.902,-41.016,111.816,1.000
1626294729436354.250,-6.836,9.766,-44.434,-48.340,1.000
1626294729440260.500,-72.754,6.836,-44.434,-178.223,1.000
1626294729444166.750,-42.969,-24.902,-51.758,-56.641,1.000
1626294729448073.000,31.738,-78.613,-61.523,100.098,1.000
1626294729451979.250,22.949,-21.973,-61.523,1.000,1.000
1626294729455885.500,-65.918,0.977,-77.637,1.000,1.000
1626294729459791.750,-56.641,-4.395,-57.617,1.000,1.000
1626294729463698.000,37.109,5.859,-27.344,1.000,1.000
1626294729467604.250,26.367,-29.297,-49.316,1.000,1.000
1626294729471510.500,-58.594,-17.090,-58.105,1.000,1.000
1626294729475416.750,-81.055,-12.207,-48.340,1.000,1.000
1626294729479323.000,-6.348,-14.160,-46.387,1.000,1.000
1626294729483229.250,28.809,-15.625,-46.387,1.000,1.000
1626294729487135.500,-53.711,-48.340,-50.293,1.000,1.000
1626294729491041.750,-101.562,-34.668,-44.434,1.000,1.000
1626294729494948.000,-26.855,-22.461,-47.852,1.000,1.000
1626294729498854.250,44.922,3.906,-47.852,1.000,1.000
1626294729502760.500,-28.809,-25.391,-78.125,1.000,1.000
1626294729506666.750,-107.910,-60.547,-85.449,1.000,1.000
1626294729510573.000,-38.574,-32.227,-33.203,1.000,1.000
1626294729514479.250,37.109,-22.949,-49.316,1.000,1.000
1626294729518385.500,-0.488,-22.949,-59.082,1.000,1.000
1626294729522291.750,-107.910,-70.312,-61.035,1.000,1.000
1626294729526198.000,-85.938,-29.297,-53.223,1.000,1.000
1626294729530104.250,16.113,12.695,-25.391,1.000,1.000
1626294729534010.500,9.277,-18.066,-36.621,1.000,1.000
1626294729537916.750,-85.938,-49.805,-65.430,1.000,1.000
1626294729541823.000,-132.812,-99.609,-71.289,1.000,1.000
1626294729545729.250,6.348,-8.301,-27.832,-37.598,1.000
1626294729549635.500,-91.309,-60.547,-58.594,-193.848,1.000
1626294729553541.750,-38.086,-37.109,-41.992,-37.598,1.000
1626294729557448.000,60.059,6.836,-17.578,136.719,1.000
1626294729561354.250,34.180,-0.488,-30.273,25.879,1.000
1626294729565260.500,-60.059,1.953,-31.250,-160.645,1.000
1626294729569166.750,-84.473,-73.242,-47.852,-120.117,1.000
1626294729573073.000,12.695,-48.340,-35.645,93.750,1.000
1626294729576979.250,29.785,13.672,-25.391,61.523,1.000
1626294729580885.500,-64.941,17.090,-43.457,-145.508,1.000
1626294729584791.750,-101.562,-13.184,-43.945,-160.156,1.000
1626294729588698.000,-25.391,-89.355,-46.875,32.715,1.000
1626294729592604.250,61.523,-29.785,-11.230,1.000,1.000
1626294729596510.500,-12.695,6.836,-6.836,1.000,1.000
1626294729600416.750,-89.844,0.977,-27.344,1.000,1.000
1626294729604323.000,-31.250,-16.113,-20.996,1.000,1.000
1626294729608229.250,29.785,-53.711,-8.301,1.000,1.000
1626294729612135.500,-8.301,-24.902,-1.465,1.000,1.000
1626294729616041.750,-98.145,-41.016,-17.578,1.000,1.000
1626294729619948.000,-69.824,-43.945,-1.465,1.000,1.000
1626294729623854.250,13.184,-61.035,1.953,1.000,1.000
1626294729627760.500,-0.488,-98.145,-0.488,1.000,1.000
1626294729631666.750,-67.871,-61.523,6.348,1.000,1.000
1626294729635573.000,-86.426,-60.059,-24.414,1.000,1.000
1626294729639479.250,-4.395,-58.594,-27.344,1.000,1.000
1626294729643385.500,13.184,-88.379,-1.953,1.000,1.000
1626294729647291.750,-86.426,-101.562,-7.324,1.000,1.000
1626294729651198.000,-112.305,-48.340,-16.602,1.000,1.000
1626294729655104.250,-15.625,-27.832,-1.465,1.000,1.000
1626294729659010.500,42.480,-21.973,14.160,1.000,1.000
1626294729662916.750,-46.387,-81.055,-19.043,1.000,1.000
1626294729666823.000,-107.422,-51.758,-37.598,1.000,1.000
1626294729670729.250,-37.598,-6.836,-4.883,1.000,1.000
1626294729674635.500,39.062,-25.879,9.766,1.000,1.000
1626294729678541.750,-11.719,-72.754,-17.090,1.000,1.000
1626294729682448.000,-115.723,-164.551,-39.062,1.000,1.000
1626294729686354.250,-59.082,-27.832,-34.668,-172.852,1.000
1626294729690260.500,-111.816,-9.277,-27.344,-33.691,1.000
1626294729694166.750,-37.598,-10.742,-8.789,118.652,1.000
1626294729698073.000,37.598,-23.438,-3.906,8.789,1.000
1626294729701979.250,-29.297,-62.500,-45.410,-172.852,1.000
1626294729705885.500,-99.609,-38.574,-41.992,-84.961,1.000
1626294729709791.750,-47.852,-37.598,-7.324,105.957,1.000
1626294729713698.000,28.320,-43.457,-9.277,45.410,1.000
1626294729717604.250,-4.883,-38.574,-35.645,-157.715,1.000
1626294729721510.500,-104.004,-51.758,-50.781,-141.113,1.000
1626294729725416.750,-96.680,-15.625,-47.852,70.801,1.000
1626294729729323.000,3.418,-2.930,-21.484,87.402,1.000
1626294729733229.250,31.250,-7.324,-3.418,1.000,1.000
1626294729737135.500,-56.641,-53.711,-25.391,1.000,1.000
1626294729741041.750,-90.332,-79.102,-21.973,1.000,1.000
1626294729744948.000,-12.695,-43.457,-11.230,1.000,1.000
1626294729748854.250,15.137,-29.297,-25.391,1.000,1.000
1626294729752760.500,-61.523,-24.414,-39.551,1.000,1.000
1626294729756666.750,-117.188,-83.984,-54.688,1.000,1.000
1626294729760573.000,-30.762,-61.523,-21.484,1.000,1.000
1626294729764479.250,57.617,-27.832,2.930,1.000,1.000
1626294729768385.500,-4.395,-23.926,-21.973,1.000,1.000
1626294729772291.750,-104.980,-28.320,-57.129,1.000,1.000
1626294729776198.000,-62.988,-72.754,-50.293,1.000,1.000
1626294729780104.250,-66.895,-7.812,-32.227,-156.738,1.000
1626294729784010.500,-106.445,-62.012,-37.109,-158.691,1.000
1626294729787916.750,-13.672,-63.965,-39.551,53.223,1.000
1626294729791823.000,41.992,-11.230,-33.203,100.586,1.000
1626294729795729.250,-37.109,2.930,-35.156,-97.656,1.000
1626294729799635.500,-74.707,3.418,-45.410,-165.039,1.000
1626294729803541.750,8.301,-56.641,-39.551,31.250,1.000
1626294729807448.000,81.543,-38.086,-16.602,155.273,1.000
1626294729811354.250,-0.977,-21.484,-41.504,-31.250,1.000
1626294729815260.500,-104.980,-35.156,-58.105,-194.824,1.000
1626294729819166.750,-57.129,-25.879,-25.391,-54.688,1.000
1626294729823073.000,23.926,-81.543,-14.160,115.234,1.000
1626294729826979.250,-6.836,-71.777,-24.902,1.000,1.000
1626294729830885.500,-98.145,-41.992,-41.992,1.000,1.000
1626294729834791.750,-74.219,-20.020,-37.109,1.000,1.000
1626294729838698.000,24.902,-23.438,-27.832,1.000,1.000
1626294729842604.250,25.879,-57.617,-34.180,1.000,1.000
1626294729846510.500,-56.641,-15.625,-39.062,1.000,1.000
1626294729850416.750,-79.590,5.859,-64.941,1.000,1.000
1626294729854323.000,15.625,23.926,-36.133,1.000,1.000
1626294729858229.250,61.035,-2.441,-12.695,1.000,1.000
1626294729862135.500,-41.016,-64.453,-46.387,1.000,1.000
1626294729866041.750,-117.188,-53.223,-56.152,1.000,1.000
1626294729869948.000,-42.480,-44.434,-47.852,1.000,1.000
1626294729873854.250,41.016,-33.203,-33.203,1.000,1.000
1626294729877760.500,-21.973,-72.754,-47.363,1.000,1.000
1626294729881666.750,-103.027,-71.289,-64.941,1.000,1.000
1626294729885573.000,-58.594,-17.578,-44.922,1.000,1.000
1626294729889479.250,31.738,2.930,-16.113,1.000,1.000
1626294729893385.500,27.344,31.250,-8.301,1.000,1.000
1626294729897291.750,-80.566,-45.898,-39.551,1.000,1.000
1626294729901198.000,-101.562,-54.199,-56.152,1.000,1.000
1626294729905104.250,6.836,5.859,-40.039,1.000,1.000
1626294729909010.500,37.109,14.160,-33.691,1.000,1.000
1626294729912916.750,-67.871,-21.973,-50.293,1.000,1.000
1626294729916823.000,-115.723,-121.094,-41.992,1.000,1.000
1626294729920729.250,-14.160,4.395,-37.109,-42.480,1.000
1626294729924635.500,-76.172,-17.578,-35.645,-174.805,1.000
1626294729928541.750,-35.645,-53.223,-25.879,-41.504,1.000
1626294729932448.000,27.832,-24.414,-24.414,108.398,1.000
1626294729936354.250,-19.531,-10.254,-42.969,-10.254,1.000
1626294729940260.500,-104.004,15.625,-58.594,-190.918,1.000
1626294729944166.750,-93.750,-85.938,-56.152,-120.605,1.000
1626294729948073.000,9.277,-68.359,-34.668,95.215,1.000
1626294729951979.250,35.156,8.789,-37.109,75.195,1.000
1626294729955885.500,-57.617,-13.672,-43.945,-141.602,1.000
1626294729959791.750,-85.449,-50.781,-23.926,-147.949,1.000
1626294729963698.000,-4.395,-131.836,-23.926,59.082,1.000
1626294729967604.250,38.574,-48.340,-30.762,1.000,1.000
1626294729971510.500,-29.785,13.672,-24.414,1.000,1.000
1626294729975416.750,-95.703,6.836,-28.320,1.000,1.000
1626294729979323.000,-61.035,-23.438,-42.969,1.000,1.000
1626294729983229.250,-1.953,-77.637,-51.270,1.000,1.000
1626294729987135.500,-42.480,-21.484,-54.688,1.000,1.000
1626294729991041.750,-107.422,-3.906,-49.316,1.000,1.000
1626294729994948.000,-46.875,14.160,-23.926,1.000,1.000
1626294729998854.250,43.945,-12.207,-25.879,1.000,1.000
1626294730002760.500,23.926,-78.125,-35.156,1.000,1.000
1626294730006666.750,-67.383,-37.598,-40.039,1.000,1.000
1626294730010573.000,-72.754,-16.113,-37.598,1.000,1.000
1626294730014479.250,20.508,-9.766,-11.719,1.000,1.000
1626294730018385.500,29.785,-44.922,-18.066,1.000,1.000
1626294730022291.750,-70.801,-63.965,-46.875,1.000,1.000
1626294730026198.000,-112.305,-24.902,-45.410,1.000,1.000
1626294730030104.250,-24.414,-15.137,-31.738,1.000,1.000
1626294730034010.500,45.898,13.672,-21.973,1.000,1.000
1626294730037916.750,-33.203,-76.172,-54.199,1.000,1.000
1626294730041823.000,-100.098,-70.801,-67.871,1.000,1.000
1626294730045729.250,-10.254,-1.465,-39.551,1.000,1.000
1626294730049635.500,73.730,-0.488,-18.555,1.000,1.000
1626294730053541.750,12.207,-29.785,-20.020,1.000,1.000
1626294730057448.000,-87.402,-124.512,-24.414,1.000,1.000
1626294730061354.250,-64.941,-57.129,-58.105,-187.500,1.000
1626294730065260.500,-108.398,-43.945,-40.039,-54.688,1.000
1626294730069166.750,-24.414,-14.160,-30.273,101.562,1.000
1626294730073073.000,38.574,-13.672,-42.969,-10.254,1.000
1626294730076979.250,-20.020,-71.289,-56.641,-187.012,1.000
1626294730080885.500,-90.820,-36.621,-41.016,-102.539,1.000
1626294730084791.750,-39.551,5.371,-20.020,93.750,1.000
1626294730088698.000,63.965,14.160,-4.395,49.805,1.000
1626294730092604.250,36.621,-22.949,-15.625,-162.598,1.000
1626294730096510.500,-81.055,-57.617,-47.852,-157.715,1.000
1626294730100416.750,-89.844,-27.344,-51.758,60.059,1.000
1626294730104323.000,4.883,-9.277,-37.109,91.797,1.000
1626294730108229.250,12.207,-20.508,-40.527,1.000,1.000
1626294730112135.500,-78.613,-52.734,-34.180,1.000,1.000
1626294730116041.750,-89.844,-50.781,-16.602,1.000,1.000
1626294730119948.000,-9.277,-22.949,-22.949,1.000,1.000
1626294730123854.250,39.551,-5.371,-28.320,1.000,1.000
1626294730127760.500,-13.184,11.719,-17.578,1.000,1.000
1626294730131666.750,-69.336,-37.109,-28.320,1.000,1.000
1626294730135573.000,-13.672,-32.715,-34.180,1.000,1.000
1626294730139479.250,38.574,-17.578,-16.113,1.000,1.000
1626294730143385.500,-32.227,-41.016,-20.020,1.000,1.000
1626294730147291.750,-128.906,-40.527,-35.645,1.000,1.000
1626294730151198.000,-100.098,-63.477,-44.434,1.000,1.000
1626294730155104.250,-67.383,-34.668,-33.691,-132.324,1.000
1626294730159010.500,-98.633,-63.965,-43.457,-144.043,1.000
1626294730162916.750,-21.484,-58.105,-55.664,58.105,1.000
1626294730166823.000,21.973,-32.715,-37.109,111.816,1.000
1626294730170729.250,-50.293,-51.758,-15.137,-81.055,1.000
1626294730174635.500,-95.215,-33.691,-2.441,-155.762,1.000
1626294730178541.750,-48.340,-76.660,-29.297,-0.488,1.000
1626294730182448.000,29.785,-44.922,-20.996,120.605,1.000
1626294730186354.250,-11.719,-14.160,-21.484,-29.785,1.000
1626294730190260.500,-103.027,-28.809,-42.969,-187.988,1.000
1626294730194166.750,-62.012,-36.621,-43.945,-50.293,1.000
1626294730198073.000,0.977,-99.121,-47.852,106.934,1.000
1626294730201979.250,-8.301,-43.457,-23.438,1.000,1.000
1626294730205885.500,-84.473,-24.902,-25.879,1.000,1.000
1626294730209791.750,-81.543,-35.156,-28.320,1.000,1.000
1626294730213698.000,16.602,-28.320,-32.715,1.000,1.000
1626294730217604.250,11.230,-75.195,-48.828,1.000,1.000
1626294730221510.500,-71.289,-53.711,-21.973,1.000,1.000
1626294730225416.750,-87.402,-29.785,-0.488,1.000,1.000
1626294730229323.000,8.301,1.953,12.207,1.000,1.000
1626294730233229.250,33.203,-17.578,-11.230,1.000,1.000
1626294730237135.500,-67.871,-65.430,-31.738,1.000,1.000
1626294730241041.750,-117.676,-29.785,-25.879,1.000,1.000
1626294730244948.000,-38.574,-5.859,-16.602,1.000,1.000
1626294730248854.250,42.969,4.883,-7.812,1.000,1.000
1626294730252760.500,-18.066,-43.457,-27.832,1.000,1.000
1626294730256666.750,-97.168,-75.684,-41.504,1.000,1.000
1626294730260573.000,-44.434,-21.973,-20.996,1.000,1.000
1626294730264479.250,36.621,-14.160,-16.113,1.000,1.000
1626294730268385.500,10.742,-42.480,-32.715,1.000,1.000
1626294730272291.750,-104.004,-97.168,-65.918,1.000,1.000
1626294730276198.000,-85.938,-63.965,-31.738,1.000,1.000
1626294730280104.250,37.109,-14.648,-1.465,1.000,1.000
1626294730284010.500,48.340,-28.809,-30.762,1.000,1.000
1626294730287916.750,-49.805,-45.898,-37.598,1.000,1.000
1626294730291823.000,-108.887,-62.988,-45.410,1.000,1.000
1626294730295729.250,-108.398,-58.594,-67.871,-129.395,1.000
1626294730299635.500,-77.637,-41.016,-31.738,74.707,1.000
1626294730303541.750,15.137,-36.133,-9.766,96.191,1.000
1626294730307448.000,20.508,-26.855,-15.137,-101.074,1.000
1626294730311354.250,-62.500,-76.172,-23.926,-154.785,1.000
1626294730315260.500,-72.754,-38.574,-19.043,30.762,1.000
1626294730319166.750,5.371,-9.766,-28.320,97.168,1.000
1626294730323073.000,47.852,5.371,-22.949,-55.664,1.000
1626294730326979.250,-40.527,-25.879,-30.762,-154.785,1.000
1626294730330885.500,-105.957,-83.008,-37.109,-21.973,1.000
1626294730334791.750,-29.297,-25.391,-15.137,141.113,1.000
1626294730338698.000,37.109,-8.789,-24.902,-3.418,1.000
1626294730342604.250,-10.742,-17.090,-36.621,1.000,1.000
1626294730346510.500,-71.777,-57.617,-33.203,1.000,1.000
1626294730350416.750,-30.762,-75.195,-37.598,1.000,1.000
1626294730354323.000,47.363,-18.555,-17.578,1.000,1.000
1626294730358229.250,9.766,-16.602,-26.367,1.000,1.000
1626294730362135.500,-89.355,-28.320,-53.711,1.000,1.000
1626294730366041.750,-84.473,-80.078,-46.387,1.000,1.000
1626294730369948.000,7.324,-62.988,-29.785,1.000,1.000
1626294730373854.250,26.367,-17.578,-22.949,1.000,1.000
1626294730377760.500,-53.223,8.789,-24.902,1.000,1.000
1626294730381666.750,-87.402,-6.348,-27.344,1.000,1.000
1626294730385573.000,-11.719,-99.121,-21.484,1.000,1.000
1626294730389479.250,44.922,-32.227,-11.230,1.000,1.000
1626294730393385.500,-25.391,3.906,-17.578,1.000,1.000
1626294730397291.750,-103.027,-21.484,-38.086,1.000,1.000
1626294730401198.000,-35.645,-17.578,-11.230,1.000,1.000
1626294730405104.250,49.316,-67.383,-6.348,1.000,1.000
1626294730409010.500,1.465,-35.645,-37.598,1.000,1.000
1626294730412916.750,-82.520,-11.719,-28.320,1.000,1.000
1626294730416823.000,-55.664,-7.812,-19.531,1.000,1.000
1626294730420729.250,44.434,-23.438,-23.926,1.000,1.000
1626294730424635.500,37.109,-54.688,-18.066,1.000,1.000
1626294730428541.750,-68.359,-2.441,-21.973,1.000,1.000
1626294730432448.000,-79.102,0.488,-20.020,1.000,1.000
1626294730436354.250,12.695,-13.672,-18.066,73.730,1.000
1626294730440260.500,41.504,-31.250,-12.695,82.520,1.000
1626294730444166.750,-50.781,-43.457,-25.391,-126.953,1.000
1626294730448073.000,-89.355,-29.785,-30.762,-165.039,1.000
1626294730451979.250,11.719,-11.719,-6.836,56.152,1.000
1626294730455885.500,64.453,20.996,-23.926,135.254,1.000
1626294730459791.750,-11.719,-53.223,-40.527,-56.641,1.000
1626294730463698.000,-95.215,-68.848,-43.945,-187.012,1.000
1626294730467604.250,-47.852,-13.184,-44.434,-36.621,1.000
1626294730471510.500,33.203,-2.441,-30.273,116.699,1.000
1626294730475416.750,-16.113,-38.086,-35.645,-23.438,1.000
1626294730479323.000,-105.957,-120.605,-50.781,-202.148,1.000
1626294730483229.250,-51.270,-76.660,-46.387,-201.660,1.000
1626294730487135.500,-108.398,-30.762,-53.223,-50.781,1.000
1626294730491041.750,-26.367,-15.137,-33.203,121.094,1.000
1626294730494948.000,48.340,5.371,-46.875,9.766,1.000
1626294730498854.250,-8.301,-17.578,-62.988,-181.152,1.000
1626294730502760.500,-80.078,-13.672,-27.344,-109.863,1.000
1626294730506666.750,-52.734,-26.367,-6.348,98.145,1.000
1626294730510573.000,24.414,-23.926,-9.766,60.547,1.000
1626294730514479.250,-6.348,-20.996,-29.297,-145.020,1.000
1626294730518385.500,-113.281,-53.711,-54.688,-127.930,1.000
1626294730522291.750,-94.727,-33.203,-33.691,88.379,1.000
1626294730526198.000,11.230,-16.113,-15.625,128.418,1.000
1626294730530104.250,38.574,-14.160,-26.367,1.000,1.000
1626294730534010.500,-70.801,-68.848,-58.105,1.000,1.000
1626294730537916.750,-106.445,-73.242,-51.758,1.000,1.000
1626294730541823.000,-6.836,-28.320,-25.391,1.000,1.000
1626294730545729.250,39.062,-23.926,-22.949,1.000,1.000
1626294730549635.500,-17.578,-18.066,-32.227,1.000,1.000
1626294730553541.750,-119.629,-116.211,-84.473,1.000,1.000
1626294730557448.000,-65.918,-92.773,-63.477,1.000,1.000
1626294730561354.250,32.227,-6.348,-20.508,1.000,1.000
1626294730565260.500,-10.254,-11.719,-27.344,1.000,1.000
1626294730569166.750,-83.008,-17.578,-28.320,1.000,1.000
1626294730573073.000,-74.219,-30.273,-41.016,1.000,1.000
1626294730576979.250,-61.035,-22.461,-17.578,-131.836,1.000
1626294730580885.500,-112.793,-45.410,-41.504,-158.203,1.000
1626294730584791.750,-15.625,-59.570,-28.320,57.617,1.000
1626294730588698.000,64.453,-30.273,-10.742,137.695,1.000
1626294730592604.250,-21.484,-39.551,-25.879,-68.848,1.000
1626294730596510.500,-100.098,-32.715,-33.203,-168.945,1.000
1626294730600416.750,-58.594,-44.922,-51.270,-18.555,1.000
1626294730604323.000,25.391,-16.602,-33.691,107.910,1.000
1626294730608229.250,-10.742,-20.508,-26.367,-29.297,1.000
1626294730612135.500,-78.125,-35.156,-40.527,-168.945,1.000
1626294730616041.750,-39.062,-14.160,-31.738,-38.574,1.000
1626294730619948.000,2.930,-78.125,-48.340,102.051,1.000
1626294730623854.250,8.301,-50.293,-30.762,36.133,1.000
1626294730627760.500,-66.895,-31.250,-10.742,-150.391,1.000
1626294730631666.750,-79.590,-23.438,-26.855,-118.652,1.000
1626294730635573.000,14.160,-32.227,-27.344,86.914,1.000
1626294730639479.250,19.531,-98.633,-24.414,58.105,1.000
1626294730643385.500,-73.242,-56.641,-28.320,-148.926,1.000
1626294730647291.750,-102.539,-28.320,-31.250,-166.016,1.000
1626294730651198.000,1.953,-12.695,-14.160,53.223,1.000
1626294730655104.250,57.129,-6.348,-16.113,125.000,1.000
1626294730659010.500,-28.809,-32.227,-36.133,-78.125,1.000
1626294730662916.750,-104.980,-19.043,-36.621,-188.965,1.000
1626294730666823.000,-50.293,-9.766,-36.621,-23.926,1.000
1626294730670729.250,41.992,8.301,-32.715,1.000,1.000
1626294730674635.500,-18.066,-54.199,-31.738,1.000,1.000
1626294730678541.750,-119.629,-93.750,-37.598,1.000,1.000
1626294730682448.000,-67.383,-29.785,-25.879,1.000,1.000
1626294730686354.250,37.598,-21.973,-9.277,1.000,1.000
1626294730690260.500,37.598,-15.625,-11.230,1.000,1.000
1626294730694166.750,-77.637,-72.754,-48.828,1.000,1.000
1626294730698073.000,-103.516,-76.172,-46.387,1.000,1.000
1626294730701979.250,1.465,-26.367,-38.086,1.000,1.000
1626294730705885.500,27.344,-19.531,-40.527,1.000,1.000
1626294730709791.750,-68.359,-21.484,-40.039,1.000,1.000
1626294730713698.000,-126.953,-64.941,-47.852,1.000,1.000
1626294730717604.250,-107.422,-46.387,-65.918,-147.461,1.000
1626294730721510.500,-80.566,-18.555,-28.320,65.918,1.000
1626294730725416.750,25.391,-4.395,-15.625,78.613,1.000
1626294730729323.000,27.344,-17.090,-35.156,-115.723,1.000
1626294730733229.250,-84.473,-55.176,-58.594,-177.246,1.000
1626294730737135.500,-97.656,-26.855,-45.410,22.949,1.000
1626294730741041.750,-9.766,-15.137,-16.113,112.793,1.000
1626294730744948.000,46.875,-15.137,-3.906,-68.848,1.000
1626294730748854.250,-28.809,-26.855,-17.090,-195.801,1.000
1626294730752760.500,-102.051,-41.504,-42.969,-46.875,1.000
1626294730756666.750,-18.066,-5.371,-14.648,124.023,1.000
1626294730760573.000,52.246,4.395,1.953,-12.207,1.000
1626294730764479.250,-7.324,-25.879,-21.973,1.000,1.000
1626294730768385.500,-93.262,-50.293,-31.250,1.000,1.000
1626294730772291.750,-68.848,-46.875,-35.645,1.000,1.000
1626294730776198.000,25.391,-29.785,-50.293,1.000,1.000
1626294730780104.250,22.949,-18.555,-45.898,1.000,1.000
1626294730784010.500,-77.148,-20.020,-21.973,1.000,1.000
1626294730787916.750,-99.121,-55.176,-31.250,1.000,1.000
1626294730791823.000,3.418,-20.020,-32.715,1.000,1.000
1626294730795729.250,23.926,0.488,-25.879,1.000,1.000
1626294730799635.500,-46.875,-6.836,-23.926,1.000,1.000
1626294730803541.750,-78.613,-9.766,-25.879,1.000,1.000
1626294730807448.000,-32.715,-91.309,-45.898,1.000,1.000
1626294730811354.250,-85.938,-30.273,-34.180,-175.781,1.000
1626294730815260.500,-55.176,-43.945,-44.434,-43.457,1.000
1626294730819166.750,16.113,-53.711,-40.039,114.746,1.000
1626294730823073.000,2.930,-14.648,-43.945,21.973,1.000
1626294730826979.250,-78.125,-17.090,-54.199,-167.480,1.000
1626294730830885.500,-54.199,-7.324,-10.254,-86.426,1.000
1626294730834791.750,31.250,-44.922,-7.812,109.863,1.000
1626294730838698.000,22.949,-53.223,-26.855,56.152,1.000
1626294730842604.250,-75.195,-40.039,-36.133,-161.133,1.000
1626294730846510.500,-92.773,-26.855,-41.992,-159.668,1.000
1626294730850416.750,2.441,-6.348,-22.461,62.500,1.000
1626294730854323.000,29.785,-44.922,-26.367,105.957,1.000
1626294730858229.250,-28.320,-20.020,-32.715,1.000,1.000
1626294730862135.500,-62.500,9.766,-20.996,1.000,1.000
1626294730866041.750,-0.488,-0.488,-13.672,1.000,1.000
1626294730869948.000,55.176,-25.879,-31.738,1.000,1.000
1626294730873854.250,-17.578,-65.430,-57.617,1.000,1.000
1626294730877760.500,-95.215,-33.203,-42.480,1.000,1.000
1626294730881666.750,-50.293,-5.859,-34.668,1.000,1.000
1626294730885573.000,43.457,3.418,-25.879,1.000,1.000
1626294730889479.250,15.137,-35.156,-22.461,1.000,1.000
1626294730893385.500,-93.750,-77.148,-32.715,1.000,1.000
1626294730897291.750,-79.590,-46.875,-33.203,1.000,1.000
1626294730901198.000,20.996,-34.180,-29.297,1.000,1.000
1626294730905104.250,35.645,-13.672,-18.555,1.000,1.000
1626294730909010.500,-67.383,-49.316,-26.367,1.000,1.000
1626294730912916.750,-101.074,-68.848,-23.438,1.000,1.000
1626294730916823.000,5.859,-17.090,9.766,1.000,1.000
1626294730920729.250,57.129,15.137,6.348,1.000,1.000
1626294730924635.500,-25.879,31.738,-28.320,1.000,1.000
1626294730928541.750,-119.629,-45.898,-64.453,1.000,1.000
1626294730932448.000,-62.012,-59.570,-47.363,1.000,1.000
1626294730936354.250,27.832,-9.277,-27.344,1.000,1.000
1626294730940260.500,-6.348,-21.973,-37.598,1.000,1.000
1626294730944166.750,-82.031,-47.852,-46.387,1.000,1.000
1626294730948073.000,-71.777,-66.406,-38.574,1.000,1.000
1626294730951979.250,-67.871,-22.461,-18.066,-135.742,1.000
1626294730955885.500,-90.332,-27.344,-32.715,-137.207,1.000
1626294730959791.750,-9.277,-37.109,-26.855,59.082,1.000
1626294730963698.000,26.367,-20.508,0.977,99.609,1.000
1626294730967604.250,-48.828,-29.785,1.465,-85.449,1.000
1626294730971510.500,-106.445,-29.785,-10.742,-175.293,1.000
1626294730975416.750,-67.871,-98.633,-41.016,-17.090,1.000
1626294730979323.000,10.254,-83.008,-33.691,121.582,1.000
1626294730983229.250,-28.320,-30.762,-18.066,-33.203,1.000
1626294730987135.500,-107.422,-46.387,-17.578,-194.336,1.000
1626294730991041.750,-74.707,-45.898,-40.039,-70.312,1.000
1626294730994948.000,-17.090,-92.285,-67.871,88.379,1.000
1626294730998854.250,-20.996,-72.266,-43.945,1.000,1.000
1626294731002760.500,-83.496,-30.762,-17.578,1.000,1.000
1626294731006666.750,-76.660,-18.066,0.488,1.000,1.000
1626294731010573.000,-2.441,-24.414,-17.578,1.000,1.000
1626294731014479.250,-9.766,-69.336,-41.992,1.000,1.000
1626294731018385.500,-80.566,-44.434,-13.672,1.000,1.000
1626294731022291.750,-114.746,-38.574,-18.555,1.000,1.000
1626294731026198.000,-43.945,-56.641,-39.551,1.000,1.000
1626294731030104.250,5.859,-52.246,-43.457,1.000,1.000
1626294731034010.500,-65.430,-54.199,-54.688,1.000,1.000
1626294731037916.750,-106.934,-38.086,-38.574,1.000,1.000
1626294731041823.000,-41.504,-21.484,-20.508,1.000,1.000
1626294731045729.250,27.344,-12.207,-14.160,1.000,1.000
1626294731049635.500,-18.066,-51.270,-25.879,1.000,1.000
1626294731053541.750,-95.703,-64.941,-25.391,1.000,1.000
1626294731057448.000,-53.223,-11.230,-11.230,1.000,1.000
1626294731061354.250,23.926,-0.488,-18.066,1.000,1.000
1626294731065260.500,14.160,3.906,-34.668,1.000,1.000
1626294731069166.750,-82.520,-46.387,-65.430,1.000,1.000
1626294731073073.000,-94.727,-78.613,-53.223,1.000,1.000
1626294731076979.250,-12.207,-56.152,-27.832,1.000,1.000
1626294731080885.500,18.555,-19.531,-22.949,1.000,1.000
1626294731084791.750,-58.105,-23.438,-41.016,1.000,1.000
1626294731088698.000,-133.789,-104.980,-70.801,1.000,1.000
1626294731092604.250,-99.609,-17.090,-62.988,-135.742,1.000
1626294731096510.500,-86.914,-2.441,-34.668,70.801,1.000
1626294731100416.750,39.062,15.137,13.184,102.539,1.000
1626294731104323.000,54.199,-3.418,0.488,-95.215,1.000
1626294731108229.250,-85.938,-60.059,-64.453,-175.293,1.000
1626294731112135.500,-105.957,-39.062,-40.039,20.508,1.000
1626294731116041.750,8.301,-16.113,-4.395,113.770,1.000
1626294731119948.000,46.387,-34.180,-20.996,-44.922,1.000
1626294731123854.250,-39.062,-45.410,-34.180,-153.320,1.000
1626294731127760.500,-99.121,-40.039,-59.570,-22.461,1.000
1626294731131666.750,-22.949,-17.090,-58.105,117.188,1.000
1626294731135573.000,52.246,-14.648,-22.949,-8.301,1.000
1626294731139479.250,13.672,-3.418,-13.672,1.000,1.000
1626294731143385.500,-81.055,-17.578,-40.527,1.000,1.000
1626294731147291.750,-67.871,-35.645,-39.062,1.000,1.000
1626294731151198.000,20.996,-16.602,-14.648,1.000,1.000
1626294731155104.250,2.441,-7.324,-16.602,1.000,1.000
1626294731159010.500,-76.172,-11.230,-21.973,1.000,1.000
1626294731162916.750,-95.215,-111.816,-57.129,1.000,1.000
1626294731166823.000,-2.930,-103.027,-44.922,1.000,1.000
1626294731170729.250,34.668,-14.160,-23.438,1.000,1.000
1626294731174635.500,-52.734,-0.488,-37.109,1.000,1.000
1626294731178541.750,-94.727,-5.371,-49.316,1.000,1.000
1626294731182448.000,-32.715,-38.086,-68.359,1.000,1.000
1626294731186354.250,-59.570,8.789,-32.227,-162.598,1.000
1626294731190260.500,-50.781,-36.133,-54.199,-56.641,1.000
1626294731194166.750,-1.465,-63.965,-62.500,67.871,1.000
1626294731198073.000,6.348,-1.953,-29.297,-1.953,1.000
1626294731201979.250,-80.566,0.488,-32.227,-191.895,1.000
1626294731205885.500,-79.590,-4.883,-22.949,-124.512,1.000
1626294731209791.750,-1.465,-66.406,-32.715,71.777,1.000
1626294731213698.000,18.555,-67.871,-35.645,56.641,1.000
1626294731217604.250,-50.781,-29.297,-25.879,-125.000,1.000
1626294731221510.500,-63.477,-14.648,-21.484,-128.906,1.000
1626294731225416.750,35.156,-1.953,-11.719,86.914,1.000
1626294731229323.000,32.715,-79.102,-38.086,110.840,1.000
1626294731233229.250,-55.176,-52.246,-46.387,1.000,1.000
1626294731237135.500,-94.727,-7.324,-45.410,1.000,1.000
1626294731241041.750,-17.090,7.324,-21.484,1.000,1.000
1626294731244948.000,34.668,-4.395,-18.066,1.000,1.000
1626294731248854.250,-58.594,-61.523,-63.965,1.000,1.000
1626294731252760.500,-104.004,-13.672,-38.574,1.000,1.000
1626294731256666.750,-42.480,-2.930,-12.207,1.000,1.000
1626294731260573.000,39.551,-18.066,-22.461,1.000,1.000
1626294731264479.250,4.883,-26.367,-46.387,1.000,1.000
1626294731268385.500,-108.887,-61.035,-57.617,1.000,1.000
1626294731272291.750,-98.633,-44.922,-21.973,1.000,1.000
1626294731276198.000,12.207,-7.812,0.000,1.000,1.000
1626294731280104.250,46.875,2.441,-5.859,1.000,1.000
1626294731284010.500,-67.383,-59.082,-34.180,1.000,1.000
1626294731287916.750,-119.629,-75.684,-58.105,1.000,1.000
1626294731291823.000,-9.766,-6.348,-27.344,1.000,1.000
1626294731295729.250,42.480,20.020,-6.348,1.000,1.000
1626294731299635.500,-40.039,14.648,-26.855,1.000,1.000
1626294731303541.750,-151.855,-51.758,-73.730,1.000,1.000
1626294731307448.000,-90.820,-48.340,-59.082,1.000,1.000
1626294731311354.250,10.742,-16.113,-26.855,1.000,1.000
1626294731315260.500,-31.738,-23.438,-47.363,1.000,1.000
1626294731319166.750,-98.633,-14.648,-49.316,1.000,1.000
1626294731323073.000,-60.547,-53.223,-22.461,1.000,1.000
1626294731326979.250,-31.250,8.301,-40.039,-109.863,1.000
1626294731330885.500,-88.867,-34.668,-48.828,-156.250,1.000
1626294731334791.750,-25.391,-73.242,-59.082,31.738,1.000
1626294731338698.000,54.199,-54.688,-8.301,119.629,1.000
1626294731342604.250,-11.719,-32.715,-0.488,-66.895,1.000
1626294731346510.500,-93.750,-18.555,-45.410,-178.711,1.000
1626294731350416.750,-63.965,-79.102,-78.613,-35.645,1.000
1626294731354323.000,30.273,-42.480,-52.246,108.398,1.000
1626294731358229.250,10.742,-3.906,-30.762,-15.137,1.000
1626294731362135.500,-67.871,-15.625,-23.926,-162.109,1.000
1626294731366041.750,-31.738,0.977,-41.992,-35.156,1.000
1626294731369948.000,10.254,-79.102,-93.262,97.656,1.000
1626294731373854.250,11.230,-64.453,-52.246,1.000,1.000
1626294731377760.500,-47.852,-15.625,-24.414,1.000,1.000
1626294731381666.750,-44.922,1.465,-10.742,1.000,1.000
1626294731385573.000,26.367,-2.930,-13.672,1.000,1.000
1626294731389479.250,8.301,-68.848,-50.293,1.000,1.000
1626294731393385.500,-48.340,-37.109,-40.527,1.000,1.000
1626294731397291.750,-67.383,-12.207,-26.367,1.000,1.000
1626294731401198.000,10.254,-8.789,0.000,1.000,1.000
1626294731405104.250,59.570,-14.160,-15.625,1.000,1.000
1626294731409010.500,-30.762,-69.824,-64.941,1.000,1.000
1626294731412916.750,-88.867,-28.809,-43.945,1.000,1.000
1626294731416823.000,-20.020,12.207,-0.488,1.000,1.000
1626294731420729.250,56.641,18.555,-3.906,1.000,1.000
1626294731424635.500,0.000,-11.230,-47.363,1.000,1.000
1626294731428541.750,-107.422,-37.109,-49.316,1.000,1.000
1626294731432448.000,-79.590,-17.578,-24.414,1.000,1.000
1626294731436354.250,24.414,-24.902,-7.812,1.000,1.000
1626294731440260.500,22.461,-36.133,-6.348,1.000,1.000
1626294731444166.750,-88.379,-77.637,-56.152,1.000,1.000
1626294731448073.000,-89.355,-47.363,-64.941,1.000,1.000
1626294731451979.250,15.137,-4.883,-32.715,1.000,1.000
1626294731455885.500,39.062,-12.695,-10.742,1.000,1.000
1626294731459791.750,-40.527,-25.391,-4.883,1.000,1.000
1626294731463698.000,-130.859,-112.793,-50.781,1.000,1.000
1626294731467604.250,-85.938,-35.645,-40.527,-190.430,1.000
1626294731471510.500,-74.219,-4.395,-36.621,-114.746,1.000
1626294731475416.750,28.809,-4.395,-4.883,114.746,1.000
1626294731479323.000,59.082,-21.484,-11.230,110.840,1.000
1626294731483229.250,-77.637,-111.328,-56.152,-146.973,1.000
1626294731487135.500,-98.145,-55.664,-19.531,-158.691,1.000
1626294731491041.750,-1.953,-11.230,-6.836,62.012,1.000
1626294731494948.000,43.945,-8.301,-17.090,119.629,1.000
1626294731498854.250,-28.320,-26.855,-22.461,-75.684,1.000
1626294731502760.500,-101.562,-72.266,-48.828,-188.965,1.000
1626294731506666.750,-6.348,4.883,-16.113,20.508,1.000
1626294731510573.000,68.359,27.344,-6.348,148.438,1.000
1626294731514479.250,0.488,-4.883,-24.414,1.000,1.000
1626294731518385.500,-103.027,-32.715,-24.902,1.000,1.000
1626294731522291.750,-88.867,-46.387,-20.508,1.000,1.000
1626294731526198.000,29.785,-9.766,-5.859,1.000,1.000
1626294731530104.250,18.555,-7.812,-24.902,1.000,1.000
1626294731534010.500,-91.797,-21.484,-46.875,1.000,1.000
1626294731537916.750,-129.883,-82.031,-70.312,1.000,1.000
1626294731541823.000,-11.719,-52.246,-37.598,1.000,1.000
1626294731545729.250,46.875,-10.254,-5.371,1.000,1.000
1626294731549635.500,-50.293,-19.043,-28.320,1.000,1.000
1626294731553541.750,-92.285,-31.250,-41.992,1.000,1.000
1626294731557448.000,-35.645,-90.820,-51.270,1.000,1.000
1626294731561354.250,-103.027,-38.086,-41.992,-192.383,1.000
1626294731565260.500,-72.266,-38.574,-54.199,-66.406,1.000
1626294731569166.750,21.973,-28.809,-58.594,110.352,1.000
1626294731573073.000,21.973,7.812,-46.875,33.691,1.000
1626294731576979.250,-80.566,-18.555,-49.805,-167.969,1.000
1626294731580885.500,-77.637,-26.855,-31.250,-104.980,1.000
1626294731584791.750,-0.488,-57.129,-31.250,90.820,1.000
1626294731588698.000,21.973,-44.922,-26.855,75.684,1.000
1626294731592604.250,-42.969,-8.789,-27.832,-112.793,1.000
1626294731596510.500,-71.289,-9.277,-31.250,-123.047,1.000
1626294731600416.750,9.277,-24.902,-10.742,75.195,1.000
1626294731604323.000,28.320,-97.656,-36.133,102.539,1.000
1626294731608229.250,-39.062,-70.312,-56.641,1.000,1.000
1626294731612135.500,-86.426,-20.996,-35.645,1.000,1.000
1626294731616041.750,-21.484,-4.883,-6.836,1.000,1.000
1626294731619948.000,47.363,-9.766,-19.531,1.000,1.000
1626294731623854.250,-33.203,-81.543,-70.312,1.000,1.000
1626294731627760.500,-100.098,-45.898,-51.758,1.000,1.000
1626294731631666.750,-41.992,-7.812,-10.742,1.000,1.000
1626294731635573.000,40.039,-6.836,-8.789,1.000,1.000
1626294731639479.250,17.578,-20.996,-17.090,1.000,1.000
1626294731643385.500,-82.031,-65.918,-36.133,1.000,1.000
1626294731647291.750,-67.383,-17.578,-31.250,1.000,1.000
1626294731651198.000,35.645,5.859,-0.488,1.000,1.000
1626294731655104.250,58.594,6.348,6.836,1.000,1.000
1626294731659010.500,-41.016,-33.691,-20.508,1.000,1.000
1626294731662916.750,-80.078,-72.266,-23.438,1.000,1.000
1626294731666823.000,14.648,-8.789,-15.137,1.000,1.000
1626294731670729.250,61.035,12.207,-24.902,1.000,1.000
1626294731674635.500,-16.602,3.418,-41.504,1.000,1.000
1626294731678541.750,-90.820,-47.363,-39.062,1.000,1.000
1626294731682448.000,-35.645,-36.621,-13.184,1.000,1.000
1626294731686354.250,48.340,12.695,-10.742,1.000,1.000
1626294731690260.500,9.277,-0.977,-22.461,1.000,1.000
1626294731694166.750,-83.496,-28.809,-22.949,1.000,1.000
1626294731698073.000,-67.871,-92.285,-20.020,1.000,1.000
1626294731701979.250,-109.863,-61.523,-42.480,-36.133,1.000
1626294731705885.500,-18.066,-3.418,-15.137,125.000,1.000
1626294731709791.750,74.219,5.371,4.395,9.766,1.000
1626294731713698.000,6.836,-6.836,-20.020,-149.902,1.000
1626294731717604.250,-104.004,-52.246,-52.734,-85.938,1.000
1626294731721510.500,-30.273,-2.930,-7.324,98.145,1.000
1626294731725416.750,67.871,19.043,-2.930,40.039,1.000
1626294731729323.000,12.207,-17.090,-34.668,-167.969,1.000
1626294731733229.250,-99.609,-43.457,-44.434,-129.395,1.000
1626294731737135.500,-98.145,-55.176,-47.852,92.285,1.000
1626294731741041.750,0.000,-10.254,-30.762,133.301,1.000
1626294731744948.000,23.438,-9.766,-13.184,-103.027,1.000
1626294731748854.250,-53.223,-13.184,-19.043,1.000,1.000
1626294731752760.500,-90.820,-25.391,-32.715,1.000,1.000
1626294731756666.750,-9.766,-42.969,-39.062,1.000,1.000
1626294731760573.000,52.734,0.000,-38.574,1.000,1.000
1626294731764479.250,-29.785,2.441,-33.691,1.000,1.000
1626294731768385.500,-111.328,-15.625,-32.715,1.000,1.000
1626294731772291.750,-65.430,-58.105,-41.504,1.000,1.000
1626294731776198.000,29.297,-34.180,-29.785,1.000,1.000
1626294731780104.250,-14.160,-4.883,-25.879,1.000,1.000
1626294731784010.500,-107.910,-38.086,-42.480,1.000,1.000
1626294731787916.750,-72.754,-36.621,-39.062,1.000,1.000
1626294731791823.000,20.508,-45.410,-25.879,1.000,1.000
1626294731795729.250,10.742,-34.668,-29.785,1.000,1.000
1626294731799635.500,-91.797,-30.762,-43.457,1.000,1.000
1626294731803541.750,-104.004,-18.555,-42.480,1.000,1.000
1626294731807448.000,-8.301,-3.906,-32.715,1.000,1.000
1626294731811354.250,3.418,-30.273,-41.992,1.000,1.000
1626294731815260.500,-102.051,-41.992,-63.477,1.000,1.000
1626294731819166.750,-138.184,-43.457,-66.895,1.000,1.000
1626294731823073.000,-34.668,-26.855,-33.203,1.000,1.000
1626294731826979.250,16.602,-42.480,-17.090,1.000,1.000
1626294731830885.500,-55.176,-63.965,-39.062,1.000,1.000
1626294731834791.750,-100.098,-32.715,-33.691,1.000,1.000
1626294731838698.000,-51.270,-30.762,-27.832,1.000,1.000
1626294731842604.250,18.555,-33.203,-32.715,1.000,1.000
1626294731846510.500,-9.277,-47.363,-37.598,1.000,1.000
1626294731850416.750,-100.586,-57.617,-54.688,1.000,1.000
1626294731854323.000,-74.219,-36.133,-36.133,1.000,1.000
1626294731858229.250,18.555,-38.086,-19.043,1.000,1.000
1626294731862135.500,16.113,-9.766,-34.180,1.000,1.000
1626294731866041.750,-89.355,-55.176,-68.848,1.000,1.000
1626294731869948.000,-101.562,-62.012,-64.941,1.000,1.000
1626294731873854.250,3.418,-16.602,-32.227,1.000,1.000
1626294731877760.500,43.945,-11.230,-20.508,1.000,1.000
1626294731881666.750,-43.457,-27.344,-37.109,1.000,1.000
1626294731885573.000,-96.680,-83.496,-39.551,1.000,1.000
1626294731889479.250,-105.957,-51.270,-72.266,-144.043,1.000
1626294731893385.500,-89.844,-25.879,-60.059,60.547,1.000
1626294731897291.750,17.578,-11.719,-36.133,104.004,1.000
1626294731901198.000,21.973,-21.973,-36.621,-83.496,1.000
1626294731905104.250,-88.867,-84.961,-47.363,-150.391,1.000
1626294731909010.500,-101.562,-58.105,-30.273,41.992,1.000
1626294731912916.750,-15.625,-30.762,-33.691,106.445,1.000
1626294731916823.000,20.996,-29.785,-33.203,-78.613,1.000
1626294731920729.250,-48.340,-32.715,-26.367,-206.543,1.000
1626294731924635.500,-128.906,-88.867,-57.617,-64.453,1.000
1626294731928541.750,-55.664,-62.988,-50.293,112.793,1.000
1626294731932448.000,40.039,-14.160,-28.809,-1.465,1.000
1626294731936354.250,-16.602,-19.043,-50.293,1.000,1.000
1626294731940260.500,-113.281,-36.133,-67.871,1.000,1.000
1626294731944166.750,-82.031,-32.227,-60.547,1.000,1.000
1626294731948073.000,24.414,0.977,-35.156,1.000,1.000
1626294731951979.250,12.207,-10.254,-30.762,1.000,1.000
1626294731955885.500,-73.242,-33.691,-34.668,1.000,1.000
1626294731959791.750,-84.961,-68.848,-39.551,1.000,1.000
1626294731963698.000,33.203,-46.387,-21.484,1.000,1.000
1626294731967604.250,97.168,-2.930,2.441,1.000,1.000
1626294731971510.500,-9.277,-9.766,-20.020,1.000,1.000
1626294731975416.750,-82.520,-28.320,-29.297,1.000,1.000
1626294731979323.000,-19.531,-48.828,-23.438,1.000,1.000
1626294731983229.250,-104.980,-46.387,-45.898,-180.664,1.000
1626294731987135.500,-51.758,-58.105,-22.949,-44.434,1.000
1626294731991041.750,30.762,-56.152,-18.066,123.047,1.000
1626294731994948.000,22.949,-14.648,-27.344,43.945,1.000
1626294731998854.250,-49.805,-3.906,-39.062,-135.742,1.000
1626294732002760.500,-69.824,-5.371,-40.527,-104.004,1.000
1626294732006666.750,-25.391,-48.828,-44.434,54.199,1.000
1626294732010573.000,-9.277,-64.453,-41.016,38.574,1.000
1626294732014479.250,-99.121,-34.668,-36.133,-173.828,1.000
1626294732018385.500,-129.883,-17.578,-39.062,-197.266,1.000
1626294732022291.750,-17.090,-11.719,-16.602,41.016,1.000
1626294732026198.000,30.273,-69.824,-10.742,103.516,1.000
1626294732030104.250,-49.805,-48.828,-29.297,1.000,1.000
1626294732034010.500,-124.512,-22.949,-36.133,1.000,1.000
1626294732037916.750,-62.012,-41.016,-40.039,1.000,1.000
1626294732041823.000,19.531,-36.133,-39.551,1.000,1.000
1626294732045729.250,-41.016,-51.758,-41.504,1.000,1.000
1626294732049635.500,-127.441,-29.297,-34.180,1.000,1.000
1626294732053541.750,-93.750,-20.020,-15.625,1.000,1.000
1626294732057448.000,9.277,0.000,-6.348,1.000,1.000
1626294732061354.250,-6.348,-13.184,-35.645,1.000,1.000
1626294732065260.500,-105.469,-59.570,-44.922,1.000,1.000
1626294732069166.750,-90.820,-14.160,-33.203,1.000,1.000
1626294732073073.000,11.230,0.488,-25.879,1.000,1.000
1626294732076979.250,36.621,-8.301,-16.602,1.000,1.000
1626294732080885.500,-73.730,-53.711,-55.176,1.000,1.000
1626294732084791.750,-126.465,-111.816,-74.707,1.000,1.000
1626294732088698.000,-38.086,-68.359,-42.480,1.000,1.000
1626294732092604.250,17.578,-25.879,-23.438,1.000,1.000
1626294732096510.500,-38.086,-3.906,-12.695,1.000,1.000
1626294732100416.750,-125.000,-59.570,-26.855,1.000,1.000
1626294732104323.000,-82.031,-64.941,-32.715,1.000,1.000
1626294732108229.250,0.000,-15.625,-37.109,1.000,1.000
1626294732112135.500,-28.320,-8.789,-41.992,1.000,1.000
1626294732116041.750,-97.656,-10.254,-39.551,1.000,1.000
1626294732119948.000,-101.562,-89.355,-72.754,1.000,1.000
1626294732123854.250,-105.469,-46.387,-34.668,-21.484,1.000
1626294732127760.500,-33.203,8.301,-9.277,144.043,1.000
1626294732131666.750,42.969,11.719,-11.230,15.625,1.000
1626294732135573.000,-4.883,-25.391,-23.438,-178.223,1.000
1626294732139479.250,-114.258,-107.910,-59.570,-106.445,1.000
1626294732143385.500,-72.266,-69.336,-55.176,101.074,1.000
1626294732147291.750,26.367,-41.016,-30.273,55.664,1.000
1626294732151198.000,2.441,-19.043,-26.367,-151.855,1.000
1626294732155104.250,-99.609,-29.297,-41.504,-138.184,1.000
1626294732159010.500,-102.051,-73.242,-61.523,84.961,1.000
1626294732162916.750,8.301,-16.113,-37.598,121.094,1.000
1626294732166823.000,23.438,-9.277,-14.160,-108.398,1.000
1626294732170729.250,-84.961,-36.133,-28.320,1.000,1.000
1626294732174635.500,-123.047,-51.270,-41.016,1.000,1.000
1626294732178541.750,-34.180,-66.895,-36.621,1.000,1.000
1626294732182448.000,14.160,-38.574,-41.992,1.000,1.000
1626294732186354.250,-54.688,-36.133,-46.875,1.000,1.000
1626294732190260.500,-110.352,-38.086,-40.527,1.000,1.000
1626294732194166.750,-47.363,-96.680,-33.203,1.000,1.000
1626294732198073.000,48.828,-78.613,-7.812,1.000,1.000
1626294732201979.250,-0.488,-13.672,-23.926,1.000,1.000
1626294732205885.500,-109.863,-22.461,-57.129,1.000,1.000
1626294732209791.750,-87.402,-20.996,-38.574,1.000,1.000
1626294732213698.000,3.418,-68.848,-26.367,1.000,1.000
1626294732217604.250,17.090,-29.297,-12.207,1.000,1.000
1626294732221510.500,-68.848,-2.441,-19.531,1.000,1.000
1626294732225416.750,-77.148,-22.949,-25.879,1.000,1.000
1626294732229323.000,16.113,-25.879,-18.066,1.000,1.000
1626294732233229.250,38.086,-42.969,-34.180,1.000,1.000
1626294732237135.500,-42.480,-3.906,-47.852,1.000,1.000
1626294732241041.750,-75.195,-9.277,-44.922,1.000,1.000
1626294732244948.000,22.949,-27.344,-14.648,1.000,1.000
1626294732248854.250,65.918,-33.691,-6.836,1.000,1.000
1626294732252760.500,-32.227,-59.570,-30.273,1.000,1.000
1626294732256666.750,-92.285,-30.273,-32.227,1.000,1.000
1626294732260573.000,-44.922,-14.648,-25.391,1.000,1.000
1626294732264479.250,16.602,-9.766,-24.902,111.328,1.000
1626294732268385.500,-10.254,-25.879,-29.785,-17.578,1.000
1626294732272291.750,-79.590,-38.086,-39.551,-177.246,1.000
1626294732276198.000,-44.922,-8.301,-33.691,-68.359,1.000
1626294732280104.250,42.480,-10.254,-25.879,122.070,1.000
1626294732284010.500,38.574,-17.090,-24.902,70.312,1.000
1626294732287916.750,-69.824,-57.617,-42.480,-155.273,1.000
1626294732291823.000,-93.750,-55.664,-37.598,-157.715,1.000
1626294732295729.250,11.719,-20.020,0.000,70.801,1.000
1626294732299635.500,36.621,-21.484,-3.418,93.262,1.000
1626294732303541.750,-66.895,-41.504,-44.434,-130.371,1.000
1626294732307448.000,-126.953,-85.449,-67.383,-199.707,1.000
1626294732311354.250,-78.125,-45.410,-46.387,-172.363,1.000
1626294732315260.500,-61.523,-4.883,-27.344,40.527,1.000
1626294732319166.750,26.855,-17.090,-18.066,91.797,1.000
1626294732323073.000,35.645,-28.809,-30.273,-101.562,1.000
1626294732326979.250,-61.035,-45.410,-48.340,-181.152,1.000
1626294732330885.500,-73.730,-17.090,-40.527,16.602,1.000
1626294732334791.750,21.973,0.488,-18.555,129.395,1.000
1626294732338698.000,49.316,3.906,-24.902,-32.715,1.000
1626294732342604.250,-43.945,-22.949,-35.645,-169.434,1.000
1626294732346510.500,-102.051,-72.266,-27.832,-27.344,1.000
1626294732350416.750,-15.137,-19.043,-0.977,155.273,1.000
1626294732354323.000,52.734,7.812,-12.695,40.039,1.000
1626294732358229.250,12.695,-3.418,-44.434,1.000,1.000
1626294732362135.500,-74.707,-41.016,-40.039,1.000,1.000
1626294732366041.750,-78.613,-72.754,-37.109,1.000,1.000
1626294732369948.000,16.113,-26.367,-27.344,1.000,1.000
1626294732373854.250,13.672,-19.043,-20.508,1.000,1.000
1626294732377760.500,-75.684,-19.043,-35.645,1.000,1.000
1626294732381666.750,-77.148,-60.547,-34.180,1.000,1.000
1626294732385573.000,20.996,-70.801,-0.488,1.000,1.000
1626294732389479.250,39.062,-34.668,-11.230,1.000,1.000
1626294732393385.500,-43.945,-27.344,-29.785,1.000,1.000
1626294732397291.750,-86.426,-17.578,-20.508,1.000,1.000
1626294732401198.000,-15.137,-61.035,-21.973,1.000,1.000
1626294732405104.250,-93.262,-23.438,-44.922,-175.781,1.000
1626294732409010.500,-53.223,-27.832,-19.531,-48.340,1.000
1626294732412916.750,45.410,-30.273,-28.320,137.695,1.000
1626294732416823.000,23.926,-4.883,-27.344,41.016,1.000
1626294732420729.250,-86.426,-44.922,-27.344,-168.457,1.000
1626294732424635.500,-84.961,-55.176,-31.738,-111.328,1.000
1626294732428541.750,7.812,-71.289,-22.949,95.215,1.000
1626294732432448.000,20.996,-51.270,-20.020,82.520,1.000
1626294732436354.250,-73.242,-13.184,-32.715,-132.812,1.000
1626294732440260.500,-105.957,-14.648,-27.344,-162.598,1.000
1626294732444166.750,-11.719,-13.672,-20.020,51.758,1.000
1626294732448073.000,26.855,-67.871,-35.156,116.699,1.000
1626294732451979.250,-32.715,-58.594,-30.762,1.000,1.000
1626294732455885.500,-80.078,-21.973,-18.066,1.000,1.000
1626294732459791.750,-29.785,3.418,-20.508,1.000,1.000
1626294732463698.000,29.297,-10.254,-31.250,1.000,1.000
1626294732467604.250,-21.484,-76.172,-46.875,1.000,1.000
1626294732471510.500,-83.008,-27.832,-42.480,1.000,1.000
1626294732475416.750,-46.875,5.859,-33.203,1.000,1.000
1626294732479323.000,33.691,-11.719,-31.738,1.000,1.000
1626294732483229.250,-0.977,-44.922,-35.156,1.000,1.000
1626294732487135.500,-106.445,-75.195,-40.039,1.000,1.000
1626294732491041.750,-91.797,-33.691,-20.996,1.000,1.000
1626294732494948.000,17.090,-6.836,-8.789,1.000,1.000
1626294732498854.250,45.410,-7.324,-20.996,1.000,1.000
1626294732502760.500,-50.293,-52.246,-37.109,1.000,1.000
1626294732506666.750,-97.656,-70.312,-33.691,1.000,1.000
1626294732510573.000,-21.484,-32.227,-34.180,1.000,1.000
1626294732514479.250,33.691,-3.906,-37.109,1.000,1.000
1626294732518385.500,-21.484,14.160,-38.086,1.000,1.000
1626294732522291.750,-102.539,-43.457,-48.828,1.000,1.000
1626294732526198.000,-51.758,-49.316,-15.625,1.000,1.000
1626294732530104.250,48.340,-7.324,11.230,1.000,1.000
1626294732534010.500,10.742,-7.324,-7.324,1.000,1.000
1626294732537916.750,-80.078,-25.391,-25.391,1.000,1.000
1626294732541823.000,-62.988,-83.008,-30.273,1.000,1.000
1626294732545729.250,-83.496,-31.250,-11.719,-60.547,1.000
1626294732549635.500,-32.715,-1.465,-17.090,125.977,1.000
1626294732553541.750,37.109,-16.113,-19.043,27.344,1.000
1626294732557448.000,-17.090,-53.223,-22.461,-173.828,1.000
1626294732561354.250,-103.027,-69.336,-18.555,-82.520,1.000
1626294732565260.500,-70.312,-26.855,-17.578,116.211,1.000
1626294732569166.750,23.438,-1.465,-24.414,72.266,1.000
1626294732573073.000,11.719,-7.324,-29.297,-125.977,1.000
1626294732576979.250,-84.961,-28.320,-32.715,-119.629,1.000
1626294732580885.500,-80.078,-39.551,-38.086,82.520,1.000
1626294732584791.750,15.625,-6.348,-33.203,106.445,1.000
1626294732588698.000,28.809,-4.883,-38.086,-75.195,1.000
1626294732592604.250,-68.848,-27.344,-43.457,1.000,1.000
1626294732596510.500,-87.891,-44.922,-13.672,1.000,1.000
1626294732600416.750,15.625,-39.062,0.488,1.000,1.000
1626294732604323.000,46.387,-35.645,-38.574,1.000,1.000
1626294732608229.250,-52.246,-49.316,-49.316,1.000,1.000
1626294732612135.500,-131.348,-34.180,-39.551,1.000,1.000
1626294732616041.750,-69.336,-60.059,-42.969,1.000,1.000
1626294732619948.000,8.301,-56.641,-52.246,1.000,1.000
1626294732623854.250,-21.973,-22.949,-42.969,1.000,1.000
1626294732627760.500,-97.168,-17.578,-29.297,1.000,1.000
1626294732631666.750,-84.473,-34.668,-30.762,1.000,1.000
1626294732635573.000,-4.883,-96.680,-37.109,1.000,1.000
1626294732639479.250,-101.562,-55.176,-55.176,-149.414,1.000
1626294732643385.500,-95.215,-27.832,-55.664,69.824,1.000
1626294732647291.750,17.090,-1.465,-23.438,122.070,1.000
1626294732651198.000,31.250,-16.602,-15.625,-90.332,1.000
1626294732655104.250,-58.594,-65.918,-24.902,-191.895,1.000
1626294732659010.500,-87.402,-46.387,-25.879,5.371,1.000
1626294732662916.750,-18.066,-21.973,-30.273,135.742,1.000
1626294732666823.000,22.461,-20.996,-44.434,-34.668,1.000
1626294732670729.250,-42.480,-39.062,-38.086,-180.176,1.000
1626294732674635.500,-113.281,-62.012,-33.203,-55.176,1.000
1626294732678541.750,-51.270,-30.762,-25.879,110.352,1.000
1626294732682448.000,49.316,-1.953,-5.371,21.484,1.000
1626294732686354.250,-3.418,-30.273,-32.715,1.000,1.000
1626294732690260.500,-100.586,-66.895,-53.711,1.000,1.000
1626294732694166.750,-66.406,-59.082,-21.973,1.000,1.000
1626294732698073.000,37.598,-15.625,2.441,1.000,1.000
1626294732701979.250,27.344,0.977,-17.090,1.000,1.000
1626294732705885.500,-77.148,-3.418,-37.598,1.000,1.000
1626294732709791.750,-85.449,-32.227,-27.344,1.000,1.000
1626294732713698.000,2.441,-43.457,-19.531,1.000,1.000
1626294732717604.250,17.578,-28.809,-38.086,1.000,1.000
1626294732721510.500,-59.570,-42.969,-58.594,1.000,1.000
1626294732725416.750,-87.402,-57.617,-37.598,1.000,1.000
1626294732729323.000,-8.301,-66.406,-8.301,1.000,1.000
1626294732733229.250,-88.379,-31.250,-54.199,-188.965,1.000
1626294732737135.500,-46.875,-26.855,-50.781,-61.523,1.000
1626294732741041.750,40.527,-28.320,-19.043,129.395,1.000
1626294732744948.000,28.320,-15.625,-10.254,51.270,1.000
1626294732748854.250,-74.707,-19.043,-37.598,-157.227,1.000
1626294732752760.500,-85.938,-13.184,-27.344,-119.629,1.000
1626294732756666.750,9.766,-39.062,-4.883,92.285,1.000
1626294732760573.000,49.316,-50.293,-3.906,106.445,1.000
1626294732764479.250,-25.391,-24.902,-15.137,-91.797,1.000
1626294732768385.500,-85.449,-30.273,-40.039,-148.926,1.000
1626294732772291.750,-24.902,-16.602,-33.691,35.156,1.000
1626294732776198.000,27.344,-35.645,-19.043,111.816,1.000
1626294732780104.250,-37.598,-34.180,-41.504,-76.172,1.000
1626294732784010.500,-105.957,-25.879,-41.016,-192.871,1.000
1626294732787916.750,-58.594,-31.738,-27.832,-34.668,1.000
1626294732791823.000,22.949,-18.555,-30.762,114.746,1.000
1626294732795729.250,-9.766,-40.527,-32.227,-17.090,1.000
1626294732799635.500,-98.145,-32.715,-29.785,-185.059,1.000
1626294732803541.750,-64.941,-10.742,-22.949,-64.453,1.000
1626294732807448.000,26.367,-10.742,-15.137,117.188,1.000
1626294732811354.250,25.391,-20.508,-15.137,48.828,1.000
1626294732815260.500,-53.223,-26.855,-30.273,-140.137,1.000
1626294732819166.750,-68.848,-21.484,-42.480,-118.164,1.000
1626294732823073.000,13.184,-16.602,-21.484,79.102,1.000
1626294732826979.250,41.016,-3.418,-32.227,1.000,1.000
1626294732830885.500,-52.734,-25.879,-71.289,1.000,1.000
1626294732834791.750,-106.445,-45.898,-54.199,1.000,1.000
1626294732838698.000,-17.578,-11.230,-17.578,1.000,1.000
1626294732842604.250,43.457,-10.742,-2.441,1.000,1.000
1626294732846510.500,-33.691,-34.668,-10.742,1.000,1.000
1626294732850416.750,-114.746,-57.129,-35.645,1.000,1.000
1626294732854323.000,-61.523,-61.523,-38.574,1.000,1.000
1626294732858229.250,33.691,-26.855,-23.438,1.000,1.000
1626294732862135.500,15.137,-6.836,-29.785,1.000,1.000
1626294732866041.750,-87.891,-18.555,-50.293,1.000,1.000
1626294732869948.000,-72.266,-45.898,-37.109,1.000,1.000
1626294732873854.250,-90.332,-39.062,-28.809,-50.781,1.000
1626294732877760.500,-41.016,-48.340,-44.922,128.418,1.000
1626294732881666.750,39.551,-48.340,-32.715,21.484,1.000
1626294732885573.000,-21.484,-48.340,-32.715,-185.059,1.000
1626294732889479.250,-104.980,-50.293,-42.969,-124.023,1.000
1626294732893385.500,-58.105,-10.254,-49.316,93.750,1.000
1626294732897291.750,23.926,-10.742,-45.410,76.172,1.000
1626294732901198.000,6.836,-23.438,-34.180,-136.719,1.000
1626294732905104.250,-82.031,-42.969,-29.785,-159.180,1.000
1626294732909010.500,-83.008,-58.105,-19.531,55.176,1.000
1626294732912916.750,16.602,-21.484,-20.020,110.840,1.000
1626294732916823.000,33.203,-23.926,-28.320,-70.312,1.000
1626294732920729.250,-59.570,-30.273,-43.457,1.000,1.000
1626294732924635.500,-91.797,-33.203,-64.453,1.000,1.000
1626294732928541.750,-8.789,-66.406,-47.363,1.000,1.000
1626294732932448.000,39.551,-51.758,-18.066,1.000,1.000
1626294732936354.250,-41.016,-32.715,-24.902,1.000,1.000
1626294732940260.500,-106.934,-17.090,-42.480,1.000,1.000
1626294732944166.750,-36.133,-22.461,-31.250,1.000,1.000
1626294732948073.000,36.621,-36.133,-8.789,1.000,1.000
1626294732951979.250,-22.949,-40.039,-22.461,1.000,1.000
1626294732955885.500,-101.074,-36.621,-34.668,1.000,1.000
1626294732959791.750,-61.035,-17.090,-25.879,1.000,1.000
1626294732963698.000,26.367,-30.762,-26.367,1.000,1.000
1626294732967604.250,-102.539,-23.438,-30.762,-152.344,1.000
1626294732971510.500,-26.855,-13.672,-40.039,52.734,1.000
1626294732975416.750,13.672,-38.086,-36.621,107.910,1.000
1626294732979323.000,-44.434,-40.039,-19.531,-69.824,1.000
1626294732983229.250,-97.168,-36.621,-22.461,-159.180,1.000
1626294732987135.500,-25.879,-12.207,-31.250,10.742,1.000
1626294732991041.750,49.316,-22.461,-23.926,144.531,1.000
1626294732994948.000,-3.906,-41.016,-13.672,-6.348,1.000
1626294732998854.250,-101.562,-46.387,-23.438,-186.523,1.000
1626294733002760.500,-75.195,-49.316,-31.738,-75.195,1.000
1626294733006666.750,15.625,-31.250,-35.645,106.445,1.000
1626294733010573.000,-20.020,-61.035,-50.293,8.301,1.000
1626294733014479.250,-104.004,-52.734,-40.527,1.000,1.000
1626294733018385.500,-76.660,-28.320,-17.578,1.000,1.000
1626294733022291.750,20.996,-21.484,-6.348,1.000,1.000
1626294733026198.000,23.926,-33.203,-31.738,1.000,1.000
1626294733030104.250,-83.984,-73.242,-51.270,1.000,1.000
1626294733034010.500,-100.586,-30.273,-31.250,1.000,1.000
1626294733037916.750,-13.184,-12.207,-10.254,1.000,1.000
1626294733041823.000,40.527,-31.738,0.000,1.000,1.000
1626294733045729.250,-25.879,-46.875,-16.113,1.000,1.000
1626294733049635.500,-125.488,-74.707,-48.340,1.000,1.000
1626294733053541.750,-58.594,-30.273,-27.832,1.000,1.000
1626294733057448.000,31.738,-2.441,-5.371,1.000,1.000
1626294733061354.250,-12.207,-19.043,-18.555,1.000,1.000
1626294733065260.500,-110.840,-62.500,-55.176,1.000,1.000
1626294733069166.750,-95.703,-72.266,-60.547,1.000,1.000
1626294733073073.000,17.578,-27.832,-29.785,1.000,1.000
1626294733076979.250,10.254,-33.203,-42.480,1.000,1.000
1626294733080885.500,-75.195,-34.668,-46.387,1.000,1.000
1626294733084791.750,-103.516,-63.965,-42.969,1.000,1.000
1626294733088698.000,-23.438,-46.875,-41.992,1.000,1.000
1626294733092604.250,27.344,-13.184,-20.020,1.000,1.000
1626294733096510.500,-60.547,-20.020,-21.484,1.000,1.000
1626294733100416.750,-102.051,-24.902,-37.109,1.000,1.000
1626294733104323.000,-44.922,-95.703,-43.945,1.000,1.000
1626294733108229.250,-101.074,-24.902,-42.480,-187.500,1.000
1626294733112135.500,-52.246,-21.484,-9.277,-59.082,1.000
1626294733116041.750,37.109,-26.855,-14.648,121.582,1.000
1626294733119948.000,9.277,-21.973,-47.363,30.273,1.000
1626294733123854.250,-85.938,-18.555,-40.527,-172.363,1.000
1626294733127760.500,-77.637,-9.766,-23.926,-105.469,1.000
1626294733131666.750,6.348,-3.906,-11.719,88.867,1.000
1626294733135573.000,41.016,-1.953,6.348,93.262,1.000
1626294733139479.250,-35.645,-19.043,-33.203,-100.586,1.000
1626294733143385.500,-96.191,-48.828,-65.430,-165.039,1.000
1626294733147291.750,-33.203,-55.176,-39.062,22.461,1.000
1626294733151198.000,2.441,-74.707,-32.715,83.496,1.000
1626294733155104.250,-57.129,-41.016,-29.297,1.000,1.000
1626294733159010.500,-111.328,-20.020,-25.879,1.000,1.000
1626294733162916.750,-46.387,-27.344,-13.672,1.000,1.000
1626294733166823.000,29.297,-34.668,-21.484,1.000,1.000
1626294733170729.250,-34.180,-76.660,-44.922,1.000,1.000
1626294733174635.500,-107.422,-24.902,-27.832,1.000,1.000
1626294733178541.750,-79.590,0.977,-32.715,1.000,1.000
1626294733182448.000,14.160,-14.160,-42.480,1.000,1.000
1626294733186354.250,24.902,-26.367,-35.156,1.000,1.000
1626294733190260.500,-73.730,-64.453,-42.480,1.000,1.000
1626294733194166.750,-87.891,-39.062,-41.016,1.000,1.000
1626294733198073.000,2.930,-19.043,-30.762,1.000,1.000
1626294733201979.250,38.086,-11.230,-19.531,1.000,1.000
1626294733205885.500,-37.598,-38.086,-12.207,1.000,1.000
1626294733209791.750,-101.562,-83.984,-24.902,1.000,1.000
1626294733213698.000,-41.016,-44.922,-29.785,1.000,1.000
1626294733217604.250,13.672,-15.137,-26.367,1.000,1.000
1626294733221510.500,-39.062,1.953,-24.414,1.000,1.000
1626294733225416.750,-114.258,-32.715,-38.574,1.000,1.000
1626294733229323.000,-61.523,-46.875,-36.621,1.000,1.000
1626294733233229.250,41.016,-16.602,-9.277,1.000,1.000
1626294733237135.500,10.254,-16.113,-4.395,1.000,1.000
1626294733241041.750,-91.309,-22.461,-31.738,1.000,1.000
1626294733244948.000,-111.816,-86.914,-50.781,1.000,1.000
1626294733248854.250,-133.301,-33.203,-55.664,-47.363,1.000
1626294733252760.500,-47.852,11.719,-26.367,125.488,1.000
1626294733256666.750,51.758,14.160,-12.207,8.301,1.000
1626294733260573.000,7.812,-21.484,-18.555,-173.340,1.000
1626294733264479.250,-98.633,-107.422,-46.875,-109.863,1.000
1626294733268385.500,-67.871,-74.219,-41.992,111.328,1.000
1626294733272291.750,17.578,-32.227,-20.508,88.379,1.000
1626294733276198.000,8.789,-0.977,-15.625,-141.113,1.000
1626294733280104.250,-77.637,-11.230,-31.250,-165.527,1.000
1626294733284010.500,-87.891,-45.410,-54.688,58.105,1.000
1626294733287916.750,11.230,-10.742,-40.039,123.047,1.000
1626294733291823.000,52.246,-3.906,-23.438,-110.840,1.000
1626294733295729.250,-30.273,3.418,-31.738,1.000,1.000
1626294733299635.500,-86.914,-25.879,-49.805,1.000,1.000
1626294733303541.750,-17.578,-56.641,-35.645,1.000,1.000
1626294733307448.000,53.711,-6.348,-4.883,1.000,1.000
1626294733311354.250,-8.301,-18.066,-21.484,1.000,1.000
1626294733315260.500,-83.984,-27.344,-43.457,1.000,1.000
1626294733319166.750,-38.574,-54.688,-49.805,1.000,1.000
1626294733323073.000,51.270,-62.988,-22.461,1.000,1.000
1626294733326979.250,18.555,-25.391,-20.508,1.000,1.000
1626294733330885.500,-75.684,-14.160,-36.621,1.000,1.000
1626294733334791.750,-59.082,-17.578,-25.879,1.000,1.000
1626294733338698.000,14.160,-57.129,-35.645,1.000,1.000
1626294733342604.250,-80.078,-45.898,-20.508,-145.508,1.000
1626294733346510.500,1.953,-17.578,-10.742,58.105,1.000
1626294733350416.750,49.316,-20.508,-5.371,119.141,1.000
1626294733354323.000,-29.297,-14.648,-23.438,-80.566,1.000
1626294733358229.250,-101.562,-24.902,-45.898,-188.965,1.000
1626294733362135.500,-39.062,-25.879,-36.133,-9.277,1.000
1626294733366041.750,45.410,-53.711,-26.367,130.859,1.000
1626294733369948.000,4.395,-53.223,-30.273,-14.648,1.000
1626294733373854.250,-81.055,-19.043,-47.363,-182.617,1.000
1626294733377760.500,-37.598,-3.906,-51.270,-59.570,1.000
1626294733381666.750,46.875,-2.441,-23.926,119.629,1.000
1626294733385573.000,15.625,-67.383,-24.902,27.344,1.000
1626294733389479.250,-67.383,-71.777,-39.062,1.000,1.000
1626294733393385.500,-66.895,-31.250,-11.719,1.000,1.000
1626294733397291.750,7.324,-34.180,4.883,1.000,1.000
1626294733401198.000,13.184,-52.246,-17.578,1.000,1.000
1626294733405104.250,-89.355,-91.309,-53.223,1.000,1.000
1626294733409010.500,-117.676,-36.133,-52.734,1.000,1.000
1626294733412916.750,-13.184,11.230,-19.531,1.000,1.000
1626294733416823.000,35.645,-16.113,-32.715,1.000,1.000
1626294733420729.250,-54.199,-37.598,-68.848,1.000,1.000
1626294733424635.500,-126.465,-63.477,-61.523,1.000,1.000
1626294733428541.750,-63.965,-48.340,-40.527,1.000,1.000
1626294733432448.000,14.648,-32.715,-39.551,1.000,1.000
1626294733436354.250,-7.324,-5.371,-24.414,1.000,1.000
1626294733440260.500,-105.469,-49.805,-30.273,1.000,1.000
1626294733444166.750,-104.492,-85.938,-58.594,1.000,1.000
1626294733448073.000,7.812,-28.809,-46.387,1.000,1.000
1626294733451979.250,3.418,-22.949,-38.086,1.000,1.000
1626294733455885.500,-95.215,-28.320,-46.875,1.000,1.000
1626294733459791.750,-124.512,-60.059,-57.617,1.000,1.000
1626294733463698.000,-31.250,-52.734,-52.246,1.000,1.000
1626294733467604.250,20.020,-21.973,-34.668,1.000,1.000
1626294733471510.500,-63.477,-46.875,-29.297,1.000,1.000
1626294733475416.750,-103.027,-49.316,-24.414,1.000,1.000
1626294733479323.000,-59.570,-90.820,-52.734,1.000,1.000
1626294733483229.250,-62.988,-49.316,-29.297,83.496,1.000
1626294733487135.500,17.578,9.766,-20.020,110.352,1.000
1626294733491041.750,17.090,6.836,-16.602,-103.027,1.000
1626294733494948.000,-82.520,-20.996,-45.898,-161.133,1.000
1626294733498854.250,-142.090,-91.797,-68.848,29.297,1.000
1626294733502760.500,-26.367,-33.203,-24.414,160.645,1.000
1626294733506666.750,38.574,-10.254,-11.719,-25.391,1.000
1626294733510573.000,-52.734,-48.828,-37.598,-216.797,1.000
1626294733514479.250,-117.188,-61.035,-27.832,-70.801,1.000
1626294733518385.500,-44.922,-73.242,-27.832,115.234,1.000
1626294733522291.750,38.086,-29.297,-34.180,21.973,1.000
1626294733526198.000,-14.648,-8.301,-31.250,-167.969,1.000
1626294733530104.250,-92.285,-3.418,-28.809,1.000,1.000
1626294733534010.500,-58.105,-11.719,-17.578,1.000,1.000
1626294733537916.750,37.109,-18.066,-15.137,1.000,1.000
1626294733541823.000,34.180,11.230,-9.277,1.000,1.000
1626294733545729.250,-80.078,-16.602,-29.785,1.000,1.000
1626294733549635.500,-97.168,-32.715,-31.250,1.000,1.000
1626294733553541.750,6.836,-4.883,-3.418,1.000,1.000
1626294733557448.000,47.363,-14.648,-6.348,1.000,1.000
1626294733561354.250,-44.434,-49.316,-30.762,1.000,1.000
1626294733565260.500,-98.145,-45.898,-36.133,1.000,1.000
1626294733569166.750,-17.090,-40.039,-23.438,1.000,1.000
1626294733573073.000,46.387,-41.016,-25.391,1.000,1.000
1626294733576979.250,-13.184,-34.180,-32.715,1.000,1.000
1626294733580885.500,-94.238,-21.973,-37.109,1.000,1.000
1626294733584791.750,-43.945,7.812,-20.508,1.000,1.000
1626294733588698.000,50.781,8.789,-8.789,1.000,1.000
1626294733592604.250,11.719,-20.508,-16.113,1.000,1.000
1626294733596510.500,-68.848,-14.648,0.000,1.000,1.000
1626294733600416.750,-35.645,-10.254,2.441,1.000,1.000
1626294733604323.000,40.527,-24.414,-25.391,1.000,1.000
1626294733608229.250,26.855,-16.113,-35.156,1.000,1.000
1626294733612135.500,-64.453,-11.719,-41.504,1.000,1.000
1626294733616041.750,-74.219,1.953,-33.203,1.000,1.000
1626294733619948.000,15.625,-2.441,-11.719,1.000,1.000
1626294733623854.250,42.969,-17.578,-6.836,1.000,1.000
1626294733627760.500,-59.570,-34.180,-35.645,1.000,1.000
1626294733631666.750,-119.141,-49.316,-46.387,1.000,1.000
1626294733635573.000,-16.113,-21.973,-9.766,1.000,1.000
1626294733639479.250,77.148,-10.742,15.625,1.000,1.000
1626294733643385.500,-10.254,-24.902,-31.250,1.000,1.000
1626294733647291.750,-122.070,-57.129,-81.543,1.000,1.000
1626294733651198.000,-60.547,-50.293,-44.922,1.000,1.000
1626294733655104.250,35.645,-34.180,-13.672,1.000,1.000
1626294733659010.500,2.441,-25.391,-22.949,1.000,1.000
1626294733662916.750,-84.473,-24.414,-36.133,1.000,1.000
1626294733666823.000,-92.285,-76.172,-54.199,1.000,1.000
1626294733670729.250,-80.566,-40.527,-26.367,-163.574,1.000
1626294733674635.500,-4.883,3.418,0.000,29.297,1.000
1626294733678541.750,48.340,-4.883,-8.301,149.414,1.000
1626294733682448.000,-9.277,-26.855,-28.809,-8.789,1.000
1626294733686354.250,-117.188,-99.609,-46.387,-196.289,1.000
1626294733690260.500,-79.590,-50.781,-39.551,-76.172,1.000
1626294733694166.750,36.133,-15.625,-34.668,129.883,1.000
1626294733698073.000,24.902,-20.508,-31.738,54.199,1.000
1626294733701979.250,-90.820,-43.457,-40.527,-170.898,1.000
1626294733705885.500,-106.445,-72.754,-38.574,-147.461,1.000
1626294733709791.750,0.977,-24.414,-16.602,79.102,1.000
1626294733713698.000,36.133,-7.324,-11.230,94.238,1.000
1626294733717604.250,-39.551,7.812,-9.766,1.000,1.000
1626294733721510.500,-100.586,-14.648,-32.715,1.000,1.000
1626294733725416.750,-37.109,-56.641,-40.039,1.000,1.000
1626294733729323.000,39.551,-15.625,-25.391,1.000,1.000
1626294733733229.250,-31.250,-8.301,-46.387,1.000,1.000
1626294733737135.500,-106.445,-17.090,-56.641,1.000,1.000
1626294733741041.750,-77.637,-62.500,-80.078,1.000,1.000
1626294733744948.000,-1.953,-71.777,-65.430,1.000,1.000
1626294733748854.250,-9.277,-29.297,-26.855,1.000,1.000
1626294733752760.500,-97.656,-21.973,-47.363,1.000,1.000
1626294733756666.750,-62.012,-18.555,-29.785,1.000,1.000
1626294733760573.000,9.277,-83.496,-33.691,1.000,1.000
1626294733764479.250,-92.773,-33.203,-35.156,-151.367,1.000
1626294733768385.500,-20.508,-37.109,-13.672,41.016,1.000
1626294733772291.750,19.043,-45.898,-8.789,100.098,1.000
1626294733776198.000,-59.570,-37.598,-30.273,-102.539,1.000
1626294733780104.250,-107.422,-48.828,-30.762,-197.266,1.000
1626294733784010.500,-18.555,-20.508,1.953,1.465,1.000
1626294733787916.750,48.340,-25.879,-0.977,127.930,1.000
1626294733791823.000,-22.949,-53.711,-43.945,-46.387,1.000
1626294733795729.250,-91.309,-28.320,-44.922,-194.336,1.000
1626294733799635.500,-41.016,-20.996,-11.719,-52.734,1.000
1626294733803541.750,47.363,-22.461,-14.160,136.719,1.000
1626294733807448.000,14.648,-56.641,-41.992,40.527,1.000
1626294733811354.250,-74.707,-48.828,-33.691,1.000,1.000
1626294733815260.500,-68.848,-17.578,-11.719,1.000,1.000
1626294733819166.750,22.949,-1.953,-1.465,1.000,1.000
1626294733823073.000,35.645,-24.414,-18.555,1.000,1.000
1626294733826979.250,-55.176,-61.035,-50.293,1.000,1.000
1626294733830885.500,-76.660,-22.949,-32.715,1.000,1.000
1626294733834791.750,15.137,-8.301,-4.883,1.000,1.000
1626294733838698.000,70.312,-15.625,-4.395,1.000,1.000
1626294733842604.250,-18.555,-44.434,-23.926,1.000,1.000
1626294733846510.500,-98.633,-63.965,-27.832,1.000,1.000
1626294733850416.750,-48.340,-24.414,-20.020,1.000,1.000
1626294733854323.000,33.203,-16.113,-31.250,1.000,1.000
1626294733858229.250,2.930,-34.668,-30.762,1.000,1.000
1626294733862135.500,-87.402,-42.969,-23.926,1.000,1.000
1626294733866041.750,-73.730,-42.480,-25.879,1.000,1.000
1626294733869948.000,29.297,-19.043,-13.672,1.000,1.000
1626294733873854.250,34.668,-16.602,3.418,1.000,1.000
1626294733877760.500,-46.875,-17.090,-11.719,1.000,1.000
1626294733881666.750,-63.477,-36.621,-30.273,1.000,1.000
1626294733885573.000,9.766,-33.691,-12.695,1.000,1.000
1626294733889479.250,18.555,-20.508,-41.992,1.000,1.000
1626294733893385.500,-64.941,-29.297,-62.988,1.000,1.000
1626294733897291.750,-111.816,-31.250,-46.875,1.000,1.000
1626294733901198.000,-56.152,-54.199,-52.734,1.000,1.000
1626294733905104.250,-89.844,-47.852,-44.434,61.523,1.000
1626294733909010.500,25.879,5.371,-31.738,102.051,1.000
1626294733912916.750,18.555,-25.391,-37.109,-95.703,1.000
1626294733916823.000,-84.961,-34.668,-55.176,-153.809,1.000
1626294733920729.250,-119.141,-61.035,-59.570,19.531,1.000
1626294733924635.500,-16.113,-41.016,-28.320,129.395,1.000
1626294733928541.750,47.852,-20.996,-10.742,-29.785,1.000
1626294733932448.000,-17.090,-28.320,-1.465,-192.871,1.000
1626294733936354.250,-86.426,-47.363,-16.113,-63.965,1.000
1626294733940260.500,-34.180,-59.570,-35.156,135.742,1.000
1626294733944166.750,57.617,-26.367,-16.602,64.453,1.000
1626294733948073.000,3.418,-25.391,-27.344,-168.945,1.000
1626294733951979.250,-83.496,-16.113,-46.875,1.000,1.000
1626294733955885.500,-47.852,-17.090,-34.668,1.000,1.000
1626294733959791.750,28.320,-37.598,-17.090,1.000,1.000
1626294733963698.000,30.273,-9.277,1.953,1.000,1.000
1626294733967604.250,-55.176,-2.930,-11.230,1.000,1.000
1626294733971510.500,-80.078,-13.672,-30.273,1.000,1.000
1626294733975416.750,-0.977,-47.852,-29.297,1.000,1.000
1626294733979323.000,28.320,-57.617,-20.020,1.000,1.000
1626294733983229.250,-52.246,-41.016,-21.484,1.000,1.000
1626294733987135.500,-102.051,-51.270,-30.762,1.000,1.000
1626294733991041.750,-29.785,-34.180,-27.832,1.000,1.000
1626294733994948.000,17.578,-28.809,-33.203,1.000,1.000
1626294733998854.250,-53.223,3.418,-17.578,-47.852,1.000
1626294734002760.500,21.484,-37.598,-18.066,124.512,1.000
1626294734006666.750,-7.812,-67.383,-39.062,20.996,1.000
1626294734010573.000,-79.590,-19.043,-42.969,-159.180,1.000
1626294734014479.250,-80.566,-16.113,-41.016,-118.652,1.000
1626294734018385.500,9.766,-8.789,-33.691,86.914,1.000
1626294734022291.750,22.461,-20.020,-31.250,74.219,1.000
1626294734026198.000,-78.613,-40.039,-46.875,-148.926,1.000
1626294734030104.250,-107.910,-25.879,-57.617,-179.199,1.000
1626294734034010.500,-6.836,-20.508,-32.715,45.410,1.000
1626294734037916.750,58.594,-6.836,-15.625,137.207,1.000
1626294734041823.000,-29.297,-63.477,-46.387,-76.172,1.000
1626294734045729.250,-101.562,-48.828,-53.223,1.000,1.000
1626294734049635.500,-34.180,-26.367,-32.715,1.000,1.000
1626294734053541.750,47.363,-26.855,-19.043,1.000,1.000
1626294734057448.000,-0.977,-13.672,-17.578,1.000,1.000
1626294734061354.250,-99.609,-72.266,-41.016,1.000,1.000
1626294734065260.500,-62.012,-39.551,-40.039,1.000,1.000
1626294734069166.750,41.504,-15.625,-22.949,1.000,1.000
1626294734073073.000,27.832,-31.250,-39.062,1.000,1.000
1626294734076979.250,-63.965,-21.484,-64.453,1.000,1.000
1626294734080885.500,-60.547,-22.461,-54.199,1.000,1.000
1626294734084791.750,37.109,4.883,-9.277,1.000,1.000
1626294734088698.000,49.805,2.441,-4.883,1.000,1.000
1626294734092604.250,-49.316,-12.695,-25.391,1.000,1.000
