timestamps,TP9,AF7,AF8,TP10,Right AUX
1624333163.506742,-27.344,-55.663999999999994,-9.277000000000001,-66.895,1.0
1624333163.5106483,-34.668,-36.621,-23.926,-36.133,1.0
1624333163.5145543,-34.668,-24.901999999999997,-41.504,-3.418,1.0
1624333163.5184608,-45.41,-15.625,-41.992,-41.504,1.0
1624333163.522367,-42.48,6.348,7.324,-63.477,1.0
1624333163.5262733,-36.621,9.766,10.742,-30.273000000000003,1.0
1624333163.5301795,-18.555,-13.184000000000001,-20.996,22.949,1.0
1624333163.5340858,-6.348,-26.855,-8.789,15.625,1.0
1624333163.537992,-34.668,-16.602,-14.16,-53.711000000000006,1.0
1624333163.5418983,-49.805,-2.441,-50.781000000000006,-60.547,1.0
1624333163.5458045,-38.574,-7.324,-43.945,-0.488,1.0
1624333163.5497108,-25.391,-8.789,-14.648,9.766,1.0
1624333163.553617,-20.996,-17.09,-9.766,1.0,1.0
1624333163.5575233,-33.203,-48.828,-30.273000000000003,1.0,1.0
1624333163.5614297,-15.625,-35.156,-20.996,1.0,1.0
1624333163.5653358,6.348,-1.953,-10.254000000000001,1.0,1.0
1624333163.569242,-29.296999999999997,-16.113,-20.996,1.0,1.0
1624333163.5731483,-64.941,-32.715,-33.203,1.0,1.0
1624333163.5770545,-47.852,-18.555,-43.457,1.0,1.0
1624333163.5809608,-22.461,-4.395,-40.527,1.0,1.0
1624333163.584867,-4.395,-11.719000000000001,-26.855,1.0,1.0
1624333163.588773,-9.766,-50.781000000000006,-15.625,1.0,1.0
1624333163.5926797,-36.621,-51.27,-23.926,1.0,1.0
1624333163.5965855,-35.645,-8.789,-13.672,1.0,1.0
1624333163.6004922,-23.438000000000002,-18.555,3.418,39.551,1.0
1624333163.604398,-1.953,-26.366999999999997,0.0,-3.906,1.0
1624333163.6083043,-20.02,-19.043,-14.648,-64.453,1.0
1624333163.612211,-35.645,1.465,-32.227,-32.715,1.0
1624333163.616117,-45.898,2.441,-57.617,20.02,1.0
1624333163.620023,-51.758,-14.16,-47.363,7.324,1.0
1624333163.6239295,-40.039,-20.02,-38.574,-53.223,1.0
1624333163.6278355,-66.406,-11.719000000000001,-41.992,-73.242,1.0
1624333163.631742,-72.75399999999999,-19.043,-24.901999999999997,-23.926,1.0
1624333163.6356483,-36.133,-29.296999999999997,1.953,9.766,1.0
1624333163.6395545,-31.25,-24.414,-2.441,-28.809,1.0
1624333163.6434608,-63.477,-13.184000000000001,-31.25,-54.199,1.0
1624333163.647367,-70.801,-23.438000000000002,-52.246,-109.863,1.0
1624333163.6512733,-25.879,-16.113,-42.968999999999994,-20.02,1.0
1624333163.6551795,-17.09,25.879,-35.156,22.949,1.0
1624333163.6590855,-68.848,-12.695,-27.344,-64.941,1.0
1624333163.662992,-55.176,-35.645,-3.906,-72.75399999999999,1.0
1624333163.6668983,-29.785,-18.555,-15.625,-22.461,1.0
1624333163.6708045,-75.684,-27.344,-21.484,-44.434,1.0
1624333163.6747108,-129.88299999999998,-44.434,-32.715,-117.18799999999999,1.0
1624333163.678617,-138.672,-69.824,-72.75399999999999,-172.363,1.0
1624333163.6825233,-115.723,-36.621,-60.059,-131.836,1.0
1624333163.6864295,-112.305,9.277000000000001,-10.254000000000001,-83.984,1.0
1624333163.6903358,-138.184,29.785,-31.25,-141.113,1.0
1624333163.694242,-246.09400000000002,3.906,-114.74600000000001,1.0,1.0
1624333163.6981483,-270.02,-21.484,-105.469,1.0,1.0
1624333163.7020545,-206.055,-11.23,-55.663999999999994,1.0,1.0
1624333163.705961,-217.773,-22.461,-89.844,1.0,1.0
1624333163.709867,-223.145,-10.254000000000001,-99.609,1.0,1.0
1624333163.713773,-172.852,28.809,-57.617,1.0,1.0
1624333163.7176797,-140.625,60.059,-70.801,1.0,1.0
1624333163.7215855,-198.24200000000002,34.18,-150.879,1.0,1.0
1624333163.7254918,-243.65200000000002,6.836,-185.05900000000003,1.0,1.0
1624333163.729398,-235.352,-6.348,-170.41,1.0,1.0
1624333163.7333043,-207.03099999999998,11.719000000000001,-157.715,1.0,1.0
1624333163.737211,-132.32399999999998,52.246,-111.816,1.0,1.0
1624333163.741117,-93.262,69.824,-96.191,-168.457,1.0
1624333163.7450233,-142.578,63.477,-139.648,-246.582,1.0
1624333163.7489295,-140.625,55.176,-116.211,-235.84,1.0
1624333163.7528355,-90.33200000000001,74.219,-98.145,-149.90200000000002,1.0
1624333163.756742,-112.305,59.57,-139.648,-170.898,1.0
1624333163.7606483,-105.469,39.062,-126.465,-212.40200000000002,1.0
1624333163.7645543,-76.66,43.945,-104.00399999999999,-200.195,1.0
1624333163.7684608,-59.082,49.805,-120.605,-135.74200000000002,1.0
1624333163.772367,-52.733999999999995,28.32,-117.676,-104.492,1.0
1624333163.7762733,-76.66,-2.441,-103.027,-164.062,1.0
1624333163.7801795,-82.031,-1.465,-92.773,-184.082,1.0
1624333163.7840858,-17.578,30.273000000000003,-57.129,-87.402,1.0
1624333163.787992,-29.785,11.23,-32.715,-3.418,1.0
1624333163.7918983,-45.898,25.879,-62.5,-18.555,1.0
1624333163.7958045,-62.988,-23.438000000000002,-99.609,-85.449,1.0
1624333163.7997108,-53.711000000000006,-84.473,-64.941,-82.52,1.0
1624333163.803617,-18.555,-73.242,-30.273000000000003,-16.113,1.0
1624333163.8075233,-23.926,-16.113,-59.57,1.953,1.0
1624333163.8114297,-46.387,-3.906,-83.008,-50.293,1.0
1624333163.8153358,-44.434,-4.395,-63.965,-84.961,1.0
1624333163.819242,-28.809,-6.836,-45.41,-45.898,1.0
1624333163.8231483,4.883,-34.668,-17.578,23.926,1.0
1624333163.8270545,14.16,-42.48,5.859,17.578,1.0
1624333163.8309608,-26.366999999999997,-38.086,-34.668,-67.87100000000001,1.0
1624333163.834867,-35.156,-50.781000000000006,-72.75399999999999,1.0,1.0
1624333163.838773,-15.137,-33.203,-41.992,1.0,1.0
1624333163.8426797,-16.602,21.484,-48.34,1.0,1.0
1624333163.8465855,-42.48,24.414,-91.309,1.0,1.0
1624333163.8504922,-54.199,-25.391,-66.406,1.0,1.0
1624333163.854398,-24.901999999999997,-48.828,-9.766,1.0,1.0
1624333163.8583043,-24.414,-39.062,-11.23,1.0,1.0
1624333163.862211,-63.477,-36.133,-51.27,1.0,1.0
1624333163.866117,-51.27,-35.645,-40.527,1.0,1.0
1624333163.870023,6.348,-6.836,1.465,1.0,1.0
1624333163.8739295,30.273000000000003,10.254000000000001,-7.812,1.0,1.0
1624333163.8778355,8.789,3.418,-71.289,1.0,1.0
1624333163.881742,-27.831999999999997,-12.207,-58.593999999999994,1.0,1.0
1624333163.8856483,-66.895,-23.926,-29.785,1.0,1.0
1624333163.8895545,-52.246,-14.16,-33.203,1.0,1.0
1624333163.8934608,-10.742,-18.555,1.465,1.0,1.0
1624333163.897367,-1.465,-27.831999999999997,21.973000000000003,1.0,1.0
1624333163.9012733,-15.137,-30.761999999999997,0.0,1.0,1.0
1624333163.9051795,-19.043,-32.715,-41.992,1.0,1.0
1624333163.9090855,-24.901999999999997,-40.527,-49.805,1.0,1.0
1624333163.912992,-42.968999999999994,-44.434,-39.062,1.0,1.0
1624333163.9168983,-31.25,-26.855,-34.668,1.0,1.0
1624333163.9208045,-17.578,-38.086,-55.176,1.0,1.0
1624333163.9247108,-14.16,-27.831999999999997,-34.18,1.0,1.0
1624333163.928617,-40.527,-19.043,-6.348,-2.93,1.0
1624333163.9325233,-61.523,-31.25,-22.461,-41.504,1.0
1624333163.9364295,-57.617,-45.898,-32.715,-21.973000000000003,1.0
1624333163.9403358,-35.645,-49.316,-36.133,34.18,1.0
1624333163.944242,-34.668,-42.48,-15.137,4.883,1.0
1624333163.9481483,-55.663999999999994,-21.484,-20.996,-56.152,1.0
1624333163.9520545,-78.613,-29.785,-18.555,-38.086,1.0
1624333163.955961,-93.262,-51.758,-20.508000000000003,20.996,1.0
1624333163.959867,-85.93799999999999,-56.641000000000005,-40.039,-8.301,1.0
1624333163.963773,-59.57,-29.296999999999997,-41.992,-88.37899999999999,1.0
1624333163.9676797,-71.289,-20.02,-58.105,-83.49600000000001,1.0
1624333163.9715855,-100.098,-26.855,-68.359,14.648,1.0
1624333163.9754918,-85.449,-19.043,-54.199,-125.488,1.0
1624333163.979398,-53.711000000000006,-35.156,-28.32,-61.035,1.0
1624333163.9833043,-45.898,-53.223,-33.691,-56.641000000000005,1.0
1624333163.987211,-48.828,-48.828,-35.156,-83.984,1.0
1624333163.991117,-46.387,-36.133,0.977,-71.289,1.0
1624333163.9950233,-54.688,-34.18,-3.418,-32.715,1.0
1624333163.9989295,-35.645,-24.414,-25.879,-20.996,1.0
1624333164.0028355,-28.809,2.441,-38.574,-65.918,1.0
1624333164.006742,-61.035,-6.348,-34.668,-86.426,1.0
1624333164.0106483,-41.504,-17.09,-42.968999999999994,-31.738000000000003,1.0
1624333164.0145543,-18.066,-0.488,-44.434,8.301,1.0
1624333164.0184608,-11.719000000000001,6.348,-10.254000000000001,-20.508000000000003,1.0
1624333164.022367,-37.598,-30.273000000000003,-31.738000000000003,1.0,1.0
1624333164.0262733,-41.992,-32.227,-59.082,1.0,1.0
1624333164.0301795,-9.766,-8.301,-32.715,1.0,1.0
1624333164.0340858,-26.855,-30.761999999999997,1.465,1.0,1.0
1624333164.037992,-63.965,-58.105,22.461,1.0,1.0
1624333164.0418983,-64.453,-36.621,4.395,1.0,1.0
1624333164.0458045,-45.41,-18.555,-24.414,1.0,1.0
1624333164.0497108,-30.273000000000003,-8.789,-12.207,1.0,1.0
1624333164.053617,-70.312,-6.836,-5.371,1.0,1.0
1624333164.0575233,-119.141,-18.066,-24.901999999999997,1.0,1.0
1624333164.0614297,-109.863,-48.34,-27.831999999999997,1.0,1.0
1624333164.0653358,-92.285,-52.733999999999995,-3.906,1.0,1.0
1624333164.069242,-141.113,-42.968999999999994,-32.715,1.0,1.0
1624333164.0731483,-195.801,-57.617,-58.593999999999994,1.0,1.0
1624333164.0770545,-181.15200000000002,-61.035,-12.207,1.0,1.0
1624333164.0809608,-206.055,-55.663999999999994,-9.277000000000001,1.0,1.0
1624333164.084867,-244.62900000000002,-35.156,-35.645,1.0,1.0
1624333164.088773,-254.395,-30.273000000000003,-23.926,1.0,1.0
1624333164.0926797,-247.55900000000003,-15.625,-12.207,1.0,1.0
1624333164.0965855,-221.19099999999997,-3.418,-39.062,1.0,1.0
1624333164.1004922,-207.03099999999998,-31.738000000000003,-62.012,1.0,1.0
1624333164.104398,-160.645,-32.715,-17.09,1.0,1.0
1624333164.1083043,-134.766,-13.672,20.508000000000003,1.0,1.0
1624333164.112211,-115.234,12.207,-10.742,1.0,1.0
1624333164.116117,-149.90200000000002,-30.273000000000003,-71.289,-153.32,1.0
1624333164.120023,-181.15200000000002,-27.831999999999997,-43.945,-236.328,1.0
1624333164.1239295,-141.602,-76.172,-20.996,-202.637,1.0
1624333164.1278355,-124.023,-127.93,-78.613,-130.371,1.0
1624333164.131742,-101.074,-61.035,-94.238,-75.195,1.0
1624333164.1356483,-108.398,-24.901999999999997,-82.031,-120.605,1.0
1624333164.1395545,-46.387,-69.336,-44.922,-90.82,1.0
1624333164.1434608,8.789,-85.93799999999999,-41.504,-2.93,1.0
1624333164.147367,-42.48,-66.406,-120.605,-42.968999999999994,1.0
1624333164.1512733,-57.617,-42.48,-132.812,-107.91,1.0
1624333164.1551795,-61.035,-61.523,-70.312,-113.77,1.0
1624333164.1590855,-33.203,-75.195,-47.363,-46.387,1.0
1624333164.162992,14.16,-72.75399999999999,-51.758,14.16,1.0
1624333164.1668983,42.48,-108.398,-71.289,58.105,1.0
1624333164.1708045,4.883,-121.58200000000001,-93.262,-11.719000000000001,1.0
1624333164.1747108,-64.941,-69.824,-112.79299999999999,-97.16799999999999,1.0
1624333164.178617,-58.105,-45.898,-145.996,-69.824,1.0
1624333164.1825233,-4.395,-62.012,-143.066,16.113,1.0
1624333164.1864295,23.926,-73.242,-72.75399999999999,28.809,1.0
1624333164.1903358,15.137,-69.824,-25.879,-20.996,1.0
1624333164.194242,3.906,-74.707,-60.059,-18.555,1.0
1624333164.1981483,43.457,-92.285,-60.547,57.617,1.0
1624333164.2020545,29.296999999999997,-107.42200000000001,-29.785,39.062,1.0
1624333164.205961,-39.551,-93.262,-47.363,-65.918,1.0
1624333164.209867,-41.504,-53.711000000000006,-72.266,1.0,1.0
1624333164.213773,-35.156,-55.663999999999994,-92.285,1.0,1.0
1624333164.2176797,-22.949,-63.477,-89.355,1.0,1.0
1624333164.2215855,11.719000000000001,-65.43,-34.18,1.0,1.0
1624333164.2254918,12.207,-81.055,-28.809,1.0,1.0
1624333164.229398,-16.602,-83.49600000000001,-75.684,1.0,1.0
1624333164.2333043,-33.691,-87.402,-76.66,1.0,1.0
1624333164.237211,-50.293,-99.609,-65.43,1.0,1.0
1624333164.241117,-72.75399999999999,-76.172,-78.125,1.0,1.0
1624333164.2450233,-15.137,-8.789,-50.293,1.0,1.0
1624333164.2489295,51.758,-12.207,2.93,1.0,1.0
1624333164.2528355,-17.578,-85.449,-43.945,1.0,1.0
1624333164.256742,-20.508000000000003,-39.062,-36.621,-1.465,1.0
1624333164.2606483,-42.968999999999994,-82.52,-34.668,-47.852,1.0
1624333164.2645543,-53.223,-91.79700000000001,-62.5,-88.867,1.0
1624333164.2684608,-58.593999999999994,-76.172,-99.609,-74.219,1.0
1624333164.272367,-64.941,-48.34,-89.844,-48.828,1.0
1624333164.2762733,-78.125,-41.016000000000005,-61.035,-72.266,1.0
1624333164.2801795,-59.57,-62.012,-42.968999999999994,-97.656,1.0
1624333164.2840858,-24.414,-62.988,-33.691,-53.223,1.0
1624333164.287992,-43.945,-66.895,-43.945,-13.184000000000001,1.0
1624333164.2918983,-28.32,-74.707,-31.25,-10.254000000000001,1.0
1624333164.2958045,-14.16,-86.426,1.465,-36.621,1.0
1624333164.2997108,-74.219,-104.98,-34.18,-90.82,1.0
1624333164.303617,-53.711000000000006,-58.593999999999994,-52.733999999999995,1.0,1.0
1624333164.3075233,-8.301,-5.859,-49.805,1.0,1.0
1624333164.3114297,-40.527,-25.391,-75.195,1.0,1.0
1624333164.3153358,-43.457,-77.148,-52.733999999999995,1.0,1.0
1624333164.319242,-25.391,-113.281,-27.831999999999997,1.0,1.0
1624333164.3231483,-35.156,-93.262,-35.645,1.0,1.0
1624333164.3270545,-74.219,-47.363,-56.152,1.0,1.0
1624333164.3309608,-82.031,-23.438000000000002,-38.574,1.0,1.0
1624333164.334867,-30.761999999999997,2.93,14.648,1.0,1.0
1624333164.338773,-21.484,-33.203,-15.137,1.0,1.0
1624333164.3426797,-67.383,-93.75,-60.547,1.0,1.0
1624333164.3465855,-90.82,-80.078,-48.34,1.0,1.0
1624333164.3504922,-58.593999999999994,-106.934,-46.387,1.0,1.0
1624333164.354398,-29.296999999999997,-147.461,-52.733999999999995,1.0,1.0
1624333164.3583043,-29.785,-91.79700000000001,-22.461,1.0,1.0
1624333164.362211,-54.688,-53.711000000000006,-13.672,1.0,1.0
1624333164.366117,-66.895,-71.777,-35.645,1.0,1.0
1624333164.370023,-20.02,-72.266,-19.531,1.0,1.0
1624333164.3739295,0.488,-70.312,-9.277000000000001,1.0,1.0
1624333164.3778355,-48.828,-83.984,-41.992,1.0,1.0
1624333164.381742,-81.543,-99.609,-68.848,1.0,1.0
1624333164.3856483,-66.895,-78.125,-67.87100000000001,1.0,1.0
1624333164.3895545,-28.32,-58.593999999999994,-46.875,1.0,1.0
1624333164.3934608,-2.93,-62.988,-29.296999999999997,1.0,1.0
1624333164.397367,-48.828,-78.613,-31.738000000000003,1.0,1.0
1624333164.4012733,-55.176,-60.547,-2.93,1.0,1.0
1624333164.4051795,-37.109,-45.898,-4.395,1.0,1.0
1624333164.4090855,-62.012,-69.824,-37.109,1.0,1.0
1624333164.412992,-83.008,-76.66,-32.715,1.0,1.0
1624333164.4168983,-68.359,-70.801,-27.344,1.0,1.0
1624333164.4208045,-35.156,-97.656,-30.761999999999997,1.0,1.0
1624333164.4247108,1.465,-92.773,-12.207,1.0,1.0
1624333164.428617,-4.883,-73.73,-7.324,1.0,1.0
1624333164.4325233,-43.945,-81.543,-37.109,1.0,1.0
1624333164.4364295,-21.973000000000003,-65.43,-34.18,1.0,1.0
1624333164.4403358,12.695,-28.809,-11.23,1.0,1.0
1624333164.444242,9.766,-42.968999999999994,-1.465,37.598,1.0
1624333164.4481483,-1.953,-13.672,20.508000000000003,19.043,1.0
1624333164.4520545,-49.805,-19.531,8.789,-73.242,1.0
1624333164.455961,-53.711000000000006,-39.551,5.371,-84.961,1.0
1624333164.459867,-7.812,-28.809,-2.441,3.906,1.0
1624333164.463773,-19.043,-27.831999999999997,-40.527,11.23,1.0
1624333164.4676797,-61.523,-17.09,-35.156,-62.012,1.0
1624333164.4715855,-62.5,-31.25,-25.879,-83.49600000000001,1.0
1624333164.4754918,-16.113,-73.73,-20.508000000000003,-9.277000000000001,1.0
1624333164.479398,21.484,-64.453,-9.766,47.363,1.0
1624333164.4833043,-22.949,-25.391,-15.625,-26.366999999999997,1.0
1624333164.487211,-89.844,-9.766,-7.324,-117.18799999999999,1.0
1624333164.491117,-57.617,20.508000000000003,5.859,1.0,1.0
1624333164.4950233,-6.348,18.066,-2.441,1.0,1.0
1624333164.4989295,-0.977,4.395,0.0,1.0,1.0
1624333164.5028355,-36.621,1.953,-20.02,1.0,1.0
1624333164.506742,-61.523,-27.831999999999997,-43.945,1.0,1.0
1624333164.5106483,-28.32,-50.293,-22.949,1.0,1.0
1624333164.5145543,-7.324,-62.5,3.906,1.0,1.0
1624333164.5184608,-39.551,-35.645,1.953,1.0,1.0
1624333164.522367,-60.059,12.695,-10.742,1.0,1.0
1624333164.5262733,-25.879,24.414,-21.973000000000003,1.0,1.0
1624333164.5301795,1.953,-0.977,-32.227,1.0,1.0
1624333164.5340858,-29.785,-5.859,-20.02,1.0,1.0
1624333164.537992,-71.289,-7.324,-23.926,1.0,1.0
1624333164.5418983,-57.617,-26.366999999999997,-30.761999999999997,1.0,1.0
1624333164.5458045,-28.809,-38.574,-13.184000000000001,1.0,1.0
1624333164.5497108,-10.742,-15.137,4.883,1.0,1.0
1624333164.553617,-37.598,-12.695,-17.09,1.0,1.0
1624333164.5575233,-39.551,-47.852,-20.996,1.0,1.0
1624333164.5614297,-6.348,-57.129,1.465,1.0,1.0
1624333164.5653358,-27.344,-27.831999999999997,-14.648,1.0,1.0
1624333164.569242,-72.266,-17.578,-41.016000000000005,1.0,1.0
1624333164.5731483,-69.824,-25.391,-35.156,1.0,1.0
1624333164.5770545,-33.203,-11.23,-17.578,1.0,1.0
1624333164.5809608,-21.484,7.324,-27.344,1.0,1.0
1624333164.584867,-50.293,0.977,-46.875,-20.508000000000003,1.0
1624333164.588773,-58.105,2.93,-26.366999999999997,-71.777,1.0
1624333164.5926797,-35.645,-19.531,19.043,-55.176,1.0
1624333164.5965855,-42.48,-56.641000000000005,-15.137,-19.531,1.0
1624333164.6004922,-35.645,-24.414,-18.066,-0.977,1.0
1624333164.604398,-31.25,9.766,-15.625,-38.086,1.0
1624333164.6083043,-48.34,5.371,-39.062,-72.266,1.0
1624333164.612211,-31.738000000000003,6.348,-8.301,-18.555,1.0
1624333164.616117,-20.508000000000003,-14.16,-3.418,7.812,1.0
1624333164.620023,-43.945,-23.926,-26.855,-49.316,1.0
1624333164.6239295,-38.574,-11.719000000000001,-7.812,-62.012,1.0
1624333164.6278355,-13.672,-28.32,1.465,-15.625,1.0
1624333164.631742,-24.901999999999997,-22.461,-12.207,1.0,1.0
1624333164.6356483,-35.156,5.859,-10.254000000000001,1.0,1.0
1624333164.6395545,-64.941,-17.09,-20.02,1.0,1.0
1624333164.6434608,-72.266,-34.18,-38.086,1.0,1.0
1624333164.647367,-12.695,-8.789,-25.879,1.0,1.0
1624333164.6512733,0.0,-7.812,7.812,1.0,1.0
1624333164.6551795,-14.648,-29.296999999999997,28.809,1.0,1.0
1624333164.6590855,-3.418,-49.316,11.719000000000001,1.0,1.0
1624333164.662992,-29.296999999999997,-41.992,-40.527,1.0,1.0
1624333164.6668983,-55.663999999999994,-1.953,-56.152,1.0,1.0
1624333164.6708045,-57.617,17.578,-29.785,1.0,1.0
1624333164.6747108,-51.758,7.812,-14.16,1.0,1.0
1624333164.678617,-16.602,-20.02,-25.879,1.0,1.0
1624333164.6825233,1.465,-25.391,-28.809,1.0,1.0
1624333164.6864295,-16.602,-7.324,-11.23,1.0,1.0
1624333164.6903358,-44.434,-2.441,5.371,1.0,1.0
1624333164.694242,-42.968999999999994,-18.555,11.719000000000001,1.0,1.0
1624333164.6981483,-0.977,-56.152,13.184000000000001,1.0,1.0
1624333164.7020545,-9.766,-51.758,-5.859,1.0,1.0
1624333164.705961,-59.57,-8.789,-39.062,1.0,1.0
1624333164.709867,-63.477,-4.883,-44.922,1.0,1.0
1624333164.713773,-52.733999999999995,-12.695,-55.663999999999994,1.0,1.0
1624333164.7176797,-29.296999999999997,-4.395,-23.438000000000002,1.0,1.0
1624333164.7215855,-26.366999999999997,-40.527,15.625,1.0,1.0
1624333164.7254918,-51.758,-60.059,0.0,1.0,1.0
1624333164.729398,-42.968999999999994,-22.461,-8.789,1.0,1.0
1624333164.7333043,-33.203,-13.184000000000001,-1.465,1.0,1.0
1624333164.737211,-40.527,-23.926,-16.113,1.0,1.0
1624333164.741117,-44.922,0.0,-9.277000000000001,1.0,1.0
1624333164.7450233,-41.016000000000005,17.09,-6.348,1.0,1.0
1624333164.7489295,-25.391,15.625,-39.551,1.0,1.0
1624333164.7528355,-14.648,-14.16,-27.831999999999997,1.0,1.0
1624333164.756742,-26.855,-42.968999999999994,10.254000000000001,1.0,1.0
1624333164.7606483,-19.531,-35.645,28.32,1.0,1.0
1624333164.7645543,-1.465,-33.691,7.324,1.0,1.0
1624333164.7684608,-30.273000000000003,-21.973000000000003,-19.531,1.0,1.0
1624333164.772367,-1.953,4.883,20.996,31.25,1.0
1624333164.7762733,-52.246,-32.715,-18.066,-52.246,1.0
1624333164.7801795,-73.73,-14.648,-27.831999999999997,-96.191,1.0
1624333164.7840858,-37.598,4.883,1.953,-39.551,1.0
1624333164.787992,-22.461,-31.25,10.254000000000001,4.883,1.0
1624333164.7918983,-21.973000000000003,-31.738000000000003,7.324,-14.16,1.0
1624333164.7958045,-10.742,-16.602,-4.395,-47.363,1.0
1624333164.7997108,4.395,-14.16,-17.09,-18.555,1.0
1624333164.803617,-11.719000000000001,-3.906,-45.898,9.277000000000001,1.0
1624333164.8075233,-22.461,2.93,-47.852,-10.254000000000001,1.0
1624333164.8114297,-43.945,-21.484,-26.366999999999997,-70.312,1.0
1624333164.8153358,-41.504,-41.504,-0.977,-72.75399999999999,1.0
1624333164.819242,-25.879,17.578,-14.16,-44.434,1.0
1624333164.8231483,18.066,8.301,7.324,34.18,1.0
1624333164.8270545,10.254000000000001,-49.805,-20.996,19.043,1.0
1624333164.8309608,-18.066,-32.715,-26.366999999999997,-42.968999999999994,1.0
1624333164.834867,-55.176,-15.137,-44.434,-86.914,1.0
1624333164.838773,-57.617,-10.742,-42.48,-53.223,1.0
1624333164.8426797,-36.133,15.137,-3.418,-12.695,1.0
1624333164.8465855,-42.968999999999994,-8.301,10.742,-54.688,1.0
1624333164.8504922,-40.527,-19.531,-1.953,-74.707,1.0
1624333164.854398,10.254000000000001,0.488,-4.395,9.766,1.0
1624333164.8583043,27.831999999999997,-13.184000000000001,-12.695,50.293,1.0
1624333164.862211,-35.645,-53.223,-42.48,-37.598,1.0
1624333164.866117,-82.52,-53.223,-47.363,1.0,1.0
1624333164.870023,-75.684,-34.668,-55.176,1.0,1.0
1624333164.8739295,-36.621,-23.926,-22.461,1.0,1.0
1624333164.8778355,-22.461,-11.23,13.672,1.0,1.0
1624333164.881742,-53.223,-8.301,13.672,1.0,1.0
1624333164.8856483,-41.504,4.395,27.831999999999997,1.0,1.0
1624333164.8895545,-4.395,-13.184000000000001,16.113,1.0,1.0
1624333164.8934608,-16.113,-52.733999999999995,0.0,1.0,1.0
1624333164.897367,-64.453,-40.527,-23.926,1.0,1.0
1624333164.9012733,-85.93799999999999,-5.859,-50.293,1.0,1.0
1624333164.9051795,-47.363,0.0,-41.016000000000005,1.0,1.0
1624333164.9090855,-23.438000000000002,-12.207,-37.598,1.0,1.0
1624333164.912992,-44.434,-29.785,-37.598,-49.805,1.0
1624333164.9168983,-43.457,-15.625,-22.461,-79.59,1.0
1624333164.9208045,-38.574,-17.09,-20.02,-4.395,1.0
1624333164.9247108,-15.625,-30.761999999999997,-25.879,38.086,1.0
1624333164.928617,-10.254000000000001,-33.203,-1.465,-45.41,1.0
1624333164.9325233,-24.414,-9.277000000000001,10.254000000000001,-116.699,1.0
1624333164.9364295,-42.48,12.207,3.418,-79.59,1.0
1624333164.9403358,-64.941,-30.273000000000003,-7.812,-6.348,1.0
1624333164.944242,-54.199,-35.156,-13.672,-7.324,1.0
1624333164.9481483,-24.901999999999997,1.953,-35.645,-70.801,1.0
1624333164.9520545,-29.296999999999997,-13.672,-50.293,-75.684,1.0
1624333164.955961,-37.109,-22.949,-17.578,-20.996,1.0
1624333164.959867,-39.062,-37.109,-19.531,-59.57,1.0
1624333164.963773,-63.477,-51.27,-31.738000000000003,-83.984,1.0
1624333164.9676797,-44.922,-25.879,-22.461,-23.438000000000002,1.0
1624333164.9715855,-26.366999999999997,-13.184000000000001,-21.484,5.371,1.0
1624333164.9754918,-43.945,1.465,-28.809,-50.293,1.0
1624333164.979398,-62.012,1.953,-39.062,-88.37899999999999,1.0
1624333164.9833043,-12.207,-23.438000000000002,-11.23,-12.695,1.0
1624333164.987211,31.738000000000003,-18.555,25.391,68.359,1.0
1624333164.991117,-13.184000000000001,-8.301,3.906,2.441,1.0
1624333164.9950233,-64.453,-44.922,-44.922,-88.867,1.0
1624333164.9989295,-58.593999999999994,-71.777,-45.898,-64.453,1.0
1624333165.0028355,-20.02,-25.391,-16.113,8.301,1.0
1624333165.006742,-13.672,-28.809,8.301,-7.812,1.0
1624333165.0106483,3.906,-8.789,-3.418,27.831999999999997,1.0
1624333165.0145543,-21.484,9.766,-49.805,-26.366999999999997,1.0
1624333165.0184608,-67.87100000000001,3.906,-81.543,-102.051,1.0
1624333165.022367,-58.593999999999994,-25.879,-60.547,-65.918,1.0
1624333165.0262733,-16.113,-32.227,-32.715,12.207,1.0
1624333165.0301795,-18.066,-18.066,-15.137,-4.883,1.0
1624333165.0340858,-28.809,-13.672,16.113,-55.176,1.0
1624333165.037992,-37.109,-44.434,15.137,-47.852,1.0
1624333165.0418983,-18.555,-38.574,-13.184000000000001,11.719000000000001,1.0
1624333165.0458045,-17.09,5.371,-23.438000000000002,-0.488,1.0
1624333165.0497108,-47.852,3.906,-24.901999999999997,-81.543,1.0
1624333165.053617,-60.059,3.418,-27.831999999999997,1.0,1.0
1624333165.0575233,-34.18,1.953,-19.531,1.0,1.0
1624333165.0614297,0.977,-38.086,-4.395,1.0,1.0
1624333165.0653358,4.883,-40.527,5.371,1.0,1.0
1624333165.069242,-18.555,-4.395,5.371,1.0,1.0
1624333165.0731483,-30.273000000000003,-7.324,-23.926,1.0,1.0
1624333165.0770545,-3.906,-9.766,-38.086,1.0,1.0
1624333165.0809608,-15.137,-14.16,-32.227,1.0,1.0
1624333165.084867,-34.18,-4.883,-24.901999999999997,1.0,1.0
1624333165.088773,-26.366999999999997,4.395,-21.484,1.0,1.0
1624333165.0926797,-21.973000000000003,-16.602,-21.484,1.0,1.0
1624333165.0965855,-20.02,-24.414,-5.371,1.0,1.0
1624333165.1004922,16.602,13.184000000000001,-31.25,48.828,1.0
1624333165.104398,3.418,8.301,-41.504,9.277000000000001,1.0
1624333165.1083043,-44.922,-9.277000000000001,-17.578,-62.5,1.0
1624333165.112211,-21.484,8.789,-2.93,-19.531,1.0
1624333165.116117,-7.324,-1.953,-8.789,31.25,1.0
1624333165.120023,-26.366999999999997,-20.02,-4.395,-21.484,1.0
1624333165.1239295,-52.246,-28.32,-11.719000000000001,-92.773,1.0
1624333165.1278355,-54.199,-38.574,-15.625,-72.75399999999999,1.0
1624333165.131742,-12.695,-32.227,9.277000000000001,7.324,1.0
1624333165.1356483,0.977,-6.348,16.113,16.113,1.0
1624333165.1395545,-29.296999999999997,16.602,-14.648,-45.41,1.0
1624333165.1434608,-32.227,5.371,-18.555,-57.129,1.0
1624333165.147367,-20.02,-32.227,-5.371,1.0,1.0
1624333165.1512733,-16.602,-40.527,-10.742,1.0,1.0
1624333165.1551795,-38.086,-36.621,-15.137,1.0,1.0
1624333165.1590855,-71.777,-68.848,-36.133,1.0,1.0
1624333165.162992,-52.733999999999995,-62.5,-32.715,1.0,1.0
1624333165.1668983,-3.906,-17.09,13.184000000000001,1.0,1.0
1624333165.1708045,-21.973000000000003,13.184000000000001,2.93,1.0,1.0
1624333165.1747108,-66.895,3.906,-29.296999999999997,1.0,1.0
1624333165.178617,-71.289,-28.809,-28.809,1.0,1.0
1624333165.1825233,-35.645,-38.574,-17.578,1.0,1.0
1624333165.1864295,-34.18,-21.484,1.953,1.0,1.0
1624333165.1903358,-81.055,-25.391,-18.555,1.0,1.0
1624333165.194242,-65.918,-28.32,-41.504,1.0,1.0
1624333165.1981483,-31.25,-29.785,-24.414,1.0,1.0
1624333165.2020545,-46.875,-28.32,-20.02,1.0,1.0
1624333165.205961,-48.34,-23.438000000000002,-20.508000000000003,1.0,1.0
1624333165.209867,-35.156,-27.831999999999997,-16.113,1.0,1.0
1624333165.213773,-11.23,-5.371,20.02,1.0,1.0
1624333165.2176797,-6.348,-6.348,39.062,1.0,1.0
1624333165.2215855,-40.039,-25.879,-0.488,1.0,1.0
1624333165.2254918,-80.566,-33.691,-52.733999999999995,1.0,1.0
1624333165.229398,-66.895,-19.531,-39.551,1.0,1.0
1624333165.2333043,-36.621,-7.812,-31.25,1.0,1.0
1624333165.237211,-24.901999999999997,-32.227,-19.043,1.0,1.0
1624333165.241117,-7.812,-29.296999999999997,20.996,1.0,1.0
1624333165.2450233,-8.789,13.184000000000001,-4.883,1.0,1.0
1624333165.2489295,-7.324,11.719000000000001,-48.34,1.0,1.0
1624333165.2528355,-13.672,-14.16,-43.945,1.0,1.0
1624333165.256742,-42.968999999999994,5.859,-20.508000000000003,1.0,1.0
1624333165.2606483,-47.852,-5.859,-5.371,1.0,1.0
1624333165.2645543,-20.02,-36.621,14.16,1.0,1.0
1624333165.2684608,-14.648,-26.366999999999997,8.301,1.0,1.0
1624333165.272367,-38.086,-15.137,-1.465,1.0,1.0
1624333165.2762733,-46.875,-2.93,-10.742,1.0,1.0
1624333165.2801795,-33.203,-0.977,-25.391,1.0,1.0
1624333165.2840858,-35.156,-27.831999999999997,-37.109,1.0,1.0
1624333165.287992,2.441,-21.484,6.348,24.414,1.0
1624333165.2918983,-8.301,0.977,-20.508000000000003,11.719000000000001,1.0
1624333165.2958045,-32.715,17.09,-12.695,-50.781000000000006,1.0
1624333165.2997108,-12.207,3.906,12.207,-37.109,1.0
1624333165.303617,-4.883,-3.418,-14.16,-1.953,1.0
1624333165.3075233,6.348,-17.09,-13.184000000000001,13.672,1.0
1624333165.3114297,-12.207,-32.715,-4.395,-31.738000000000003,1.0
1624333165.3153358,-43.945,-29.296999999999997,-26.366999999999997,-86.426,1.0
1624333165.319242,-26.855,-28.32,-31.738000000000003,-43.457,1.0
1624333165.3231483,-5.371,-18.066,-7.812,20.996,1.0
1624333165.3270545,-22.461,-13.672,-23.438000000000002,-20.02,1.0
1624333165.3309608,-59.57,3.418,-77.148,-93.75,1.0
1624333165.334867,-15.137,45.898,-32.715,1.0,1.0
1624333165.338773,10.254000000000001,6.836,5.371,1.0,1.0
1624333165.3426797,-14.16,-28.32,18.066,1.0,1.0
1624333165.3465855,-20.02,-24.901999999999997,39.551,1.0,1.0
1624333165.3504922,-30.273000000000003,-38.574,-9.277000000000001,1.0,1.0
1624333165.354398,-30.273000000000003,-26.855,-34.668,1.0,1.0
1624333165.3583043,-32.227,2.441,-19.043,1.0,1.0
1624333165.362211,-62.5,-11.719000000000001,-19.531,1.0,1.0
1624333165.366117,-68.359,-30.273000000000003,-19.531,1.0,1.0
1624333165.370023,-37.109,-25.879,-20.996,1.0,1.0
1624333165.3739295,-15.137,-5.859,-17.578,1.0,1.0
1624333165.3778355,-26.366999999999997,-6.348,-15.137,1.0,1.0
1624333165.381742,-49.805,-18.066,-17.09,1.0,1.0
1624333165.3856483,-30.273000000000003,-16.113,1.465,1.0,1.0
1624333165.3895545,-7.324,-26.855,1.953,1.0,1.0
1624333165.3934608,-41.992,-40.039,-10.742,1.0,1.0
1624333165.397367,-95.70299999999999,-33.203,-30.273000000000003,1.0,1.0
1624333165.4012733,-80.078,-11.23,-33.691,1.0,1.0
1624333165.4051795,-29.785,-20.508000000000003,-5.371,1.0,1.0
1624333165.4090855,3.906,-49.805,24.901999999999997,1.0,1.0
1624333165.412992,-17.09,-34.18,1.465,1.0,1.0
1624333165.4168983,-29.296999999999997,8.789,-16.113,1.0,1.0
1624333165.4208045,-11.23,18.066,-11.719000000000001,1.0,1.0
1624333165.4247108,-37.109,-1.953,-41.504,1.0,1.0
1624333165.428617,-65.918,-22.461,-55.663999999999994,1.0,1.0
1624333165.4325233,-53.711000000000006,-41.016000000000005,-18.555,1.0,1.0
1624333165.4364295,-11.719000000000001,-38.086,-0.977,1.0,1.0
1624333165.4403358,-0.977,-46.387,-1.953,1.0,1.0
1624333165.444242,-29.296999999999997,-39.551,-3.906,1.0,1.0
1624333165.4481483,-35.645,0.977,-2.441,1.0,1.0
1624333165.4520545,-1.953,16.113,15.137,1.0,1.0
1624333165.455961,4.395,-3.906,10.254000000000001,1.0,1.0
1624333165.459867,-27.344,-48.34,-21.973000000000003,1.0,1.0
1624333165.463773,-50.781000000000006,-35.156,-34.668,1.0,1.0
1624333165.4676797,-33.203,20.02,-30.273000000000003,1.0,1.0
1624333165.4715855,22.461,8.789,-4.883,1.0,1.0
1624333165.4754918,-42.968999999999994,-16.113,3.418,-51.758,1.0
1624333165.479398,-22.949,0.977,19.531,-16.602,1.0
1624333165.4833043,-9.766,31.25,27.344,-40.039,1.0
1624333165.487211,-56.152,11.23,-5.371,-60.059,1.0
1624333165.491117,-82.031,-0.977,-32.227,-26.366999999999997,1.0
1624333165.4950233,-74.707,-2.93,-37.109,15.625,1.0
1624333165.4989295,-68.848,-11.23,-38.086,3.906,1.0
1624333165.5028355,-70.312,-7.812,-26.366999999999997,-56.641000000000005,1.0
1624333165.506742,-132.32399999999998,-14.648,-34.18,-53.223,1.0
1624333165.5106483,-163.086,5.859,-35.156,0.0,1.0
1624333165.5145543,-141.113,0.488,-4.883,-6.348,1.0
1624333165.5184608,-149.90200000000002,-39.551,-22.949,-48.34,1.0
1624333165.522367,42.968999999999994,-8.789,-16.602,-244.62900000000002,1.0
1624333165.5262733,59.082,-39.551,20.508000000000003,-256.836,1.0
1624333165.5301795,91.79700000000001,-30.273000000000003,44.922,-208.49599999999998,1.0
1624333165.5340858,89.844,-23.438000000000002,24.414,-222.65599999999998,1.0
1624333165.537992,39.551,-47.852,-20.508000000000003,-291.992,1.0
1624333165.5418983,30.273000000000003,-40.039,-26.855,-286.621,1.0
1624333165.5458045,24.901999999999997,-24.901999999999997,-30.273000000000003,-205.078,1.0
1624333165.5497108,33.691,-19.043,-35.156,-174.31599999999997,1.0
1624333165.553617,80.566,-17.09,-42.48,-226.074,1.0
1624333165.5575233,101.56200000000001,-24.901999999999997,-31.25,-261.719,1.0
1624333165.5614297,91.79700000000001,0.488,9.277000000000001,-206.055,1.0
1624333165.5653358,46.387,11.719000000000001,5.859,-105.95700000000001,1.0
1624333165.569242,-7.324,-42.968999999999994,-22.461,-24.414,1.0
1624333165.5731483,5.859,-29.296999999999997,-26.855,21.973000000000003,1.0
1624333165.5770545,17.09,-8.301,-13.672,36.133,1.0
1624333165.5809608,27.831999999999997,-19.531,-9.766,13.184000000000001,1.0
1624333165.584867,30.273000000000003,-24.414,-41.992,6.348,1.0
1624333165.588773,17.578,6.836,-37.598,34.18,1.0
1624333165.5926797,0.977,5.859,-21.973000000000003,37.598,1.0
1624333165.5965855,0.0,-13.184000000000001,-30.273000000000003,0.977,1.0
1624333165.6004922,16.602,-50.781000000000006,-9.766,-7.324,1.0
1624333165.604398,8.301,-93.75,-8.789,6.348,1.0
1624333165.6083043,19.531,-73.73,-8.301,35.645,1.0
1624333165.612211,-1.465,-23.926,-0.488,-9.766,1.0
1624333165.616117,-37.598,-1.465,-8.789,1.0,1.0
1624333165.620023,-48.828,-0.977,-37.109,1.0,1.0
1624333165.6239295,-37.109,-15.625,-46.875,1.0,1.0
1624333165.6278355,1.953,-27.344,-4.395,1.0,1.0
1624333165.631742,32.715,-25.879,39.551,1.0,1.0
1624333165.6356483,-7.324,-36.133,12.207,1.0,1.0
1624333165.6395545,-29.785,-22.949,-22.949,1.0,1.0
1624333165.6434608,-18.555,-13.184000000000001,-46.875,1.0,1.0
1624333165.647367,-35.645,-39.062,-38.086,1.0,1.0
1624333165.6512733,-42.968999999999994,-41.016000000000005,-32.715,1.0,1.0
1624333165.6551795,-3.906,-2.93,-18.555,1.0,1.0
1624333165.6590855,31.738000000000003,-18.555,31.25,1.0,1.0
1624333165.662992,13.184000000000001,7.324,40.527,18.066,1.0
1624333165.6668983,-34.668,-4.395,-7.324,-53.223,1.0
1624333165.6708045,-25.391,0.977,-29.296999999999997,-20.508000000000003,1.0
1624333165.6747108,24.414,8.301,0.0,58.593999999999994,1.0
1624333165.678617,11.719000000000001,-21.484,-22.461,14.648,1.0
1624333165.6825233,-18.066,-62.5,-40.527,-48.34,1.0
1624333165.6864295,15.137,-65.918,-14.648,5.371,1.0
1624333165.6903358,31.738000000000003,-50.781000000000006,-13.184000000000001,55.663999999999994,1.0
1624333165.694242,-21.484,-61.035,-16.113,-9.766,1.0
1624333165.6981483,-31.738000000000003,-30.761999999999997,8.301,-70.312,1.0
1624333165.7020545,-6.836,16.602,16.602,-51.758,1.0
1624333165.705961,-8.301,10.254000000000001,-14.16,5.371,1.0
1624333165.709867,-25.879,-31.738000000000003,-11.719000000000001,1.953,1.0
1624333165.713773,-12.695,-60.547,-59.57,9.766,1.0
1624333165.7176797,-55.176,-56.641000000000005,-50.293,-67.383,1.0
1624333165.7215855,-74.219,-27.831999999999997,-24.414,-94.727,1.0
1624333165.7254918,-30.761999999999997,-10.254000000000001,-2.93,-24.414,1.0
1624333165.729398,10.254000000000001,11.23,22.949,24.414,1.0
1624333165.7333043,-27.344,-6.348,0.977,-43.945,1.0
1624333165.737211,-65.43,-27.344,-11.23,-92.285,1.0
1624333165.741117,-36.621,-11.719000000000001,-12.207,-29.296999999999997,1.0
1624333165.7450233,1.953,-36.621,-29.785,32.227,1.0
1624333165.7489295,7.812,-33.691,-24.414,11.23,1.0
1624333165.7528355,-28.32,-24.901999999999997,-16.113,-50.293,1.0
1624333165.756742,-19.531,-9.277000000000001,-15.137,-28.32,1.0
1624333165.7606483,-37.109,-27.344,-3.418,62.5,1.0
1624333165.7645543,-17.578,-22.949,-14.16,31.738000000000003,1.0
1624333165.7684608,-22.949,-1.465,-22.949,-72.75399999999999,1.0
1624333165.772367,-57.617,-7.324,-10.254000000000001,-57.129,1.0
1624333165.7762733,-36.133,-16.113,4.395,8.301,1.0
1624333165.7801795,-12.695,-3.906,-16.113,11.719000000000001,1.0
1624333165.7840858,-25.391,-36.133,-55.176,-34.668,1.0
1624333165.787992,-52.733999999999995,-51.758,-56.641000000000005,-49.316,1.0
1624333165.7918983,-56.641000000000005,-8.789,-12.207,-18.066,1.0
1624333165.7958045,-30.761999999999997,-10.742,12.207,8.301,1.0
1624333165.7997108,-19.043,-26.366999999999997,2.441,-17.578,1.0
1624333165.803617,-0.488,-27.831999999999997,-44.434,15.137,1.0
1624333165.8075233,-38.574,-20.996,2.441,-60.547,1.0
1624333165.8114297,-54.688,-0.977,21.484,-72.266,1.0
1624333165.8153358,-37.598,-16.602,3.906,-3.906,1.0
1624333165.819242,-45.41,-40.039,-28.32,-2.93,1.0
1624333165.8231483,-66.406,-63.477,-34.668,-65.918,1.0
1624333165.8270545,-39.062,-31.738000000000003,-2.441,-56.152,1.0
1624333165.8309608,-28.809,-11.23,9.766,-10.254000000000001,1.0
1624333165.834867,-40.527,-62.012,-16.602,-5.371,1.0
1624333165.838773,-51.27,-68.848,-20.508000000000003,-46.875,1.0
1624333165.8426797,-48.34,-14.648,-7.812,-59.57,1.0
1624333165.8465855,-26.855,1.953,-17.09,-8.789,1.0
1624333165.8504922,-34.668,-18.555,-45.41,1.0,1.0
1624333165.854398,-25.879,-20.996,-41.992,1.0,1.0
1624333165.8583043,-44.922,-30.761999999999997,-5.859,1.0,1.0
1624333165.862211,-63.477,-39.062,27.831999999999997,1.0,1.0
1624333165.866117,-22.461,-2.441,29.296999999999997,1.0,1.0
1624333165.870023,-9.766,10.254000000000001,-2.93,1.0,1.0
1624333165.8739295,-24.901999999999997,-12.695,-22.461,1.0,1.0
1624333165.8778355,-22.461,-7.812,-26.855,1.0,1.0
1624333165.881742,-3.418,-2.441,18.555,1.0,1.0
1624333165.8856483,15.625,-25.391,22.949,1.0,1.0
1624333165.8895545,-28.32,-43.457,-54.688,1.0,1.0
1624333165.8934608,-57.129,12.695,-36.133,1.0,1.0
1624333165.897367,-59.082,-47.852,13.184000000000001,-49.805,1.0
1624333165.9012733,-64.453,-20.996,-15.137,-10.254000000000001,1.0
1624333165.9051795,-30.273000000000003,-9.277000000000001,-40.039,-19.043,1.0
1624333165.9090855,-26.366999999999997,-37.109,-60.547,-62.988,1.0
1624333165.912992,-64.453,-58.593999999999994,-41.016000000000005,-45.898,1.0
1624333165.9168983,-41.504,-15.625,-21.973000000000003,8.789,1.0
1624333165.9208045,19.531,2.93,-31.738000000000003,-18.555,1.0
1624333165.9247108,-17.09,-41.504,-50.781000000000006,-96.191,1.0
1624333165.928617,-95.70299999999999,-32.715,-25.391,-80.078,1.0
1624333165.9325233,-66.895,6.348,22.949,12.207,1.0
1624333165.9364295,2.93,13.184000000000001,24.901999999999997,18.555,1.0
1624333165.9403358,-31.25,-16.113,-18.066,-51.27,1.0
1624333165.944242,-15.137,-56.152,20.996,43.945,1.0
1624333165.9481483,-27.831999999999997,-78.613,13.672,16.113,1.0
1624333165.9520545,-43.457,-42.48,5.859,-20.996,1.0
1624333165.955961,-38.574,-24.901999999999997,0.488,2.441,1.0
1624333165.959867,-32.227,-21.973000000000003,5.371,42.48,1.0
1624333165.963773,-45.41,-19.043,11.719000000000001,5.859,1.0
1624333165.9676797,-62.012,-15.625,30.761999999999997,-50.781000000000006,1.0
1624333165.9715855,-68.848,-17.578,21.973000000000003,-41.016000000000005,1.0
1624333165.9754918,-45.898,-47.852,-2.93,11.719000000000001,1.0
1624333165.979398,-42.968999999999994,-60.547,-5.859,5.371,1.0
1624333165.9833043,-52.246,-46.387,-6.348,-48.34,1.0
1624333165.987211,-45.898,-41.016000000000005,0.977,-46.387,1.0
1624333165.991117,-45.898,-8.301,5.371,-50.781000000000006,1.0
1624333165.9950233,-27.344,7.324,2.441,12.695,1.0
1624333165.9989295,-32.227,-5.371,-22.461,0.977,1.0
1624333166.0028355,-31.25,4.883,-31.738000000000003,-42.968999999999994,1.0
1624333166.006742,-31.25,-18.066,-44.434,-53.223,1.0
1624333166.0106483,-15.625,-50.293,-32.715,-1.953,1.0
1624333166.0145543,22.949,-8.789,13.672,52.246,1.0
1624333166.0184608,2.441,-14.648,6.836,-7.324,1.0
1624333166.022367,-29.785,-29.785,-12.695,-60.059,1.0
1624333166.0262733,-22.461,-0.977,-14.648,-18.066,1.0
1624333166.0301795,-7.812,-7.812,-16.602,19.531,1.0
1624333166.0340858,-16.113,16.602,-11.23,-10.254000000000001,1.0
1624333166.037992,-49.805,22.461,-6.348,1.0,1.0
1624333166.0418983,-32.715,-6.348,-1.953,1.0,1.0
1624333166.0458045,-11.719000000000001,-20.996,0.488,1.0,1.0
1624333166.0497108,-10.254000000000001,-20.02,5.859,1.0,1.0
1624333166.053617,-19.043,-1.953,-12.695,1.0,1.0
1624333166.0575233,-15.625,-8.789,-12.207,1.0,1.0
1624333166.0614297,17.578,-7.324,19.531,1.0,1.0
1624333166.0653358,9.766,-11.719000000000001,10.254000000000001,1.0,1.0
1624333166.069242,-30.273000000000003,-25.879,-20.508000000000003,1.0,1.0
1624333166.0731483,-62.012,-20.996,-39.551,1.0,1.0
1624333166.0770545,-51.27,-19.531,-38.086,1.0,1.0
1624333166.0809608,-8.789,-5.859,-41.992,1.0,1.0
1624333166.084867,1.953,-36.621,4.395,-7.324,1.0
1624333166.088773,-44.434,-35.156,-14.16,-61.523,1.0
1624333166.0926797,-78.125,-54.199,-10.254000000000001,-20.996,1.0
1624333166.0965855,-51.27,-54.199,-5.371,38.086,1.0
1624333166.1004922,-17.578,-37.598,-19.043,-18.555,1.0
1624333166.104398,-25.391,-23.438000000000002,9.766,-81.543,1.0
1624333166.1083043,-55.663999999999994,-20.508000000000003,14.648,-49.316,1.0
1624333166.112211,-47.852,-23.926,-32.227,25.391,1.0
1624333166.116117,-1.953,-18.066,-10.742,39.551,1.0
1624333166.120023,-23.926,-22.949,2.441,-27.344,1.0
1624333166.1239295,-64.453,-45.41,-7.324,-46.875,1.0
1624333166.1278355,-36.621,-21.484,22.949,10.742,1.0
1624333166.131742,-10.254000000000001,0.977,13.672,1.0,1.0
1624333166.1356483,-17.09,-20.02,-10.742,1.0,1.0
1624333166.1395545,-42.968999999999994,-49.805,-15.137,1.0,1.0
1624333166.1434608,-48.828,-13.184000000000001,-3.906,1.0,1.0
1624333166.147367,-3.906,32.227,15.625,1.0,1.0
1624333166.1512733,-3.418,-16.602,-1.465,1.0,1.0
1624333166.1551795,-36.133,-52.246,-4.395,1.0,1.0
1624333166.1590855,-48.828,-26.855,0.0,1.0,1.0
1624333166.162992,-54.688,-18.066,-31.25,1.0,1.0
1624333166.1668983,-44.922,-13.184000000000001,-34.668,1.0,1.0
1624333166.1708045,-29.785,2.441,3.906,1.0,1.0
1624333166.1747108,-40.039,0.977,-9.277000000000001,1.0,1.0
1624333166.178617,-40.527,-14.16,-41.992,1.0,1.0
1624333166.1825233,-17.578,-31.738000000000003,-32.227,1.0,1.0
1624333166.1864295,-7.812,-31.738000000000003,-2.93,1.0,1.0
1624333166.1903358,-30.761999999999997,-30.761999999999997,3.906,1.0,1.0
1624333166.194242,-34.668,-39.062,-15.625,1.0,1.0
1624333166.1981483,2.441,-38.086,-14.16,1.0,1.0
1624333166.2020545,-9.277000000000001,-38.574,-19.531,1.0,1.0
1624333166.205961,-59.57,-21.973000000000003,-56.641000000000005,1.0,1.0
1624333166.209867,-75.684,-2.93,-45.898,1.0,1.0
1624333166.213773,-44.434,9.766,3.418,1.0,1.0
1624333166.2176797,-30.761999999999997,-16.113,-3.418,1.0,1.0
1624333166.2215855,-62.012,-35.156,-36.621,1.0,1.0
1624333166.2254918,-45.41,-25.879,-38.574,-27.344,1.0
1624333166.229398,-51.27,-29.296999999999997,-21.973000000000003,-73.73,1.0
1624333166.2333043,-43.945,-32.715,-11.23,-69.824,1.0
1624333166.237211,-19.043,-28.32,5.371,-0.977,1.0
1624333166.241117,-19.043,-11.719000000000001,13.184000000000001,11.23,1.0
1624333166.2450233,-30.761999999999997,-17.09,2.441,-52.246,1.0
1624333166.2489295,-37.598,-13.184000000000001,-5.371,-77.148,1.0
1624333166.2528355,-29.785,-24.414,-27.344,-29.785,1.0
1624333166.256742,-22.949,-28.809,-38.574,3.906,1.0
1624333166.2606483,-37.598,0.488,-16.602,-43.457,1.0
1624333166.2645543,-57.617,-8.301,-10.742,-100.586,1.0
1624333166.2684608,-47.852,-21.484,-10.742,-56.641000000000005,1.0
1624333166.272367,-36.133,-16.113,-1.465,-34.668,1.0
1624333166.2762733,-16.602,-13.184000000000001,2.93,11.23,1.0
1624333166.2801795,-28.809,0.0,-7.812,-33.691,1.0
1624333166.2840858,-22.461,4.883,-29.296999999999997,-56.152,1.0
1624333166.287992,-3.906,-11.719000000000001,-24.901999999999997,-11.719000000000001,1.0
1624333166.2918983,5.859,-31.738000000000003,-16.602,25.391,1.0
1624333166.2958045,10.742,-20.02,-23.926,20.996,1.0
1624333166.2997108,-31.738000000000003,-19.043,-18.066,-44.434,1.0
1624333166.303617,-62.012,-21.484,-4.883,-69.824,1.0
1624333166.3075233,-52.733999999999995,-22.461,-17.578,-20.508000000000003,1.0
1624333166.3114297,-42.968999999999994,-13.184000000000001,-36.621,-6.348,1.0
1624333166.3153358,-55.176,-12.207,-26.855,-68.848,1.0
1624333166.319242,-43.945,-20.996,29.785,1.0,1.0
1624333166.3231483,-8.789,5.859,73.73,1.0,1.0
1624333166.3270545,-25.879,-29.296999999999997,44.434,1.0,1.0
1624333166.3309608,-83.49600000000001,-51.758,-26.366999999999997,1.0,1.0
1624333166.334867,-110.84,-51.27,-18.555,1.0,1.0
1624333166.338773,-102.539,-105.469,26.366999999999997,1.0,1.0
1624333166.3426797,-75.684,-82.52,17.09,1.0,1.0
1624333166.3465855,-69.824,-40.039,12.207,1.0,1.0
1624333166.3504922,-100.586,-54.199,16.113,1.0,1.0
1624333166.354398,-98.633,-60.547,16.113,1.0,1.0
1624333166.3583043,-41.016000000000005,-42.968999999999994,16.602,1.0,1.0
1624333166.362211,-36.621,-31.738000000000003,-12.207,1.0,1.0
1624333166.366117,-3.906,-16.113,-37.598,-96.68,1.0
1624333166.370023,-6.348,2.441,5.371,-94.238,1.0
1624333166.3739295,-36.621,-11.719000000000001,21.484,-7.812,1.0
1624333166.3778355,-42.968999999999994,-33.203,10.742,17.578,1.0
1624333166.381742,-22.461,-52.246,-38.574,-58.105,1.0
1624333166.3856483,-29.785,-30.273000000000003,-59.57,-89.844,1.0
1624333166.3895545,-50.293,2.441,-42.48,-5.859,1.0
1624333166.3934608,-51.758,-7.812,-41.504,36.133,1.0
1624333166.397367,-24.414,-9.277000000000001,-18.555,-22.949,1.0
1624333166.4012733,11.719000000000001,-2.441,5.371,-47.363,1.0
1624333166.4051795,9.277000000000001,-9.766,-8.789,-34.668,1.0
1624333166.4090855,-11.719000000000001,9.766,-17.578,-0.488,1.0
1624333166.412992,-44.922,-35.645,-34.18,-62.012,1.0
1624333166.4168983,-18.066,-32.227,-47.363,9.766,1.0
1624333166.4208045,-12.207,-17.09,-11.23,19.043,1.0
1624333166.4247108,-64.941,-37.109,3.418,-79.59,1.0
1624333166.428617,-65.918,-24.414,8.301,-96.191,1.0
1624333166.4325233,0.0,19.531,3.418,2.93,1.0
1624333166.4364295,12.695,23.438000000000002,-4.395,37.109,1.0
1624333166.4403358,-21.973000000000003,-7.324,-5.371,-28.809,1.0
1624333166.444242,-50.781000000000006,-17.09,-41.016000000000005,-85.93799999999999,1.0
1624333166.4481483,-38.086,-2.93,-63.477,-47.852,1.0
1624333166.4520545,-22.949,-0.488,-39.062,3.418,1.0
1624333166.455961,-38.574,-5.859,-1.465,-34.18,1.0
1624333166.459867,-25.391,-36.621,-25.391,-27.344,1.0
1624333166.463773,-57.617,-13.184000000000001,-26.366999999999997,-83.984,1.0
1624333166.4676797,-61.035,-25.879,-34.18,-59.082,1.0
1624333166.4715855,-34.18,-37.109,-10.254000000000001,-12.695,1.0
1624333166.4754918,-38.086,0.977,-9.277000000000001,-42.968999999999994,1.0
1624333166.479398,-65.43,6.836,-22.949,-102.539,1.0
1624333166.4833043,-62.012,-16.113,-40.039,-82.52,1.0
1624333166.487211,-16.602,-8.789,-10.742,2.93,1.0
1624333166.491117,1.953,4.395,20.996,17.09,1.0
1624333166.4950233,-22.461,-9.277000000000001,-0.488,-54.688,1.0
1624333166.4989295,-19.043,-14.16,-2.441,-48.828,1.0
1624333166.5028355,6.348,6.836,-8.301,25.391,1.0
1624333166.506742,8.789,-39.062,-16.602,23.438000000000002,1.0
1624333166.5106483,11.23,-58.105,2.93,18.066,1.0
1624333166.5145543,-22.949,-22.949,-20.996,-52.246,1.0
1624333166.5184608,-54.688,-9.766,-68.359,-87.402,1.0
1624333166.522367,-45.41,18.066,-45.898,-37.109,1.0
1624333166.5262733,-28.32,41.992,7.324,-5.859,1.0
1624333166.5301795,-54.688,-12.695,-17.09,-77.637,1.0
1624333166.5340858,-47.852,-53.711000000000006,-34.18,-85.93799999999999,1.0
1624333166.537992,-31.738000000000003,-25.391,-5.371,-25.879,1.0
1624333166.5418983,-47.852,-3.418,-5.371,-15.625,1.0
1624333166.5458045,-52.733999999999995,-10.254000000000001,-7.324,-53.223,1.0
1624333166.5497108,-79.102,-24.414,-16.113,-107.91,1.0
1624333166.553617,-60.547,-14.16,-25.879,1.0,1.0
1624333166.5575233,11.23,20.508000000000003,-30.761999999999997,1.0,1.0
1624333166.5614297,2.441,15.625,-20.996,1.0,1.0
1624333166.5653358,-58.105,-32.227,-22.461,1.0,1.0
1624333166.569242,-47.363,-30.273000000000003,-18.555,1.0,1.0
1624333166.5731483,-22.461,-21.973000000000003,-21.973000000000003,1.0,1.0
1624333166.5770545,-24.901999999999997,-29.785,-31.738000000000003,1.0,1.0
1624333166.5809608,-41.992,-25.879,-16.113,1.0,1.0
1624333166.584867,-62.988,-24.414,-2.441,1.0,1.0
1624333166.588773,-40.039,-11.23,-0.488,1.0,1.0
1624333166.5926797,-22.949,-5.371,-6.836,1.0,1.0
1624333166.5965855,-32.715,-6.836,-0.977,1.0,1.0
1624333166.6004922,11.23,11.719000000000001,-34.18,1.465,1.0
1624333166.604398,-0.977,19.043,-34.18,-51.758,1.0
1624333166.6083043,4.883,12.207,-32.715,-51.27,1.0
1624333166.612211,16.113,-8.301,-45.898,-1.465,1.0
1624333166.616117,23.926,7.812,-41.016000000000005,19.043,1.0
1624333166.620023,7.812,11.719000000000001,-44.434,-34.18,1.0
1624333166.6239295,-21.484,-12.207,-79.59,-83.984,1.0
1624333166.6278355,-0.488,-0.977,-62.5,-20.02,1.0
1624333166.631742,28.32,37.109,-24.414,35.156,1.0
1624333166.6356483,-7.812,28.809,-43.457,-37.109,1.0
1624333166.6395545,-21.484,22.461,-52.246,-73.242,1.0
1624333166.6434608,8.301,35.645,-54.199,-16.602,1.0
1624333166.647367,14.648,24.414,-72.266,1.0,1.0
1624333166.6512733,6.348,6.348,-60.547,1.0,1.0
1624333166.6551795,-8.789,7.324,-31.25,1.0,1.0
1624333166.6590855,-18.066,25.879,-28.32,1.0,1.0
1624333166.662992,2.93,17.578,-27.831999999999997,1.0,1.0
1624333166.6668983,-5.859,-3.418,-23.438000000000002,1.0,1.0
1624333166.6708045,-45.41,0.488,-22.461,1.0,1.0
1624333166.6747108,-46.387,-6.348,-19.531,1.0,1.0
1624333166.678617,-19.043,-5.371,-26.855,1.0,1.0
1624333166.6825233,-26.366999999999997,11.23,-32.227,1.0,1.0
1624333166.6864295,-66.406,6.836,-28.809,1.0,1.0
1624333166.6903358,-97.16799999999999,11.23,-22.461,1.0,1.0
1624333166.694242,-91.309,14.648,-18.555,1.0,1.0
1624333166.6981483,-93.75,8.301,-20.508000000000003,1.0,1.0
1624333166.7020545,-132.812,0.977,-24.901999999999997,1.0,1.0
1624333166.705961,-171.387,-4.883,-20.508000000000003,1.0,1.0
1624333166.709867,-172.363,1.465,-14.16,1.0,1.0
1624333166.713773,-153.32,2.93,-8.789,1.0,1.0
1624333166.7176797,-166.50400000000002,-3.418,5.371,1.0,1.0
1624333166.7215855,-210.449,-23.926,-15.137,1.0,1.0
1624333166.7254918,-196.77700000000002,-14.16,-25.879,1.0,1.0
1624333166.729398,-166.99200000000002,8.789,-13.184000000000001,1.0,1.0
1624333166.7333043,-186.035,-8.789,-15.625,1.0,1.0
1624333166.737211,-224.609,-42.968999999999994,-35.645,1.0,1.0
1624333166.741117,-239.25799999999998,-54.199,-65.918,1.0,1.0
1624333166.7450233,-224.609,-27.344,-81.543,1.0,1.0
1624333166.7489295,-204.102,11.23,-75.684,1.0,1.0
1624333166.7528355,-179.199,11.23,-66.406,1.0,1.0
1624333166.756742,-124.512,-32.227,-46.387,1.0,1.0
1624333166.7606483,-63.477,-22.461,-34.668,1.0,1.0
1624333166.7645543,-56.641000000000005,14.16,-30.761999999999997,1.0,1.0
1624333166.7684608,-101.074,19.043,-60.059,1.0,1.0
1624333166.772367,-88.867,25.391,-68.848,1.0,1.0
1624333166.7762733,-40.527,-4.395,-28.32,1.0,1.0
1624333166.7801795,-31.738000000000003,-16.602,-23.926,1.0,1.0
1624333166.7840858,-27.831999999999997,0.0,-40.039,1.0,1.0
1624333166.787992,91.309,25.391,6.836,100.098,1.0
1624333166.7918983,49.805,18.555,-23.926,14.648,1.0
1624333166.7958045,-1.953,5.859,-23.438000000000002,-42.48,1.0
1624333166.7997108,36.133,21.484,0.0,27.344,1.0
1624333166.803617,70.801,2.93,-13.672,73.73,1.0
1624333166.8075233,59.57,-14.16,-32.227,46.875,1.0
1624333166.8114297,36.133,11.23,-65.43,-18.066,1.0
1624333166.8153358,44.922,19.531,-92.285,-8.301,1.0
1624333166.819242,92.773,36.133,-50.781000000000006,84.961,1.0
1624333166.8231483,110.84,67.383,-12.207,95.215,1.0
1624333166.8270545,86.914,62.012,-29.785,14.16,1.0
1624333166.8309608,74.219,53.223,-55.663999999999994,-2.441,1.0
1624333166.834867,110.84,56.641000000000005,-50.781000000000006,1.0,1.0
1624333166.838773,148.438,61.523,-41.504,1.0,1.0
1624333166.8426797,128.906,66.895,-45.898,1.0,1.0
1624333166.8465855,105.95700000000001,47.363,-58.105,1.0,1.0
1624333166.8504922,142.578,40.039,-38.574,1.0,1.0
1624333166.854398,163.086,49.316,-12.207,1.0,1.0
1624333166.8583043,140.137,57.129,2.93,1.0,1.0
1624333166.862211,111.816,47.363,-15.625,1.0,1.0
1624333166.866117,94.727,20.508000000000003,-69.824,1.0,1.0
1624333166.870023,95.70299999999999,19.531,-63.965,1.0,1.0
1624333166.8739295,82.031,34.18,-37.109,1.0,1.0
1624333166.8778355,54.688,55.663999999999994,-38.086,1.0,1.0
1624333166.881742,46.875,41.016000000000005,-27.831999999999997,1.0,1.0
1624333166.8856483,67.87100000000001,7.324,-4.395,1.0,1.0
1624333166.8895545,76.172,22.461,13.672,1.0,1.0
1624333166.8934608,58.105,41.016000000000005,-0.488,1.0,1.0
1624333166.897367,72.75399999999999,35.156,-36.621,1.0,1.0
1624333166.9012733,81.543,22.949,-55.663999999999994,1.0,1.0
1624333166.9051795,70.312,-0.977,-18.555,1.0,1.0
1624333166.9090855,29.296999999999997,-9.277000000000001,-21.973000000000003,1.0,1.0
1624333166.912992,-17.578,10.254000000000001,-42.968999999999994,1.0,1.0
1624333166.9168983,-5.859,23.926,-30.273000000000003,1.0,1.0
1624333166.9208045,33.203,6.836,-33.691,1.0,1.0
1624333166.9247108,53.711000000000006,-5.859,-18.555,1.0,1.0
1624333166.928617,-87.891,-51.758,-28.32,-84.961,1.0
1624333166.9325233,-111.32799999999999,-48.828,-30.761999999999997,-118.652,1.0
1624333166.9364295,-77.148,-65.43,-18.066,-49.316,1.0
1624333166.9403358,-26.366999999999997,-63.965,6.348,29.785,1.0
1624333166.944242,-96.191,-49.805,13.184000000000001,-59.57,1.0
1624333166.9481483,-186.035,-55.176,9.277000000000001,-177.24599999999998,1.0
1624333166.9520545,-159.668,-52.733999999999995,23.926,-128.906,1.0
1624333166.955961,-128.418,-64.453,-5.371,-56.641000000000005,1.0
1624333166.959867,-157.715,-105.469,-30.761999999999997,-89.355,1.0
1624333166.963773,-239.25799999999998,-137.207,-42.968999999999994,-206.543,1.0
1624333166.9676797,-233.887,-130.371,-16.602,-209.47299999999998,1.0
1624333166.9715855,-181.641,-126.95299999999999,26.366999999999997,-113.77,1.0
1624333166.9754918,-190.43,-138.184,19.531,1.0,1.0
1624333166.979398,-233.887,-132.32399999999998,23.438000000000002,1.0,1.0
1624333166.9833043,-245.11700000000002,-117.18799999999999,41.016000000000005,1.0,1.0
1624333166.987211,-196.77700000000002,-102.539,32.227,1.0,1.0
1624333166.991117,-179.199,-105.95700000000001,-5.859,1.0,1.0
1624333166.9950233,-158.691,-119.62899999999999,-36.621,1.0,1.0
1624333166.9989295,-166.99200000000002,-151.855,-55.663999999999994,1.0,1.0
1624333167.0028355,-153.32,-148.438,-6.836,1.0,1.0
1624333167.006742,-113.281,-92.773,60.059,1.0,1.0
1624333167.0106483,-124.512,-75.195,40.527,1.0,1.0
1624333167.0145543,-144.531,-83.008,7.812,1.0,1.0
1624333167.0184608,-110.84,-58.593999999999994,0.488,1.0,1.0
1624333167.022367,-55.176,-35.645,4.395,1.0,1.0
1624333167.0262733,-63.477,-58.593999999999994,-15.137,1.0,1.0
1624333167.0301795,-92.773,-53.223,-36.621,1.0,1.0
1624333167.0340858,-68.359,-14.16,14.648,1.0,1.0
1624333167.037992,-50.293,-50.781000000000006,34.18,1.0,1.0
1624333167.0418983,-72.75399999999999,-102.539,11.23,1.0,1.0
1624333167.0458045,-84.473,-96.191,5.371,1.0,1.0
1624333167.0497108,-79.59,-55.176,-30.761999999999997,1.0,1.0
1624333167.053617,-53.223,-27.831999999999997,-36.133,1.0,1.0
1624333167.0575233,-38.086,-21.973000000000003,-11.23,1.0,1.0
1624333167.0614297,-68.359,-5.371,-19.531,1.0,1.0
1624333167.0653358,-100.098,-7.324,-0.977,1.0,1.0
1624333167.069242,-68.359,-39.062,25.879,1.0,1.0
1624333167.0731483,-14.16,-57.129,8.301,1.0,1.0
1624333167.0770545,-29.785,-39.062,-20.02,1.0,1.0
1624333167.0809608,-86.914,-28.809,-17.578,1.0,1.0
1624333167.084867,-93.75,-38.086,-14.648,1.0,1.0
1624333167.088773,-25.391,-60.547,-29.296999999999997,1.0,1.0
1624333167.0926797,20.02,-52.733999999999995,-52.246,1.0,1.0
1624333167.0965855,-22.461,6.836,-27.344,1.0,1.0
1624333167.1004922,-103.516,-3.906,-6.348,1.0,1.0
1624333167.104398,-78.613,-28.32,7.324,1.0,1.0
1624333167.1083043,-22.461,-28.809,4.883,1.0,1.0
1624333167.112211,-51.758,-34.668,-15.625,1.0,1.0
1624333167.116117,-71.777,-106.445,1.465,-57.617,1.0
1624333167.120023,-117.676,-88.37899999999999,-3.906,-72.75399999999999,1.0
1624333167.1239295,-134.766,-63.477,14.16,-24.414,1.0
1624333167.1278355,-86.914,-58.593999999999994,25.391,22.461,1.0
1624333167.131742,-74.707,-60.547,-1.953,9.766,1.0
1624333167.1356483,-104.98,-65.43,-19.531,-65.43,1.0
1624333167.1395545,-82.031,-52.246,7.812,-51.758,1.0
1624333167.1434608,-44.434,-55.176,23.926,39.062,1.0
1624333167.147367,-46.387,-91.309,4.883,17.578,1.0
1624333167.1512733,-83.008,-89.355,-4.883,-83.008,1.0
1624333167.1551795,-107.42200000000001,-62.012,-27.831999999999997,-117.18799999999999,1.0
1624333167.1590855,-78.613,-30.761999999999997,-5.859,-48.34,1.0
1624333167.162992,-29.296999999999997,-4.395,-6.836,-12.207,1.0
1624333167.1668983,-8.301,-13.184000000000001,8.301,42.968999999999994,1.0
1624333167.1708045,-33.203,-19.531,3.906,-9.277000000000001,1.0
1624333167.1747108,-65.43,-4.883,-12.207,-74.707,1.0
1624333167.178617,-56.152,-14.648,-13.672,-46.387,1.0
1624333167.1825233,-32.715,-41.992,-8.301,8.789,1.0
1624333167.1864295,-35.156,-51.27,-18.555,-8.789,1.0
1624333167.1903358,-43.945,-43.457,-59.082,-52.733999999999995,1.0
1624333167.194242,-42.968999999999994,-29.785,-27.831999999999997,-44.434,1.0
1624333167.1981483,-21.484,-32.227,21.484,17.09,1.0
1624333167.2020545,-17.578,-28.32,8.789,20.996,1.0
1624333167.205961,-43.945,-20.02,-32.715,-51.758,1.0
1624333167.209867,-38.574,-13.672,-46.875,1.0,1.0
1624333167.213773,-8.301,0.488,0.977,1.0,1.0
1624333167.2176797,-20.996,-12.695,13.672,1.0,1.0
1624333167.2215855,-58.105,-23.926,-7.812,1.0,1.0
1624333167.2254918,-70.801,-12.207,-25.879,1.0,1.0
1624333167.229398,-43.457,-26.855,-30.273000000000003,1.0,1.0
1624333167.2333043,-2.93,-41.992,-0.488,1.0,1.0
1624333167.237211,0.0,-37.598,-28.32,1.0,1.0
1624333167.241117,-41.992,-14.16,-44.434,1.0,1.0
1624333167.2450233,-32.715,25.391,23.926,1.0,1.0
1624333167.2489295,-17.578,10.254000000000001,23.926,1.0,1.0
1624333167.2528355,-61.523,-34.18,-24.414,1.0,1.0
1624333167.256742,-29.785,-16.113,-39.062,14.16,1.0
1624333167.2606483,15.625,8.789,8.789,16.113,1.0
1624333167.2645543,-9.277000000000001,3.906,3.906,-45.41,1.0
1624333167.2684608,-48.828,-15.137,-29.296999999999997,-67.87100000000001,1.0
1624333167.272367,-33.203,-13.672,-18.555,-20.02,1.0
1624333167.2762733,-24.414,-6.348,-11.23,-27.344,1.0
1624333167.2801795,-32.715,2.93,-15.625,-85.449,1.0
1624333167.2840858,-21.484,6.348,-49.316,-70.801,1.0
1624333167.287992,-6.836,-3.418,-65.43,-13.184000000000001,1.0
1624333167.2918983,-7.324,9.277000000000001,-61.035,-20.508000000000003,1.0
1624333167.2958045,-7.812,33.691,-61.523,-71.289,1.0
1624333167.2997108,8.789,40.039,-55.663999999999994,-62.012,1.0
1624333167.303617,39.551,38.086,-52.246,1.0,1.0
1624333167.3075233,80.078,15.137,-40.527,1.0,1.0
1624333167.3114297,85.449,8.301,-39.551,1.0,1.0
1624333167.3153358,62.5,46.875,-67.383,1.0,1.0
1624333167.319242,69.824,86.426,-88.867,1.0,1.0
1624333167.3231483,86.914,97.656,-80.566,1.0,1.0
1624333167.3270545,84.473,89.355,-58.105,1.0,1.0
1624333167.3309608,83.984,74.707,-63.477,1.0,1.0
1624333167.334867,106.445,70.312,-70.312,1.0,1.0
1624333167.338773,114.74600000000001,79.59,-63.477,1.0,1.0
1624333167.3426797,103.516,74.219,-72.75399999999999,1.0,1.0
1624333167.3465855,70.312,73.242,-78.125,1.0,1.0
1624333167.3504922,57.129,80.566,-77.637,-16.602,1.0
1624333167.354398,95.215,96.68,-73.242,53.223,1.0
1624333167.3583043,109.375,98.633,-59.57,65.918,1.0
1624333167.362211,82.52,76.172,-42.968999999999994,9.277000000000001,1.0
1624333167.366117,71.777,50.781000000000006,-42.968999999999994,2.93,1.0
1624333167.370023,86.426,49.805,-47.363,58.105,1.0
1624333167.3739295,90.33200000000001,57.617,-50.293,71.289,1.0
1624333167.3778355,83.008,56.152,-45.898,23.926,1.0
1624333167.381742,78.613,60.059,-48.828,5.371,1.0
1624333167.3856483,80.566,45.898,-57.617,47.363,1.0
1624333167.3895545,91.309,52.733999999999995,-50.293,86.426,1.0
1624333167.3934608,54.688,46.875,-62.988,28.32,1.0
1624333167.397367,1.465,41.992,-73.73,1.0,1.0
1624333167.4012733,-9.766,43.457,-52.246,1.0,1.0
1624333167.4051795,-2.441,23.438000000000002,-36.621,1.0,1.0
1624333167.4090855,9.766,-1.465,-34.18,1.0,1.0
1624333167.412992,17.09,13.184000000000001,-38.086,1.0,1.0
1624333167.4168983,16.113,47.363,-35.156,1.0,1.0
1624333167.4208045,19.043,49.316,-39.551,1.0,1.0
1624333167.4247108,7.324,37.598,-72.266,1.0,1.0
1624333167.428617,-19.531,14.648,-79.102,1.0,1.0
1624333167.4325233,0.488,15.137,-36.621,1.0,1.0
1624333167.4364295,42.48,12.695,-37.109,1.0,1.0
1624333167.4403358,46.875,-14.648,-58.105,1.0,1.0
1624333167.444242,-17.09,-11.23,-28.32,-3.418,1.0
1624333167.4481483,-8.789,-16.113,-17.09,-4.395,1.0
1624333167.4520545,-21.973000000000003,-22.949,-29.785,-59.082,1.0
1624333167.455961,-6.836,-23.926,-20.996,-42.968999999999994,1.0
1624333167.459867,18.555,0.488,-19.043,20.996,1.0
1624333167.463773,6.348,30.273000000000003,-12.207,26.366999999999997,1.0
1624333167.4676797,-40.527,2.93,-14.648,-56.152,1.0
1624333167.4715855,-92.285,-28.809,-59.57,-127.93,1.0
1624333167.4754918,-77.637,-19.043,-57.129,-84.961,1.0
1624333167.479398,-34.18,-24.414,-46.875,-12.695,1.0
1624333167.4833043,-27.831999999999997,-58.593999999999994,-41.992,-17.09,1.0
1624333167.487211,-31.25,-48.828,0.0,-45.898,1.0
1624333167.491117,-37.109,-13.672,-28.32,-63.965,1.0
1624333167.4950233,-44.434,6.836,-36.621,-31.25,1.0
1624333167.4989295,-29.296999999999997,11.23,-28.809,4.883,1.0
1624333167.5028355,-53.711000000000006,6.836,-12.695,-36.133,1.0
1624333167.506742,-83.49600000000001,-19.531,-20.02,-96.191,1.0
1624333167.5106483,-53.711000000000006,-38.574,-43.457,-59.082,1.0
1624333167.5145543,-0.977,-22.461,-31.738000000000003,25.391,1.0
1624333167.5184608,-25.391,-30.761999999999997,-37.598,-6.348,1.0
1624333167.522367,-77.637,-23.438000000000002,-44.922,-96.191,1.0
1624333167.5262733,-68.359,4.395,-8.789,-89.355,1.0
1624333167.5301795,-25.391,-10.254000000000001,1.465,-16.602,1.0
1624333167.5340858,-30.761999999999997,-35.156,-41.016000000000005,-16.113,1.0
1624333167.537992,-26.366999999999997,-26.855,-20.02,1.0,1.0
1624333167.5418983,-52.733999999999995,-56.641000000000005,-19.043,1.0,1.0
1624333167.5458045,-64.453,-33.203,-19.531,1.0,1.0
1624333167.5497108,-33.691,-7.812,-41.504,1.0,1.0
1624333167.553617,-17.578,-30.273000000000003,-35.645,1.0,1.0
1624333167.5575233,-41.504,-36.133,-23.926,1.0,1.0
1624333167.5614297,-38.574,-23.926,-31.738000000000003,1.0,1.0
1624333167.5653358,2.93,12.695,-12.207,1.0,1.0
1624333167.569242,-1.953,25.879,-21.484,1.0,1.0
1624333167.5731483,-83.984,-18.555,-52.246,1.0,1.0
1624333167.5770545,-123.04700000000001,-19.531,-5.371,1.0,1.0
1624333167.5809608,-101.56200000000001,-36.133,31.738000000000003,1.0,1.0
1624333167.584867,-213.86700000000002,-138.672,20.02,-123.04700000000001,1.0
1624333167.588773,-174.31599999999997,-136.23,70.801,-65.918,1.0
1624333167.5926797,-142.09,-131.34799999999998,72.75399999999999,-58.593999999999994,1.0
1624333167.5965855,-155.762,-112.79299999999999,27.831999999999997,-98.633,1.0
1624333167.6004922,-148.92600000000002,-105.469,48.34,-80.078,1.0
1624333167.604398,-129.395,-106.934,78.613,-37.109,1.0
1624333167.6083043,-135.74200000000002,-94.727,59.082,-57.129,1.0
1624333167.612211,-153.809,-113.77,39.062,-109.375,1.0
1624333167.616117,-149.414,-140.137,14.16,-105.95700000000001,1.0
1624333167.620023,-111.32799999999999,-124.023,-8.301,-31.738000000000003,1.0
1624333167.6239295,-83.008,-109.375,19.531,-6.348,1.0
1624333167.6278355,-85.449,-82.031,28.809,-50.781000000000006,1.0
1624333167.631742,-24.414,-28.32,46.875,-35.156,1.0
1624333167.6356483,-72.75399999999999,-53.711000000000006,2.93,-83.49600000000001,1.0
1624333167.6395545,-74.219,-49.316,-39.551,-43.945,1.0
1624333167.6434608,-27.344,-32.715,-29.296999999999997,11.23,1.0
1624333167.647367,-51.758,-48.34,-13.672,-47.852,1.0
1624333167.6512733,-62.5,-45.41,3.418,-74.219,1.0
1624333167.6551795,-18.555,-32.715,8.789,3.906,1.0
1624333167.6590855,-18.555,-42.968999999999994,-32.227,19.531,1.0
1624333167.662992,-32.227,-15.137,-49.805,-29.296999999999997,1.0
1624333167.6668983,-46.387,-20.996,-12.695,-58.105,1.0
1624333167.6708045,-33.203,-29.785,-25.879,-21.484,1.0
1624333167.6747108,-12.207,-11.719000000000001,-27.831999999999997,26.366999999999997,1.0
1624333167.678617,-32.227,-29.785,20.508000000000003,1.0,1.0
1624333167.6825233,-48.34,-35.645,13.672,1.0,1.0
1624333167.6864295,-39.062,-27.831999999999997,-14.648,1.0,1.0
1624333167.6903358,-38.086,-17.09,-31.738000000000003,1.0,1.0
1624333167.694242,-44.922,-6.836,-1.953,1.0,1.0
1624333167.6981483,-44.434,-2.93,19.043,1.0,1.0
1624333167.7020545,-39.551,-19.531,-1.465,1.0,1.0
1624333167.705961,-46.387,-39.551,-23.926,1.0,1.0
1624333167.709867,-39.551,-52.733999999999995,-33.691,1.0,1.0
1624333167.713773,-49.805,-78.125,-30.273000000000003,1.0,1.0
1624333167.7176797,-89.355,-70.312,-33.691,1.0,1.0
1624333167.7215855,-85.449,-53.711000000000006,-26.855,1.0,1.0
1624333167.7254918,-54.199,-61.035,-0.488,1.0,1.0
1624333167.729398,-72.266,-64.941,16.602,1.0,1.0
1624333167.7333043,-66.895,-23.926,36.133,1.0,1.0
1624333167.737211,-35.645,-6.348,17.09,1.0,1.0
1624333167.741117,-63.477,-29.296999999999997,-36.621,1.0,1.0
1624333167.7450233,-81.543,-23.438000000000002,-77.148,1.0,1.0
1624333167.7489295,-80.078,-16.602,-77.637,1.0,1.0
1624333167.7528355,-77.637,-34.18,-38.574,1.0,1.0
1624333167.756742,-32.227,-31.25,6.836,1.0,1.0
1624333167.7606483,-8.301,-2.93,25.879,1.0,1.0
1624333167.7645543,-33.691,-8.789,4.883,1.0,1.0
1624333167.7684608,-35.156,-14.648,-7.812,1.0,1.0
1624333167.772367,-96.68,-28.32,-32.227,-106.934,1.0
1624333167.7762733,-25.391,9.277000000000001,-11.23,0.0,1.0
1624333167.7801795,-3.906,0.0,-16.113,22.949,1.0
1624333167.7840858,-21.973000000000003,-6.348,-44.434,-30.761999999999997,1.0
1624333167.787992,-11.23,16.602,-25.879,-26.855,1.0
1624333167.7918983,-22.461,-1.953,-17.578,2.441,1.0
1624333167.7958045,-38.086,-26.855,-37.109,1.465,1.0
1624333167.7997108,-46.875,-25.391,-34.18,-50.781000000000006,1.0
1624333167.803617,-71.777,-41.992,-27.831999999999997,-107.42200000000001,1.0
1624333167.8075233,-41.016000000000005,-53.711000000000006,-4.395,-48.828,1.0
1624333167.8114297,-2.441,-57.129,8.789,20.508000000000003,1.0
1624333167.8153358,-17.09,-31.738000000000003,-46.387,-17.578,1.0
1624333167.819242,-36.621,-18.066,-33.691,-45.41,1.0
1624333167.8231483,-29.296999999999997,5.371,-61.035,-67.383,1.0
1624333167.8270545,-37.109,8.789,-53.223,-44.922,1.0
1624333167.8309608,-37.598,7.324,-18.066,-7.324,1.0
1624333167.834867,-51.27,-26.366999999999997,-6.836,-52.733999999999995,1.0
1624333167.838773,-86.426,-41.016000000000005,-29.785,-117.18799999999999,1.0
1624333167.8426797,-60.059,-10.742,-33.203,-68.359,1.0
1624333167.8465855,-20.02,-16.113,-34.18,3.906,1.0
1624333167.8504922,-33.691,-56.152,-45.41,-17.578,1.0
1624333167.854398,-29.296999999999997,-15.137,-13.672,-55.176,1.0
1624333167.8583043,-16.113,4.883,1.465,-45.41,1.0
1624333167.862211,-37.109,-33.691,-26.855,-31.25,1.0
1624333167.866117,-41.504,-27.344,-22.461,1.0,1.0
1624333167.870023,-80.566,-37.109,-31.25,1.0,1.0
1624333167.8739295,-96.191,-46.387,-39.551,1.0,1.0
1624333167.8778355,-58.105,-43.945,-55.176,1.0,1.0
1624333167.881742,-22.949,-20.996,-43.945,1.0,1.0
1624333167.8856483,-21.484,1.465,-30.761999999999997,1.0,1.0
1624333167.8895545,-45.41,9.766,-32.227,1.0,1.0
1624333167.8934608,-20.02,-2.93,-6.348,1.0,1.0
1624333167.897367,-8.301,-61.035,-5.859,1.0,1.0
1624333167.9012733,-45.898,-57.617,-38.574,1.0,1.0
1624333167.9051795,-64.941,-7.324,-41.504,1.0,1.0
1624333167.9090855,-46.875,0.977,-29.296999999999997,1.0,1.0
1624333167.912992,-25.879,-4.395,-35.645,1.0,1.0
1624333167.9168983,-18.555,-24.414,-28.32,1.0,1.0
1624333167.9208045,-21.973000000000003,-45.898,18.066,1.0,1.0
1624333167.9247108,-47.363,-46.875,9.277000000000001,1.0,1.0
1624333167.928617,-52.246,-18.555,-45.898,1.0,1.0
1624333167.9325233,-52.733999999999995,-1.465,-45.898,1.0,1.0
1624333167.9364295,-72.266,-22.461,-34.668,1.0,1.0
1624333167.9403358,-78.613,-20.02,-33.691,1.0,1.0
1624333167.944242,-50.781000000000006,-15.625,-5.859,1.0,1.0
1624333167.9481483,-34.668,-53.223,-4.395,1.0,1.0
1624333167.9520545,-42.48,-20.508000000000003,-6.348,1.0,1.0
1624333167.955961,-65.918,8.301,16.113,1.0,1.0
1624333167.959867,-69.824,-16.602,-6.348,1.0,1.0
1624333167.963773,-46.387,-12.207,-47.852,1.0,1.0
1624333167.9676797,-38.086,-2.441,-26.366999999999997,1.0,1.0
1624333167.9715855,-63.965,-33.691,-22.461,1.0,1.0
1624333167.9754918,-83.49600000000001,-59.57,-48.828,1.0,1.0
1624333167.979398,-36.133,-58.593999999999994,-25.391,1.0,1.0
1624333167.9833043,-16.602,-22.949,-17.578,1.0,1.0
1624333167.987211,-70.801,1.465,-29.785,1.0,1.0
1624333167.991117,-87.402,-5.859,-26.366999999999997,1.0,1.0
1624333167.9950233,-66.406,-5.371,-28.32,1.0,1.0
1624333167.9989295,-53.223,-4.395,-6.348,1.0,1.0
1624333168.0028355,-35.645,-4.883,13.184000000000001,1.0,1.0
1624333168.006742,-53.223,-30.273000000000003,-55.176,-28.32,1.0
1624333168.0106483,-55.663999999999994,-8.789,-18.555,-81.543,1.0
1624333168.0145543,-52.246,-38.086,-24.901999999999997,-77.637,1.0
1624333168.0184608,-19.531,-36.621,-51.758,-16.602,1.0
1624333168.022367,3.418,-4.883,-23.926,15.625,1.0
1624333168.0262733,-32.715,-4.883,4.395,-42.48,1.0
1624333168.0301795,-51.27,5.859,1.953,-79.102,1.0
1624333168.0340858,-26.366999999999997,10.254000000000001,-11.23,-20.02,1.0
1624333168.037992,-34.18,-38.086,-27.831999999999997,-4.395,1.0
1624333168.0418983,-59.57,-56.152,-50.293,-62.988,1.0
1624333168.0458045,-68.359,-18.555,-52.246,-96.191,1.0
1624333168.0497108,-64.453,-7.324,-43.457,-72.266,1.0
1624333168.053617,-43.945,10.254000000000001,-13.672,-40.527,1.0
1624333168.0575233,-11.23,-25.879,3.418,17.09,1.0
1624333168.0614297,-32.715,-37.109,-14.16,-28.32,1.0
1624333168.0653358,-55.663999999999994,-22.461,2.441,-81.543,1.0
1624333168.069242,-40.527,-29.296999999999997,2.441,-46.875,1.0
1624333168.0731483,-19.043,-27.831999999999997,-35.645,17.578,1.0
1624333168.0770545,4.883,-25.391,-35.156,17.09,1.0
1624333168.0809608,-21.484,-20.02,-40.527,-47.852,1.0
1624333168.084867,-57.617,-4.395,-31.738000000000003,-60.547,1.0
1624333168.088773,-34.668,10.742,3.906,-6.348,1.0
1624333168.0926797,-26.855,-5.859,-13.672,-4.883,1.0
1624333168.0965855,-69.824,-40.039,-26.366999999999997,-72.266,1.0
1624333168.1004922,-74.219,-41.016000000000005,-15.625,1.0,1.0
1624333168.104398,-27.344,-21.973000000000003,-22.949,1.0,1.0
1624333168.1083043,-19.043,-26.366999999999997,-34.18,1.0,1.0
1624333168.112211,-43.457,-30.761999999999997,-26.855,1.0,1.0
1624333168.116117,-40.039,-17.09,-4.883,1.0,1.0
1624333168.120023,-17.09,-14.16,-12.695,1.0,1.0
1624333168.1239295,-41.016000000000005,-52.733999999999995,-47.852,1.0,1.0
1624333168.1278355,-70.801,-50.293,-37.598,1.0,1.0
1624333168.131742,-77.148,-16.113,-28.809,1.0,1.0
1624333168.1356483,-49.316,13.184000000000001,-32.715,1.0,1.0
1624333168.1395545,-11.719000000000001,22.461,-13.184000000000001,1.0,1.0
1624333168.1434608,3.418,-12.207,11.719000000000001,1.0,1.0
1624333168.147367,-14.16,-7.324,-19.531,22.461,1.0
1624333168.1512733,-47.852,-43.945,-11.719000000000001,-49.316,1.0
1624333168.1551795,-64.941,-32.227,1.953,-93.75,1.0
1624333168.1590855,-59.082,-32.227,-16.113,-65.918,1.0
1624333168.162992,-41.992,-39.062,-54.688,-14.16,1.0
1624333168.1668983,-25.879,-39.551,-71.777,-17.578,1.0
1624333168.1708045,-24.414,-27.344,-23.438000000000002,-57.129,1.0
1624333168.1747108,1.953,-5.859,23.438000000000002,-25.391,1.0
1624333168.178617,14.16,-14.648,0.977,27.344,1.0
1624333168.1825233,-19.043,-24.414,-43.457,-9.766,1.0
1624333168.1864295,-63.477,-24.414,-20.508000000000003,-90.33200000000001,1.0
1624333168.1903358,-67.87100000000001,-25.391,0.0,-99.12100000000001,1.0
1624333168.194242,-22.949,-28.32,-11.719000000000001,-43.945,1.0
1624333168.1981483,-18.555,-81.055,1.465,8.301,1.0
1624333168.2020545,-29.296999999999997,-54.199,-19.043,-3.418,1.0
1624333168.205961,-27.831999999999997,6.348,-35.156,-47.363,1.0
1624333168.209867,-51.27,16.602,-34.18,-82.52,1.0
1624333168.213773,-65.43,-13.672,-8.301,-56.152,1.0
1624333168.2176797,-43.945,-39.062,-6.348,-17.578,1.0
1624333168.2215855,-32.715,-27.344,-20.996,-41.016000000000005,1.0
1624333168.2254918,-32.227,-22.461,-5.859,-62.012,1.0
1624333168.229398,-31.738000000000003,-24.901999999999997,-29.296999999999997,-33.691,1.0
1624333168.2333043,-21.973000000000003,-18.555,-66.406,5.859,1.0
1624333168.237211,-9.766,-54.199,-16.602,0.488,1.0
1624333168.241117,-36.621,-2.441,-9.277000000000001,-39.062,1.0
1624333168.2450233,-46.875,-14.16,-19.531,-73.73,1.0
1624333168.2489295,-48.34,-18.555,-9.277000000000001,-41.504,1.0
1624333168.2528355,-33.203,-31.738000000000003,16.113,-6.348,1.0
1624333168.256742,-29.785,-36.133,11.23,-20.508000000000003,1.0
1624333168.2606483,-34.18,-19.531,-12.695,-48.34,1.0
1624333168.2645543,-38.086,-22.461,-61.523,-40.039,1.0
1624333168.2684608,-33.203,-18.555,-64.453,3.906,1.0
1624333168.272367,-18.066,-28.32,-6.836,10.254000000000001,1.0
1624333168.2762733,-26.855,-47.852,1.953,-48.34,1.0
1624333168.2801795,-25.391,-38.086,-11.719000000000001,-45.41,1.0
1624333168.2840858,-14.648,-37.598,-4.395,6.348,1.0
1624333168.287992,-22.461,2.441,-38.086,2.441,1.0
1624333168.2918983,-37.598,-17.09,-27.344,-22.949,1.0
1624333168.2958045,-48.34,-18.555,-25.879,-83.984,1.0
1624333168.2997108,-41.504,-13.184000000000001,2.441,-68.848,1.0
1624333168.303617,-18.066,-63.965,19.531,-0.488,1.0
1624333168.3075233,-14.648,-81.055,-9.277000000000001,6.836,1.0
1624333168.3114297,-29.296999999999997,-16.602,-27.344,-51.758,1.0
1624333168.3153358,-18.555,17.578,0.977,-71.777,1.0
1624333168.319242,-3.906,-12.207,-0.977,-19.531,1.0
1624333168.3231483,-5.859,-19.531,-70.801,11.23,1.0
1624333168.3270545,-28.32,-12.695,-79.102,-42.48,1.0
1624333168.3309608,-60.547,-41.992,-8.301,-100.586,1.0
1624333168.334867,-41.016000000000005,-11.719000000000001,-2.93,-76.172,1.0
1624333168.338773,-38.574,-38.574,-10.254000000000001,-44.922,1.0
1624333168.3426797,-17.09,-48.34,-11.23,5.371,1.0
1624333168.3465855,-13.672,-40.527,-27.344,-16.602,1.0
1624333168.3504922,-30.761999999999997,-51.27,-42.48,-75.684,1.0
1624333168.354398,-39.551,-55.176,-25.879,-61.523,1.0
1624333168.3583043,-29.785,-6.348,-20.02,-11.23,1.0
1624333168.362211,-47.852,2.93,-17.578,-32.715,1.0
1624333168.366117,-69.336,-15.137,-12.207,-87.402,1.0
1624333168.370023,-49.316,-14.648,-21.973000000000003,-75.195,1.0
1624333168.3739295,-5.371,4.395,-15.137,17.09,1.0
1624333168.3778355,-13.672,-19.531,-22.461,24.414,1.0
1624333168.381742,-26.366999999999997,-15.625,10.742,1.0,1.0
1624333168.3856483,-62.988,-4.883,-40.039,1.0,1.0
1624333168.3895545,-60.059,-24.901999999999997,-61.523,1.0,1.0
1624333168.3934608,-4.883,1.953,16.113,1.0,1.0
1624333168.397367,14.16,8.789,23.438000000000002,1.0,1.0
1624333168.4012733,-28.809,-46.387,-22.949,1.0,1.0
1624333168.4051795,-52.246,-69.336,-8.789,1.0,1.0
1624333168.4090855,-26.855,-47.852,-10.254000000000001,1.0,1.0
1624333168.412992,-21.484,-25.879,-55.176,1.0,1.0
1624333168.4168983,-40.039,-20.996,-42.968999999999994,1.0,1.0
1624333168.4208045,-60.059,-10.254000000000001,-14.16,1.0,1.0
1624333168.4247108,-52.246,2.441,-37.598,1.0,1.0
1624333168.428617,-40.527,-1.465,-4.883,-50.781000000000006,1.0
1624333168.4325233,-32.715,-50.781000000000006,-12.207,-14.16,1.0
1624333168.4364295,-14.648,-36.133,0.488,-27.344,1.0
1624333168.4403358,-1.465,-53.711000000000006,-18.066,-47.363,1.0
1624333168.444242,-11.23,-79.59,-55.176,-20.996,1.0
1624333168.4481483,-12.207,-20.02,-22.461,17.09,1.0
1624333168.4520545,-41.504,17.09,3.418,-23.926,1.0
1624333168.455961,-95.215,-10.742,-19.043,-114.74600000000001,1.0
1624333168.459867,-78.613,-23.438000000000002,-17.578,-91.79700000000001,1.0
1624333168.463773,-27.831999999999997,-23.438000000000002,-1.953,7.324,1.0
1624333168.4676797,-30.273000000000003,-39.062,-18.555,-0.488,1.0
1624333168.4715855,-56.152,-49.316,-28.809,-74.707,1.0
1624333168.4754918,-92.773,-31.738000000000003,-104.492,-148.92600000000002,1.0
1624333168.479398,-93.262,31.25,-59.082,-147.461,1.0
1624333168.4833043,-75.684,38.086,-22.949,-85.93799999999999,1.0
1624333168.487211,-57.129,6.836,-10.742,-63.477,1.0
1624333168.491117,-66.895,-40.039,-15.625,-109.375,1.0
1624333168.4950233,-87.402,-44.434,-41.992,-137.695,1.0
1624333168.4989295,-51.758,-17.578,-49.805,-61.035,1.0
1624333168.5028355,-32.715,-35.156,-54.688,-14.648,1.0
1624333168.506742,-60.059,-18.066,-59.57,-77.637,1.0
1624333168.5106483,-77.637,17.09,-36.621,-120.117,1.0
1624333168.5145543,-52.733999999999995,10.742,-0.488,-61.035,1.0
1624333168.5184608,-26.855,3.418,13.184000000000001,-2.93,1.0
1624333168.522367,-44.434,4.883,-37.598,1.0,1.0
1624333168.5262733,-52.733999999999995,-10.742,-53.223,1.0,1.0
1624333168.5301795,-52.246,-42.48,-34.668,1.0,1.0
1624333168.5340858,-57.617,-74.707,-61.035,1.0,1.0
1624333168.537992,-62.012,-44.434,-57.617,1.0,1.0
1624333168.5418983,-69.336,-11.719000000000001,-30.273000000000003,1.0,1.0
1624333168.5458045,-54.688,7.324,-18.555,1.0,1.0
1624333168.5497108,-18.555,38.086,-14.16,1.0,1.0
1624333168.553617,7.324,33.691,-0.977,1.0,1.0
1624333168.5575233,-18.555,-0.977,-14.16,1.0,1.0
1624333168.5614297,-64.453,-35.156,-72.75399999999999,1.0,1.0
1624333168.5653358,-30.273000000000003,-9.766,-58.593999999999994,1.0,1.0
1624333168.569242,8.301,18.555,-11.23,1.0,1.0
1624333168.5731483,-27.344,-4.883,-28.809,1.0,1.0
1624333168.5770545,-63.965,-18.555,-20.996,1.0,1.0
1624333168.5809608,-53.223,-6.836,-3.906,1.0,1.0
1624333168.584867,-34.18,-5.859,-3.418,1.0,1.0
1624333168.588773,-45.898,-18.066,-3.418,1.0,1.0
1624333168.5926797,-85.449,-22.949,-21.484,1.0,1.0
1624333168.5965855,-99.609,-24.414,-57.129,1.0,1.0
1624333168.6004922,-49.805,-41.504,-37.109,1.0,1.0
1624333168.604398,-70.801,-50.293,-30.761999999999997,1.0,1.0
1624333168.6083043,-167.96900000000002,-28.32,-35.645,1.0,1.0
1624333168.612211,-187.5,-16.113,5.859,1.0,1.0
1624333168.616117,-161.621,-38.574,-16.602,1.0,1.0
1624333168.620023,-132.812,-27.344,-8.789,1.0,1.0
1624333168.6239295,-140.137,-18.066,17.09,1.0,1.0
1624333168.6278355,-184.082,-87.891,4.395,1.0,1.0
1624333168.631742,-177.24599999999998,-129.88299999999998,20.996,1.0,1.0
1624333168.6356483,-136.719,-25.879,9.766,1.0,1.0
1624333168.6395545,-155.762,7.812,6.836,1.0,1.0
1624333168.6434608,-156.25,-56.641000000000005,-27.344,1.0,1.0
1624333168.647367,-120.117,-78.125,-1.953,1.0,1.0
1624333168.6512733,-151.855,-120.117,24.414,1.0,1.0
1624333168.6551795,-136.719,-90.33200000000001,-24.414,1.0,1.0
1624333168.6590855,-89.844,-27.344,-16.602,1.0,1.0
1624333168.662992,12.207,-22.461,-23.438000000000002,17.578,1.0
1624333168.6668983,0.0,-21.484,-37.598,-20.996,1.0
1624333168.6708045,-13.672,-51.27,-66.895,-6.836,1.0
1624333168.6747108,16.602,-44.922,-45.41,60.059,1.0
1624333168.678617,35.156,6.348,-20.02,52.246,1.0
1624333168.6825233,14.16,22.949,-32.715,-16.602,1.0
1624333168.6864295,-3.418,-22.461,-36.133,-19.043,1.0
1624333168.6903358,-10.742,-48.34,-29.296999999999997,21.484,1.0
1624333168.694242,-18.066,-24.901999999999997,-20.02,5.371,1.0
1624333168.6981483,-56.641000000000005,-35.645,-46.387,-81.055,1.0
1624333168.7020545,-53.223,-60.547,-76.66,-73.73,1.0
1624333168.705961,11.719000000000001,-50.293,-62.012,33.203,1.0
1624333168.709867,8.301,14.16,39.551,27.831999999999997,1.0
1624333168.713773,27.831999999999997,-0.977,17.578,40.527,1.0
1624333168.7176797,-13.672,-26.366999999999997,-33.691,-35.156,1.0
1624333168.7215855,-38.086,-57.129,-41.016000000000005,-65.918,1.0
1624333168.7254918,-36.133,-57.617,-51.27,-23.438000000000002,1.0
1624333168.729398,-9.766,-19.043,-54.199,18.066,1.0
1624333168.7333043,-38.086,-28.32,-39.551,-51.758,1.0
1624333168.737211,-63.477,-25.391,-24.901999999999997,-101.56200000000001,1.0
1624333168.741117,-12.695,-3.418,-26.366999999999997,-17.09,1.0
1624333168.7450233,22.461,8.301,-47.363,46.875,1.0
1624333168.7489295,9.277000000000001,-1.953,-46.875,0.488,1.0
1624333168.7528355,-12.207,-18.066,-14.16,-54.688,1.0
1624333168.756742,-23.438000000000002,-36.133,1.953,1.0,1.0
1624333168.7606483,5.371,-30.273000000000003,-6.348,1.0,1.0
1624333168.7645543,32.715,-10.742,-4.883,1.0,1.0
1624333168.7684608,-28.809,-33.203,-19.531,1.0,1.0
1624333168.772367,-64.453,-29.296999999999997,-36.621,1.0,1.0
1624333168.7762733,-42.968999999999994,-16.113,-39.062,1.0,1.0
1624333168.7801795,-4.395,-5.859,-16.602,1.0,1.0
1624333168.7840858,6.348,-10.742,-13.672,1.0,1.0
1624333168.787992,-41.016000000000005,-63.477,-56.641000000000005,1.0,1.0
1624333168.7918983,-49.316,-34.668,-25.879,1.0,1.0
1624333168.7958045,-21.484,16.602,20.996,1.0,1.0
1624333168.7997108,-34.668,11.719000000000001,-14.648,1.0,1.0
1624333168.803617,-25.391,-21.484,-51.758,-92.773,1.0
1624333168.8075233,-76.172,-25.391,-61.035,-58.593999999999994,1.0
1624333168.8114297,-63.477,-1.465,-43.945,9.277000000000001,1.0
1624333168.8153358,-31.25,-21.484,-41.016000000000005,-7.812,1.0
1624333168.819242,-26.855,-36.133,-31.738000000000003,-41.992,1.0
1624333168.8231483,-52.733999999999995,-33.203,-12.695,3.906,1.0
1624333168.8270545,-58.105,-33.691,5.371,15.137,1.0
1624333168.8309608,-14.648,-12.695,18.066,-62.012,1.0
1624333168.834867,3.906,-3.906,14.16,-109.863,1.0
1624333168.838773,-20.02,-25.391,-20.508000000000003,-75.195,1.0
1624333168.8426797,-44.922,-39.062,-30.273000000000003,11.23,1.0
1624333168.8465855,-24.414,-34.18,-12.207,18.555,1.0
1624333168.8504922,-43.457,6.836,4.883,-20.996,1.0
1624333168.854398,-9.277000000000001,-5.371,-26.855,43.457,1.0
1624333168.8583043,-11.23,-15.625,-31.738000000000003,-0.488,1.0
1624333168.862211,-6.836,0.488,-4.395,-28.809,1.0
1624333168.866117,-24.414,-13.184000000000001,-5.859,-26.855,1.0
1624333168.870023,-41.992,-34.18,-42.968999999999994,-14.648,1.0
1624333168.8739295,-51.758,-34.668,-49.805,-40.527,1.0
1624333168.8778355,-71.777,-12.695,-28.809,-107.91,1.0
1624333168.881742,-51.27,-8.789,-20.996,-83.008,1.0
1624333168.8856483,-1.465,-21.973000000000003,-25.391,20.508000000000003,1.0
1624333168.8895545,25.391,-21.484,-4.395,51.758,1.0
1624333168.8934608,9.277000000000001,-21.484,5.371,-19.531,1.0
1624333168.897367,-22.461,-20.996,-8.301,1.0,1.0
1624333168.9012733,-4.883,-12.207,-33.691,1.0,1.0
1624333168.9051795,1.465,-21.973000000000003,-72.75399999999999,1.0,1.0
1624333168.9090855,-28.809,-22.949,-49.316,1.0,1.0
1624333168.912992,-69.336,-27.831999999999997,0.977,1.0,1.0
1624333168.9168983,-66.895,-41.992,-8.789,1.0,1.0
1624333168.9208045,-31.25,-36.133,-20.02,1.0,1.0
1624333168.9247108,-28.32,-23.926,-7.324,1.0,1.0
1624333168.928617,-34.18,-4.883,-1.953,1.0,1.0
1624333168.9325233,-38.086,-4.395,-51.27,1.0,1.0
1624333168.9364295,-28.32,-21.973000000000003,-73.73,1.0,1.0
1624333168.9403358,-29.296999999999997,-11.23,-23.926,1.0,1.0
1624333168.944242,-18.066,-25.879,-20.996,15.137,1.0
1624333168.9481483,-29.785,-30.273000000000003,-7.324,-29.785,1.0
1624333168.9520545,-77.637,-49.316,-34.18,-114.74600000000001,1.0
1624333168.955961,-75.195,-39.062,-31.738000000000003,-87.891,1.0
1624333168.959867,-32.227,-16.602,-19.531,-8.789,1.0
1624333168.963773,-5.859,-15.625,-41.016000000000005,0.0,1.0
1624333168.9676797,4.395,-9.277000000000001,-31.25,-38.574,1.0
1624333168.9715855,7.324,1.465,0.977,-39.062,1.0
1624333168.9754918,-31.738000000000003,-7.812,-15.625,-17.578,1.0
1624333168.979398,-39.062,-3.906,-26.366999999999997,-23.438000000000002,1.0
1624333168.9833043,-36.621,-20.02,-44.922,-71.289,1.0
1624333168.987211,-51.758,-25.879,-43.457,-86.914,1.0
1624333168.991117,-84.473,-37.598,5.371,-99.609,1.0
1624333168.9950233,-35.156,-4.395,10.742,-6.836,1.0
1624333168.9989295,3.906,2.93,13.672,34.668,1.0
1624333169.0028355,-32.715,-5.371,-15.625,-39.551,1.0
1624333169.006742,-68.359,-14.16,-66.406,-84.961,1.0
1624333169.0106483,-56.641000000000005,-46.387,-47.363,-41.992,1.0
1624333169.0145543,-24.901999999999997,-35.156,-4.395,12.695,1.0
1624333169.0184608,-9.277000000000001,-12.207,-10.742,-2.93,1.0
1624333169.022367,-18.555,-17.09,-0.977,-45.41,1.0
1624333169.0262733,-24.414,-18.066,19.531,-24.901999999999997,1.0
1624333169.0301795,-31.738000000000003,-28.809,6.836,6.836,1.0
1624333169.0340858,-49.316,-35.156,-16.113,-29.785,1.0
1624333169.037992,-27.831999999999997,-34.668,1.465,1.0,1.0
1624333169.0418983,-44.922,-33.203,-0.977,1.0,1.0
1624333169.0458045,-24.901999999999997,-14.16,-3.418,1.0,1.0
1624333169.0497108,-10.254000000000001,-20.508000000000003,-48.828,1.0,1.0
1624333169.053617,-25.391,-21.973000000000003,-65.918,1.0,1.0
1624333169.0575233,-42.968999999999994,-21.484,-49.805,1.0,1.0
1624333169.0614297,-49.316,-42.968999999999994,-44.922,1.0,1.0
1624333169.0653358,-38.574,-45.898,-21.484,1.0,1.0
1624333169.069242,-12.207,-25.391,26.855,1.0,1.0
1624333169.0731483,-1.953,2.441,57.129,1.0,1.0
1624333169.0770545,-20.508000000000003,7.812,33.691,1.0,1.0
1624333169.0809608,-30.761999999999997,-24.901999999999997,-10.742,1.0,1.0
1624333169.084867,-14.16,-44.434,-35.156,14.16,1.0
1624333169.088773,1.465,2.441,-31.25,24.901999999999997,1.0
1624333169.0926797,-40.527,-7.812,-17.578,-60.547,1.0
1624333169.0965855,-73.73,-34.668,-31.738000000000003,-97.16799999999999,1.0
1624333169.1004922,-45.41,-24.901999999999997,-45.898,-23.438000000000002,1.0
1624333169.104398,-15.625,-9.277000000000001,-28.809,16.113,1.0
1624333169.1083043,-21.484,-17.578,-16.113,-38.574,1.0
1624333169.112211,-46.387,-44.434,-38.086,-90.33200000000001,1.0
1624333169.116117,-38.086,-49.316,-20.996,-50.293,1.0
1624333169.120023,-8.789,-46.875,-2.441,9.277000000000001,1.0
1624333169.1239295,-7.324,-34.668,-18.066,-17.09,1.0
1624333169.1278355,-23.926,-11.719000000000001,-29.785,-62.012,1.0
1624333169.131742,-7.812,-4.395,-58.105,1.0,1.0
1624333169.1356483,3.906,-3.906,-53.711000000000006,1.0,1.0
1624333169.1395545,-26.366999999999997,-17.578,-15.625,1.0,1.0
1624333169.1434608,-47.363,-27.344,-7.324,1.0,1.0
1624333169.147367,-39.062,-20.996,-8.301,1.0,1.0
1624333169.1512733,-14.648,-18.066,3.418,1.0,1.0
1624333169.1551795,-29.296999999999997,-35.645,-37.109,1.0,1.0
1624333169.1590855,-68.359,-48.34,-90.33200000000001,1.0,1.0
1624333169.162992,-54.199,-56.641000000000005,-53.711000000000006,1.0,1.0
1624333169.1668983,-20.996,-46.875,-35.645,1.0,1.0
1624333169.1708045,-2.93,-31.25,-19.531,1.0,1.0
1624333169.1747108,8.789,-32.715,30.273000000000003,1.0,1.0
1624333169.178617,-25.391,-32.227,26.855,-64.941,1.0
1624333169.1825233,-38.086,-57.129,8.301,-41.016000000000005,1.0
1624333169.1864295,-26.855,-37.109,-11.719000000000001,4.883,1.0
1624333169.1903358,-36.621,-8.301,-40.527,-38.086,1.0
1624333169.194242,-41.992,-18.555,-51.758,-81.055,1.0
1624333169.1981483,-41.016000000000005,-16.113,-39.062,-55.663999999999994,1.0
1624333169.2020545,-28.809,-10.254000000000001,-28.32,-2.93,1.0
1624333169.205961,-15.625,-20.508000000000003,-55.176,5.371,1.0
1624333169.209867,-29.785,-28.32,-74.707,-55.663999999999994,1.0
1624333169.213773,-44.434,-25.879,-18.066,-75.195,1.0
1624333169.2176797,-35.156,-27.831999999999997,-4.395,-21.973000000000003,1.0
1624333169.2215855,-20.508000000000003,-54.199,9.277000000000001,3.418,1.0
1624333169.2254918,4.395,-48.34,-16.602,19.531,1.0
1624333169.229398,-12.695,-25.879,5.859,-39.062,1.0
1624333169.2333043,-38.574,-30.273000000000003,-32.227,-69.824,1.0
1624333169.237211,-16.602,-41.992,-37.109,-13.672,1.0
1624333169.241117,0.488,-36.621,-27.344,5.859,1.0
1624333169.2450233,-40.527,-21.484,-46.387,-64.453,1.0
1624333169.2489295,-57.617,-19.531,-76.66,-93.262,1.0
1624333169.2528355,-20.508000000000003,-24.414,-57.129,-22.949,1.0
1624333169.256742,4.395,-14.16,-14.648,27.831999999999997,1.0
1624333169.2606483,-6.348,-23.438000000000002,4.883,-22.949,1.0
1624333169.2645543,-51.758,-48.828,-16.113,-99.609,1.0
1624333169.2684608,-44.922,-48.34,-33.203,-59.082,1.0
1624333169.272367,-22.461,-69.824,-36.621,-16.113,1.0
1624333169.2762733,-7.324,-60.059,-33.691,21.484,1.0
1624333169.2801795,-25.391,-17.09,-53.711000000000006,-36.133,1.0
1624333169.2840858,-63.477,-16.602,-79.59,-98.145,1.0
1624333169.287992,-51.758,-28.809,-79.102,-62.5,1.0
1624333169.2918983,-10.254000000000001,-21.484,-26.855,19.043,1.0
1624333169.2958045,-38.086,-27.831999999999997,0.488,-13.184000000000001,1.0
1624333169.2997108,-59.57,-21.484,1.465,-83.984,1.0
1624333169.303617,-31.25,-22.949,1.465,-52.733999999999995,1.0
1624333169.3075233,-10.742,-40.527,-23.926,12.695,1.0
1624333169.3114297,6.348,-19.043,-35.645,31.25,1.0
1624333169.3153358,-23.438000000000002,-20.02,-58.105,-41.504,1.0
1624333169.319242,-60.059,-34.18,-62.988,-95.215,1.0
1624333169.3231483,-43.945,-29.296999999999997,-31.25,-70.801,1.0
1624333169.3270545,-34.668,-45.898,-61.035,-4.883,1.0
1624333169.3309608,-43.945,-48.828,-77.637,-5.371,1.0
1624333169.334867,-47.852,-41.504,-51.27,-65.43,1.0
1624333169.338773,-48.34,-53.223,-56.641000000000005,-89.844,1.0
1624333169.3426797,-10.254000000000001,-26.855,-36.133,-6.836,1.0
1624333169.3465855,16.113,-7.812,8.789,46.875,1.0
1624333169.3504922,-21.973000000000003,-35.645,5.371,-22.949,1.0
1624333169.354398,-60.059,-49.805,-10.254000000000001,-87.402,1.0
1624333169.3583043,-46.875,-32.715,-48.34,-40.527,1.0
1624333169.362211,-17.578,-38.086,-51.758,25.879,1.0
1624333169.366117,-10.742,-30.761999999999997,-6.836,10.742,1.0
1624333169.370023,-22.949,-32.715,-22.461,-19.043,1.0
1624333169.3739295,-32.227,-17.578,-11.719000000000001,-54.199,1.0
1624333169.3778355,-38.574,-33.691,-34.18,-34.18,1.0
1624333169.381742,-36.133,-45.898,-41.992,6.836,1.0
1624333169.3856483,-40.039,-31.25,-30.761999999999997,-13.184000000000001,1.0
1624333169.3895545,-58.105,-46.875,-58.593999999999994,-80.566,1.0
1624333169.3934608,-46.387,-21.973000000000003,-66.406,-74.219,1.0
1624333169.397367,-17.09,14.648,-35.156,6.348,1.0
1624333169.4012733,-25.391,-10.254000000000001,-24.414,2.93,1.0
1624333169.4051795,-45.41,-26.855,-26.855,-65.43,1.0
1624333169.4090855,-43.945,-18.066,-29.296999999999997,-72.75399999999999,1.0
1624333169.412992,-7.324,-22.949,-11.719000000000001,1.0,1.0
1624333169.4168983,7.324,-42.968999999999994,-0.977,1.0,1.0
1624333169.4208045,-44.434,-35.645,-33.691,1.0,1.0
1624333169.4247108,-82.031,-19.043,-47.852,1.0,1.0
1624333169.428617,-60.547,-20.02,-42.968999999999994,1.0,1.0
1624333169.4325233,-16.602,-20.508000000000003,-54.199,1.0,1.0
1624333169.4364295,-3.906,-7.812,-39.551,1.0,1.0
1624333169.4403358,-23.926,-3.906,-23.926,1.0,1.0
1624333169.444242,-29.296999999999997,-19.531,-43.457,1.0,1.0
1624333169.4481483,-1.465,-18.555,-47.363,1.0,1.0
1624333169.4520545,2.441,-26.366999999999997,-38.086,1.0,1.0
1624333169.455961,-35.156,-60.547,-28.32,1.0,1.0
1624333169.459867,-31.738000000000003,-32.715,-27.344,-83.008,1.0
1624333169.463773,-45.41,-45.41,-10.254000000000001,-45.898,1.0
1624333169.4676797,-20.02,-51.27,-33.691,15.625,1.0
1624333169.4715855,10.254000000000001,-18.066,-29.296999999999997,-0.977,1.0
1624333169.4754918,-8.789,-22.949,-12.695,-44.922,1.0
1624333169.479398,-45.898,-76.172,-84.473,-64.941,1.0
1624333169.4833043,-30.761999999999997,-38.086,-79.59,-11.719000000000001,1.0
1624333169.487211,-12.695,6.348,-7.324,17.578,1.0
1624333169.491117,-41.504,-30.273000000000003,-16.113,-31.25,1.0
1624333169.4950233,-69.824,-44.922,-42.48,-66.406,1.0
1624333169.4989295,-78.613,-38.086,-47.852,-22.461,1.0
1624333169.5028355,-31.25,-19.043,-17.578,4.883,1.0
1624333169.506742,-7.324,-19.043,-64.453,8.789,1.0
1624333169.5106483,-25.391,-37.109,-77.637,-4.883,1.0
1624333169.5145543,-61.523,-42.48,-63.965,-88.37899999999999,1.0
1624333169.5184608,-55.663999999999994,-20.508000000000003,-50.781000000000006,-87.891,1.0
1624333169.522367,-27.344,0.977,-26.855,-18.555,1.0
1624333169.5262733,-21.484,-17.09,-23.438000000000002,3.418,1.0
1624333169.5301795,-37.598,-46.875,-14.16,-45.898,1.0
1624333169.5340858,-41.992,-40.527,-13.184000000000001,-69.336,1.0
1624333169.537992,-30.761999999999997,-28.809,-35.156,-25.879,1.0
1624333169.5418983,6.836,-18.066,-41.016000000000005,41.992,1.0
1624333169.5458045,17.578,-8.301,-35.156,25.391,1.0
1624333169.5497108,-25.391,-19.531,-28.32,-51.758,1.0
1624333169.553617,-53.223,-36.621,-46.387,1.0,1.0
1624333169.5575233,-42.968999999999994,-34.668,-59.082,1.0,1.0
1624333169.5614297,-26.366999999999997,-25.879,-31.25,1.0,1.0
1624333169.5653358,-35.645,-42.48,-26.855,1.0,1.0
1624333169.569242,-66.406,-64.941,-56.641000000000005,1.0,1.0
1624333169.5731483,-31.25,-20.02,-50.293,1.0,1.0
1624333169.5770545,-2.441,14.648,-37.598,1.0,1.0
1624333169.5809608,-41.992,-3.906,-47.852,1.0,1.0
1624333169.584867,-41.504,-7.812,-29.296999999999997,1.0,1.0
1624333169.588773,-9.277000000000001,-4.883,-32.227,1.0,1.0
1624333169.5926797,-2.93,-11.719000000000001,-70.801,1.0,1.0
1624333169.5965855,-27.831999999999997,-21.973000000000003,-69.824,1.0,1.0
1624333169.6004922,-24.414,-27.831999999999997,-26.855,-1.465,1.0
1624333169.604398,-48.34,-25.879,-23.926,-69.824,1.0
1624333169.6083043,-51.758,-6.348,-32.715,-75.195,1.0
1624333169.612211,-29.296999999999997,-18.555,-34.18,-8.789,1.0
1624333169.616117,-19.043,-42.48,-43.945,9.277000000000001,1.0
1624333169.620023,-36.621,-49.805,-65.43,-48.34,1.0
1624333169.6239295,-60.059,-38.086,-57.617,-90.33200000000001,1.0
1624333169.6278355,-41.504,-26.366999999999997,-46.875,-42.968999999999994,1.0
1624333169.631742,-2.441,-18.555,-43.945,16.602,1.0
1624333169.6356483,14.648,6.348,-28.32,2.93,1.0
1624333169.6395545,-50.293,-50.293,-61.523,-82.52,1.0
1624333169.6434608,-81.543,-91.79700000000001,-76.66,-84.473,1.0
1624333169.647367,-37.109,-65.918,-33.203,-3.418,1.0
1624333169.6512733,-23.438000000000002,-46.875,-19.043,-6.348,1.0
1624333169.6551795,-44.922,-44.922,-28.32,-69.336,1.0
1624333169.6590855,-53.223,-59.082,-41.992,-67.87100000000001,1.0
1624333169.662992,-10.254000000000001,-35.156,-39.062,14.648,1.0
1624333169.6668983,19.531,0.977,-24.414,37.598,1.0
1624333169.6708045,-16.602,-8.301,-31.25,-45.41,1.0
1624333169.6747108,-57.129,-34.18,-56.152,-85.93799999999999,1.0
1624333169.678617,-37.598,-53.711000000000006,-60.547,-18.555,1.0
1624333169.6825233,0.0,-36.621,-30.761999999999997,34.18,1.0
1624333169.6864295,-27.344,-13.184000000000001,-29.785,-33.203,1.0
1624333169.6903358,-78.613,-44.922,-54.688,-110.84,1.0
1624333169.694242,-43.457,-32.227,-25.879,-66.895,1.0
1624333169.6981483,-58.105,-29.785,-55.176,-83.984,1.0
1624333169.7020545,-39.551,-65.918,-91.309,-24.901999999999997,1.0
1624333169.705961,-15.625,-54.199,-107.91,7.324,1.0
1624333169.709867,0.488,-5.859,-73.242,-14.648,1.0
1624333169.713773,-18.066,-21.484,-34.18,-45.41,1.0
1624333169.7176797,-32.227,-57.129,-23.926,-20.02,1.0
1624333169.7215855,-26.366999999999997,-41.992,-17.09,9.277000000000001,1.0
1624333169.7254918,-33.691,-34.668,-30.273000000000003,-36.621,1.0
1624333169.729398,-55.663999999999994,-65.918,-45.41,-88.867,1.0
1624333169.7333043,-56.152,-76.66,-58.105,-57.617,1.0
1624333169.737211,-29.785,-48.828,-66.895,6.348,1.0
1624333169.741117,-34.18,-66.406,-76.66,-6.348,1.0
1624333169.7450233,-36.133,-76.172,-59.57,-35.156,1.0
1624333169.7489295,-58.593999999999994,-48.828,-71.289,-103.516,1.0
1624333169.7528355,-72.266,-65.918,-80.566,-88.37899999999999,1.0
1624333169.756742,-38.574,-62.5,-62.988,-11.719000000000001,1.0
1624333169.7606483,-14.648,-27.831999999999997,-53.711000000000006,-11.719000000000001,1.0
1624333169.7645543,-26.855,-32.227,-58.105,-66.406,1.0
1624333169.7684608,-39.551,-73.73,-63.965,-67.383,1.0
1624333169.772367,-16.602,-70.312,-48.828,8.301,1.0
1624333169.7762733,1.953,-16.602,-22.461,29.296999999999997,1.0
1624333169.7801795,-24.414,-19.531,-58.105,-43.945,1.0
1624333169.7840858,-59.57,-59.57,-103.027,-85.449,1.0
1624333169.787992,-27.831999999999997,-59.57,-63.477,1.0,1.0
1624333169.7918983,5.859,-33.691,-53.223,1.0,1.0
1624333169.7958045,-26.366999999999997,-27.344,-87.891,1.0,1.0
1624333169.7997108,-50.781000000000006,-50.293,-72.266,1.0,1.0
1624333169.803617,-29.785,-52.246,-57.129,1.0,1.0
1624333169.8075233,7.324,-23.926,-39.551,1.0,1.0
1624333169.8114297,-18.066,-35.645,-40.527,1.0,1.0
1624333169.8153358,-72.266,-64.453,-84.473,1.0,1.0
1624333169.819242,-74.707,-68.848,-96.68,1.0,1.0
1624333169.8231483,-33.691,-65.918,-87.402,1.0,1.0
1624333169.8270545,-3.906,-73.242,-78.613,1.0,1.0
1624333169.8309608,-32.715,-78.125,-72.266,1.0,1.0
1624333169.834867,-33.691,-74.219,-99.12100000000001,-49.316,1.0
1624333169.838773,-46.387,-64.941,-66.406,36.621,1.0
1624333169.8426797,-29.785,-62.012,-37.598,55.663999999999994,1.0
1624333169.8465855,1.465,-52.246,-25.879,-8.301,1.0
1624333169.8504922,2.93,-44.434,-59.57,-52.246,1.0
1624333169.854398,-20.508000000000003,-54.688,-84.473,-12.207,1.0
1624333169.8583043,-45.41,-60.059,-84.473,24.414,1.0
1624333169.862211,-20.02,-40.527,-99.12100000000001,-33.691,1.0
1624333169.866117,-20.02,-51.758,-107.42200000000001,-89.355,1.0
1624333169.870023,-49.316,-79.102,-98.145,-41.992,1.0
1624333169.8739295,-23.926,-63.965,-83.984,29.296999999999997,1.0
1624333169.8778355,6.348,-54.688,-73.242,7.324,1.0
1624333169.881742,-15.625,-70.801,-91.79700000000001,8.301,1.0
1624333169.8856483,-10.254000000000001,-111.816,-104.00399999999999,13.672,1.0
1624333169.8895545,-37.598,-114.258,-87.891,-63.477,1.0
1624333169.8934608,-43.945,-49.805,-75.195,-75.195,1.0
1624333169.897367,-10.742,-21.484,-58.593999999999994,-3.418,1.0
1624333169.9012733,2.441,-49.316,-45.41,25.391,1.0
1624333169.9051795,-27.831999999999997,-69.824,-81.543,-37.109,1.0
1624333169.9090855,-34.18,-44.434,-101.56200000000001,-72.75399999999999,1.0
1624333169.912992,-15.137,-43.945,-92.773,-25.879,1.0
1624333169.9168983,-6.836,-64.941,-90.33200000000001,18.555,1.0
1624333169.9208045,-8.789,-83.008,-109.375,-13.184000000000001,1.0
1624333169.9247108,-30.761999999999997,-99.609,-126.465,-76.172,1.0
1624333169.928617,-19.531,-79.102,-90.82,1.0,1.0
1624333169.9325233,-2.441,-75.684,-58.105,1.0,1.0
1624333169.9364295,-42.48,-99.12100000000001,-81.543,1.0,1.0
1624333169.9403358,-67.87100000000001,-93.75,-83.49600000000001,1.0,1.0
1624333169.944242,-67.87100000000001,-57.617,-70.801,1.0,1.0
1624333169.9481483,-34.668,-38.574,-69.336,1.0,1.0
1624333169.9520545,-2.441,-57.617,-83.984,1.0,1.0
1624333169.955961,-23.438000000000002,-78.613,-105.95700000000001,1.0,1.0
1624333169.959867,-47.852,-95.70299999999999,-128.906,1.0,1.0
1624333169.963773,-20.02,-92.773,-96.68,1.0,1.0
1624333169.9676797,-1.953,-68.359,-65.43,1.0,1.0
1624333169.9715855,-39.062,-63.477,-86.914,1.0,1.0
1624333169.9754918,31.25,-58.593999999999994,-117.676,35.645,1.0
1624333169.979398,3.906,-65.918,-141.113,-39.551,1.0
1624333169.9833043,17.578,-53.223,-108.887,-30.273000000000003,1.0
1624333169.987211,45.41,-40.039,-84.473,41.992,1.0
1624333169.991117,37.598,-48.34,-101.56200000000001,47.852,1.0
1624333169.9950233,10.742,-60.059,-127.93,-15.625,1.0
1624333169.9989295,4.395,-87.402,-139.16,-48.828,1.0
1624333170.0028355,-7.324,-80.078,-131.836,-26.855,1.0
1624333170.006742,-22.461,-39.551,-112.79299999999999,-9.277000000000001,1.0
1624333170.0106483,-39.551,-35.645,-102.539,-54.688,1.0
1624333170.0145543,-41.016000000000005,-37.598,-116.211,-95.70299999999999,1.0
1624333170.0184608,-27.344,-35.156,-118.652,-52.246,1.0
1624333170.022367,-19.043,-63.965,-111.32799999999999,1.0,1.0
1624333170.0262733,-8.301,-85.93799999999999,-102.051,1.0,1.0
1624333170.0301795,-4.395,-49.805,-82.031,1.0,1.0
1624333170.0340858,-14.648,-51.27,-90.33200000000001,1.0,1.0
1624333170.037992,-3.906,-94.238,-116.211,1.0,1.0
1624333170.0418983,5.371,-91.309,-122.07,1.0,1.0
1624333170.0458045,-19.531,-66.895,-101.56200000000001,1.0,1.0
1624333170.0497108,-17.09,-40.527,-82.031,1.0,1.0
1624333170.053617,-5.859,-49.316,-94.727,1.0,1.0
1624333170.0575233,-20.02,-60.059,-122.559,1.0,1.0
1624333170.0614297,-48.828,-60.547,-125.488,1.0,1.0
1624333170.0653358,-58.105,-72.266,-114.74600000000001,1.0,1.0
1624333170.069242,-106.445,-145.50799999999998,-52.733999999999995,-125.488,1.0
1624333170.0731483,-121.58200000000001,-144.531,-69.336,-133.30100000000002,1.0
1624333170.0770545,-92.285,-109.375,-92.773,-50.781000000000006,1.0
1624333170.0809608,-78.125,-104.00399999999999,-90.82,-28.32,1.0
1624333170.084867,-78.613,-116.699,-82.031,-74.707,1.0
1624333170.088773,-80.078,-131.34799999999998,-73.73,-89.355,1.0
1624333170.0926797,-51.27,-113.77,-61.523,-24.414,1.0
1624333170.0965855,-47.852,-105.469,-82.031,-0.488,1.0
1624333170.1004922,-91.79700000000001,-105.95700000000001,-118.164,-88.867,1.0
1624333170.104398,-114.258,-106.934,-125.0,-127.93,1.0
1624333170.1083043,-92.285,-139.16,-113.77,-62.988,1.0
1624333170.112211,-54.688,-147.461,-124.023,2.441,1.0
1624333170.116117,-18.066,-102.539,-98.633,16.602,1.0
1624333170.120023,-11.23,-93.75,-64.941,0.488,1.0
1624333170.1239295,-24.414,-85.93799999999999,-71.289,-46.875,1.0
1624333170.1278355,-33.691,-106.934,-89.355,-22.949,1.0
1624333170.131742,-20.508000000000003,-105.95700000000001,-102.051,31.738000000000003,1.0
1624333170.1356483,-42.48,-82.52,-113.281,-10.254000000000001,1.0
1624333170.1395545,-51.27,-78.613,-83.984,-61.035,1.0
1624333170.1434608,-21.484,-64.453,-66.406,-27.344,1.0
1624333170.147367,-17.578,-74.707,-104.00399999999999,16.113,1.0
1624333170.1512733,-24.414,-110.352,-107.91,11.23,1.0
1624333170.1551795,-29.296999999999997,-98.633,-96.191,-33.691,1.0
1624333170.1590855,-33.691,-71.777,-104.00399999999999,-44.434,1.0
1624333170.162992,-71.777,-66.406,-84.961,-72.75399999999999,1.0
1624333170.1668983,-50.781000000000006,-77.637,-91.309,-10.742,1.0
1624333170.1708045,-28.809,-63.477,-96.191,14.16,1.0
1624333170.1747108,-22.461,-48.34,-95.70299999999999,-33.203,1.0
1624333170.178617,-20.508000000000003,-58.593999999999994,-82.52,-50.293,1.0
1624333170.1825233,-7.324,-90.82,-88.867,5.859,1.0
1624333170.1864295,-17.09,-114.74600000000001,-119.62899999999999,14.648,1.0
1624333170.1903358,-47.852,-94.727,-114.258,-43.945,1.0
1624333170.194242,-48.828,-71.777,-81.543,-71.289,1.0
1624333170.1981483,-23.926,-93.262,-75.684,-17.578,1.0
1624333170.2020545,17.578,-76.172,-63.965,53.223,1.0
1624333170.205961,11.23,-61.523,-84.961,12.207,1.0
1624333170.209867,-19.043,-59.082,-137.207,1.0,1.0
1624333170.213773,-41.016000000000005,-86.914,-116.699,1.0,1.0
1624333170.2176797,-17.09,-96.191,-62.012,1.0,1.0
1624333170.2215855,0.0,-88.37899999999999,-50.781000000000006,1.0,1.0
1624333170.2254918,-36.621,-102.539,-85.93799999999999,1.0,1.0
1624333170.229398,-62.012,-87.402,-94.727,1.0,1.0
1624333170.2333043,-51.27,-54.199,-71.289,1.0,1.0
1624333170.237211,-27.344,-54.688,-69.336,1.0,1.0
1624333170.241117,-18.066,-85.93799999999999,-65.918,1.0,1.0
1624333170.2450233,-15.625,-72.75399999999999,-72.75399999999999,1.0,1.0
1624333170.2489295,-26.855,-75.684,-109.863,1.0,1.0
1624333170.2528355,-30.761999999999997,-98.633,-114.258,1.0,1.0
1624333170.256742,-157.715,-68.359,-57.617,-110.84,1.0
1624333170.2606483,-187.012,-74.219,-84.961,-153.809,1.0
1624333170.2645543,-231.93400000000003,-76.172,-83.49600000000001,-250.977,1.0
1624333170.2684608,-228.516,-72.266,-63.477,-260.254,1.0
1624333170.272367,-213.86700000000002,-85.449,-80.078,-211.426,1.0
1624333170.2762733,-191.895,-63.965,-91.79700000000001,-176.75799999999998,1.0
1624333170.2801795,-208.49599999999998,-72.75399999999999,-114.74600000000001,-245.605,1.0
1624333170.2840858,-221.68,-84.473,-121.094,-294.434,1.0
1624333170.287992,-167.48,-45.898,-107.91,-208.00799999999998,1.0
1624333170.2918983,-136.23,-19.043,-137.207,-150.391,1.0
1624333170.2958045,-150.391,-20.02,-154.785,-199.707,1.0
1624333170.2997108,-148.438,-38.086,-149.90200000000002,-238.77,1.0
1624333170.303617,-110.352,-40.039,-153.32,1.0,1.0
1624333170.3075233,-71.289,-20.996,-146.97299999999998,1.0,1.0
1624333170.3114297,-60.547,-32.227,-135.74200000000002,1.0,1.0
1624333170.3153358,-55.663999999999994,-37.598,-127.441,1.0,1.0
1624333170.319242,-33.691,-24.901999999999997,-117.676,1.0,1.0
1624333170.3231483,-11.23,-33.691,-125.0,1.0,1.0
1624333170.3270545,5.371,-45.41,-127.93,1.0,1.0
1624333170.3309608,8.301,-59.57,-131.34799999999998,1.0,1.0
1624333170.334867,13.184000000000001,-56.641000000000005,-112.305,1.0,1.0
1624333170.338773,41.016000000000005,-39.062,-78.613,1.0,1.0
1624333170.3426797,64.941,-41.504,-92.285,1.0,1.0
1624333170.3465855,68.848,-56.152,-98.145,1.0,1.0
1624333170.3504922,45.898,-40.039,-63.965,54.688,1.0
1624333170.354398,19.043,-25.879,-70.312,-13.184000000000001,1.0
1624333170.3583043,12.695,-24.414,-78.125,-17.09,1.0
1624333170.362211,22.949,-62.988,-67.87100000000001,26.855,1.0
1624333170.366117,27.831999999999997,-84.961,-78.125,40.039,1.0
1624333170.370023,10.742,-74.219,-73.242,-0.488,1.0
1624333170.3739295,6.348,-54.688,-46.875,-23.438000000000002,1.0
1624333170.3778355,27.344,-59.082,-46.875,24.414,1.0
1624333170.381742,28.809,-81.543,-81.055,56.641000000000005,1.0
1624333170.3856483,1.465,-62.5,-83.008,2.93,1.0
1624333170.3895545,-33.203,-48.34,-62.5,-64.453,1.0
1624333170.3934608,-31.738000000000003,-57.617,-66.895,-42.968999999999994,1.0
1624333170.397367,7.324,-49.316,-48.34,1.0,1.0
1624333170.4012733,15.625,-60.059,-40.039,1.0,1.0
1624333170.4051795,-5.859,-64.941,-69.824,1.0,1.0
1624333170.4090855,1.465,-30.273000000000003,-93.262,1.0,1.0
1624333170.412992,29.785,-38.574,-95.215,1.0,1.0
1624333170.4168983,33.691,-56.641000000000005,-78.613,1.0,1.0
1624333170.4208045,9.766,-44.922,-59.57,1.0,1.0
1624333170.4247108,-12.207,-46.875,-62.5,1.0,1.0
1624333170.428617,7.324,-69.824,-72.75399999999999,1.0,1.0
1624333170.4325233,5.371,-89.844,-76.172,1.0,1.0
1624333170.4364295,-16.602,-81.055,-52.246,1.0,1.0
1624333170.4403358,-25.391,-62.5,-31.738000000000003,1.0,1.0
1624333170.444242,-41.992,-45.898,-78.613,6.348,1.0
1624333170.4481483,-24.901999999999997,-61.035,-93.262,56.641000000000005,1.0
1624333170.4520545,-25.391,-85.93799999999999,-68.359,10.254000000000001,1.0
1624333170.455961,-34.18,-86.426,-43.457,-38.086,1.0
1624333170.459867,-32.715,-66.406,-25.879,-29.296999999999997,1.0
1624333170.463773,-67.87100000000001,-85.93799999999999,-48.34,27.831999999999997,1.0
1624333170.4676797,-36.133,-75.684,-58.105,36.621,1.0
1624333170.4715855,15.137,-61.523,-43.457,-28.809,1.0
1624333170.4754918,-30.273000000000003,-105.95700000000001,-73.73,-60.547,1.0
1624333170.479398,-69.336,-96.68,-66.895,-22.949,1.0
1624333170.4833043,-38.086,-50.781000000000006,-38.574,0.977,1.0
1624333170.487211,-2.441,-46.387,-48.34,-37.598,1.0
1624333170.491117,-24.414,-44.922,-49.316,5.371,1.0
1624333170.4950233,-41.992,-61.035,-44.434,-48.828,1.0
1624333170.4989295,-61.035,-46.387,-44.434,-93.75,1.0
1624333170.5028355,-72.266,-55.176,-41.016000000000005,-66.895,1.0
1624333170.506742,-68.848,-65.43,-42.48,-34.18,1.0
1624333170.5106483,-85.93799999999999,-62.988,-57.617,-65.43,1.0
1624333170.5145543,-130.371,-51.27,-57.129,-140.137,1.0
1624333170.5184608,-153.809,-44.922,-43.945,-161.621,1.0
1624333170.522367,-151.36700000000002,-48.828,-46.387,-113.77,1.0
1624333170.5262733,-167.96900000000002,-52.246,-52.733999999999995,-125.977,1.0
1624333170.5301795,-215.332,-50.293,-46.387,-219.727,1.0
1624333170.5340858,-236.81599999999997,-50.293,-26.366999999999997,-250.0,1.0
1624333170.537992,-216.797,-73.242,-18.066,1.0,1.0
1624333170.5418983,-191.895,-65.918,-24.414,1.0,1.0
1624333170.5458045,-200.68400000000003,-62.5,-42.968999999999994,1.0,1.0
1624333170.5497108,-215.82,-83.984,-56.641000000000005,1.0,1.0
1624333170.553617,-205.078,-109.863,-78.125,1.0,1.0
1624333170.5575233,-183.105,-93.75,-83.008,1.0,1.0
1624333170.5614297,-175.78099999999998,-34.18,-69.336,1.0,1.0
1624333170.5653358,-229.49200000000002,-39.551,-84.961,1.0,1.0
1624333170.569242,-226.562,-38.086,-70.312,1.0,1.0
1624333170.5731483,-166.016,-28.809,-59.082,1.0,1.0
1624333170.5770545,-138.184,-34.668,-59.57,1.0,1.0
1624333170.5809608,-130.371,-48.34,-56.641000000000005,1.0,1.0
1624333170.584867,57.617,-41.016000000000005,-42.968999999999994,54.688,1.0
1624333170.588773,33.203,-40.039,-54.688,0.977,1.0
1624333170.5926797,31.25,-59.082,-61.523,24.901999999999997,1.0
1624333170.5965855,85.449,-50.293,-57.617,104.98,1.0
1624333170.6004922,81.055,-56.152,-61.035,77.637,1.0
1624333170.604398,35.156,-87.891,-55.176,-0.488,1.0
1624333170.6083043,51.27,-74.219,-48.828,25.879,1.0
1624333170.612211,62.988,-51.758,-64.453,68.848,1.0
1624333170.616117,24.901999999999997,-32.227,-69.336,27.344,1.0
1624333170.620023,-17.578,-24.414,-69.336,-41.504,1.0
1624333170.6239295,-22.461,-39.062,-76.172,-44.922,1.0
1624333170.6278355,9.766,-39.062,-48.828,27.344,1.0
1624333170.631742,34.668,-30.273000000000003,-20.02,1.0,1.0
1624333170.6356483,23.926,-52.733999999999995,-26.855,1.0,1.0
1624333170.6395545,19.043,-48.34,-15.137,1.0,1.0
1624333170.6434608,19.531,-33.203,-25.879,1.0,1.0
1624333170.647367,6.348,-41.992,-59.082,1.0,1.0
1624333170.6512733,0.0,-22.949,-51.758,1.0,1.0
1624333170.6551795,3.906,-15.625,-74.707,1.0,1.0
1624333170.6590855,25.879,-43.457,-81.543,1.0,1.0
1624333170.662992,37.598,-46.875,-47.363,1.0,1.0
1624333170.6668983,31.738000000000003,-43.457,-27.831999999999997,1.0,1.0
1624333170.6708045,16.602,-57.129,-14.16,1.0,1.0
1624333170.6747108,10.254000000000001,-45.41,-2.93,1.0,1.0
1624333170.678617,20.996,-26.366999999999997,-6.836,1.0,1.0
1624333170.6825233,1.465,-33.203,-41.016000000000005,1.0,1.0
1624333170.6864295,-35.645,-47.363,-60.547,1.0,1.0
1624333170.6903358,-38.086,-53.223,-58.593999999999994,1.0,1.0
1624333170.694242,-7.812,-46.875,-58.593999999999994,1.0,1.0
1624333170.6981483,18.066,-37.598,-41.992,1.0,1.0
1624333170.7020545,5.371,-34.668,-37.598,1.0,1.0
1624333170.705961,-8.301,-19.043,-42.968999999999994,1.0,1.0
1624333170.709867,7.324,-5.859,-41.992,1.0,1.0
1624333170.713773,22.461,-1.465,-21.973000000000003,1.0,1.0
1624333170.7176797,18.066,-27.831999999999997,0.488,1.0,1.0
1624333170.7215855,-10.254000000000001,-50.781000000000006,-12.695,1.0,1.0
1624333170.7254918,6.348,-27.344,-37.598,1.0,1.0
1624333170.729398,14.648,-54.199,-54.199,1.0,1.0
1624333170.7333043,-12.695,-75.684,-52.246,1.0,1.0
1624333170.737211,-20.508000000000003,-52.246,-29.785,1.0,1.0
1624333170.741117,-12.207,-31.738000000000003,-33.691,1.0,1.0
1624333170.7450233,-3.418,-15.625,-72.266,1.0,1.0
1624333170.7489295,-17.09,-28.809,-89.844,1.0,1.0
1624333170.7528355,-30.761999999999997,-60.059,-55.176,1.0,1.0
1624333170.756742,-18.555,-53.711000000000006,-41.504,1.0,1.0
1624333170.7606483,13.184000000000001,-34.18,-82.52,1.0,1.0
1624333170.7645543,16.602,-43.945,-81.055,1.0,1.0
1624333170.7684608,-15.625,-50.781000000000006,-26.855,1.0,1.0
1624333170.772367,-32.227,-43.945,-61.523,-77.637,1.0
1624333170.7762733,-38.086,-45.898,-80.566,-39.062,1.0
1624333170.7801795,2.93,-47.852,-64.453,32.227,1.0
1624333170.7840858,27.831999999999997,-46.875,-49.805,-0.488,1.0
1624333170.787992,2.441,-32.715,-30.273000000000003,-63.477,1.0
1624333170.7918983,-10.742,-15.137,6.348,-32.227,1.0
1624333170.7958045,9.277000000000001,-9.277000000000001,2.441,25.879,1.0
1624333170.7997108,-4.395,-36.133,-40.039,-6.348,1.0
1624333170.803617,-37.109,-49.316,-50.781000000000006,-76.172,1.0
1624333170.8075233,-48.34,-22.461,-31.25,-81.055,1.0
1624333170.8114297,-45.898,-22.949,-37.598,-25.391,1.0
1624333170.8153358,-27.344,-46.875,-61.035,0.0,1.0
1624333170.819242,-12.207,-48.828,-76.66,1.0,1.0
1624333170.8231483,-18.555,-54.688,-67.87100000000001,1.0,1.0
1624333170.8270545,-44.434,-53.223,-41.504,1.0,1.0
1624333170.8309608,-34.18,-39.062,-14.16,1.0,1.0
1624333170.834867,-3.418,-16.602,8.789,1.0,1.0
1624333170.838773,-18.555,-4.883,-5.371,1.0,1.0
1624333170.8426797,-33.691,-28.32,-14.16,1.0,1.0
1624333170.8465855,-23.438000000000002,-42.968999999999994,-30.273000000000003,1.0,1.0
1624333170.8504922,-14.16,-45.41,-61.035,1.0,1.0
1624333170.854398,-23.438000000000002,-33.203,-77.148,1.0,1.0
1624333170.8583043,-45.898,-17.09,-68.848,1.0,1.0
1624333170.862211,-35.156,-29.785,-26.855,1.0,1.0
1624333170.866117,-27.831999999999997,-69.336,-43.945,-27.831999999999997,1.0
1624333170.870023,-8.789,-51.27,-60.547,20.02,1.0
1624333170.8739295,-22.461,-41.016000000000005,-72.266,-20.508000000000003,1.0
1624333170.8778355,-47.852,-31.738000000000003,-78.613,-83.008,1.0
1624333170.881742,-35.645,-13.672,-55.663999999999994,-59.57,1.0
1624333170.8856483,-20.508000000000003,-35.156,-27.344,0.488,1.0
1624333170.8895545,-22.949,-35.645,-23.438000000000002,-11.23,1.0
1624333170.8934608,-32.227,-23.926,-30.273000000000003,-65.43,1.0
1624333170.897367,-23.926,-39.062,-39.062,-53.711000000000006,1.0
1624333170.9012733,7.324,-36.621,-33.691,11.719000000000001,1.0
1624333170.9051795,15.625,-31.738000000000003,-56.152,20.02,1.0
1624333170.9090855,-15.137,-43.945,-68.848,-45.41,1.0
1624333170.912992,-1.465,-32.227,-59.57,-15.137,1.0
1624333170.9168983,-17.09,-62.012,-72.75399999999999,-33.691,1.0
1624333170.9208045,3.418,-60.059,-57.617,28.809,1.0
1624333170.9247108,22.461,-23.926,-10.254000000000001,53.223,1.0
1624333170.928617,-5.859,-14.648,-6.836,-16.602,1.0
1624333170.9325233,-25.879,-27.831999999999997,-43.457,-60.059,1.0
1624333170.9364295,-12.695,-47.852,-32.227,-11.719000000000001,1.0
1624333170.9403358,8.789,-54.688,-6.348,41.504,1.0
1624333170.944242,-6.836,-41.016000000000005,-42.968999999999994,-6.348,1.0
1624333170.9481483,-29.785,-26.855,-73.73,-60.059,1.0
1624333170.9520545,-8.301,-23.926,-46.387,-10.254000000000001,1.0
1624333170.955961,30.273000000000003,-33.691,-13.184000000000001,54.199,1.0
1624333170.959867,5.371,-38.574,-37.109,1.0,1.0
1624333170.963773,-55.176,-51.758,-49.805,1.0,1.0
1624333170.9676797,-48.828,-51.758,-27.831999999999997,1.0,1.0
1624333170.9715855,-7.324,-22.949,-37.598,1.0,1.0
1624333170.9754918,-0.977,-4.395,-36.621,1.0,1.0
1624333170.979398,-34.18,-9.277000000000001,-42.48,1.0,1.0
1624333170.9833043,-39.551,-21.973000000000003,-42.968999999999994,1.0,1.0
1624333170.987211,-23.438000000000002,-56.152,-22.461,1.0,1.0
1624333170.991117,-10.254000000000001,-66.406,-17.09,1.0,1.0
1624333170.9950233,-30.273000000000003,-55.663999999999994,-29.785,1.0,1.0
1624333170.9989295,-47.852,-46.875,-39.551,1.0,1.0
1624333171.0028355,-28.809,-29.785,-54.688,1.0,1.0
1624333171.006742,-10.254000000000001,-21.484,-32.227,1.0,1.0
1624333171.0106483,-15.137,-33.691,-17.578,1.0,1.0
1624333171.0145543,-17.09,-28.32,-50.293,1.0,1.0
1624333171.0184608,-1.953,-7.812,-37.598,1.0,1.0
1624333171.022367,-4.395,-45.898,-1.953,1.0,1.0
1624333171.0262733,-29.785,-89.355,-12.207,1.0,1.0
1624333171.0301795,-50.781000000000006,-58.105,-31.25,1.0,1.0
1624333171.0340858,-35.645,-32.227,-27.344,1.0,1.0
1624333171.037992,-12.695,-38.086,-35.156,1.0,1.0
1624333171.0418983,-6.836,-33.203,-35.156,1.0,1.0
1624333171.0458045,-24.901999999999997,-29.785,-31.738000000000003,1.0,1.0
1624333171.0497108,-38.574,-35.645,-53.223,1.0,1.0
1624333171.053617,-31.738000000000003,-59.57,-39.551,-64.453,1.0
1624333171.0575233,-14.648,-49.316,-58.593999999999994,-10.742,1.0
1624333171.0614297,-28.32,-35.156,-67.87100000000001,-18.066,1.0
1624333171.0653358,-54.688,-48.34,-61.035,-83.984,1.0
1624333171.069242,-52.733999999999995,-37.598,-45.41,-93.75,1.0
1624333171.0731483,-17.578,-21.973000000000003,-21.973000000000003,-14.16,1.0
1624333171.0770545,-0.488,-35.645,-45.898,30.273000000000003,1.0
1624333171.0809608,-11.23,-23.926,-69.824,-16.602,1.0
1624333171.084867,-39.551,-28.809,-56.641000000000005,-69.824,1.0
1624333171.088773,-34.668,-44.434,-39.062,-38.574,1.0
1624333171.0926797,-3.418,-28.32,-15.137,22.461,1.0
1624333171.0965855,-6.836,-16.602,-16.602,-4.883,1.0
1624333171.1004922,-40.039,-12.695,-56.152,1.0,1.0
1624333171.104398,-43.945,-26.366999999999997,-75.684,1.0,1.0
1624333171.1083043,-17.09,-29.785,-48.34,1.0,1.0
1624333171.112211,-23.926,-28.809,-39.062,1.0,1.0
1624333171.116117,-39.551,-48.828,-39.551,1.0,1.0
1624333171.120023,-30.273000000000003,-50.293,-27.831999999999997,1.0,1.0
1624333171.1239295,-21.973000000000003,-52.733999999999995,-40.527,1.0,1.0
1624333171.1278355,-7.812,-44.922,-50.293,1.0,1.0
1624333171.131742,-3.418,-20.508000000000003,-34.18,1.0,1.0
1624333171.1356483,-26.855,-19.043,-40.039,1.0,1.0
1624333171.1395545,-17.578,-29.296999999999997,-40.039,1.0,1.0
1624333171.1434608,6.348,-41.992,-24.901999999999997,1.0,1.0
1624333171.147367,-19.531,-65.43,-22.461,1.0,1.0
1624333171.1512733,-45.41,-57.617,-21.973000000000003,1.0,1.0
1624333171.1551795,-17.578,-8.789,-18.066,1.0,1.0
1624333171.1590855,-7.812,-19.043,-24.414,1.0,1.0
1624333171.162992,-23.438000000000002,-50.293,-21.484,1.0,1.0
1624333171.1668983,-41.016000000000005,-41.992,-14.648,1.0,1.0
1624333171.1708045,-54.688,-37.109,-35.645,1.0,1.0
1624333171.1747108,-42.48,-34.668,-55.176,1.0,1.0
1624333171.178617,-22.461,-18.066,-45.41,1.0,1.0
1624333171.1825233,-30.273000000000003,-19.043,-36.133,1.0,1.0
1624333171.1864295,-40.039,-44.434,-23.438000000000002,1.0,1.0
1624333171.1903358,-40.527,-62.012,-33.691,1.0,1.0
1624333171.194242,-12.207,-48.828,-56.641000000000005,13.184000000000001,1.0
1624333171.1981483,-5.371,-59.082,-38.086,22.461,1.0
1624333171.2020545,-39.062,-54.199,-40.039,-61.035,1.0
1624333171.205961,-75.684,-46.387,-37.109,-99.12100000000001,1.0
1624333171.209867,-51.27,-54.199,-25.879,-26.855,1.0
1624333171.213773,-28.809,-42.968999999999994,-35.645,7.324,1.0
1624333171.2176797,-45.898,-27.344,-28.32,-53.711000000000006,1.0
1624333171.2215855,-58.593999999999994,-32.715,-17.09,-94.238,1.0
1624333171.2254918,-52.733999999999995,-42.968999999999994,-29.296999999999997,-57.129,1.0
1624333171.229398,-23.438000000000002,-33.203,-27.831999999999997,4.395,1.0
1624333171.2333043,-14.648,-9.766,-20.996,-9.277000000000001,1.0
1624333171.237211,-17.578,7.324,-17.578,-48.34,1.0
1624333171.241117,-48.828,-21.973000000000003,-43.457,-79.59,1.0
1624333171.2450233,-41.992,-29.296999999999997,-37.109,-42.968999999999994,1.0
1624333171.2489295,1.465,-37.109,-19.043,29.785,1.0
1624333171.2528355,1.953,-43.457,-8.301,5.859,1.0
1624333171.256742,-41.992,-51.758,-27.831999999999997,-70.801,1.0
1624333171.2606483,-52.246,-42.48,-56.641000000000005,-57.617,1.0
1624333171.2645543,-36.621,-38.086,-63.477,-2.441,1.0
1624333171.2684608,-23.438000000000002,-33.691,-55.176,0.977,1.0
1624333171.272367,-51.27,-36.133,-37.109,-62.988,1.0
1624333171.2762733,-66.406,-40.527,-12.207,-80.566,1.0
1624333171.2801795,-20.02,-33.691,-10.742,-6.348,1.0
1624333171.2840858,-1.465,-26.855,-14.16,33.691,1.0
1624333171.287992,-19.531,-17.578,-46.875,3.418,1.0
1624333171.2918983,-44.922,-31.738000000000003,-55.176,-68.359,1.0
1624333171.2958045,-52.733999999999995,-40.527,-44.922,-76.66,1.0
1624333171.2997108,-15.137,-10.254000000000001,-29.785,17.578,1.0
1624333171.303617,-0.488,-29.296999999999997,-20.996,37.109,1.0
1624333171.3075233,-29.785,-51.27,-25.391,-46.875,1.0
1624333171.3114297,-56.641000000000005,-33.691,-35.645,-88.867,1.0
1624333171.3153358,-37.109,-41.992,-48.828,-34.18,1.0
1624333171.319242,-9.766,-53.711000000000006,-47.363,13.672,1.0
1624333171.3231483,-23.926,-52.246,-63.477,-21.973000000000003,1.0
1624333171.3270545,-46.875,-29.296999999999997,-69.824,-67.87100000000001,1.0
1624333171.3309608,-48.828,-21.973000000000003,-28.32,-50.781000000000006,1.0
1624333171.334867,-30.273000000000003,-19.043,2.441,1.0,1.0
1624333171.338773,-33.691,-18.555,-2.93,1.0,1.0
1624333171.3426797,-66.895,-28.32,-6.348,1.0,1.0
1624333171.3465855,-64.453,-25.879,-10.254000000000001,1.0,1.0
1624333171.3504922,-44.434,-35.645,-35.645,1.0,1.0
1624333171.354398,-19.531,-27.344,-14.648,1.0,1.0
1624333171.3583043,-12.695,-16.602,-7.324,1.0,1.0
1624333171.362211,-42.968999999999994,-45.41,-73.73,1.0,1.0
1624333171.366117,-37.598,-76.172,-89.844,1.0,1.0
1624333171.370023,-0.488,-61.523,-49.805,1.0,1.0
1624333171.3739295,-17.578,-41.016000000000005,-54.688,1.0,1.0
1624333171.3778355,-48.34,-35.156,-69.336,1.0,1.0
1624333171.381742,-41.504,-22.461,-21.973000000000003,-70.312,1.0
1624333171.3856483,-19.531,-8.301,-14.16,-21.973000000000003,1.0
1624333171.3895545,3.418,-20.996,-17.09,30.273000000000003,1.0
1624333171.3934608,-1.465,-49.805,-30.273000000000003,1.465,1.0
