timestamps,TP9,AF7,AF8,TP10,Right AUX
1622759270.8448582,-12.695,-13.184000000000001,-26.855,-14.16,1.0
1622759270.8487644,-62.5,-16.602,-38.086,-62.988,1.0
1622759270.8526707,-75.195,-19.531,-41.992,-63.965,1.0
1622759270.856577,-24.414,-21.973000000000003,-30.273000000000003,-24.414,1.0
1622759270.8604832,-3.418,-25.879,-31.25,-17.09,1.0
1622759270.8643897,-60.547,-23.438000000000002,-41.992,-75.195,1.0
1622759270.8682957,-88.37899999999999,-30.273000000000003,-28.32,-91.309,1.0
1622759270.872202,-33.691,-36.621,-12.207,-28.32,1.0
1622759270.8761082,10.742,-25.879,-21.973000000000003,3.418,1.0
1622759270.8800144,-33.691,-31.25,-36.133,-51.758,1.0
1622759270.8839207,-81.543,-26.366999999999997,-35.156,-85.93799999999999,1.0
1622759270.887827,-42.968999999999994,-4.883,-37.598,-32.227,1.0
1622759270.891733,11.23,-18.555,-42.48,1.0,1.0
1622759270.8956397,-5.371,-41.504,-28.32,1.0,1.0
1622759270.8995454,-61.035,-35.156,-13.672,1.0,1.0
1622759270.9034522,-60.059,-25.879,-10.742,1.0,1.0
1622759270.907358,2.441,-22.949,-10.742,1.0,1.0
1622759270.9112642,7.324,-25.391,-18.066,1.0,1.0
1622759270.915171,-60.059,-33.691,-31.25,1.0,1.0
1622759270.919077,-77.148,-20.996,-41.016000000000005,1.0,1.0
1622759270.922983,-18.555,-6.348,-30.761999999999997,1.0,1.0
1622759270.9268894,13.672,-12.207,-20.996,1.0,1.0
1622759270.9307954,-37.109,-19.043,-42.48,1.0,1.0
1622759270.934702,-80.078,-40.527,-58.105,1.0,1.0
1622759270.9386082,-36.621,-43.945,-36.621,1.0,1.0
1622759270.9425144,5.859,-35.156,-15.625,1.0,1.0
1622759270.9464207,-21.484,-23.926,-8.789,1.0,1.0
1622759270.950327,-81.055,-10.742,-25.879,1.0,1.0
1622759270.9542332,-71.777,-21.484,-43.457,1.0,1.0
1622759270.9581394,-13.184000000000001,-24.414,-36.133,1.0,1.0
1622759270.9620454,-13.672,-20.996,-22.949,1.0,1.0
1622759270.965952,-68.848,-43.945,-27.831999999999997,1.0,1.0
1622759270.9698582,-89.844,-54.199,-59.082,1.0,1.0
1622759270.9737644,-31.738000000000003,-35.645,-66.895,1.0,1.0
1622759270.9776707,-3.418,-27.344,-41.016000000000005,1.0,1.0
1622759270.981577,-56.152,-20.996,-31.25,1.0,1.0
1622759270.9854832,-80.566,-16.602,-34.668,-76.66,1.0
1622759270.9893894,-20.02,-10.254000000000001,-24.901999999999997,-7.812,1.0
1622759270.9932957,10.742,-28.809,-24.901999999999997,15.137,1.0
1622759270.997202,-25.391,-43.457,-34.18,-36.621,1.0
1622759271.0011082,-56.641000000000005,-27.344,-29.785,-62.012,1.0
1622759271.0050144,-31.738000000000003,-38.574,-26.855,-29.785,1.0
1622759271.008921,9.277000000000001,-49.805,-27.831999999999997,2.441,1.0
1622759271.012827,-14.16,-30.273000000000003,-38.086,-28.809,1.0
1622759271.016733,-63.477,-27.344,-39.062,-73.73,1.0
1622759271.0206397,-50.293,-18.066,-26.366999999999997,-51.758,1.0
1622759271.0245454,1.465,0.0,-27.831999999999997,2.441,1.0
1622759271.0284517,1.953,-7.324,-29.785,-6.348,1.0
1622759271.032358,-3.906,-38.086,-22.949,-3.418,1.0
1622759271.0362642,-44.434,-32.227,-40.527,-43.457,1.0
1622759271.040171,-97.16799999999999,-9.766,-52.733999999999995,-91.79700000000001,1.0
1622759271.044077,-58.105,-7.812,-37.109,-48.828,1.0
1622759271.0479832,-1.465,-18.066,-34.668,6.836,1.0
1622759271.0518894,-11.719000000000001,-30.761999999999997,-37.109,-11.23,1.0
1622759271.0557954,-54.688,-37.109,-39.062,-54.199,1.0
1622759271.059702,-60.059,-43.457,-42.48,-54.688,1.0
1622759271.0636082,-10.254000000000001,-41.504,-30.761999999999997,-11.719000000000001,1.0
1622759271.0675142,-3.418,-21.973000000000003,-25.879,-9.277000000000001,1.0
1622759271.0714207,-52.733999999999995,-16.113,-23.438000000000002,-53.711000000000006,1.0
1622759271.075327,-66.895,-22.949,-16.113,-58.593999999999994,1.0
1622759271.0792332,-20.02,-16.602,-20.508000000000003,1.0,1.0
1622759271.0831394,13.184000000000001,-10.742,-29.296999999999997,1.0,1.0
1622759271.0870457,-30.273000000000003,-6.836,-30.273000000000003,1.0,1.0
1622759271.090952,-70.312,-3.906,-33.691,1.0,1.0
1622759271.0948582,-40.527,-26.366999999999997,-34.668,1.0,1.0
1622759271.0987644,-1.953,-55.663999999999994,-34.18,1.0,1.0
1622759271.1026707,-18.066,-62.012,-34.668,1.0,1.0
1622759271.106577,-69.824,-41.992,-23.438000000000002,1.0,1.0
1622759271.1104832,-72.266,-27.831999999999997,-22.461,1.0,1.0
1622759271.1143897,-16.113,-24.901999999999997,-39.551,1.0,1.0
1622759271.1182957,-18.066,-23.438000000000002,-50.293,1.0,1.0
1622759271.122202,-74.707,-31.738000000000003,-43.945,1.0,1.0
1622759271.1261082,-71.777,-29.296999999999997,-30.761999999999997,1.0,1.0
1622759271.1300144,-12.695,-25.391,-21.973000000000003,1.0,1.0
1622759271.1339207,6.348,-20.996,-22.949,1.0,1.0
1622759271.137827,-62.5,-28.32,-34.668,1.0,1.0
1622759271.141733,-87.402,-38.086,-30.273000000000003,1.0,1.0
1622759271.1456397,-20.02,-21.973000000000003,-16.113,1.0,1.0
1622759271.1495454,5.859,-20.996,-17.578,1.0,1.0
1622759271.1534522,-41.016000000000005,-29.785,-23.926,1.0,1.0
1622759271.157358,-72.266,-26.366999999999997,-20.02,1.0,1.0
1622759271.1612642,-39.551,-38.574,-16.602,1.0,1.0
1622759271.165171,7.324,-31.25,-19.043,1.0,1.0
1622759271.169077,-18.066,-10.254000000000001,-27.344,1.0,1.0
1622759271.172983,-75.195,-13.672,-26.855,1.0,1.0
1622759271.1768894,-61.523,-17.578,-29.296999999999997,1.0,1.0
1622759271.1807954,-1.953,-10.742,-32.715,1.0,1.0
1622759271.184702,3.418,-24.414,-34.668,1.0,1.0
1622759271.1886082,-51.758,-31.738000000000003,-30.761999999999997,1.0,1.0
1622759271.1925144,-63.965,-22.461,-26.366999999999997,1.0,1.0
1622759271.1964207,-7.324,-23.438000000000002,-20.02,1.0,1.0
1622759271.200327,17.09,-28.809,-21.484,1.0,1.0
1622759271.2042332,-35.645,-17.09,-34.18,1.0,1.0
1622759271.2081394,-74.707,-11.719000000000001,-40.527,1.0,1.0
1622759271.2120454,-21.973000000000003,-27.831999999999997,-27.831999999999997,1.0,1.0
1622759271.215952,17.578,-33.203,-22.461,1.0,1.0
1622759271.2198582,-30.273000000000003,-47.852,-32.227,-43.945,1.0
1622759271.2237644,-75.684,-60.547,-34.18,-79.102,1.0
1622759271.2276707,-36.621,-33.203,-32.227,-33.203,1.0
1622759271.231577,11.719000000000001,-13.184000000000001,-22.949,11.719000000000001,1.0
1622759271.2354832,-12.695,-14.16,-30.761999999999997,-14.648,1.0
1622759271.2393894,-65.43,-3.906,-45.41,-62.988,1.0
1622759271.2432957,-60.547,0.977,-43.457,-53.223,1.0
1622759271.247202,-4.395,-5.859,-30.761999999999997,1.465,1.0
1622759271.2511082,2.441,-23.438000000000002,-13.184000000000001,2.93,1.0
1622759271.2550144,-65.43,-40.527,-10.742,-57.617,1.0
1622759271.258921,-81.543,-44.434,-12.695,-64.941,1.0
1622759271.262827,-21.484,-30.273000000000003,-17.09,-9.277000000000001,1.0
1622759271.266733,-22.949,-20.996,-36.133,-7.812,1.0
1622759271.2706397,-6.836,-27.831999999999997,-21.973000000000003,-6.836,1.0
1622759271.2745454,-53.711000000000006,-35.645,-30.761999999999997,-52.733999999999995,1.0
1622759271.2784517,-70.801,-34.668,-44.922,-61.035,1.0
1622759271.282358,-20.508000000000003,-36.621,-41.504,-19.531,1.0
1622759271.2862642,5.371,-42.968999999999994,-31.25,-4.395,1.0
1622759271.290171,-37.598,-28.809,-30.273000000000003,-54.688,1.0
1622759271.294077,-74.219,-11.719000000000001,-35.645,-81.055,1.0
1622759271.2979832,-45.41,-18.066,-38.086,-44.434,1.0
1622759271.3018894,-5.859,-17.578,-31.738000000000003,-11.719000000000001,1.0
1622759271.3057954,-27.344,-12.207,-22.949,-37.109,1.0
1622759271.309702,-75.684,-23.926,-17.578,-78.125,1.0
1622759271.3136082,-63.477,-32.715,-25.879,1.0,1.0
1622759271.3175142,-8.789,-41.016000000000005,-35.645,1.0,1.0
1622759271.3214207,-6.836,-39.062,-32.227,1.0,1.0
1622759271.325327,-61.035,-26.366999999999997,-22.949,1.0,1.0
1622759271.3292332,-77.637,-31.738000000000003,-33.203,1.0,1.0
1622759271.3331394,-19.043,-33.203,-42.968999999999994,1.0,1.0
1622759271.3370457,6.348,-32.227,-44.922,1.0,1.0
1622759271.340952,-44.434,-26.855,-49.316,1.0,1.0
1622759271.3448582,-74.219,-24.414,-25.879,1.0,1.0
1622759271.3487644,-29.785,-13.672,-20.996,1.0,1.0
1622759271.3526707,11.719000000000001,-26.855,-41.016000000000005,1.0,1.0
1622759271.356577,-36.621,-62.5,-47.363,1.0,1.0
1622759271.3604832,-6.836,-19.531,-42.48,-9.277000000000001,1.0
1622759271.3643897,-53.711000000000006,-23.438000000000002,-42.968999999999994,-61.035,1.0
1622759271.3682957,-72.75399999999999,-36.621,-28.809,-68.848,1.0
1622759271.372202,-18.066,-47.852,-24.901999999999997,-11.719000000000001,1.0
1622759271.3761082,3.906,-41.992,-35.156,1.465,1.0
1622759271.3800144,-36.621,-27.344,-38.086,-46.875,1.0
1622759271.3839207,-69.336,-34.668,-38.086,-72.75399999999999,1.0
1622759271.387827,-31.738000000000003,-45.41,-42.48,-33.203,1.0
1622759271.391733,15.625,-27.831999999999997,-34.18,10.254000000000001,1.0
1622759271.3956397,-18.066,-8.301,-26.366999999999997,-25.391,1.0
1622759271.3995454,-76.66,-28.809,-32.715,-83.008,1.0
1622759271.4034522,-57.617,-48.34,-32.227,-50.293,1.0
1622759271.407358,-2.441,-17.578,-27.344,1.0,1.0
1622759271.4112642,-18.066,-15.137,-25.879,1.0,1.0
1622759271.415171,-86.914,-62.988,-30.273000000000003,1.0,1.0
1622759271.419077,-84.473,-62.5,-36.621,1.0,1.0
1622759271.422983,-8.301,-22.949,-41.504,1.0,1.0
1622759271.4268894,4.395,-18.555,-54.688,1.0,1.0
1622759271.4307954,-49.805,-3.418,-38.086,1.0,1.0
1622759271.434702,-77.148,-8.789,-13.672,1.0,1.0
1622759271.4386082,-32.715,-29.296999999999997,-16.113,1.0,1.0
1622759271.4425144,21.484,-3.906,-4.395,1.0,1.0
1622759271.4464207,-15.625,-12.207,-12.695,1.0,1.0
1622759271.450327,-67.383,-34.18,-37.598,1.0,1.0
1622759271.4542332,-34.668,-36.133,-39.062,1.0,1.0
1622759271.4581394,13.672,-44.434,-29.296999999999997,1.0,1.0
1622759271.4620454,-8.789,-25.391,-46.387,1.0,1.0
1622759271.465952,-63.965,-20.508000000000003,-65.43,1.0,1.0
1622759271.4698582,-41.504,-36.133,-30.761999999999997,1.0,1.0
1622759271.4737644,5.859,-26.855,-22.949,1.0,1.0
1622759271.4776707,0.977,-12.695,-40.039,1.0,1.0
1622759271.481577,-48.828,-5.859,-35.156,1.0,1.0
1622759271.4854832,-68.848,-25.391,-37.109,1.0,1.0
1622759271.4893894,-16.602,-30.761999999999997,-37.109,1.0,1.0
1622759271.4932957,15.137,-24.414,-36.621,1.0,1.0
1622759271.497202,-17.578,-39.551,-45.898,1.0,1.0
1622759271.5011082,-53.711000000000006,-38.574,-44.434,1.0,1.0
1622759271.5050144,-34.668,-18.555,-28.32,1.0,1.0
1622759271.508921,2.93,-7.812,-12.207,1.0,1.0
1622759271.512827,-19.531,-4.395,-21.484,1.0,1.0
1622759271.516733,-65.918,-9.277000000000001,-41.992,1.0,1.0
1622759271.5206397,-59.082,-34.668,-44.434,1.0,1.0
1622759271.5245454,-15.625,-30.273000000000003,-39.062,1.0,1.0
1622759271.5284517,-20.508000000000003,-21.484,-19.043,1.0,1.0
1622759271.532358,-71.289,-36.133,-13.184000000000001,1.0,1.0
1622759271.5362642,-60.547,-39.062,-45.898,1.0,1.0
1622759271.540171,25.391,-20.02,-62.5,1.0,1.0
1622759271.544077,15.625,-36.133,-39.551,1.0,1.0
1622759271.5479832,-105.469,-47.363,-26.855,-104.492,1.0
1622759271.5518894,-125.977,-15.137,-28.32,-110.84,1.0
1622759271.5557954,-46.387,-9.766,-6.348,-27.831999999999997,1.0
1622759271.559702,22.461,4.395,-11.23,27.344,1.0
1622759271.5636082,-22.461,11.719000000000001,-37.598,-20.02,1.0
1622759271.5675142,-130.371,-50.293,-26.366999999999997,-116.699,1.0
1622759271.5714207,-132.32399999999998,-71.289,-22.461,-121.094,1.0
1622759271.575327,-78.125,-52.246,-23.926,-86.426,1.0
1622759271.5792332,-101.56200000000001,-58.105,-29.296999999999997,-111.816,1.0
1622759271.5831394,-144.531,-44.434,-37.598,-142.09,1.0
1622759271.5870457,-93.75,-22.461,-21.484,-87.402,1.0
1622759271.590952,-50.293,-16.113,-27.344,-44.922,1.0
1622759271.5948582,3.418,-40.039,-15.137,-99.609,1.0
1622759271.5987644,-18.066,-31.738000000000003,-25.879,-134.27700000000002,1.0
1622759271.6026707,-59.57,-18.066,-39.062,-64.941,1.0
1622759271.606577,-28.809,15.137,-20.02,-19.043,1.0
1622759271.6104832,15.137,0.488,-33.691,-65.918,1.0
1622759271.6143897,2.93,-38.086,-56.152,-116.211,1.0
1622759271.6182957,-40.039,-61.035,-35.645,-101.074,1.0
1622759271.622202,-56.641000000000005,-67.87100000000001,-15.137,-55.176,1.0
1622759271.6261082,-10.742,-23.926,-17.578,-48.828,1.0
1622759271.6300144,14.648,8.789,-33.203,-82.52,1.0
1622759271.6339207,-22.461,-16.602,-23.926,-95.70299999999999,1.0
1622759271.637827,-41.992,-33.691,-17.09,-48.828,1.0
1622759271.641733,-18.555,-3.418,-29.296999999999997,1.0,1.0
1622759271.6456397,-23.438000000000002,-18.066,-46.387,1.0,1.0
1622759271.6495454,-69.336,-48.34,-48.34,1.0,1.0
1622759271.6534522,-84.961,-29.785,-29.785,1.0,1.0
1622759271.657358,-27.344,-25.879,-17.09,1.0,1.0
1622759271.6612642,14.16,-43.457,-20.996,1.0,1.0
1622759271.665171,-12.695,-34.18,-19.531,1.0,1.0
1622759271.669077,-49.316,-30.273000000000003,-30.761999999999997,1.0,1.0
1622759271.672983,-25.879,-34.668,-51.758,1.0,1.0
1622759271.6768894,29.785,-30.761999999999997,-28.32,1.0,1.0
1622759271.6807954,6.348,-10.254000000000001,-10.742,1.0,1.0
1622759271.684702,-77.148,-16.602,-22.461,1.0,1.0
1622759271.6886082,-77.637,-16.602,-26.366999999999997,1.0,1.0
1622759271.6925144,-12.207,-10.254000000000001,-28.32,1.0,1.0
1622759271.6964207,2.441,-33.691,-35.645,1.0,1.0
1622759271.700327,-37.598,-58.593999999999994,-46.875,1.0,1.0
1622759271.7042332,-61.523,-46.875,-24.414,1.0,1.0
1622759271.7081394,-19.531,-28.32,0.488,1.0,1.0
1622759271.7120454,16.602,-15.625,2.441,1.0,1.0
1622759271.715952,-10.254000000000001,0.488,4.883,1.0,1.0
1622759271.7198582,-70.801,-14.648,-2.93,1.0,1.0
1622759271.7237644,-44.922,-11.23,-16.602,1.0,1.0
1622759271.7276707,17.09,0.0,-33.203,1.0,1.0
1622759271.731577,-18.555,-23.438000000000002,-40.039,1.0,1.0
1622759271.7354832,-25.879,-9.766,-37.598,-0.977,1.0
1622759271.7393894,-18.066,-37.598,-36.621,-38.086,1.0
1622759271.7432957,-68.359,-56.641000000000005,-29.296999999999997,-79.102,1.0
1622759271.747202,-87.402,-51.758,-25.391,-50.293,1.0
1622759271.7511082,-41.016000000000005,-17.09,-44.922,-1.953,1.0
1622759271.7550144,2.441,5.371,-47.852,-32.227,1.0
1622759271.758921,-29.785,-9.766,-13.184000000000001,-77.148,1.0
1622759271.762827,-78.125,-33.691,-16.602,-42.48,1.0
1622759271.766733,-50.293,-29.296999999999997,-46.875,10.254000000000001,1.0
1622759271.7706397,9.766,-10.742,-41.992,-9.277000000000001,1.0
1622759271.7745454,-10.742,-22.461,-39.551,-76.172,1.0
1622759271.7784517,-73.242,-24.901999999999997,-37.598,-73.242,1.0
1622759271.782358,-59.082,-20.508000000000003,-17.578,1.0,1.0
1622759271.7862642,0.488,-46.387,-17.09,1.0,1.0
1622759271.790171,0.0,-55.176,-29.296999999999997,1.0,1.0
1622759271.794077,-46.875,-36.621,-33.203,1.0,1.0
1622759271.7979832,-42.968999999999994,-3.906,-48.828,1.0,1.0
1622759271.8018894,12.207,10.254000000000001,-56.641000000000005,1.0,1.0
1622759271.8057954,22.461,4.395,-31.738000000000003,1.0,1.0
1622759271.809702,-33.691,-11.719000000000001,-12.207,1.0,1.0
1622759271.8136082,-69.336,-41.992,-9.766,1.0,1.0
1622759271.8175142,-20.508000000000003,-48.828,-11.719000000000001,1.0,1.0
1622759271.8214207,27.831999999999997,-40.039,-24.414,1.0,1.0
1622759271.825327,-19.043,-19.531,-48.34,1.0,1.0
1622759271.8292332,-82.031,-9.277000000000001,-45.41,-83.008,1.0
1622759271.8331394,-54.199,-16.602,-26.855,-52.246,1.0
1622759271.8370457,19.043,-18.555,-16.113,12.207,1.0
1622759271.840952,8.789,-23.926,-12.695,-6.836,1.0
1622759271.8448582,-49.316,-15.137,-26.366999999999997,-57.129,1.0
1622759271.8487644,-35.156,-31.738000000000003,-36.621,-32.715,1.0
1622759271.8526707,15.137,-58.105,-31.25,11.719000000000001,1.0
1622759271.856577,8.301,-37.109,-22.949,-6.836,1.0
1622759271.8604832,-50.781000000000006,-1.465,-31.738000000000003,-64.453,1.0
1622759271.8643897,-64.941,-3.906,-43.457,-69.336,1.0
1622759271.8682957,-10.254000000000001,-30.761999999999997,-34.18,-11.23,1.0
1622759271.872202,9.766,-48.34,-35.645,8.301,1.0
1622759271.8761082,-15.137,-50.293,-11.719000000000001,-8.301,1.0
1622759271.8800144,-70.312,-51.27,-8.789,-61.035,1.0
1622759271.8839207,-101.074,-16.113,-40.527,-87.891,1.0
1622759271.887827,-37.598,-3.906,-42.48,-26.855,1.0
1622759271.891733,-0.488,-16.602,-26.855,0.0,1.0
1622759271.8956397,-58.105,-40.039,-43.457,-57.617,1.0
1622759271.8995454,-96.191,-43.945,-52.733999999999995,-91.309,1.0
1622759271.9034522,-66.895,-40.527,-33.691,-58.105,1.0
1622759271.907358,-19.043,-31.738000000000003,-38.574,-18.066,1.0
1622759271.9112642,-22.949,-7.812,-42.48,-33.203,1.0
1622759271.915171,-71.777,-24.414,-31.738000000000003,-68.848,1.0
1622759271.919077,-68.848,-49.316,-32.715,-53.223,1.0
1622759271.922983,-10.254000000000001,-10.254000000000001,-2.441,1.0,1.0
1622759271.9268894,-12.695,6.836,-1.465,1.0,1.0
1622759271.9307954,-76.172,-23.926,-36.621,1.0,1.0
1622759271.934702,-90.33200000000001,-53.711000000000006,-48.828,1.0,1.0
1622759271.9386082,-38.574,-71.289,-42.48,1.0,1.0
1622759271.9425144,-6.836,-47.363,-40.527,1.0,1.0
1622759271.9464207,-46.875,-20.508000000000003,-49.805,1.0,1.0
1622759271.950327,-74.707,-25.391,-30.273000000000003,1.0,1.0
1622759271.9542332,-17.09,-15.625,-8.789,1.0,1.0
1622759271.9581394,32.715,-8.301,-27.344,1.0,1.0
1622759271.9620454,0.977,-26.855,-30.273000000000003,1.0,1.0
1622759271.965952,-49.805,-38.086,-33.691,1.0,1.0
1622759271.9698582,-31.738000000000003,-14.648,-42.48,1.0,1.0
1622759271.9737644,9.766,9.277000000000001,-32.715,1.0,1.0
1622759271.9776707,-19.043,-16.113,-44.922,1.0,1.0
1622759271.981577,-84.961,-72.266,-59.082,1.0,1.0
1622759271.9854832,-76.66,-70.312,-31.25,1.0,1.0
1622759271.9893894,-9.766,-6.836,-5.371,1.0,1.0
1622759271.9932957,-4.883,6.348,-12.695,1.0,1.0
1622759271.997202,-55.176,-28.809,-24.901999999999997,1.0,1.0
1622759272.0011082,-54.199,-19.043,-28.809,1.0,1.0
1622759272.0050144,-7.812,5.371,-48.828,1.0,1.0
1622759272.008921,0.977,-16.113,-40.527,1.0,1.0
1622759272.012827,-51.27,-45.41,-12.695,1.0,1.0
1622759272.016733,-90.33200000000001,-44.434,-19.043,1.0,1.0
1622759272.0206397,-56.641000000000005,-28.809,-29.296999999999997,1.0,1.0
1622759272.0245454,-9.766,-22.461,-33.203,1.0,1.0
1622759272.0284517,-36.133,-41.992,-34.668,1.0,1.0
1622759272.032358,-85.449,-43.945,-30.273000000000003,1.0,1.0
1622759272.0362642,-53.223,-16.602,-18.555,1.0,1.0
1622759272.040171,8.789,-14.16,-20.02,1.0,1.0
1622759272.044077,4.395,-20.996,-36.133,1.0,1.0
1622759272.0479832,-47.363,-11.23,-35.645,1.0,1.0
1622759272.0518894,-54.199,-10.254000000000001,-20.02,1.0,1.0
1622759272.0557954,-19.043,-34.18,-28.32,1.0,1.0
1622759272.059702,-7.812,-40.527,-41.992,1.0,1.0
1622759272.0636082,-59.57,-23.438000000000002,-42.48,-65.918,1.0
1622759272.0675142,-99.12100000000001,-23.926,-32.227,-92.285,1.0
1622759272.0714207,-32.227,-22.461,-21.973000000000003,-27.831999999999997,1.0
1622759272.075327,19.043,-17.09,-33.691,11.23,1.0
1622759272.0792332,-39.062,-37.109,-44.922,-44.922,1.0
1622759272.0831394,-76.66,-35.156,-24.901999999999997,-71.777,1.0
1622759272.0870457,-29.785,-17.09,-10.254000000000001,-17.09,1.0
1622759272.090952,1.465,-23.926,-24.901999999999997,7.812,1.0
1622759272.0948582,-25.879,-26.366999999999997,-56.152,-28.809,1.0
1622759272.0987644,-58.593999999999994,-16.602,-61.523,-56.641000000000005,1.0
1622759272.1026707,-38.086,-20.996,-29.785,-28.32,1.0
1622759272.106577,-4.395,-20.996,-26.366999999999997,6.348,1.0
1622759272.1104832,2.93,-9.277000000000001,-32.227,-26.855,1.0
1622759272.1143897,-9.277000000000001,-27.831999999999997,-24.414,-70.312,1.0
1622759272.1182957,-76.66,-51.27,-31.738000000000003,-44.434,1.0
1622759272.122202,-69.824,-47.363,-30.273000000000003,4.883,1.0
1622759272.1261082,2.441,-46.387,-22.461,3.906,1.0
1622759272.1300144,-2.441,-52.246,-26.855,-52.246,1.0
1622759272.1339207,-70.312,-34.18,-45.898,-62.5,1.0
1622759272.137827,-74.707,-13.672,-27.831999999999997,-4.395,1.0
1622759272.141733,-1.465,-1.465,2.441,13.672,1.0
1622759272.1456397,14.648,-13.672,-0.977,-38.086,1.0
1622759272.1495454,-52.246,-30.761999999999997,-19.531,-82.52,1.0
1622759272.1534522,-88.37899999999999,-26.855,-41.016000000000005,-44.434,1.0
1622759272.157358,-35.645,-29.785,-34.18,-18.066,1.0
1622759272.1612642,9.277000000000001,-41.992,-22.461,20.508000000000003,1.0
1622759272.165171,-21.973000000000003,-33.203,-35.156,-26.855,1.0
1622759272.169077,-62.5,-21.484,-24.414,-62.5,1.0
1622759272.172983,-48.828,-16.602,-11.719000000000001,-34.668,1.0
1622759272.1768894,-2.441,-25.391,-18.066,10.254000000000001,1.0
1622759272.1807954,-7.324,-29.785,-33.203,-4.883,1.0
1622759272.184702,-61.523,-23.438000000000002,-45.898,-60.059,1.0
1622759272.1886082,-56.641000000000005,-15.137,-33.203,-47.852,1.0
1622759272.1925144,-6.348,-21.484,-21.484,-7.324,1.0
1622759272.1964207,-1.953,-30.273000000000003,-32.715,-12.695,1.0
1622759272.200327,-58.593999999999994,-28.32,-43.945,-63.477,1.0
1622759272.2042332,6.348,-40.527,-37.598,3.418,1.0
1622759272.2081394,-32.227,-29.785,-34.668,-40.527,1.0
1622759272.2120454,-72.75399999999999,-16.602,-27.344,-69.824,1.0
1622759272.215952,-44.922,-13.184000000000001,-28.809,-33.691,1.0
1622759272.2198582,12.207,-25.391,-22.949,9.766,1.0
1622759272.2237644,-15.137,-37.109,-22.949,-26.366999999999997,1.0
1622759272.2276707,-84.473,-43.945,-29.296999999999997,-83.008,1.0
1622759272.231577,-66.895,-45.41,-17.09,-55.663999999999994,1.0
1622759272.2354832,-4.883,-29.785,-24.414,3.418,1.0
1622759272.2393894,2.93,-16.113,-50.293,-3.418,1.0
1622759272.2432957,-39.551,-26.366999999999997,-37.109,-45.898,1.0
1622759272.247202,-55.176,-46.387,-14.16,-46.387,1.0
1622759272.2511082,-15.137,-45.41,-20.508000000000003,1.0,1.0
1622759272.2550144,6.348,-25.879,-29.785,1.0,1.0
1622759272.258921,-45.41,-20.508000000000003,-39.062,1.0,1.0
1622759272.262827,-82.031,-20.508000000000003,-46.875,1.0,1.0
1622759272.266733,-36.621,-25.879,-41.992,1.0,1.0
1622759272.2706397,9.277000000000001,-29.296999999999997,-30.273000000000003,1.0,1.0
1622759272.2745454,-24.901999999999997,-31.738000000000003,-31.25,1.0,1.0
1622759272.2784517,-71.777,-37.109,-29.785,1.0,1.0
1622759272.282358,-41.992,-22.949,-32.227,1.0,1.0
1622759272.2862642,5.371,-20.508000000000003,-38.086,1.0,1.0
1622759272.290171,-11.719000000000001,-25.879,-36.133,1.0,1.0
1622759272.294077,-69.824,-40.527,-23.438000000000002,1.0,1.0
1622759272.2979832,-65.43,-55.176,-13.184000000000001,1.0,1.0
1622759272.3018894,1.465,-16.602,-27.831999999999997,1.0,1.0
1622759272.3057954,20.02,9.766,-36.621,1.0,1.0
1622759272.309702,-51.758,-21.484,-45.898,1.0,1.0
1622759272.3136082,-79.102,-38.086,-43.945,1.0,1.0
1622759272.3175142,-20.996,-28.809,-15.137,1.0,1.0
1622759272.3214207,0.0,-42.48,-14.648,1.0,1.0
1622759272.325327,-36.133,-56.641000000000005,-36.621,1.0,1.0
1622759272.3292332,-63.965,-28.809,-36.133,1.0,1.0
1622759272.3331394,-40.039,-2.93,-26.366999999999997,1.0,1.0
1622759272.3370457,6.348,-4.883,-37.109,1.0,1.0
1622759272.340952,-20.02,-8.789,-52.733999999999995,1.0,1.0
1622759272.3448582,-76.66,-37.598,-73.73,-88.867,1.0
1622759272.3487644,-55.663999999999994,-40.527,-61.523,-55.176,1.0
1622759272.3526707,-14.648,-9.766,-18.066,-14.648,1.0
1622759272.356577,-26.855,-5.859,-28.32,-34.668,1.0
1622759272.3604832,-70.312,-29.785,-44.922,-73.73,1.0
1622759272.3643897,-71.777,-53.223,-55.663999999999994,-64.941,1.0
1622759272.3682957,-4.883,-45.898,-51.27,-15.137,1.0
1622759272.372202,12.207,-59.082,-24.901999999999997,-4.395,1.0
1622759272.3761082,-52.246,-29.296999999999997,-20.996,-63.477,1.0
1622759272.3800144,-84.961,11.719000000000001,-21.484,-90.33200000000001,1.0
1622759272.3839207,-41.992,-0.977,-30.761999999999997,-52.246,1.0
1622759272.387827,1.465,-17.09,-32.715,-17.578,1.0
1622759272.391733,-11.23,-20.996,-38.574,-12.695,1.0
1622759272.3956397,-7.324,-11.23,-21.484,-9.277000000000001,1.0
1622759272.3995454,-74.707,-18.555,-47.363,-80.566,1.0
1622759272.4034522,-90.82,-43.945,-47.852,-98.145,1.0
1622759272.407358,-36.133,-62.5,-33.203,-34.18,1.0
1622759272.4112642,-5.371,-41.992,-35.645,9.766,1.0
1622759272.415171,-35.156,-30.273000000000003,-40.527,-28.32,1.0
1622759272.419077,-63.477,-32.227,-29.785,-62.988,1.0
1622759272.422983,-12.695,-26.366999999999997,-29.785,-8.301,1.0
1622759272.4268894,28.32,-33.203,-43.945,19.043,1.0
1622759272.4307954,-23.438000000000002,-29.296999999999997,-39.551,-38.086,1.0
1622759272.434702,-78.613,-23.438000000000002,-28.809,-88.867,1.0
1622759272.4386082,-67.383,-24.901999999999997,-24.901999999999997,1.0,1.0
1622759272.4425144,-29.296999999999997,-32.227,-38.086,1.0,1.0
1622759272.4464207,-30.761999999999997,-13.184000000000001,-36.133,1.0,1.0
1622759272.450327,-70.312,-8.789,-24.414,1.0,1.0
1622759272.4542332,-73.73,-37.598,-23.438000000000002,1.0,1.0
1622759272.4581394,-19.531,-38.574,-15.625,1.0,1.0
1622759272.4620454,12.207,-18.066,-14.16,1.0,1.0
1622759272.465952,-29.785,-9.766,-35.645,1.0,1.0
1622759272.4698582,-75.195,-33.203,-44.434,1.0,1.0
1622759272.4737644,-44.434,-55.663999999999994,-24.901999999999997,1.0,1.0
1622759272.4776707,-11.719000000000001,-48.828,-32.227,1.0,1.0
1622759272.481577,-55.176,-28.32,-58.105,1.0,1.0
1622759272.4854832,-94.238,-30.761999999999997,-54.199,1.0,1.0
1622759272.4893894,-51.27,-28.809,-29.785,1.0,1.0
1622759272.4932957,10.742,-6.836,-25.391,1.0,1.0
1622759272.497202,-11.23,-15.625,-40.527,1.0,1.0
1622759272.5011082,-72.266,-30.273000000000003,-47.363,1.0,1.0
1622759272.5050144,-57.617,-27.344,-33.691,1.0,1.0
1622759272.508921,-8.301,-35.645,-22.949,1.0,1.0
1622759272.512827,6.836,-36.621,-34.18,1.0,1.0
1622759272.516733,-37.598,-48.34,-58.105,1.0,1.0
1622759272.5206397,-57.129,-40.039,-58.105,1.0,1.0
1622759272.5245454,-6.836,-15.625,-30.761999999999997,1.0,1.0
1622759272.5284517,2.441,-9.766,-18.066,1.0,1.0
1622759272.532358,-57.129,-16.113,-32.715,-72.75399999999999,1.0
1622759272.5362642,-82.031,-22.949,-25.391,-86.914,1.0
1622759272.540171,-24.901999999999997,-11.719000000000001,-13.184000000000001,-26.366999999999997,1.0
1622759272.544077,8.301,-16.113,-26.855,0.0,1.0
1622759272.5479832,-35.156,-27.344,-40.527,-43.945,1.0
1622759272.5518894,-67.383,-22.949,-41.992,-69.336,1.0
1622759272.5557954,-27.831999999999997,-30.273000000000003,-28.809,-24.901999999999997,1.0
1622759272.559702,18.066,-41.992,-27.831999999999997,20.996,1.0
1622759272.5636082,0.488,-40.527,-36.133,6.348,1.0
1622759272.5675142,-54.688,-43.457,-33.203,-51.758,1.0
1622759272.5714207,-54.199,-40.527,-31.25,-48.34,1.0
1622759272.575327,17.578,-50.293,-13.184000000000001,15.137,1.0
1622759272.5792332,23.438000000000002,-41.504,-27.344,32.227,1.0
1622759272.5831394,-1.953,-40.527,-11.719000000000001,11.719000000000001,1.0
1622759272.5870457,-74.219,-16.602,-18.555,-49.316,1.0
1622759272.590952,-65.918,-12.207,-36.621,-48.34,1.0
1622759272.5948582,-4.883,-26.855,-24.414,-0.977,1.0
1622759272.5987644,-8.301,-41.504,-25.879,-8.789,1.0
1622759272.6026707,-52.246,-48.828,-38.574,-62.5,1.0
1622759272.606577,-61.035,-41.992,-28.809,-62.988,1.0
1622759272.6104832,-9.277000000000001,-29.296999999999997,-17.09,-2.441,1.0
1622759272.6143897,28.809,-20.508000000000003,-1.465,25.391,1.0
1622759272.6182957,-17.578,-23.926,-11.23,-19.531,1.0
1622759272.622202,-67.87100000000001,-34.18,-53.223,-61.523,1.0
1622759272.6261082,-25.879,-26.366999999999997,-41.992,1.0,1.0
1622759272.6300144,17.09,-26.855,-23.926,1.0,1.0
1622759272.6339207,-23.926,-25.879,-41.992,1.0,1.0
1622759272.637827,-73.242,-9.766,-37.109,1.0,1.0
1622759272.641733,-52.733999999999995,-17.09,-13.184000000000001,1.0,1.0
1622759272.6456397,-13.672,-30.761999999999997,-7.812,1.0,1.0
1622759272.6495454,-23.926,-35.156,-35.156,1.0,1.0
1622759272.6534522,-71.777,-48.828,-43.945,1.0,1.0
1622759272.657358,-83.984,-48.34,-32.715,1.0,1.0
1622759272.6612642,-23.926,-20.508000000000003,-27.344,1.0,1.0
1622759272.665171,-12.207,-17.578,-26.366999999999997,1.0,1.0
1622759272.669077,-73.73,-33.203,-27.344,1.0,1.0
1622759272.672983,0.977,-4.395,-61.523,-15.137,1.0
1622759272.6768894,-52.246,-2.93,-50.781000000000006,-67.87100000000001,1.0
1622759272.6807954,-65.918,-20.508000000000003,-32.227,-52.246,1.0
1622759272.684702,-3.418,-33.691,-28.32,-10.742,1.0
1622759272.6886082,1.465,-32.227,-23.438000000000002,1.953,1.0
1622759272.6925144,-57.129,-21.484,-26.366999999999997,-52.733999999999995,1.0
1622759272.6964207,-76.172,-12.207,-33.203,-62.5,1.0
1622759272.700327,-26.366999999999997,-22.461,-30.273000000000003,-4.395,1.0
1622759272.7042332,3.418,-40.527,-32.715,11.23,1.0
1622759272.7081394,-43.457,-38.086,-40.527,-45.41,1.0
1622759272.7120454,-86.426,-36.133,-37.109,-91.79700000000001,1.0
1622759272.715952,-41.992,-32.715,-33.691,-43.945,1.0
1622759272.7198582,3.418,-28.809,-42.48,1.0,1.0
1622759272.7237644,-25.879,-35.156,-38.574,1.0,1.0
1622759272.7276707,-79.102,-45.41,-35.156,1.0,1.0
1622759272.731577,-52.733999999999995,-31.25,-33.691,1.0,1.0
1622759272.7354832,12.695,-4.395,-32.227,1.0,1.0
1622759272.7393894,-9.277000000000001,-6.348,-38.574,1.0,1.0
1622759272.7432957,-73.242,-37.598,-35.645,1.0,1.0
1622759272.747202,-73.73,-51.27,-39.551,1.0,1.0
1622759272.7511082,-14.648,-43.457,-48.34,1.0,1.0
1622759272.7550144,0.0,-30.761999999999997,-34.18,1.0,1.0
1622759272.758921,-60.547,-20.02,-34.18,1.0,1.0
1622759272.762827,-80.566,-28.809,-39.551,1.0,1.0
1622759272.766733,-34.18,-31.738000000000003,-26.855,1.0,1.0
1622759272.7706397,-8.789,-30.273000000000003,-37.598,1.0,1.0
1622759272.7745454,-45.898,-43.945,-49.316,1.0,1.0
1622759272.7784517,-88.867,-58.105,-45.898,1.0,1.0
1622759272.782358,-27.831999999999997,-39.551,-28.809,1.0,1.0
1622759272.7862642,27.831999999999997,-17.578,-8.789,1.0,1.0
1622759272.790171,-27.831999999999997,-20.508000000000003,-32.227,1.0,1.0
1622759272.794077,-92.773,-21.484,-48.34,1.0,1.0
1622759272.7979832,-79.59,-20.02,-30.273000000000003,1.0,1.0
1622759272.8018894,-15.625,-24.901999999999997,-24.901999999999997,1.0,1.0
1622759272.8057954,-18.555,-39.062,-33.691,1.0,1.0
1622759272.809702,-80.566,-34.18,-31.25,1.0,1.0
1622759272.8136082,-81.055,-26.366999999999997,-37.109,1.0,1.0
1622759272.8175142,-10.254000000000001,-41.504,-50.781000000000006,1.0,1.0
1622759272.8214207,20.02,-44.922,-36.621,1.0,1.0
1622759272.825327,-39.062,-46.387,-21.973000000000003,1.0,1.0
1622759272.8292332,-80.566,-36.621,-28.809,1.0,1.0
1622759272.8331394,-40.039,-14.648,-29.785,1.0,1.0
1622759272.8370457,0.488,-22.461,-33.203,1.0,1.0
1622759272.840952,-43.945,-41.992,-30.761999999999997,1.0,1.0
1622759272.8448582,-84.961,-40.527,-28.809,1.0,1.0
1622759272.8487644,-47.852,-21.484,-30.761999999999997,1.0,1.0
1622759272.8526707,-6.836,-16.602,-21.484,1.0,1.0
1622759272.856577,-37.598,-26.855,-25.879,1.0,1.0
1622759272.8604832,-11.23,-35.156,-29.296999999999997,3.418,1.0
1622759272.8643897,-58.105,-30.761999999999997,-36.621,-64.453,1.0
1622759272.8682957,-103.516,-29.785,-41.504,-94.727,1.0
1622759272.872202,-61.523,-41.504,-37.109,-45.898,1.0
1622759272.8761082,-27.831999999999997,-49.316,-32.715,-24.414,1.0
1622759272.8800144,-47.363,-20.996,-26.855,-71.777,1.0
1622759272.8839207,-101.56200000000001,-21.973000000000003,-43.457,-102.539,1.0
1622759272.887827,-93.75,-27.831999999999997,-44.434,-74.707,1.0
1622759272.891733,-35.156,-17.578,-35.156,-56.641000000000005,1.0
1622759272.8956397,-69.824,-47.852,-38.086,-99.609,1.0
1622759272.8995454,-147.94899999999998,-50.293,-41.504,-137.207,1.0
1622759272.9034522,-136.719,-12.207,-55.176,-116.699,1.0
1622759272.907358,-57.617,-15.137,-51.758,1.0,1.0
1622759272.9112642,-53.711000000000006,-51.27,-26.366999999999997,1.0,1.0
1622759272.915171,-131.34799999999998,-81.055,-49.316,1.0,1.0
1622759272.919077,-143.555,-48.828,-74.707,1.0,1.0
1622759272.922983,-103.516,7.812,-41.016000000000005,1.0,1.0
1622759272.9268894,-75.195,13.672,-17.09,1.0,1.0
1622759272.9307954,-103.027,-4.883,-28.32,1.0,1.0
1622759272.934702,-108.887,-20.02,-49.805,1.0,1.0
1622759272.9386082,-57.617,-31.25,-41.992,1.0,1.0
1622759272.9425144,-24.901999999999997,-24.901999999999997,-16.602,1.0,1.0
1622759272.9464207,-52.733999999999995,-24.414,-25.391,1.0,1.0
1622759272.950327,-102.539,-32.227,-49.316,1.0,1.0
1622759272.9542332,-76.172,-38.574,-40.039,-65.918,1.0
1622759272.9581394,2.93,-41.016000000000005,-21.973000000000003,-25.391,1.0
1622759272.9620454,-0.977,-28.809,-22.949,-28.32,1.0
1622759272.965952,-76.172,-28.32,-33.691,-74.707,1.0
1622759272.9698582,-74.219,-30.761999999999997,-37.598,-82.031,1.0
1622759272.9737644,-25.391,-20.996,-37.598,-22.461,1.0
1622759272.9776707,-0.977,-12.695,-43.457,-6.836,1.0
1622759272.981577,-46.387,-16.113,-41.016000000000005,-57.129,1.0
1622759272.9854832,-51.758,-11.23,-40.039,-72.75399999999999,1.0
1622759272.9893894,-4.883,-15.625,-41.992,-13.184000000000001,1.0
1622759272.9932957,12.695,-54.688,-41.992,13.672,1.0
1622759272.997202,-22.461,-75.195,-45.41,-45.898,1.0
1622759273.0011082,-68.848,-40.527,-37.109,1.0,1.0
1622759273.0050144,-41.504,-7.812,-19.043,1.0,1.0
1622759273.008921,4.883,6.348,-28.809,1.0,1.0
1622759273.012827,-7.324,-1.953,-43.945,1.0,1.0
1622759273.016733,-57.129,-19.043,-32.227,1.0,1.0
1622759273.0206397,-54.199,-5.859,-20.508000000000003,1.0,1.0
1622759273.0245454,6.836,-1.953,-20.02,1.0,1.0
1622759273.0284517,4.395,-31.25,-34.668,1.0,1.0
1622759273.032358,-67.383,-50.781000000000006,-54.199,1.0,1.0
1622759273.0362642,-69.824,-50.781000000000006,-44.434,1.0,1.0
1622759273.040171,2.93,-34.668,-30.761999999999997,1.0,1.0
1622759273.044077,32.227,-8.301,-30.761999999999997,1.0,1.0
1622759273.0479832,-31.738000000000003,-3.906,-35.156,-39.551,1.0
1622759273.0518894,-63.965,-8.789,-33.203,-76.172,1.0
1622759273.0557954,-24.414,-22.949,-20.02,-24.901999999999997,1.0
1622759273.059702,3.906,-34.668,-22.461,-1.465,1.0
1622759273.0636082,-22.461,-8.789,-31.25,-46.387,1.0
1622759273.0675142,-58.593999999999994,-5.859,-21.484,-74.707,1.0
1622759273.0714207,-27.831999999999997,-11.719000000000001,-12.695,-33.203,1.0
1622759273.075327,41.504,-19.531,-22.461,17.578,1.0
1622759273.0792332,14.648,-45.898,-31.738000000000003,1.465,1.0
1622759273.0831394,-55.663999999999994,-45.41,-35.156,-44.434,1.0
1622759273.0870457,-48.828,-16.602,-44.922,-29.785,1.0
1622759273.090952,17.09,12.207,-38.086,17.578,1.0
1622759273.0948582,42.48,-20.508000000000003,-11.23,-8.301,1.0
1622759273.0987644,28.809,-22.949,-48.828,-76.172,1.0
1622759273.1026707,-44.922,-39.551,-76.172,-56.641000000000005,1.0
1622759273.106577,-60.547,-52.246,-38.086,11.719000000000001,1.0
1622759273.1104832,-18.066,-59.57,-10.742,-3.906,1.0
1622759273.1143897,5.859,-33.691,-10.742,-58.593999999999994,1.0
1622759273.1182957,-36.133,-3.906,-19.043,-81.055,1.0
1622759273.122202,-44.922,-1.465,-20.508000000000003,-44.434,1.0
1622759273.1261082,-3.906,-3.418,-27.344,5.859,1.0
1622759273.1300144,2.441,-20.02,-33.203,-28.32,1.0
1622759273.1339207,-35.156,-42.48,-32.715,-74.707,1.0
1622759273.137827,-65.43,-44.922,-42.968999999999994,-33.691,1.0
1622759273.141733,-33.203,-57.617,-43.457,1.0,1.0
1622759273.1456397,13.184000000000001,-49.316,-40.527,1.0,1.0
1622759273.1495454,-4.395,-28.809,-27.831999999999997,1.0,1.0
1622759273.1534522,-69.336,-24.414,-28.32,1.0,1.0
1622759273.157358,-54.688,-17.09,-27.831999999999997,1.0,1.0
1622759273.1612642,6.348,-8.789,-28.32,1.0,1.0
1622759273.165171,-2.441,-0.488,-33.203,1.0,1.0
1622759273.169077,-56.152,-7.324,-24.901999999999997,1.0,1.0
1622759273.172983,-60.059,-29.296999999999997,-13.184000000000001,1.0,1.0
1622759273.1768894,-6.836,-27.344,-14.648,1.0,1.0
1622759273.1807954,9.277000000000001,-20.996,-29.296999999999997,1.0,1.0
1622759273.184702,-38.574,-42.48,-53.711000000000006,1.0,1.0
1622759273.1886082,-59.082,-48.34,-49.805,-48.828,1.0
1622759273.1925144,-18.555,-33.203,-13.184000000000001,2.441,1.0
1622759273.1964207,13.184000000000001,-28.809,-1.953,23.926,1.0
1622759273.200327,-31.25,-32.715,-21.484,-39.551,1.0
1622759273.2042332,-88.37899999999999,-34.18,-32.715,-87.891,1.0
1622759273.2081394,-52.733999999999995,-43.945,-24.414,-37.598,1.0
1622759273.2120454,3.906,-33.203,-21.973000000000003,17.09,1.0
1622759273.215952,-11.719000000000001,-26.855,-28.32,-13.184000000000001,1.0
1622759273.2198582,-64.453,-41.992,-37.109,-63.477,1.0
1622759273.2237644,-41.504,-43.457,-23.438000000000002,-34.18,1.0
1622759273.2276707,20.508000000000003,-41.992,-5.371,28.809,1.0
1622759273.231577,11.719000000000001,-32.715,-24.414,7.324,1.0
1622759273.2354832,3.418,0.488,-17.578,-9.766,1.0
1622759273.2393894,-16.602,-8.301,-23.438000000000002,-33.203,1.0
1622759273.2432957,-53.711000000000006,-5.859,-16.113,-62.012,1.0
1622759273.247202,-45.898,-31.25,-28.32,-45.898,1.0
1622759273.2511082,-0.977,-57.617,-53.711000000000006,-6.836,1.0
1622759273.2550144,-4.883,-56.641000000000005,-62.012,-19.531,1.0
1622759273.258921,-70.801,-35.645,-48.828,-77.637,1.0
1622759273.262827,-80.078,-17.09,-24.414,-69.336,1.0
1622759273.266733,-29.785,-6.348,-13.672,-13.672,1.0
1622759273.2706397,-19.531,-11.23,-24.901999999999997,-7.812,1.0
1622759273.2745454,-55.176,-28.809,-39.062,-48.34,1.0
1622759273.2784517,-81.543,-37.109,-43.945,-69.336,1.0
1622759273.282358,-22.949,-20.508000000000003,-34.18,1.0,1.0
1622759273.2862642,6.348,-30.761999999999997,-54.688,1.0,1.0
1622759273.290171,-49.805,-41.504,-44.922,1.0,1.0
1622759273.294077,-80.566,-47.852,-21.484,1.0,1.0
1622759273.2979832,-38.086,-56.641000000000005,-27.831999999999997,1.0,1.0
1622759273.3018894,8.789,-49.316,-7.324,1.0,1.0
1622759273.3057954,-19.043,-28.809,3.418,1.0,1.0
1622759273.309702,-73.73,0.488,-9.766,1.0,1.0
1622759273.3136082,-59.57,-0.977,-7.324,1.0,1.0
1622759273.3175142,11.719000000000001,-48.34,-8.301,1.0,1.0
1622759273.3214207,17.09,-51.27,-30.273000000000003,1.0,1.0
1622759273.325327,-53.223,-5.859,-39.062,1.0,1.0
1622759273.3292332,-78.613,0.488,-26.855,1.0,1.0
1622759273.3331394,-38.086,-14.648,-23.926,1.0,1.0
1622759273.3370457,-17.578,-32.715,-36.621,1.0,1.0
1622759273.340952,-56.641000000000005,-44.922,-52.733999999999995,1.0,1.0
1622759273.3448582,-75.195,-59.082,-47.363,1.0,1.0
1622759273.3487644,-21.484,-54.688,-34.668,1.0,1.0
1622759273.3526707,6.836,-40.527,-46.875,1.0,1.0
1622759273.356577,-31.25,-36.621,-41.992,1.0,1.0
1622759273.3604832,-70.801,-23.926,-18.555,1.0,1.0
1622759273.3643897,-53.223,-13.672,-18.555,1.0,1.0
1622759273.3682957,-8.301,-12.207,-18.066,1.0,1.0
1622759273.372202,-17.578,-19.531,-13.672,1.0,1.0
1622759273.3761082,-68.848,-15.137,-24.901999999999997,-67.383,1.0
1622759273.3800144,-68.359,-4.395,-42.48,-62.988,1.0
1622759273.3839207,0.977,-0.977,-26.855,-0.977,1.0
1622759273.387827,14.16,-26.855,-28.32,-0.488,1.0
1622759273.391733,-51.27,-48.828,-61.035,-63.965,1.0
1622759273.3956397,-75.195,-60.547,-48.828,-75.684,1.0
1622759273.3995454,-25.391,-46.875,-21.484,-19.043,1.0
1622759273.4034522,4.883,-14.16,-9.277000000000001,7.324,1.0
1622759273.407358,-49.316,-24.414,-23.438000000000002,-44.434,1.0
1622759273.4112642,-88.37899999999999,-21.973000000000003,-29.785,-73.73,1.0
1622759273.415171,-48.34,-22.461,-22.461,-36.133,1.0
1622759273.419077,-10.742,-35.645,-28.809,-13.184000000000001,1.0
1622759273.422983,2.441,-27.344,-20.508000000000003,-45.41,1.0
1622759273.4268894,-52.246,-18.555,-26.855,-78.125,1.0
1622759273.4307954,-92.285,-8.301,-36.133,-42.968999999999994,1.0
1622759273.434702,-54.199,-26.366999999999997,-21.484,0.488,1.0
1622759273.4386082,-2.93,-42.968999999999994,-13.184000000000001,-37.598,1.0
1622759273.4425144,-20.02,-67.383,-18.066,-80.566,1.0
1622759273.4464207,-64.941,-70.801,-38.574,-50.781000000000006,1.0
1622759273.450327,-58.105,-34.18,-37.598,1.953,1.0
1622759273.4542332,-5.859,-18.066,-31.25,3.418,1.0
1622759273.4581394,-13.672,-30.761999999999997,-48.828,-49.805,1.0
1622759273.4620454,-67.87100000000001,-22.461,-25.391,-59.57,1.0
1622759273.465952,-66.406,-33.203,-11.719000000000001,-6.836,1.0
1622759273.4698582,-20.02,-40.039,-24.901999999999997,1.0,1.0
1622759273.4737644,-0.977,-12.695,-22.461,1.0,1.0
1622759273.4776707,-50.781000000000006,-5.859,-29.296999999999997,1.0,1.0
1622759273.481577,-80.566,-31.738000000000003,-49.805,1.0,1.0
1622759273.4854832,-17.09,-37.598,-49.805,1.0,1.0
1622759273.4893894,18.555,-18.555,-45.898,1.0,1.0
1622759273.4932957,-28.809,-34.18,-55.176,1.0,1.0
1622759273.497202,-81.055,-33.691,-41.992,1.0,1.0
1622759273.5011082,-52.733999999999995,-14.16,-17.578,1.0,1.0
1622759273.5050144,-3.418,-32.715,-18.555,1.0,1.0
1622759273.508921,-22.949,-53.223,-27.831999999999997,1.0,1.0
1622759273.512827,-66.406,-34.668,-35.645,1.0,1.0
1622759273.516733,-51.27,-12.695,-28.32,1.0,1.0
1622759273.5206397,0.0,-38.086,-21.484,1.0,1.0
1622759273.5245454,-3.906,-41.992,-30.761999999999997,1.0,1.0
1622759273.5284517,-65.918,-22.461,-46.875,1.0,1.0
1622759273.532358,-82.52,-26.855,-36.133,1.0,1.0
1622759273.5362642,-35.645,-38.086,-29.296999999999997,1.0,1.0
1622759273.540171,-10.742,-49.805,-32.227,1.0,1.0
1622759273.544077,-56.641000000000005,-41.992,-29.785,1.0,1.0
1622759273.5479832,-88.37899999999999,-37.109,-46.387,1.0,1.0
1622759273.5518894,-32.715,-22.949,-51.27,1.0,1.0
1622759273.5557954,16.113,-9.766,-36.621,1.0,1.0
1622759273.559702,-27.831999999999997,-11.719000000000001,-32.227,1.0,1.0
1622759273.5636082,-81.055,-8.301,-20.508000000000003,-78.613,1.0
1622759273.5675142,-53.223,-31.25,-16.113,-43.945,1.0
1622759273.5714207,-0.488,-48.828,-22.949,4.395,1.0
1622759273.575327,-8.789,-48.828,-22.949,-16.113,1.0
1622759273.5792332,-64.453,-41.504,-44.434,-76.172,1.0
1622759273.5831394,-65.43,-29.785,-63.477,-67.383,1.0
1622759273.5870457,-8.301,-18.066,-38.574,-6.348,1.0
1622759273.590952,-5.371,-16.602,-27.831999999999997,-17.09,1.0
1622759273.5948582,-54.688,-14.16,-44.922,-73.242,1.0
1622759273.5987644,-57.617,-11.23,-29.785,-65.43,1.0
1622759273.6026707,0.0,-32.227,-24.901999999999997,-7.812,1.0
1622759273.606577,27.344,-36.621,-17.578,12.207,1.0
1622759273.6104832,15.137,-24.414,-13.672,-14.648,1.0
1622759273.6143897,6.836,-0.488,-13.672,-72.266,1.0
1622759273.6182957,-54.199,-13.672,-21.484,-76.172,1.0
1622759273.622202,-78.125,-23.438000000000002,-43.945,-24.901999999999997,1.0
1622759273.6261082,-28.809,-30.761999999999997,-60.059,0.488,1.0
1622759273.6300144,3.906,-40.527,-57.617,-42.968999999999994,1.0
1622759273.6339207,-42.968999999999994,-27.831999999999997,-44.922,-79.59,1.0
1622759273.637827,-79.102,-16.602,-16.602,-38.574,1.0
1622759273.641733,-41.992,-21.973000000000003,-9.766,13.184000000000001,1.0
1622759273.6456397,3.906,-21.484,-20.508000000000003,-24.414,1.0
1622759273.6495454,-21.484,-35.156,-14.16,-71.289,1.0
1622759273.6534522,-65.918,-41.016000000000005,-9.766,-36.621,1.0
1622759273.657358,-36.621,-27.831999999999997,-18.066,1.0,1.0
1622759273.6612642,5.859,-27.344,-20.996,1.0,1.0
1622759273.665171,-21.973000000000003,-17.578,-34.668,1.0,1.0
1622759273.669077,-76.172,-16.602,-45.898,1.0,1.0
1622759273.672983,-68.848,-22.461,-51.758,1.0,1.0
1622759273.6768894,-10.742,-29.296999999999997,-46.387,1.0,1.0
1622759273.6807954,-7.812,-42.48,-26.855,1.0,1.0
1622759273.684702,-66.895,-45.898,-40.527,1.0,1.0
1622759273.6886082,-69.824,-37.109,-49.805,1.0,1.0
1622759273.6925144,-9.277000000000001,-26.366999999999997,-31.25,1.0,1.0
1622759273.6964207,-2.441,-24.414,-20.508000000000003,1.0,1.0
1622759273.700327,-63.477,-33.203,-30.273000000000003,1.0,1.0
1622759273.7042332,5.371,-13.184000000000001,-20.02,1.465,1.0
1622759273.7081394,-30.273000000000003,-24.901999999999997,-38.086,-35.645,1.0
1622759273.7120454,-99.12100000000001,-49.316,-55.663999999999994,-102.539,1.0
1622759273.715952,-79.59,-61.035,-38.574,-80.078,1.0
1622759273.7198582,-13.672,-55.663999999999994,-27.831999999999997,-18.066,1.0
1622759273.7237644,-8.301,-39.551,-30.273000000000003,-29.296999999999997,1.0
1622759273.7276707,-64.453,-39.062,-44.434,-88.37899999999999,1.0
1622759273.731577,-74.707,-25.879,-52.246,-84.473,1.0
1622759273.7354832,-27.344,-2.441,-44.922,-32.715,1.0
1622759273.7393894,-4.395,-5.371,-34.18,-21.484,1.0
1622759273.7432957,-47.363,-24.414,-26.855,-61.523,1.0
1622759273.747202,-81.543,-24.901999999999997,-25.391,-73.242,1.0
1622759273.7511082,-35.645,-17.578,-23.438000000000002,1.0,1.0
1622759273.7550144,-5.859,-31.25,-26.855,1.0,1.0
1622759273.758921,-44.922,-43.457,-35.156,1.0,1.0
1622759273.762827,-86.426,-34.668,-28.809,1.0,1.0
1622759273.766733,-49.805,-26.366999999999997,-11.719000000000001,1.0,1.0
1622759273.7706397,0.488,-20.996,-15.625,1.0,1.0
1622759273.7745454,-24.414,-20.508000000000003,-36.133,1.0,1.0
1622759273.7784517,-82.031,-23.926,-36.133,1.0,1.0
1622759273.782358,-71.289,-15.625,-23.926,1.0,1.0
1622759273.7862642,-24.414,-22.461,-20.508000000000003,1.0,1.0
1622759273.790171,-29.785,-15.625,-38.086,1.0,1.0
1622759273.794077,-65.43,-1.465,-44.922,1.0,1.0
1622759273.7979832,-75.684,-23.926,-42.48,-62.5,1.0
1622759273.8018894,-29.296999999999997,-45.898,-35.156,-15.137,1.0
1622759273.8057954,-1.953,-45.41,-19.043,-2.93,1.0
1622759273.809702,-56.641000000000005,-45.898,-25.391,-66.406,1.0
1622759273.8136082,-96.191,-42.48,-29.785,-95.215,1.0
1622759273.8175142,-42.968999999999994,-18.555,-38.086,-40.527,1.0
1622759273.8214207,20.02,-3.906,-30.761999999999997,8.789,1.0
1622759273.825327,-2.93,-5.371,-16.602,-15.625,1.0
1622759273.8292332,-70.801,-28.32,-49.316,-70.312,1.0
1622759273.8331394,-57.129,-35.645,-51.27,-49.316,1.0
1622759273.8370457,-0.977,-23.438000000000002,-7.324,9.277000000000001,1.0
1622759273.840952,-17.578,-20.508000000000003,-9.766,-11.719000000000001,1.0
1622759273.8448582,15.137,-46.875,-13.184000000000001,-39.551,1.0
1622759273.8487644,-41.016000000000005,-53.711000000000006,-16.602,-97.16799999999999,1.0
1622759273.8526707,-85.93799999999999,-42.48,-25.879,-62.5,1.0
1622759273.856577,-54.199,-24.414,-25.391,1.465,1.0
1622759273.8604832,-6.348,-32.715,-26.855,-9.277000000000001,1.0
1622759273.8643897,-27.831999999999997,-55.176,-37.598,-53.711000000000006,1.0
1622759273.8682957,-97.656,-45.41,-54.199,-46.387,1.0
1622759273.872202,-84.961,-17.578,-48.34,5.859,1.0
1622759273.8761082,-7.812,-27.831999999999997,-34.668,4.883,1.0
1622759273.8800144,-0.488,-27.831999999999997,-34.18,-53.711000000000006,1.0
1622759273.8839207,-51.758,-25.391,-24.901999999999997,-71.289,1.0
1622759273.887827,-46.387,-58.105,-13.184000000000001,-13.672,1.0
1622759273.891733,8.789,-58.593999999999994,-16.602,1.0,1.0
1622759273.8956397,11.719000000000001,-26.855,-14.16,1.0,1.0
1622759273.8995454,-53.711000000000006,-13.184000000000001,-12.207,1.0,1.0
1622759273.9034522,-77.148,-18.555,-26.855,1.0,1.0
1622759273.907358,-25.879,-33.691,-23.926,1.0,1.0
1622759273.9112642,12.207,-32.227,-16.113,1.0,1.0
1622759273.915171,-26.855,-31.738000000000003,-34.668,1.0,1.0
1622759273.919077,-75.195,-40.039,-36.133,1.0,1.0
1622759273.922983,-37.109,-53.711000000000006,-11.23,1.0,1.0
1622759273.9268894,14.648,-43.457,-13.184000000000001,1.0,1.0
1622759273.9307954,6.348,-33.203,-24.414,1.0,1.0
1622759273.934702,-52.246,-61.523,-36.621,1.0,1.0
1622759273.9386082,-68.848,-57.129,-41.504,-55.176,1.0
1622759273.9425144,-3.418,-19.531,-16.602,0.488,1.0
1622759273.9464207,3.906,-16.113,-8.789,0.0,1.0
1622759273.950327,-63.477,-33.691,-22.461,-64.941,1.0
1622759273.9542332,-80.566,-41.504,-24.414,-72.75399999999999,1.0
1622759273.9581394,-26.366999999999997,-38.086,-20.02,-7.324,1.0
1622759273.9620454,3.906,-41.504,-28.32,14.16,1.0
1622759273.965952,-44.922,-42.968999999999994,-30.273000000000003,-41.504,1.0
1622759273.9698582,-86.426,-34.668,-23.926,-72.75399999999999,1.0
1622759273.9737644,-45.41,-48.828,-23.926,-21.484,1.0
1622759273.9776707,-1.465,-40.039,-26.366999999999997,14.16,1.0
1622759273.981577,-44.434,-22.461,-46.387,-40.039,1.0
1622759273.9854832,8.789,-10.742,-3.906,0.488,1.0
1622759273.9893894,18.066,-45.898,-5.371,-0.488,1.0
1622759273.9932957,-36.621,-61.035,-25.391,-49.316,1.0
1622759273.997202,-37.109,-24.901999999999997,-39.551,-32.227,1.0
1622759274.0011082,6.348,-3.418,-35.645,10.254000000000001,1.0
1622759274.0050144,7.324,-12.207,-19.531,4.883,1.0
1622759274.008921,-42.968999999999994,-3.906,-31.25,-39.062,1.0
1622759274.012827,-77.148,0.488,-49.805,-69.824,1.0
1622759274.016733,-31.738000000000003,3.418,-40.039,-29.296999999999997,1.0
1622759274.0206397,6.348,-10.742,-25.391,6.836,1.0
1622759274.0245454,-38.086,-31.738000000000003,-28.809,-39.551,1.0
1622759274.0284517,-73.242,-25.879,-25.879,-67.87100000000001,1.0
1622759274.032358,-40.527,-43.457,-18.066,1.0,1.0
1622759274.0362642,11.23,-58.593999999999994,-20.996,1.0,1.0
1622759274.040171,-7.324,-28.32,-39.551,1.0,1.0
1622759274.044077,-64.941,-0.488,-29.785,1.0,1.0
1622759274.0479832,-64.453,-10.742,-15.625,1.0,1.0
1622759274.0518894,-28.32,-27.344,-36.133,1.0,1.0
1622759274.0557954,-22.949,-18.066,-40.039,1.0,1.0
1622759274.059702,-74.707,-11.719000000000001,-42.968999999999994,1.0,1.0
1622759274.0636082,-84.961,-14.16,-54.199,1.0,1.0
1622759274.0675142,-26.855,-28.809,-46.875,1.0,1.0
1622759274.0714207,-14.648,-70.801,-39.062,1.0,1.0
1622759274.075327,-55.176,-70.312,-24.414,1.0,1.0
1622759274.0792332,-6.348,-54.688,-7.812,-21.973000000000003,1.0
1622759274.0831394,-40.039,-54.199,-24.414,-82.031,1.0
1622759274.0870457,-91.309,-43.945,-24.901999999999997,-75.684,1.0
1622759274.090952,-64.941,-13.184000000000001,-5.371,-24.901999999999997,1.0
1622759274.0948582,-5.859,5.859,-20.508000000000003,-12.695,1.0
1622759274.0987644,-16.602,-22.949,-33.203,-60.059,1.0
1622759274.1026707,-69.824,-47.852,-34.668,-78.613,1.0
1622759274.106577,-75.684,-34.668,-49.805,-21.973000000000003,1.0
1622759274.1104832,-27.831999999999997,-23.926,-44.434,11.719000000000001,1.0
1622759274.1143897,-1.465,-25.391,-43.457,-40.527,1.0
1622759274.1182957,-39.551,-43.457,-47.363,-91.309,1.0
1622759274.122202,-77.148,-58.105,-33.691,-49.316,1.0
1622759274.1261082,-40.527,-34.18,-24.901999999999997,1.0,1.0
1622759274.1300144,-3.906,-10.742,-17.09,1.0,1.0
1622759274.1339207,-38.574,-20.996,-21.484,1.0,1.0
1622759274.137827,-85.449,-32.227,-34.18,1.0,1.0
1622759274.141733,-53.223,-26.855,-36.621,1.0,1.0
1622759274.1456397,-6.348,-46.387,-43.945,1.0,1.0
1622759274.1495454,-21.484,-44.922,-46.875,1.0,1.0
1622759274.1534522,-71.289,-27.344,-28.809,1.0,1.0
1622759274.157358,-72.75399999999999,-22.461,-20.996,1.0,1.0
1622759274.1612642,-11.23,-35.156,-16.602,1.0,1.0
1622759274.165171,20.508000000000003,-28.32,-13.184000000000001,1.0,1.0
1622759274.169077,-28.32,-10.254000000000001,-15.625,1.0,1.0
1622759274.172983,-75.684,-32.227,-16.113,1.0,1.0
1622759274.1768894,-35.645,-32.227,-23.438000000000002,1.0,1.0
1622759274.1807954,-7.812,-32.227,-39.551,1.0,1.0
1622759274.184702,-47.852,-32.227,-39.551,1.0,1.0
1622759274.1886082,-74.707,-27.344,-28.32,1.0,1.0
1622759274.1925144,-37.598,-48.828,-31.25,1.0,1.0
1622759274.1964207,4.883,-48.828,-26.855,1.0,1.0
1622759274.200327,-20.02,-13.672,-18.066,1.0,1.0
1622759274.2042332,-73.242,-23.438000000000002,-19.043,1.0,1.0
1622759274.2081394,-50.293,-29.785,-16.113,1.0,1.0
1622759274.2120454,5.371,-15.625,-25.879,1.0,1.0
1622759274.215952,-12.695,-18.066,-57.617,1.0,1.0
1622759274.2198582,-52.246,-18.066,-50.293,-63.477,1.0
1622759274.2237644,-54.199,-28.809,-26.366999999999997,-56.641000000000005,1.0
1622759274.2276707,-5.371,-36.621,-17.578,-11.23,1.0
1622759274.231577,17.09,-39.062,-17.09,3.906,1.0
1622759274.2354832,-47.852,-53.711000000000006,-33.691,-58.593999999999994,1.0
1622759274.2393894,-77.148,-57.129,-34.668,-80.078,1.0
1622759274.2432957,-23.438000000000002,-27.831999999999997,-37.109,-21.484,1.0
1622759274.247202,6.836,-24.901999999999997,-45.898,1.953,1.0
1622759274.2511082,-31.25,-31.738000000000003,-45.41,-47.852,1.0
1622759274.2550144,-75.684,-18.555,-46.387,-85.93799999999999,1.0
1622759274.258921,-34.668,-15.137,-35.645,-38.574,1.0
1622759274.262827,15.625,-22.461,-39.062,-1.465,1.0
1622759274.266733,14.16,-9.277000000000001,-32.715,-36.133,1.0
1622759274.2706397,-33.203,-5.371,-43.945,-72.75399999999999,1.0
1622759274.2745454,-77.148,-28.32,-36.133,-48.34,1.0
1622759274.2784517,-53.711000000000006,-46.387,-31.25,0.488,1.0
1622759274.282358,-5.859,-43.945,-35.156,-28.809,1.0
1622759274.2862642,-18.555,-37.109,-53.223,-94.727,1.0
1622759274.290171,-69.336,-42.48,-57.617,-88.37899999999999,1.0
1622759274.294077,-48.828,-39.551,-14.648,-31.25,1.0
1622759274.2979832,0.0,-22.949,-2.93,-23.438000000000002,1.0
1622759274.3018894,-7.812,-6.836,-36.133,-79.102,1.0
1622759274.3057954,-56.641000000000005,6.348,-36.621,-96.191,1.0
1622759274.309702,-61.035,-2.93,-5.371,-32.715,1.0
1622759274.3136082,-12.695,-31.738000000000003,6.348,1.0,1.0
1622759274.3175142,11.23,-32.227,-12.207,1.0,1.0
1622759274.3214207,-41.504,-36.621,-40.039,1.0,1.0
1622759274.325327,-86.914,-48.34,-43.457,1.0,1.0
1622759274.3292332,-40.039,-68.359,-30.761999999999997,1.0,1.0
1622759274.3331394,10.742,-54.688,-25.391,1.0,1.0
1622759274.3370457,-24.414,-4.395,-25.391,1.0,1.0
1622759274.340952,-70.801,3.906,-20.508000000000003,1.0,1.0
1622759274.3448582,-46.387,-21.484,-15.137,1.0,1.0
1622759274.3487644,-19.043,-25.391,-18.066,1.0,1.0
1622759274.3526707,-38.086,-27.344,-23.926,1.0,1.0
1622759274.356577,-86.426,-47.852,-21.973000000000003,1.0,1.0
1622759274.3604832,1.953,-13.672,-16.113,-11.23,1.0
1622759274.3643897,-46.387,2.441,-29.296999999999997,-62.988,1.0
1622759274.3682957,-80.078,-9.277000000000001,-39.062,-76.66,1.0
1622759274.372202,-20.508000000000003,-37.109,-34.668,-15.137,1.0
1622759274.3761082,19.531,-42.48,-33.203,17.578,1.0
1622759274.3800144,-32.715,-32.715,-42.48,-27.831999999999997,1.0
1622759274.3839207,-79.59,-28.809,-30.273000000000003,-70.312,1.0
1622759274.387827,-57.617,-38.086,-18.066,-44.922,1.0
1622759274.391733,-16.113,-43.457,-21.484,0.0,1.0
1622759274.3956397,-28.809,-29.785,-30.761999999999997,-26.366999999999997,1.0
1622759274.3995454,-77.148,-25.879,-42.48,-81.055,1.0
1622759274.4034522,-64.453,-26.366999999999997,-44.922,-60.547,1.0
1622759274.407358,-3.906,-33.691,-38.574,1.0,1.0
1622759274.4112642,-0.977,-33.203,-31.25,1.0,1.0
1622759274.415171,-53.711000000000006,-30.273000000000003,-20.02,1.0,1.0
1622759274.419077,-73.73,-62.988,-19.043,1.0,1.0
1622759274.422983,-15.137,-55.176,-3.906,1.0,1.0
1622759274.4268894,22.461,-12.695,-2.441,1.0,1.0
1622759274.4307954,-22.461,-5.859,-24.901999999999997,1.0,1.0
1622759274.434702,-67.87100000000001,-13.672,-22.949,1.0,1.0
1622759274.4386082,-43.945,-19.043,-22.949,1.0,1.0
1622759274.4425144,-6.836,-16.602,-27.831999999999997,1.0,1.0
1622759274.4464207,-33.203,-29.785,-30.761999999999997,1.0,1.0
1622759274.450327,-76.66,-37.109,-29.785,1.0,1.0
1622759274.4542332,-51.758,-32.715,-16.602,1.0,1.0
1622759274.4581394,8.301,-24.901999999999997,-14.648,1.0,1.0
1622759274.4620454,4.883,-32.227,-26.855,1.0,1.0
1622759274.465952,-53.223,-59.082,-32.227,1.0,1.0
1622759274.4698582,-56.152,-46.875,-20.02,1.0,1.0
1622759274.4737644,-5.859,-16.113,-7.324,1.0,1.0
1622759274.4776707,0.0,-11.719000000000001,-29.296999999999997,1.0,1.0
1622759274.481577,-56.152,-22.461,-42.968999999999994,1.0,1.0
1622759274.4854832,-83.984,-30.761999999999997,-40.527,1.0,1.0
1622759274.4893894,-25.879,-8.789,-39.062,1.0,1.0
1622759274.4932957,20.02,-7.324,-29.785,1.0,1.0
1622759274.497202,-25.391,-43.457,-26.855,1.0,1.0
1622759274.5011082,5.371,-39.551,-32.715,2.93,1.0
1622759274.5050144,-12.207,-34.668,-26.366999999999997,-20.02,1.0
1622759274.508921,-64.941,-23.926,-22.461,-69.336,1.0
1622759274.512827,-59.082,-49.805,-38.574,-52.733999999999995,1.0
1622759274.516733,-11.23,-62.988,-37.598,-0.977,1.0
1622759274.5206397,3.418,-29.296999999999997,-24.901999999999997,-2.441,1.0
1622759274.5245454,-53.711000000000006,-18.066,-39.551,-59.082,1.0
1622759274.5284517,-69.336,-12.695,-35.156,-62.988,1.0
1622759274.532358,-9.766,-17.578,-21.484,-5.371,1.0
1622759274.5362642,9.277000000000001,-47.363,-20.996,6.836,1.0
1622759274.540171,-42.48,-46.387,-35.645,-47.363,1.0
1622759274.544077,-74.707,-34.18,-41.992,-69.824,1.0
1622759274.5479832,-31.25,-51.27,-18.555,1.0,1.0
1622759274.5518894,15.137,-27.344,3.418,1.0,1.0
1622759274.5557954,-12.695,10.742,-14.648,1.0,1.0
1622759274.559702,-61.523,-9.277000000000001,-45.898,1.0,1.0
1622759274.5636082,-26.366999999999997,-26.855,-31.25,1.0,1.0
1622759274.5675142,32.227,-6.348,-5.371,1.0,1.0
1622759274.5714207,10.742,-18.555,-13.184000000000001,1.0,1.0
1622759274.575327,-51.758,-44.434,-24.414,1.0,1.0
1622759274.5792332,-55.663999999999994,-28.32,-18.066,1.0,1.0
1622759274.5831394,-1.953,-20.02,-6.836,1.0,1.0
1622759274.5870457,12.207,-27.831999999999997,-10.254000000000001,1.0,1.0
1622759274.590952,-41.992,-20.02,-25.391,1.0,1.0
1622759274.5948582,-55.176,2.93,-15.625,1.0,1.0
1622759274.5987644,-5.859,0.977,-6.836,1.0,1.0
1622759274.6026707,17.578,-30.273000000000003,-5.859,1.0,1.0
1622759274.606577,-20.02,-33.203,-19.531,1.0,1.0
1622759274.6104832,-63.965,-30.273000000000003,-39.062,1.0,1.0
1622759274.6143897,-30.273000000000003,-39.551,-40.039,1.0,1.0
1622759274.6182957,14.16,-38.574,-32.227,1.0,1.0
1622759274.622202,-20.02,-34.18,-29.785,1.0,1.0
1622759274.6261082,-74.707,-20.508000000000003,-42.48,1.0,1.0
1622759274.6300144,-49.316,-9.277000000000001,-44.922,1.0,1.0
1622759274.6339207,9.277000000000001,-19.531,-23.926,1.0,1.0
1622759274.637827,-6.348,-54.199,-21.484,1.0,1.0
1622759274.641733,13.184000000000001,-20.02,-24.414,-23.926,1.0
1622759274.6456397,-17.09,-28.809,-30.761999999999997,-80.078,1.0
1622759274.6495454,-62.988,-28.809,-27.344,-61.523,1.0
1622759274.6534522,-29.296999999999997,-36.621,-20.508000000000003,-4.395,1.0
1622759274.657358,23.926,-46.875,-28.32,-6.348,1.0
1622759274.6612642,0.0,-46.387,-26.855,-60.059,1.0
1622759274.665171,-48.828,-48.34,-15.137,-61.035,1.0
1622759274.669077,-38.086,-39.062,-11.719000000000001,-4.883,1.0
1622759274.672983,17.09,-12.695,-10.742,16.602,1.0
1622759274.6768894,25.391,-3.906,-17.578,-42.968999999999994,1.0
1622759274.6807954,-44.434,-20.996,-40.527,-86.914,1.0
1622759274.684702,-72.75399999999999,-41.504,-42.48,-38.086,1.0
1622759274.6886082,-13.672,-44.434,-29.296999999999997,-17.09,1.0
1622759274.6925144,10.742,-25.879,-31.25,2.441,1.0
1622759274.6964207,-37.598,-22.949,-27.344,-52.246,1.0
1622759274.700327,-77.148,-24.901999999999997,-25.391,-83.008,1.0
1622759274.7042332,-30.761999999999997,-26.366999999999997,-34.18,-28.32,1.0
1622759274.7081394,20.508000000000003,-56.152,-29.785,12.207,1.0
1622759274.7120454,-21.484,-79.59,-32.715,-32.715,1.0
1622759274.715952,-68.848,-33.691,-30.273000000000003,-63.965,1.0
1622759274.7198582,-53.223,13.184000000000001,-26.855,-37.109,1.0
1622759274.7237644,-20.996,-4.395,-42.968999999999994,-4.883,1.0
1622759274.7276707,-33.691,-23.926,-49.805,-25.391,1.0
1622759274.731577,-84.473,-30.273000000000003,-48.828,-78.613,1.0
1622759274.7354832,15.625,-39.551,-45.41,12.695,1.0
1622759274.7393894,-38.574,-29.296999999999997,-30.273000000000003,-43.457,1.0
1622759274.7432957,-76.66,-13.184000000000001,-28.809,-74.707,1.0
1622759274.747202,-19.043,-10.254000000000001,-20.996,-17.09,1.0
1622759274.7511082,27.344,-11.23,-20.02,12.695,1.0
1622759274.7550144,-10.742,-16.113,-27.344,-36.133,1.0
1622759274.758921,-60.059,-26.366999999999997,-25.879,-66.406,1.0
1622759274.762827,-48.828,-30.273000000000003,-28.32,-37.109,1.0
1622759274.766733,2.441,-15.137,-27.831999999999997,5.371,1.0
1622759274.7706397,0.977,-0.488,-26.855,-12.207,1.0
1622759274.7745454,-68.359,-18.555,-41.504,-80.566,1.0
1622759274.7784517,-83.008,-37.598,-42.48,-79.102,1.0
1622759274.782358,-13.184000000000001,-42.48,-32.227,1.0,1.0
1622759274.7862642,1.465,-40.527,-36.621,1.0,1.0
1622759274.790171,-54.688,-37.109,-45.41,1.0,1.0
1622759274.794077,-71.289,-43.457,-41.504,1.0,1.0
1622759274.7979832,-24.414,-41.016000000000005,-30.273000000000003,1.0,1.0
1622759274.8018894,20.508000000000003,-7.324,-19.043,1.0,1.0
1622759274.8057954,-23.926,-10.742,-25.879,1.0,1.0
1622759274.809702,-83.49600000000001,-35.156,-51.27,1.0,1.0
1622759274.8136082,-43.945,-20.508000000000003,-54.199,1.0,1.0
1622759274.8175142,5.859,-12.695,-31.738000000000003,1.0,1.0
1622759274.8214207,-16.113,-25.391,-22.949,1.0,1.0
1622759274.825327,-70.801,-43.457,-41.016000000000005,1.0,1.0
1622759274.8292332,-63.477,-38.086,-30.761999999999997,1.0,1.0
1622759274.8331394,-10.254000000000001,-18.555,-19.043,1.0,1.0
1622759274.8370457,-17.09,-20.508000000000003,-29.785,1.0,1.0
1622759274.840952,-79.102,-32.715,-31.738000000000003,1.0,1.0
1622759274.8448582,-72.75399999999999,-20.508000000000003,-30.761999999999997,1.0,1.0
1622759274.8487644,5.859,-2.441,-19.043,1.0,1.0
1622759274.8526707,-2.441,-18.066,-37.109,1.0,1.0
1622759274.856577,-63.965,-27.831999999999997,-53.223,1.0,1.0
1622759274.8604832,-78.125,-7.812,-43.945,1.0,1.0
1622759274.8643897,-27.831999999999997,-23.926,-37.109,1.0,1.0
1622759274.8682957,3.906,-63.477,-38.086,1.0,1.0
1622759274.872202,-36.621,-55.663999999999994,-54.688,1.0,1.0
1622759274.8761082,0.0,-15.625,-56.152,-6.348,1.0
1622759274.8800144,-45.41,-20.996,-50.781000000000006,-53.711000000000006,1.0
1622759274.8839207,-56.641000000000005,-38.086,-32.227,-58.105,1.0
1622759274.887827,4.395,-30.761999999999997,-13.184000000000001,7.324,1.0
1622759274.891733,27.344,-24.414,-8.301,25.879,1.0
1622759274.8956397,-40.527,-15.625,-31.25,-32.227,1.0
1622759274.8995454,-83.008,-9.766,-51.27,-65.918,1.0
1622759274.9034522,-53.711000000000006,-29.785,-46.387,-31.25,1.0
1622759274.907358,-11.23,-71.777,-38.574,4.883,1.0
1622759274.9112642,-32.227,-57.617,-27.831999999999997,-34.668,1.0
1622759274.915171,-92.285,1.953,-28.32,-84.473,1.0
1622759274.919077,-71.777,8.301,-26.366999999999997,-51.27,1.0
1622759274.922983,-23.438000000000002,-7.324,-14.648,1.0,1.0
1622759274.9268894,-34.668,-15.137,-18.555,1.0,1.0
1622759274.9307954,-94.727,-28.809,-28.32,1.0,1.0
1622759274.934702,-89.355,-39.062,-15.137,1.0,1.0
1622759274.9386082,-26.366999999999997,-38.574,-12.695,1.0,1.0
1622759274.9425144,-30.761999999999997,-34.18,-35.645,1.0,1.0
1622759274.9464207,-74.707,-30.761999999999997,-36.133,1.0,1.0
1622759274.950327,-93.262,-44.434,-37.598,1.0,1.0
1622759274.9542332,-58.105,-55.663999999999994,-39.551,1.0,1.0
1622759274.9581394,-24.901999999999997,-43.945,-21.973000000000003,1.0,1.0
1622759274.9620454,-59.082,-31.738000000000003,-24.901999999999997,1.0,1.0
1622759274.965952,-91.79700000000001,-33.203,-42.48,1.0,1.0
1622759274.9698582,-51.27,-28.32,-38.086,1.0,1.0
1622759274.9737644,-11.719000000000001,-23.438000000000002,-25.391,1.0,1.0
1622759274.9776707,-37.109,-29.296999999999997,-20.996,1.0,1.0
1622759274.981577,-82.52,-47.363,-25.391,1.0,1.0
1622759274.9854832,-66.406,-36.133,-33.691,1.0,1.0
1622759274.9893894,-10.742,-21.484,-36.621,1.0,1.0
1622759274.9932957,-18.066,-43.945,-42.48,1.0,1.0
1622759274.997202,-75.684,-63.477,-32.227,1.0,1.0
1622759275.0011082,-59.57,-31.738000000000003,-23.438000000000002,1.0,1.0
1622759275.0050144,21.973000000000003,12.207,-20.996,1.0,1.0
1622759275.008921,34.18,-20.508000000000003,-15.625,1.0,1.0
1622759275.012827,-39.062,-55.663999999999994,-24.414,1.0,1.0
1622759275.016733,-77.148,-52.733999999999995,-20.02,1.0,1.0
1622759275.0206397,-28.32,-36.621,-21.484,1.0,1.0
1622759275.0245454,11.719000000000001,-15.625,-25.391,1.0,1.0
1622759275.0284517,-30.761999999999997,-28.32,-34.18,1.0,1.0
1622759275.032358,-73.73,-30.761999999999997,-49.805,1.0,1.0
1622759275.0362642,-42.968999999999994,-1.465,-40.527,1.0,1.0
1622759275.040171,-1.465,-30.273000000000003,-38.574,1.0,1.0
1622759275.044077,-15.137,-57.129,-34.668,1.0,1.0
1622759275.0479832,-66.895,-29.785,-23.438000000000002,1.0,1.0
1622759275.0518894,-66.895,-20.02,-25.879,1.0,1.0
1622759275.0557954,-10.254000000000001,-16.113,-21.973000000000003,1.0,1.0
1622759275.059702,-11.719000000000001,-18.066,-19.043,1.0,1.0
1622759275.0636082,33.203,-22.949,-52.246,-9.277000000000001,1.0
1622759275.0675142,-5.371,-37.109,-36.621,-55.176,1.0
1622759275.0714207,-84.473,-49.805,-31.738000000000003,-55.663999999999994,1.0
1622759275.075327,-59.57,-58.593999999999994,-35.156,6.348,1.0
1622759275.0792332,19.531,-29.296999999999997,-38.086,-6.836,1.0
1622759275.0831394,-0.977,-9.766,-24.901999999999997,-66.895,1.0
1622759275.0870457,-69.336,-39.062,-12.695,-83.008,1.0
1622759275.090952,-65.43,-41.992,-13.672,-34.18,1.0
1622759275.0948582,-7.324,-12.695,-30.273000000000003,-1.953,1.0
1622759275.0987644,-3.906,0.977,-57.129,-46.875,1.0
1622759275.1026707,-68.359,-20.02,-52.246,-65.918,1.0
1622759275.106577,-81.055,-52.733999999999995,-25.391,-19.531,1.0
1622759275.1104832,-28.32,-58.593999999999994,-27.344,1.0,1.0
1622759275.1143897,-6.348,-29.296999999999997,-38.086,1.0,1.0
1622759275.1182957,-41.992,-0.488,-49.316,1.0,1.0
1622759275.122202,-71.777,1.465,-40.527,1.0,1.0
1622759275.1261082,-41.992,-16.113,-23.438000000000002,1.0,1.0
1622759275.1300144,11.719000000000001,-17.578,-14.16,1.0,1.0
1622759275.1339207,-13.184000000000001,-38.574,-24.414,1.0,1.0
1622759275.137827,-69.336,-36.621,-42.48,1.0,1.0
1622759275.141733,-42.48,-3.418,-37.598,1.0,1.0
1622759275.1456397,9.277000000000001,-10.742,-33.203,1.0,1.0
1622759275.1495454,2.93,-48.34,-40.527,1.0,1.0
1622759275.1534522,-39.062,-53.223,-29.296999999999997,1.0,1.0
1622759275.157358,11.719000000000001,-21.484,-14.16,2.93,1.0
1622759275.1612642,-29.785,-39.551,-25.879,-46.387,1.0
1622759275.165171,-79.59,-46.387,-46.387,-78.613,1.0
1622759275.169077,-32.227,-34.18,-42.968999999999994,-36.133,1.0
1622759275.172983,25.391,-25.391,-28.32,14.16,1.0
1622759275.1768894,-17.578,-20.996,-39.062,-23.438000000000002,1.0
1622759275.1807954,-68.848,-5.859,-45.898,-71.289,1.0
1622759275.184702,-47.852,-4.395,-40.527,-39.062,1.0
1622759275.1886082,7.812,-20.02,-36.621,11.23,1.0
1622759275.1925144,8.301,-38.086,-33.203,-7.812,1.0
1622759275.1964207,-46.387,-60.059,-35.156,-56.641000000000005,1.0
1622759275.200327,-47.363,-44.922,-18.555,-41.504,1.0
1622759275.2042332,3.906,-18.555,-13.184000000000001,1.0,1.0
1622759275.2081394,6.836,-15.137,-39.551,1.0,1.0
1622759275.2120454,-42.968999999999994,-16.602,-52.733999999999995,1.0,1.0
1622759275.215952,-75.195,-28.809,-45.41,1.0,1.0
1622759275.2198582,-28.809,-16.602,-25.391,1.0,1.0
1622759275.2237644,15.625,-8.789,-23.438000000000002,1.0,1.0
1622759275.2276707,-26.366999999999997,-17.09,-36.133,1.0,1.0
1622759275.231577,-79.59,-25.879,-34.668,1.0,1.0
1622759275.2354832,-54.199,-28.32,-33.203,1.0,1.0
1622759275.2393894,5.859,-11.23,-25.879,1.0,1.0
1622759275.2432957,-6.836,-16.113,-32.715,1.0,1.0
1622759275.247202,-66.406,-46.875,-40.039,1.0,1.0
1622759275.2511082,-49.805,-38.574,-27.831999999999997,1.0,1.0
1622759275.2550144,14.648,-16.113,-27.344,1.0,1.0
1622759275.258921,3.906,-36.133,-34.668,1.0,1.0
1622759275.262827,-67.383,-64.941,-36.133,1.0,1.0
1622759275.266733,-78.613,-60.059,-29.785,1.0,1.0
1622759275.2706397,-11.719000000000001,-38.086,-21.484,1.0,1.0
1622759275.2745454,1.953,-26.855,-28.32,1.0,1.0
1622759275.2784517,-50.781000000000006,-30.273000000000003,-35.156,1.0,1.0
1622759275.282358,-83.984,-37.598,-38.086,1.0,1.0
1622759275.2862642,-50.293,-37.109,-26.366999999999997,1.0,1.0
1622759275.290171,-0.977,-37.109,-30.273000000000003,1.0,1.0
1622759275.294077,-16.602,-22.461,-51.758,1.0,1.0
1622759275.2979832,-105.95700000000001,-15.625,-26.366999999999997,-57.129,1.0
1622759275.3018894,-136.23,-18.066,-32.227,-83.49600000000001,1.0
1622759275.3057954,-195.801,-33.203,-32.715,-25.879,1.0
1622759275.309702,-193.84799999999998,-53.711000000000006,-37.598,11.719000000000001,1.0
1622759275.3136082,-144.043,-54.688,-45.898,-43.945,1.0
1622759275.3175142,-178.71099999999998,-36.621,-57.129,-105.469,1.0
1622759275.3214207,-220.215,-17.09,-60.059,-81.055,1.0
1622759275.325327,-182.12900000000002,-5.859,-39.062,-21.484,1.0
1622759275.3292332,-130.859,4.883,-37.109,-70.801,1.0
1622759275.3331394,-171.875,-18.066,-37.109,-143.555,1.0
1622759275.3370457,-228.516,-59.57,-21.973000000000003,-139.16,1.0
1622759275.340952,-182.61700000000002,-62.5,-17.09,-97.656,1.0
1622759275.3448582,-100.098,-45.898,-20.02,1.0,1.0
1622759275.3487644,-102.051,-48.34,-45.41,1.0,1.0
1622759275.3526707,-167.48,-76.172,-57.129,1.0,1.0
1622759275.356577,-164.062,-63.477,-36.133,1.0,1.0
1622759275.3604832,-78.613,-23.438000000000002,-23.926,1.0,1.0
1622759275.3643897,-37.598,-26.366999999999997,-36.621,1.0,1.0
1622759275.3682957,-71.777,-43.945,-49.316,1.0,1.0
1622759275.372202,-102.539,-49.805,-41.992,1.0,1.0
1622759275.3761082,-39.062,-39.551,-27.344,1.0,1.0
1622759275.3800144,4.395,-30.273000000000003,-20.508000000000003,1.0,1.0
1622759275.3839207,-30.761999999999997,-40.039,-23.926,1.0,1.0
1622759275.387827,-60.059,-48.828,-26.855,1.0,1.0
1622759275.391733,-30.761999999999997,-42.48,-19.531,-18.555,1.0
1622759275.3956397,17.578,-38.086,-15.137,31.25,1.0
1622759275.3995454,-0.488,-37.109,-29.296999999999997,12.695,1.0
1622759275.4034522,-48.34,-33.691,-47.852,-47.363,1.0
1622759275.407358,-28.809,-49.805,-36.621,-29.296999999999997,1.0
1622759275.4112642,29.785,-54.688,-20.996,30.761999999999997,1.0
1622759275.415171,29.296999999999997,-41.016000000000005,-30.761999999999997,26.366999999999997,1.0
1622759275.419077,-14.648,-38.574,-36.621,-23.438000000000002,1.0
1622759275.422983,-20.02,-46.875,-34.18,-19.531,1.0
1622759275.4268894,33.691,-37.109,-36.133,39.551,1.0
1622759275.4307954,62.012,-27.831999999999997,-27.831999999999997,54.199,1.0
1622759275.434702,7.812,-34.668,-23.926,-4.883,1.0
1622759275.4386082,-19.043,-27.831999999999997,-21.973000000000003,-25.879,1.0
1622759275.4425144,45.898,-19.043,-12.695,37.109,1.0
1622759275.4464207,81.543,-26.366999999999997,-18.555,65.918,1.0
1622759275.450327,24.901999999999997,-30.761999999999997,-26.855,12.207,1.0
1622759275.4542332,-29.785,-34.668,-22.949,-22.949,1.0
1622759275.4581394,14.16,-37.109,-23.926,24.901999999999997,1.0
1622759275.4620454,55.176,-64.941,-34.18,58.105,1.0
1622759275.465952,20.996,-59.082,-33.691,11.23,1.0
1622759275.4698582,-49.316,-32.715,-32.227,-44.922,1.0
1622759275.4737644,-49.805,-18.555,-15.137,-25.879,1.0
1622759275.4776707,13.184000000000001,-5.859,-10.254000000000001,-2.441,1.0
1622759275.481577,29.785,-24.414,-43.945,12.207,1.0
1622759275.4854832,53.711000000000006,-36.133,-5.371,12.207,1.0
1622759275.4893894,29.785,-14.16,-13.184000000000001,-47.852,1.0
1622759275.4932957,-27.344,-14.648,-22.949,-44.434,1.0
1622759275.497202,-8.789,-9.766,-20.996,43.945,1.0
1622759275.5011082,37.109,-10.742,-15.137,56.152,1.0
1622759275.5050144,34.18,-33.691,-28.809,-29.785,1.0
1622759275.508921,-15.137,-36.621,-42.968999999999994,-29.785,1.0
1622759275.512827,-30.761999999999997,-41.992,-32.715,36.133,1.0
1622759275.516733,4.883,-50.293,-19.531,35.645,1.0
1622759275.5206397,13.184000000000001,-41.504,-8.789,-2.441,1.0
1622759275.5245454,-37.109,-40.527,-30.761999999999997,-41.992,1.0
1622759275.5284517,-61.523,-26.366999999999997,-48.34,0.0,1.0
1622759275.532358,-7.812,-1.953,-19.531,1.0,1.0
1622759275.5362642,14.648,-15.625,-13.672,1.0,1.0
1622759275.540171,-33.203,-35.645,-23.438000000000002,1.0,1.0
1622759275.544077,-89.844,-33.203,-34.18,1.0,1.0
1622759275.5479832,-72.266,-26.366999999999997,-42.968999999999994,1.0,1.0
1622759275.5518894,-16.602,-19.043,-39.551,1.0,1.0
1622759275.5557954,-30.273000000000003,-21.484,-46.387,1.0,1.0
1622759275.559702,-72.75399999999999,-23.438000000000002,-51.758,1.0,1.0
1622759275.5636082,-65.43,-25.879,-40.039,1.0,1.0
1622759275.5675142,-16.602,-23.926,-26.855,1.0,1.0
1622759275.5714207,-19.043,-18.066,-29.296999999999997,1.0,1.0
1622759275.575327,-79.59,-19.531,-34.18,1.0,1.0
1622759275.5792332,57.617,-32.715,-64.941,62.012,1.0
1622759275.5831394,33.203,-1.465,-46.387,12.695,1.0
1622759275.5870457,-20.996,-24.414,-11.719000000000001,-32.227,1.0
1622759275.590952,13.672,-47.363,6.348,14.648,1.0
1622759275.5948582,71.289,-38.574,1.465,70.312,1.0
1622759275.5987644,36.621,-48.828,-3.418,28.809,1.0
1622759275.6026707,-27.831999999999997,-56.152,-25.879,-23.438000000000002,1.0
1622759275.606577,-15.137,-43.945,-36.621,6.836,1.0
1622759275.6104832,42.48,-48.34,-21.973000000000003,62.5,1.0
1622759275.6143897,39.551,-46.387,-12.207,38.086,1.0
1622759275.6182957,7.324,-37.109,-12.207,-14.16,1.0
1622759275.622202,1.953,-37.598,-31.25,-9.766,1.0
1622759275.6261082,46.875,-17.09,-16.602,1.0,1.0
1622759275.6300144,64.453,-13.184000000000001,-1.465,1.0,1.0
1622759275.6339207,7.812,-28.32,-11.23,1.0,1.0
1622759275.637827,-15.625,-54.199,-18.555,1.0,1.0
1622759275.641733,48.34,-62.012,-25.391,1.0,1.0
1622759275.6456397,97.16799999999999,-62.5,-30.273000000000003,1.0,1.0
1622759275.6495454,35.645,-42.48,-37.598,1.0,1.0
1622759275.6534522,-19.531,7.324,-35.156,1.0,1.0
1622759275.657358,10.254000000000001,-4.883,-26.855,1.0,1.0
1622759275.6612642,73.242,-21.973000000000003,-14.16,1.0,1.0
1622759275.665171,52.246,-10.254000000000001,-19.043,1.0,1.0
1622759275.669077,-21.973000000000003,-5.859,-33.691,1.0,1.0
1622759275.672983,9.277000000000001,-6.836,-25.879,1.0,1.0
1622759275.6768894,51.27,-19.043,-18.555,1.0,1.0
1622759275.6807954,35.645,-30.761999999999997,-5.859,1.0,1.0
1622759275.684702,-12.207,-25.879,-19.043,1.0,1.0
1622759275.6886082,-26.366999999999997,-34.668,-22.949,1.0,1.0
1622759275.6925144,35.645,-55.663999999999994,-8.301,1.0,1.0
1622759275.6964207,46.875,-38.086,-14.648,1.0,1.0
1622759275.700327,-10.742,-19.531,-22.949,1.0,1.0
1622759275.7042332,-15.137,-26.366999999999997,-25.391,1.0,1.0
1622759275.7081394,33.691,-16.113,-5.859,1.0,1.0
1622759275.7120454,49.316,-18.555,4.395,1.0,1.0
1622759275.715952,2.93,-36.133,-21.484,1.0,1.0
1622759275.7198582,56.641000000000005,-3.418,-30.761999999999997,-23.438000000000002,1.0
1622759275.7237644,-10.742,-36.133,-38.574,-58.105,1.0
1622759275.7276707,-31.738000000000003,-26.366999999999997,-41.992,-9.277000000000001,1.0
1622759275.731577,6.836,-2.441,-39.062,34.668,1.0
1622759275.7354832,6.836,-6.348,-27.831999999999997,-6.836,1.0
1622759275.7393894,-12.207,2.93,-17.578,-62.012,1.0
1622759275.7432957,-59.57,-0.488,-20.508000000000003,-30.273000000000003,1.0
1622759275.747202,-42.968999999999994,-16.602,-31.25,31.25,1.0
1622759275.7511082,4.883,-32.227,-38.086,27.344,1.0
1622759275.7550144,-0.488,-35.156,-36.621,-37.598,1.0
1622759275.758921,-52.246,-35.645,-36.621,-48.828,1.0
1622759275.762827,-45.898,-46.387,-42.968999999999994,17.09,1.0
1622759275.766733,26.366999999999997,-44.922,-42.48,1.0,1.0
1622759275.7706397,22.461,-46.387,-45.41,1.0,1.0
1622759275.7745454,-37.109,-30.761999999999997,-33.691,1.0,1.0
1622759275.7784517,-52.246,-30.761999999999997,-26.855,1.0,1.0
1622759275.782358,-15.625,-31.738000000000003,-36.133,1.0,1.0
1622759275.7862642,3.418,-14.16,-34.668,1.0,1.0
1622759275.790171,-41.992,-5.859,-35.645,1.0,1.0
1622759275.794077,-79.102,-18.066,-50.781000000000006,1.0,1.0
1622759275.7979832,-31.25,-31.25,-56.152,1.0,1.0
1622759275.8018894,15.625,-25.879,-39.062,1.0,1.0
1622759275.8057954,-23.438000000000002,-27.831999999999997,-35.645,1.0,1.0
1622759275.809702,-81.543,-28.32,-36.133,1.0,1.0
1622759275.8136082,-17.09,-26.366999999999997,-29.296999999999997,-30.273000000000003,1.0
1622759275.8175142,-62.988,-47.363,-34.668,-73.73,1.0
1622759275.8214207,-61.035,-38.574,-38.086,-56.641000000000005,1.0
1622759275.825327,-19.531,-27.831999999999997,-42.968999999999994,-14.648,1.0
1622759275.8292332,-1.953,-16.113,-40.527,-4.395,1.0
1622759275.8331394,-31.738000000000003,-13.672,-36.133,-35.156,1.0
1622759275.8370457,-69.824,-29.785,-45.41,-60.059,1.0
1622759275.840952,-38.086,-32.715,-25.879,-25.391,1.0
1622759275.8448582,-20.02,-39.551,-20.02,-21.973000000000003,1.0
1622759275.8487644,-63.477,-27.344,-40.039,-71.777,1.0
1622759275.8526707,-94.238,-21.484,-41.504,-97.16799999999999,1.0
1622759275.856577,-61.035,-37.598,-43.457,-60.547,1.0
1622759275.8604832,-4.395,-45.898,-41.504,1.0,1.0
1622759275.8643897,-21.973000000000003,-41.992,-39.551,1.0,1.0
1622759275.8682957,-67.383,-36.621,-37.109,1.0,1.0
1622759275.872202,-59.57,-49.805,-40.527,1.0,1.0
1622759275.8761082,3.906,-36.133,-28.809,1.0,1.0
1622759275.8800144,9.766,-15.137,-29.296999999999997,1.0,1.0
1622759275.8839207,-65.918,-34.18,-52.246,1.0,1.0
1622759275.887827,-86.914,-43.457,-45.898,1.0,1.0
1622759275.891733,-31.738000000000003,-24.414,-25.879,1.0,1.0
1622759275.8956397,-0.977,-7.324,-28.32,1.0,1.0
1622759275.8995454,-42.48,-35.156,-48.34,1.0,1.0
1622759275.9034522,-84.473,-56.152,-42.48,1.0,1.0
1622759275.907358,-40.527,-32.227,-20.508000000000003,1.0,1.0
1622759275.9112642,8.789,-22.461,-24.414,1.0,1.0
1622759275.915171,-15.137,-20.996,-29.785,1.0,1.0
1622759275.919077,-66.406,-33.203,-40.039,1.0,1.0
1622759275.922983,-48.828,-51.27,-41.504,1.0,1.0
1622759275.9268894,1.465,-39.551,-30.273000000000003,1.0,1.0
1622759275.9307954,-11.23,-16.602,-29.785,1.0,1.0
1622759275.934702,-51.27,2.441,-18.066,1.0,1.0
1622759275.9386082,-46.387,-18.066,-20.02,1.0,1.0
1622759275.9425144,3.418,-21.973000000000003,-27.344,1.0,1.0
1622759275.9464207,-4.395,-7.324,-34.18,1.0,1.0
1622759275.950327,-63.965,-9.277000000000001,-35.156,1.0,1.0
1622759275.9542332,23.438000000000002,-26.366999999999997,-25.391,20.996,1.0
1622759275.9581394,-20.996,-41.016000000000005,-25.879,-39.062,1.0
1622759275.9620454,-72.266,-34.18,-24.414,-83.984,1.0
1622759275.965952,-41.504,-26.366999999999997,-23.438000000000002,-30.761999999999997,1.0
1622759275.9698582,13.672,-24.901999999999997,-24.414,21.484,1.0
1622759275.9737644,-4.883,-14.648,-30.273000000000003,-18.555,1.0
1622759275.9776707,-73.73,-15.137,-22.949,-82.52,1.0
1622759275.981577,-68.359,-17.578,-22.461,-65.43,1.0
1622759275.9854832,-9.277000000000001,-18.555,-43.945,-13.184000000000001,1.0
1622759275.9893894,-0.488,-13.184000000000001,-31.25,-15.137,1.0
1622759275.9932957,-55.663999999999994,-23.438000000000002,-31.25,-68.359,1.0
1622759275.997202,-75.195,-25.391,-44.922,-69.336,1.0
1622759276.0011082,-15.137,-12.207,-16.113,1.0,1.0
1622759276.0050144,6.348,-30.273000000000003,-3.418,1.0,1.0
1622759276.008921,-51.758,-44.434,-25.391,1.0,1.0
1622759276.012827,-104.98,-51.27,-38.086,1.0,1.0
1622759276.016733,-70.801,-39.062,-39.551,1.0,1.0
1622759276.0206397,-14.16,-15.625,-31.25,1.0,1.0
1622759276.0245454,-30.761999999999997,-26.855,-31.25,1.0,1.0
1622759276.0284517,-65.43,-38.086,-33.691,1.0,1.0
1622759276.032358,-31.25,-20.508000000000003,-41.504,1.0,1.0
1622759276.0362642,18.555,-19.531,-48.828,1.0,1.0
1622759276.040171,-12.695,-30.761999999999997,-45.898,1.0,1.0
1622759276.044077,-76.66,-30.761999999999997,-40.039,1.0,1.0
1622759276.0479832,-68.359,-40.039,-24.901999999999997,-59.57,1.0
1622759276.0518894,-19.043,-34.18,-16.113,-2.441,1.0
1622759276.0557954,-10.742,-13.184000000000001,-29.296999999999997,-11.23,1.0
1622759276.059702,-59.57,-19.531,-46.875,-73.73,1.0
1622759276.0636082,-84.473,-25.391,-32.715,-86.426,1.0
1622759276.0675142,-38.574,-32.227,-38.086,-40.527,1.0
1622759276.0714207,-12.207,-48.34,-51.758,-27.831999999999997,1.0
1622759276.075327,-50.781000000000006,-48.828,-35.645,-69.336,1.0
1622759276.0792332,-72.266,-51.27,-30.273000000000003,-78.613,1.0
1622759276.0831394,-28.32,-46.387,-19.531,-26.366999999999997,1.0
1622759276.0870457,5.371,-34.18,-20.508000000000003,2.441,1.0
1622759276.090952,-32.227,-28.32,-37.598,-37.598,1.0
1622759276.0948582,-32.227,-63.477,-38.574,-21.484,1.0
1622759276.0987644,-83.49600000000001,-61.523,-48.34,-75.684,1.0
1622759276.1026707,-69.336,-46.387,-45.41,-42.968999999999994,1.0
1622759276.106577,-2.441,-28.809,-36.133,0.0,1.0
1622759276.1104832,9.766,-33.203,-27.344,-28.809,1.0
1622759276.1143897,-62.012,-22.461,-24.414,-66.406,1.0
1622759276.1182957,-90.82,-7.324,-43.945,-9.766,1.0
1622759276.122202,-34.668,-0.977,-54.199,20.508000000000003,1.0
1622759276.1261082,-14.16,9.277000000000001,-41.016000000000005,-41.016000000000005,1.0
1622759276.1300144,-76.66,-11.23,-39.551,-89.844,1.0
1622759276.1339207,-115.234,-32.227,-33.691,-48.828,1.0
1622759276.137827,-71.289,-38.574,-27.344,3.906,1.0
1622759276.141733,-24.414,-27.831999999999997,-25.879,1.0,1.0
1622759276.1456397,-48.34,-24.901999999999997,-32.227,1.0,1.0
1622759276.1495454,-95.215,-26.366999999999997,-39.551,1.0,1.0
1622759276.1534522,-69.824,-19.531,-27.831999999999997,1.0,1.0
1622759276.157358,-13.672,-37.598,-26.855,1.0,1.0
1622759276.1612642,-27.344,-52.246,-46.387,1.0,1.0
1622759276.165171,-78.125,-33.203,-54.688,1.0,1.0
1622759276.169077,-73.242,-7.812,-37.109,1.0,1.0
1622759276.172983,-15.137,-16.602,-33.203,1.0,1.0
1622759276.1768894,-4.883,-16.602,-28.32,1.0,1.0
1622759276.1807954,-71.777,-17.578,-19.531,1.0,1.0
1622759276.184702,-100.098,-21.484,-23.926,1.0,1.0
1622759276.1886082,-36.133,-0.488,-14.16,-29.785,1.0
1622759276.1925144,-5.371,-13.184000000000001,-17.578,-5.859,1.0
1622759276.1964207,-51.758,-37.598,-47.852,-56.641000000000005,1.0
1622759276.200327,-94.727,-49.805,-71.777,-88.37899999999999,1.0
1622759276.2042332,-66.406,-60.547,-64.941,-52.733999999999995,1.0
1622759276.2081394,11.23,-35.156,-44.922,8.789,1.0
1622759276.2120454,-9.766,-19.043,-25.391,-18.066,1.0
1622759276.215952,-91.309,-32.715,-19.531,-84.961,1.0
1622759276.2198582,-77.148,-24.414,-11.23,-60.059,1.0
1622759276.2237644,-13.672,-18.066,-1.953,1.465,1.0
1622759276.2276707,-25.879,-16.113,-16.602,-19.043,1.0
1622759276.231577,-85.93799999999999,-18.066,-41.504,-74.219,1.0
1622759276.2354832,-60.547,-31.738000000000003,-32.227,-59.082,1.0
1622759276.2393894,-40.527,-26.855,-17.09,-28.809,1.0
1622759276.2432957,28.809,-13.672,0.0,41.992,1.0
1622759276.247202,17.09,-20.508000000000003,-16.113,24.901999999999997,1.0
1622759276.2511082,-45.898,-16.113,-26.366999999999997,-35.645,1.0
1622759276.2550144,-41.504,-25.391,-32.715,-24.901999999999997,1.0
1622759276.258921,5.859,-46.387,-37.598,24.901999999999997,1.0
1622759276.262827,14.16,-56.641000000000005,-20.02,26.366999999999997,1.0
1622759276.266733,-32.715,-52.246,-24.901999999999997,-18.555,1.0
1622759276.2706397,-63.965,-29.785,-37.109,-38.086,1.0
1622759276.2745454,-20.996,-18.066,-19.531,2.441,1.0
1622759276.2784517,10.254000000000001,-23.926,-12.207,18.066,1.0
1622759276.282358,-28.32,-31.738000000000003,-20.996,1.0,1.0
1622759276.2862642,-66.406,-18.555,-16.113,1.0,1.0
1622759276.290171,-34.668,-16.602,-14.16,1.0,1.0
1622759276.294077,9.766,-38.086,-31.738000000000003,1.0,1.0
1622759276.2979832,-7.324,-53.711000000000006,-41.992,1.0,1.0
1622759276.3018894,-61.523,-38.086,-38.574,1.0,1.0
1622759276.3057954,-54.199,-26.855,-35.156,1.0,1.0
1622759276.309702,24.901999999999997,-39.062,-29.296999999999997,1.0,1.0
1622759276.3136082,25.879,-25.879,-41.992,1.0,1.0
1622759276.3175142,-62.012,-18.066,-51.758,1.0,1.0
1622759276.3214207,-80.078,-27.831999999999997,-43.457,1.0,1.0
1622759276.325327,-22.949,-33.691,-36.621,1.0,1.0
1622759276.3292332,-7.812,-28.32,-25.391,-12.695,1.0
1622759276.3331394,-61.035,-23.926,-15.625,-68.848,1.0
1622759276.3370457,-97.16799999999999,-24.901999999999997,-27.831999999999997,-93.75,1.0
1622759276.340952,-54.688,-42.48,-39.062,-50.781000000000006,1.0
1622759276.3448582,-19.043,-34.18,-31.738000000000003,-17.578,1.0
1622759276.3487644,-52.733999999999995,-12.695,-31.738000000000003,-54.688,1.0
1622759276.3526707,-108.398,-41.504,-41.504,-111.816,1.0
1622759276.356577,-88.37899999999999,-58.593999999999994,-29.296999999999997,-80.078,1.0
1622759276.3604832,-30.273000000000003,-33.691,-17.578,-22.461,1.0
1622759276.3643897,-33.691,-23.926,-24.414,-37.598,1.0
1622759276.3682957,-95.215,-33.691,-32.715,-95.70299999999999,1.0
1622759276.372202,-100.098,-29.785,-41.016000000000005,-88.37899999999999,1.0
1622759276.3761082,-28.809,-31.738000000000003,-36.621,1.0,1.0
1622759276.3800144,-23.438000000000002,-40.039,-38.574,1.0,1.0
1622759276.3839207,-75.684,-28.32,-39.551,1.0,1.0
1622759276.387827,-85.93799999999999,-15.137,-34.18,1.0,1.0
1622759276.391733,-30.273000000000003,-30.761999999999997,-24.414,1.0,1.0
1622759276.3956397,4.883,-42.968999999999994,-21.484,1.0,1.0
1622759276.3995454,-41.016000000000005,-39.551,-35.156,1.0,1.0
1622759276.4034522,-75.684,-41.016000000000005,-24.901999999999997,1.0,1.0
1622759276.407358,-36.621,-29.785,-19.531,1.0,1.0
1622759276.4112642,2.441,-27.344,-30.761999999999997,1.0,1.0
1622759276.415171,-29.296999999999997,-28.32,-34.668,1.0,1.0
1622759276.419077,-72.75399999999999,-10.742,-30.273000000000003,1.0,1.0
1622759276.422983,-32.715,-21.484,-35.645,-25.391,1.0
1622759276.4268894,-64.941,-46.387,-29.296999999999997,-54.688,1.0
1622759276.4307954,-35.156,-50.781000000000006,-19.043,-16.113,1.0
1622759276.434702,-5.859,-37.109,-14.16,6.348,1.0
1622759276.4386082,-44.434,-32.227,-22.461,-37.109,1.0
1622759276.4425144,-85.449,-36.621,-40.039,-65.918,1.0
1622759276.4464207,-51.27,-58.105,-32.715,-24.414,1.0
1622759276.450327,-7.324,-44.922,-23.926,17.09,1.0
1622759276.4542332,-33.691,-35.645,-33.691,-19.043,1.0
1622759276.4581394,-85.93799999999999,-43.457,-33.203,-74.707,1.0
1622759276.4620454,-67.87100000000001,-21.484,-11.23,-48.828,1.0
1622759276.465952,-10.742,-22.461,-15.625,16.113,1.0
1622759276.4698582,-14.16,-53.223,-40.039,1.0,1.0
1622759276.4737644,-60.059,-24.414,-24.414,1.0,1.0
1622759276.4776707,-73.242,-7.812,-21.484,1.0,1.0
1622759276.481577,-29.785,-37.109,-22.949,1.0,1.0
1622759276.4854832,2.441,-38.086,-19.531,1.0,1.0
1622759276.4893894,-45.898,-53.711000000000006,-40.527,1.0,1.0
1622759276.4932957,-81.055,-51.27,-53.223,1.0,1.0
1622759276.497202,-28.32,-18.066,-29.785,1.0,1.0
1622759276.5011082,12.207,-7.812,-11.719000000000001,1.0,1.0
1622759276.5050144,-18.555,-14.16,-17.09,1.0,1.0
1622759276.508921,-74.707,-49.316,-20.02,1.0,1.0
1622759276.512827,-62.988,-63.965,-27.344,1.0,1.0
1622759276.516733,3.418,-24.414,-30.273000000000003,1.0,1.0
1622759276.5206397,2.93,0.488,-31.25,1.0,1.0
1622759276.5245454,-45.41,-5.859,-38.574,1.0,1.0
1622759276.5284517,-55.663999999999994,-29.296999999999997,-35.156,1.0,1.0
1622759276.532358,-7.812,-48.34,-22.461,1.0,1.0
1622759276.5362642,0.488,-35.645,-26.366999999999997,1.0,1.0
1622759276.540171,-51.27,-19.043,-28.32,1.0,1.0
1622759276.544077,-73.73,-34.668,-37.598,1.0,1.0
1622759276.5479832,-28.32,-60.059,-51.27,1.0,1.0
1622759276.5518894,11.719000000000001,-41.992,-30.273000000000003,1.0,1.0
1622759276.5557954,-33.203,-10.254000000000001,-16.113,1.0,1.0
1622759276.559702,-71.777,-1.465,-28.809,1.0,1.0
1622759276.5636082,-34.18,-9.766,-33.691,1.0,1.0
1622759276.5675142,10.742,-14.16,-22.949,1.0,1.0
1622759276.5714207,-15.625,-27.831999999999997,-25.391,1.0,1.0
1622759276.575327,-61.523,-36.621,-32.227,1.0,1.0
1622759276.5792332,-29.785,-45.41,-31.738000000000003,1.0,1.0
1622759276.5831394,33.691,-55.176,-31.25,1.0,1.0
1622759276.5870457,29.785,-35.156,-12.695,1.0,1.0
1622759276.590952,-27.831999999999997,-17.09,-11.719000000000001,1.0,1.0
1622759276.5948582,-41.504,-6.348,-11.719000000000001,1.0,1.0
1622759276.5987644,10.254000000000001,0.977,-8.301,1.0,1.0
1622759276.6026707,14.648,-17.09,-30.273000000000003,1.0,1.0
1622759276.606577,-41.992,-38.574,-31.738000000000003,1.0,1.0
1622759276.6104832,-51.758,-54.199,-16.113,-62.5,1.0
1622759276.6143897,-0.488,-49.316,-16.113,-0.488,1.0
1622759276.6182957,23.926,-32.715,-23.438000000000002,14.16,1.0
1622759276.622202,-27.831999999999997,-44.434,-33.203,-42.968999999999994,1.0
1622759276.6261082,-69.824,-43.457,-32.715,-73.242,1.0
1622759276.6300144,-28.809,-19.043,-16.602,-27.831999999999997,1.0
1622759276.6339207,18.555,3.418,-19.531,16.602,1.0
1622759276.637827,-6.836,-2.93,-42.968999999999994,-14.16,1.0
1622759276.641733,-58.105,-30.761999999999997,-51.758,-65.918,1.0
1622759276.6456397,-49.316,-30.273000000000003,-34.18,-46.387,1.0
1622759276.6495454,-11.719000000000001,-40.039,-25.879,-9.766,1.0
1622759276.6534522,-13.184000000000001,-68.848,-29.296999999999997,-19.531,1.0
1622759276.657358,-4.395,-58.593999999999994,-23.438000000000002,-56.641000000000005,1.0
1622759276.6612642,-66.895,-45.898,-21.484,-56.641000000000005,1.0
1622759276.665171,-71.777,-29.785,-19.043,-8.789,1.0
1622759276.669077,-20.02,-18.066,-18.555,2.93,1.0
1622759276.672983,-10.254000000000001,-26.855,-30.761999999999997,-55.176,1.0
1622759276.6768894,-62.5,-34.668,-37.109,-75.684,1.0
1622759276.6807954,-66.406,-20.508000000000003,-27.344,-28.32,1.0
1622759276.684702,-8.789,-0.488,-18.555,4.395,1.0
1622759276.6886082,13.672,-14.648,-26.855,-28.809,1.0
1622759276.6925144,-25.879,-37.598,-36.133,-62.012,1.0
1622759276.6964207,-63.965,-36.621,-40.039,-35.156,1.0
1622759276.700327,-24.414,-18.066,-26.855,4.883,1.0
1622759276.7042332,22.949,1.953,-10.742,1.0,1.0
1622759276.7081394,-2.93,-1.953,-22.949,1.0,1.0
1622759276.7120454,-51.758,-14.16,-37.109,1.0,1.0
1622759276.715952,-22.461,-15.137,-22.461,1.0,1.0
1622759276.7198582,41.504,-4.395,-11.23,1.0,1.0
1622759276.7237644,22.461,-23.438000000000002,-26.855,1.0,1.0
1622759276.7276707,-40.039,-41.992,-38.574,1.0,1.0
1622759276.731577,-51.27,-38.086,-42.48,1.0,1.0
1622759276.7354832,-11.719000000000001,-40.039,-37.598,1.0,1.0
1622759276.7393894,-5.859,-27.344,-23.438000000000002,1.0,1.0
1622759276.7432957,-61.035,-21.973000000000003,-31.25,1.0,1.0
1622759276.747202,-82.031,-20.996,-37.109,1.0,1.0
1622759276.7511082,-29.296999999999997,-20.996,-31.738000000000003,-32.715,1.0
1622759276.7550144,2.441,-19.043,-37.109,-11.719000000000001,1.0
1622759276.758921,-46.387,-24.414,-40.039,-65.918,1.0
1622759276.762827,-102.539,-30.761999999999997,-39.551,-106.934,1.0
1622759276.766733,-60.547,-31.25,-37.598,-58.593999999999994,1.0
1622759276.7706397,-4.883,-42.48,-37.109,-12.207,1.0
1622759276.7745454,-44.922,-37.109,-41.016000000000005,-54.688,1.0
1622759276.7784517,-110.352,-32.227,-40.039,-109.863,1.0
1622759276.782358,-85.449,-23.438000000000002,-26.366999999999997,-73.242,1.0
1622759276.7862642,-18.555,-22.461,-17.09,-7.812,1.0
1622759276.790171,-20.02,-25.391,-26.855,-26.855,1.0
1622759276.794077,-83.008,-26.855,-40.527,-91.309,1.0
1622759276.7979832,-81.055,-32.715,-33.203,-67.383,1.0
1622759276.8018894,-69.336,-30.761999999999997,-14.16,-44.434,1.0
1622759276.8057954,0.0,-25.391,-10.742,20.508000000000003,1.0
1622759276.809702,6.348,-46.387,-10.254000000000001,17.578,1.0
1622759276.8136082,-46.875,-65.918,-16.113,-40.039,1.0
1622759276.8175142,-44.922,-37.109,-16.602,-24.414,1.0
1622759276.8214207,18.066,-1.953,-8.301,34.18,1.0
1622759276.825327,43.945,2.441,-17.09,43.945,1.0
1622759276.8292332,-6.348,0.0,-24.901999999999997,-3.418,1.0
1622759276.8331394,-51.27,0.488,-10.254000000000001,-27.831999999999997,1.0
1622759276.8370457,-25.879,-2.93,-5.859,4.883,1.0
1622759276.840952,19.043,-18.555,-11.23,37.598,1.0
1622759276.8448582,-7.324,-47.363,-10.742,1.0,1.0
1622759276.8487644,-70.801,-44.434,-20.996,1.0,1.0
1622759276.8526707,-45.41,-22.461,-25.879,1.0,1.0
1622759276.856577,16.602,-22.461,-15.625,1.0,1.0
1622759276.8604832,2.441,-6.836,-16.113,1.0,1.0
1622759276.8643897,-50.293,5.859,-36.621,1.0,1.0
1622759276.8682957,-43.945,-2.441,-55.663999999999994,1.0,1.0
1622759276.872202,25.391,-1.465,-42.48,1.0,1.0
1622759276.8761082,19.043,-12.695,-34.18,1.0,1.0
1622759276.8800144,-38.086,-25.391,-34.18,1.0,1.0
1622759276.8839207,-46.875,-34.668,-16.602,1.0,1.0
1622759276.887827,-13.184000000000001,-50.293,-22.949,1.0,1.0
1622759276.891733,2.93,-42.968999999999994,-47.363,1.0,1.0
1622759276.8956397,-39.551,-27.344,-54.688,1.0,1.0
1622759276.8995454,-73.242,-21.484,-48.828,1.0,1.0
1622759276.9034522,-34.18,-21.973000000000003,-39.551,1.0,1.0
1622759276.907358,12.695,-4.883,-35.645,1.0,1.0
1622759276.9112642,-23.438000000000002,4.395,-52.733999999999995,1.0,1.0
1622759276.915171,-94.238,-12.695,-59.082,1.0,1.0
1622759276.919077,-89.844,-19.043,-39.551,1.0,1.0
1622759276.922983,-33.691,-22.461,-27.344,1.0,1.0
1622759276.9268894,-25.391,-58.105,-27.344,1.0,1.0
1622759276.9307954,-74.707,-57.617,-40.039,1.0,1.0
1622759276.934702,-78.125,-25.879,-48.828,1.0,1.0
1622759276.9386082,-21.973000000000003,-27.344,-47.363,1.0,1.0
1622759276.9425144,-6.348,-30.273000000000003,-40.039,1.0,1.0
1622759276.9464207,-54.688,-27.344,-46.875,1.0,1.0
1622759276.950327,-86.914,-45.41,-73.73,1.0,1.0
1622759276.9542332,-41.016000000000005,-23.438000000000002,-54.688,1.0,1.0
1622759276.9581394,-8.301,-7.812,-29.785,1.0,1.0
1622759276.9620454,-44.922,-28.32,-35.645,1.0,1.0
1622759276.965952,-80.078,-41.016000000000005,-33.203,1.0,1.0
1622759276.9698582,-43.945,-31.25,-24.414,1.0,1.0
1622759276.9737644,3.418,-18.066,-37.109,1.0,1.0
1622759276.9776707,-10.254000000000001,-32.715,-48.828,1.0,1.0
1622759276.981577,-54.688,-36.621,-48.828,1.0,1.0
1622759276.9854832,-39.062,-30.273000000000003,-49.805,-42.48,1.0
1622759276.9893894,2.93,-44.922,-38.086,0.977,1.0
1622759276.9932957,-15.625,-42.968999999999994,-41.016000000000005,-23.438000000000002,1.0
1622759276.997202,-63.965,-17.578,-34.18,-67.383,1.0
1622759277.0011082,-55.176,-24.414,-19.531,-41.992,1.0
1622759277.0050144,5.371,-40.527,-25.879,20.02,1.0
1622759277.008921,15.137,-24.901999999999997,-32.227,18.066,1.0
1622759277.012827,-51.758,-12.695,-31.738000000000003,-54.688,1.0
1622759277.016733,-72.75399999999999,-11.23,-21.973000000000003,-63.477,1.0
1622759277.0206397,-19.531,-33.691,-22.461,-4.883,1.0
1622759277.0245454,11.23,-44.434,-29.296999999999997,15.137,1.0
1622759277.0284517,-25.879,-24.414,-35.645,-31.25,1.0
1622759277.032358,-60.547,-49.316,-19.043,-65.43,1.0
1622759277.0362642,-99.609,-33.203,-37.598,-98.633,1.0
1622759277.040171,-51.758,-16.113,-26.366999999999997,-47.363,1.0
1622759277.044077,5.371,-8.789,-19.531,11.23,1.0
1622759277.0479832,-15.137,-37.598,-32.715,-13.184000000000001,1.0
1622759277.0518894,-60.547,-44.434,-39.062,-57.617,1.0
1622759277.0557954,-50.293,-27.831999999999997,-31.738000000000003,-37.109,1.0
1622759277.059702,-18.066,-29.296999999999997,-34.18,-9.766,1.0
1622759277.0636082,-29.296999999999997,-30.761999999999997,-35.156,-38.574,1.0
1622759277.0675142,-82.52,-31.738000000000003,-44.434,-91.79700000000001,1.0
1622759277.0714207,-82.031,-43.457,-44.922,-80.566,1.0
1622759277.075327,-8.789,-43.945,-23.438000000000002,-10.254000000000001,1.0
1622759277.0792332,10.254000000000001,-25.879,-24.414,1.0,1.0
1622759277.0831394,-55.663999999999994,-15.137,-38.574,1.0,1.0
1622759277.0870457,-71.777,-18.066,-43.457,1.0,1.0
1622759277.090952,-15.625,-30.273000000000003,-41.504,1.0,1.0
1622759277.0948582,11.719000000000001,-28.809,-42.48,1.0,1.0
1622759277.0987644,-24.901999999999997,-34.18,-30.761999999999997,1.0,1.0
1622759277.1026707,-60.547,-34.18,-22.461,1.0,1.0
1622759277.106577,-23.926,-28.809,-17.578,1.0,1.0
1622759277.1104832,3.906,-25.879,-20.508000000000003,1.0,1.0
1622759277.1143897,-26.366999999999997,-14.16,-28.32,1.0,1.0
1622759277.1182957,-64.453,-20.996,-15.625,1.0,1.0
1622759277.122202,-45.41,-29.785,-1.465,1.0,1.0
1622759277.1261082,11.23,-23.926,-8.789,1.0,1.0
1622759277.1300144,19.531,-17.578,-17.578,1.0,1.0
1622759277.1339207,-48.34,-20.02,-44.922,1.0,1.0
1622759277.137827,-72.266,-38.574,-54.199,1.0,1.0
1622759277.141733,4.395,-31.25,-26.366999999999997,1.0,1.0
1622759277.1456397,29.785,-33.691,-28.809,1.0,1.0
1622759277.1495454,-41.992,-44.922,-37.598,1.0,1.0
1622759277.1534522,-68.359,-17.578,-21.973000000000003,1.0,1.0
1622759277.157358,-21.484,-8.789,-21.973000000000003,1.0,1.0
1622759277.1612642,16.113,-27.344,-17.09,1.0,1.0
1622759277.165171,-28.32,-40.039,-17.578,1.0,1.0
1622759277.169077,-81.543,-42.48,-30.761999999999997,1.0,1.0
1622759277.172983,-79.102,-91.309,-34.18,-78.125,1.0
1622759277.1768894,-28.809,-56.641000000000005,-18.066,-20.996,1.0
1622759277.1807954,-11.23,-27.831999999999997,-33.691,-11.23,1.0
1622759277.184702,-55.176,-34.668,-57.129,-66.895,1.0
1622759277.1886082,-69.824,0.0,-41.992,-82.031,1.0
1622759277.1925144,-31.25,12.695,-24.414,-39.551,1.0
1622759277.1964207,-4.395,-23.438000000000002,-33.691,-6.836,1.0
1622759277.200327,-15.625,-36.621,-45.898,-23.438000000000002,1.0
1622759277.2042332,-63.477,-35.156,-55.176,-72.266,1.0
1622759277.2081394,-72.75399999999999,-32.715,-39.062,-66.895,1.0
1622759277.2120454,-20.996,-56.152,-24.901999999999997,-10.742,1.0
1622759277.215952,2.441,-54.199,-24.901999999999997,0.488,1.0
1622759277.2198582,3.418,-23.438000000000002,-36.621,-48.828,1.0
1622759277.2237644,-61.523,-33.203,-43.945,-61.035,1.0
1622759277.2276707,-70.801,-32.715,-31.25,-10.742,1.0
1622759277.231577,-13.184000000000001,-14.648,-23.926,5.859,1.0
1622759277.2354832,-2.93,0.977,-32.227,-37.109,1.0
1622759277.2393894,-52.733999999999995,-1.465,-40.527,-67.383,1.0
1622759277.2432957,-65.918,-21.973000000000003,-25.879,-38.574,1.0
1622759277.247202,-31.25,-45.41,-14.16,4.395,1.0
1622759277.2511082,-20.996,-63.965,-22.461,-25.879,1.0
1622759277.2550144,-57.617,-66.895,-40.039,-71.289,1.0
1622759277.258921,-84.473,-45.41,-44.922,-47.852,1.0
1622759277.262827,-47.852,-26.855,-24.901999999999997,0.488,1.0
1622759277.266733,-8.789,-33.203,-24.901999999999997,-3.418,1.0
1622759277.2706397,-28.32,-14.648,-26.366999999999997,-27.344,1.0
1622759277.2745454,-81.055,-2.93,-18.555,-69.824,1.0
1622759277.2784517,-71.289,-37.598,-25.391,-49.316,1.0
1622759277.282358,-6.836,-45.898,-22.949,3.906,1.0
1622759277.2862642,-16.602,-30.273000000000003,-21.973000000000003,-18.066,1.0
1622759277.290171,-81.055,-32.715,-34.668,-79.102,1.0
1622759277.294077,-85.93799999999999,-44.434,-49.805,-73.73,1.0
1622759277.2979832,-22.949,-20.508000000000003,-32.227,-11.23,1.0
1622759277.3018894,-5.859,-2.441,-14.16,-8.301,1.0
1622759277.3057954,-62.988,-28.32,-22.461,-64.941,1.0
1622759277.309702,-80.566,-45.41,-16.113,-66.406,1.0
1622759277.3136082,-61.035,-54.199,-29.296999999999997,-73.242,1.0
1622759277.3175142,-60.059,-68.359,-27.344,-56.641000000000005,1.0
1622759277.3214207,-0.488,-28.809,-19.531,5.859,1.0
1622759277.325327,6.836,-10.742,-23.926,1.953,1.0
1622759277.3292332,-58.105,-12.207,-45.41,-61.523,1.0
1622759277.3331394,-86.426,-25.391,-42.968999999999994,-80.078,1.0
1622759277.3370457,-42.48,-35.645,-25.391,-28.809,1.0
1622759277.340952,-14.16,-39.062,-36.133,-13.184000000000001,1.0
1622759277.3448582,-49.316,-33.691,-42.968999999999994,-61.035,1.0
1622759277.3487644,-79.59,-31.738000000000003,-34.18,-83.984,1.0
1622759277.3526707,-39.551,-37.109,-27.344,-33.203,1.0
1622759277.356577,0.488,-32.715,-26.366999999999997,-1.465,1.0
1622759277.3604832,-31.738000000000003,-29.296999999999997,-32.715,1.0,1.0
1622759277.3643897,-83.984,-34.18,-38.086,1.0,1.0
1622759277.3682957,-59.082,-61.035,-32.715,1.0,1.0
1622759277.372202,6.348,-38.086,-25.879,1.0,1.0
1622759277.3761082,-0.977,-20.02,-39.551,1.0,1.0
1622759277.3800144,-59.57,-29.296999999999997,-63.477,1.0,1.0
1622759277.3839207,-62.988,-9.766,-50.781000000000006,1.0,1.0
1622759277.387827,-20.02,-30.273000000000003,-29.296999999999997,1.0,1.0
1622759277.391733,-9.766,-44.434,-26.855,1.0,1.0
1622759277.3956397,-63.965,-42.968999999999994,-42.48,1.0,1.0
1622759277.3995454,-91.309,-62.988,-56.152,1.0,1.0
1622759277.4034522,-24.901999999999997,-45.898,-34.18,1.0,1.0
1622759277.407358,18.555,-5.371,-22.461,1.0,1.0
1622759277.4112642,-13.184000000000001,15.137,-22.949,1.0,1.0
1622759277.415171,-59.082,-18.555,-33.203,1.0,1.0
1622759277.419077,-42.968999999999994,-48.828,-48.34,1.0,1.0
1622759277.422983,6.348,-27.831999999999997,-29.785,1.0,1.0
1622759277.4268894,-15.625,-12.207,-23.926,1.0,1.0
1622759277.4307954,-68.359,-11.23,-36.133,1.0,1.0
1622759277.434702,-57.617,-24.901999999999997,-40.039,1.0,1.0
1622759277.4386082,-7.812,-32.715,-36.133,1.0,1.0
1622759277.4425144,1.953,-40.527,-27.831999999999997,1.0,1.0
1622759277.4464207,-47.363,-39.062,-25.879,1.0,1.0
1622759277.450327,-58.105,-19.043,-26.855,1.0,1.0
1622759277.4542332,3.418,7.324,-40.039,1.0,1.0
1622759277.4581394,21.973000000000003,-11.719000000000001,-39.551,1.0,1.0
1622759277.4620454,-38.086,-50.781000000000006,-31.738000000000003,1.0,1.0
1622759277.465952,-79.59,-41.504,-28.809,1.0,1.0
1622759277.4698582,-30.761999999999997,-28.809,-28.809,1.0,1.0
1622759277.4737644,13.672,-19.531,-37.598,1.0,1.0
1622759277.4776707,-33.691,-16.602,-45.41,1.0,1.0
1622759277.481577,-80.078,-11.719000000000001,-41.016000000000005,1.0,1.0
1622759277.4854832,-41.992,-14.16,-32.227,1.0,1.0
1622759277.4893894,7.812,-30.273000000000003,-28.809,1.0,1.0
1622759277.4932957,-20.996,-36.133,-27.344,1.0,1.0
1622759277.497202,-77.637,-32.227,-19.531,1.0,1.0
1622759277.5011082,-59.57,-19.043,-16.602,-42.968999999999994,1.0
1622759277.5050144,-7.324,-21.973000000000003,-21.484,0.488,1.0
1622759277.508921,-16.602,-28.809,-40.039,-17.09,1.0
1622759277.512827,-75.684,-42.48,-57.129,-67.383,1.0
1622759277.516733,-92.773,-55.176,-52.733999999999995,-74.707,1.0
1622759277.5206397,-37.598,-42.48,-33.203,-24.414,1.0
1622759277.5245454,-11.23,-57.129,-20.996,-7.812,1.0
1622759277.5284517,-52.733999999999995,-61.523,-18.555,-55.663999999999994,1.0
1622759277.532358,-83.984,-19.531,-19.531,-73.242,1.0
1622759277.5362642,-40.039,-4.395,-23.926,-21.973000000000003,1.0
1622759277.540171,6.348,-14.648,-29.785,11.719000000000001,1.0
1622759277.544077,-26.366999999999997,-17.09,-28.809,-34.18,1.0
1622759277.5479832,-39.062,-27.344,-23.438000000000002,-52.246,1.0
1622759277.5518894,-61.523,-29.296999999999997,-6.348,-59.082,1.0
1622759277.5557954,-37.109,-51.27,-1.953,-23.438000000000002,1.0
1622759277.559702,-11.719000000000001,-45.41,-26.366999999999997,-6.348,1.0
1622759277.5636082,-42.968999999999994,-20.508000000000003,-37.109,-48.828,1.0
1622759277.5675142,-89.844,-13.672,-38.574,-93.75,1.0
1622759277.5714207,-62.988,-19.531,-29.296999999999997,-54.688,1.0
1622759277.575327,5.859,-45.898,-17.578,18.066,1.0
1622759277.5792332,-6.836,-42.968999999999994,-30.273000000000003,-4.395,1.0
1622759277.5831394,-77.637,-23.438000000000002,-32.715,-80.078,1.0
1622759277.5870457,-75.195,-20.02,-14.16,-69.336,1.0
1622759277.590952,-7.812,-24.414,-11.719000000000001,-0.977,1.0
1622759277.5948582,5.859,-27.831999999999997,-21.484,1.0,1.0
1622759277.5987644,-51.27,-39.062,-25.391,1.0,1.0
1622759277.6026707,-73.242,-50.781000000000006,-24.414,1.0,1.0
1622759277.606577,-17.578,-41.504,-20.508000000000003,1.0,1.0
1622759277.6104832,15.137,-24.901999999999997,-31.25,1.0,1.0
1622759277.6143897,-31.25,-22.461,-49.316,1.0,1.0
1622759277.6182957,-78.125,-11.23,-48.828,1.0,1.0
1622759277.622202,-51.758,-11.23,-32.227,1.0,1.0
1622759277.6261082,-10.254000000000001,-32.715,-17.578,1.0,1.0
1622759277.6300144,-23.926,-35.645,-14.16,1.0,1.0
1622759277.6339207,-74.219,-37.109,-22.461,1.0,1.0
1622759277.637827,-70.312,-41.992,-20.508000000000003,1.0,1.0
1622759277.641733,-19.043,-29.785,-17.578,-7.324,1.0
1622759277.6456397,-4.395,-21.484,-30.761999999999997,-18.555,1.0
1622759277.6495454,-58.593999999999994,-17.09,-44.922,-76.66,1.0
1622759277.6534522,-81.543,-19.043,-51.758,-80.566,1.0
1622759277.657358,-23.926,-36.133,-49.805,-20.508000000000003,1.0
1622759277.6612642,-1.465,-41.016000000000005,-39.551,-7.324,1.0
1622759277.665171,-38.574,-21.973000000000003,-21.973000000000003,-46.875,1.0
1622759277.669077,-63.965,-32.715,-33.203,-60.059,1.0
1622759277.672983,-29.785,-45.41,-40.039,-21.973000000000003,1.0
1622759277.6768894,12.207,-27.831999999999997,-17.578,10.742,1.0
1622759277.6807954,-27.344,-33.691,-17.578,-28.32,1.0
1622759277.684702,-84.961,-29.296999999999997,-41.504,-75.195,1.0
1622759277.6886082,-80.566,-28.32,-23.926,-75.195,1.0
1622759277.6925144,-24.901999999999997,-16.113,-4.883,-13.672,1.0
1622759277.6964207,29.296999999999997,-39.551,-10.254000000000001,27.831999999999997,1.0
1622759277.700327,-0.488,-55.176,-22.949,-9.277000000000001,1.0
1622759277.7042332,-60.547,-57.617,-28.809,-61.523,1.0
1622759277.7081394,-53.711000000000006,-30.761999999999997,-30.761999999999997,-34.18,1.0
1622759277.7120454,-6.836,-17.09,-27.344,15.137,1.0
1622759277.715952,-17.09,-32.715,-25.391,-15.137,1.0
1622759277.7198582,-76.66,-32.715,-41.992,-80.566,1.0
1622759277.7237644,-80.566,-18.066,-51.758,-74.219,1.0
1622759277.7276707,-6.348,-10.254000000000001,-39.551,-1.465,1.0
1622759277.731577,17.578,-34.18,-20.02,6.836,1.0
1622759277.7354832,-2.93,-29.296999999999997,-48.828,-62.988,1.0
1622759277.7393894,-55.663999999999994,-45.898,-50.293,-73.242,1.0
1622759277.7432957,-67.383,-39.062,-48.34,-14.648,1.0
1622759277.747202,-18.555,-18.555,-33.203,-3.418,1.0
1622759277.7511082,-9.766,-17.09,-27.831999999999997,-56.641000000000005,1.0
1622759277.7550144,-58.593999999999994,-43.457,-24.414,-82.031,1.0
1622759277.758921,-67.383,-46.875,-18.066,-36.621,1.0
1622759277.762827,-7.812,-30.761999999999997,-18.066,8.301,1.0
1622759277.766733,24.414,-27.344,-27.831999999999997,-24.414,1.0
1622759277.7706397,-20.996,-32.227,-32.715,-74.707,1.0
1622759277.7745454,-86.914,-54.199,-36.133,-50.781000000000006,1.0
1622759277.7784517,-65.918,-39.062,-33.691,4.395,1.0
1622759277.782358,2.93,-9.766,-26.366999999999997,1.0,1.0
1622759277.7862642,-9.766,-33.691,-37.109,1.0,1.0
1622759277.790171,-62.988,-32.715,-31.25,1.0,1.0
1622759277.794077,-46.875,-17.578,-9.766,1.0,1.0
1622759277.7979832,1.953,-39.551,0.488,1.0,1.0
1622759277.8018894,-3.906,-30.273000000000003,2.441,1.0,1.0
1622759277.8057954,-54.199,-23.438000000000002,-19.043,1.0,1.0
1622759277.809702,-67.383,-16.602,-32.715,1.0,1.0
1622759277.8136082,-25.879,1.465,-37.598,1.0,1.0
1622759277.8175142,-13.184000000000001,-7.812,-39.551,1.0,1.0
1622759277.8214207,-61.035,-32.227,-24.901999999999997,1.0,1.0
1622759277.825327,-76.172,-37.109,-12.207,1.0,1.0
1622759277.8292332,-12.207,-14.648,-12.695,-2.441,1.0
1622759277.8331394,32.715,-18.555,-14.648,37.598,1.0
1622759277.8370457,-12.207,-34.18,-27.344,-21.484,1.0
1622759277.840952,-69.824,-13.672,-51.27,-74.219,1.0
1622759277.8448582,-46.387,-20.508000000000003,-44.434,-41.504,1.0
1622759277.8487644,9.766,-50.293,-21.484,21.484,1.0
1622759277.8526707,20.508000000000003,-47.363,-18.555,18.066,1.0
1622759277.856577,-33.691,-19.531,-17.09,-44.922,1.0
1622759277.8604832,-66.406,0.488,-11.23,-51.758,1.0
1622759277.8643897,-18.555,-11.23,-22.461,-10.254000000000001,1.0
1622759277.8682957,-3.418,-26.366999999999997,-43.945,-19.531,1.0
1622759277.872202,-64.453,-25.879,-46.387,-71.289,1.0
1622759277.8761082,-50.293,-21.973000000000003,-33.203,-58.593999999999994,1.0
1622759277.8800144,-51.27,-12.207,-36.133,-60.059,1.0
1622759277.8839207,-1.465,-20.996,-27.831999999999997,-6.836,1.0
1622759277.887827,9.277000000000001,-16.602,-27.344,0.977,1.0
1622759277.891733,-55.176,-0.488,-31.738000000000003,-59.082,1.0
1622759277.8956397,-62.988,-12.207,-22.949,-45.41,1.0
1622759277.8995454,-12.207,-46.875,-22.949,10.742,1.0
1622759277.9034522,-3.418,-64.453,-39.062,0.488,1.0
1622759277.907358,-44.434,-35.645,-38.574,-45.898,1.0
1622759277.9112642,-81.543,-8.301,-27.344,-74.219,1.0
1622759277.915171,-44.434,-5.859,-17.578,-43.457,1.0
1622759277.919077,1.953,-26.366999999999997,-24.414,0.977,1.0
1622759277.922983,-18.555,-43.457,-43.945,1.0,1.0
1622759277.9268894,-60.059,-19.531,-49.316,1.0,1.0
1622759277.9307954,-60.547,-22.949,-43.945,1.0,1.0
1622759277.934702,-15.625,-39.062,-30.273000000000003,1.0,1.0
1622759277.9386082,-10.254000000000001,-21.484,-12.207,1.0,1.0
1622759277.9425144,-62.988,-9.277000000000001,-10.254000000000001,1.0,1.0
1622759277.9464207,-69.336,-25.391,-12.207,1.0,1.0
1622759277.950327,10.742,-37.598,-6.836,1.0,1.0
1622759277.9542332,21.484,-47.363,-29.785,1.0,1.0
1622759277.9581394,-45.41,-42.968999999999994,-40.039,1.0,1.0
1622759277.9620454,-65.918,-33.203,-20.996,1.0,1.0
1622759277.965952,-21.973000000000003,-16.602,-27.344,1.0,1.0
1622759277.9698582,14.16,-7.324,-37.109,1.0,1.0
1622759277.9737644,-25.879,-13.184000000000001,-38.086,1.0,1.0
1622759277.9776707,-67.87100000000001,-12.207,-46.387,1.0,1.0
1622759277.981577,-23.926,-10.254000000000001,-27.344,1.0,1.0
1622759277.9854832,0.977,-32.715,-21.973000000000003,1.0,1.0
1622759277.9893894,-24.414,-64.941,-24.414,1.0,1.0
1622759277.9932957,-61.035,-83.49600000000001,-15.137,1.0,1.0
1622759277.997202,-51.27,-77.148,-27.344,1.0,1.0
1622759278.0011082,5.859,-30.273000000000003,-33.691,1.0,1.0
1622759278.0050144,2.441,-10.742,-25.879,1.0,1.0
1622759278.008921,-50.781000000000006,-24.414,-31.25,1.0,1.0
1622759278.012827,-61.523,-4.883,-29.785,1.0,1.0
1622759278.016733,-4.395,18.555,-10.254000000000001,1.0,1.0
1622759278.0206397,22.461,5.371,-29.785,1.0,1.0
1622759278.0245454,-32.227,-21.484,-45.41,1.0,1.0
1622759278.0284517,-53.711000000000006,-32.227,-18.555,1.0,1.0
1622759278.032358,-17.578,-33.203,-16.602,1.0,1.0
1622759278.0362642,6.836,-35.645,-16.602,1.0,1.0
1622759278.040171,-18.555,-46.387,-17.09,1.0,1.0
1622759278.044077,-76.66,-60.547,-49.316,1.0,1.0
1622759278.0479832,-66.895,-39.062,-56.641000000000005,1.0,1.0
1622759278.0518894,-2.441,-15.625,-30.761999999999997,1.0,1.0
1622759278.0557954,-8.789,-13.672,-21.484,1.0,1.0
1622759278.059702,-62.988,-34.668,-32.227,1.0,1.0
1622759278.0636082,-36.621,-17.09,-42.48,-21.973000000000003,1.0
1622759278.0675142,21.484,9.277000000000001,-42.48,23.926,1.0
1622759278.0714207,3.906,-20.996,-43.457,1.465,1.0
1622759278.075327,-67.383,-49.805,-36.133,-62.012,1.0
1622759278.0792332,-88.37899999999999,-35.645,-21.484,-80.078,1.0
1622759278.0831394,-21.484,-36.621,-15.625,-21.484,1.0
1622759278.0870457,20.02,-44.922,-23.438000000000002,21.973000000000003,1.0
1622759278.090952,-32.227,-34.18,-34.668,-25.879,1.0
1622759278.0948582,-71.777,-36.133,-37.598,-67.383,1.0
1622759278.0987644,-32.227,-18.066,-23.926,-18.066,1.0
1622759278.1026707,3.906,-5.859,-20.02,10.254000000000001,1.0
1622759278.106577,-19.043,-20.508000000000003,-33.203,-27.831999999999997,1.0
1622759278.1104832,-26.366999999999997,-15.137,-33.691,-69.824,1.0
1622759278.1143897,-72.75399999999999,-46.387,-33.203,-41.016000000000005,1.0
1622759278.1182957,-42.48,-28.32,-13.672,12.695,1.0
1622759278.122202,7.324,-16.602,-10.254000000000001,9.277000000000001,1.0
1622759278.1261082,-0.977,-41.504,-16.602,-41.016000000000005,1.0
1622759278.1300144,-47.363,-69.336,-33.691,-40.527,1.0
1622759278.1339207,-74.219,-78.613,-53.711000000000006,11.23,1.0
1622759278.137827,-15.137,-36.133,-53.711000000000006,6.348,1.0
1622759278.141733,19.531,0.488,-41.504,-54.199,1.0
1622759278.1456397,-55.663999999999994,-15.625,-27.831999999999997,-63.965,1.0
1622759278.1495454,-69.336,-16.602,-15.625,-5.859,1.0
1622759278.1534522,-13.184000000000001,1.953,-15.137,20.02,1.0
1622759278.157358,-6.836,-31.738000000000003,-26.366999999999997,1.0,1.0
1622759278.1612642,-53.223,-61.035,-29.296999999999997,1.0,1.0
1622759278.165171,-72.75399999999999,-42.968999999999994,-22.461,1.0,1.0
1622759278.169077,-23.438000000000002,-37.109,-25.879,1.0,1.0
1622759278.172983,36.133,-36.133,-49.316,1.0,1.0
1622759278.1768894,-12.207,-27.344,-53.223,1.0,1.0
1622759278.1807954,-86.914,-21.484,-28.809,1.0,1.0
1622759278.184702,-45.898,-7.324,-6.836,1.0,1.0
1622759278.1886082,16.602,-16.113,7.812,1.0,1.0
1622759278.1925144,-6.836,-22.461,-0.977,1.0,1.0
1622759278.1964207,-63.477,-7.324,-22.461,1.0,1.0
1622759278.200327,-63.477,-23.438000000000002,-41.016000000000005,1.0,1.0
1622759278.2042332,-7.812,-41.992,-9.766,1.465,1.0
1622759278.2081394,1.953,-38.574,-10.742,15.137,1.0
1622759278.2120454,-48.34,-35.156,-37.109,-46.875,1.0
1622759278.215952,-65.918,-45.898,-31.738000000000003,-69.336,1.0
1622759278.2198582,-9.277000000000001,-41.016000000000005,-27.344,-7.324,1.0
1622759278.2237644,31.738000000000003,-18.066,-21.484,23.926,1.0
1622759278.2276707,-18.555,-15.625,-36.133,-40.527,1.0
1622759278.231577,-68.359,-27.831999999999997,-49.316,-68.848,1.0
1622759278.2354832,-34.18,-20.996,-48.828,-19.531,1.0
1622759278.2393894,5.371,-38.086,-40.527,12.207,1.0
1622759278.2432957,-24.901999999999997,-43.945,-29.296999999999997,-34.668,1.0
1622759278.247202,-83.008,-23.438000000000002,-29.296999999999997,-86.914,1.0
1622759278.2511082,-115.723,-26.366999999999997,-47.363,-120.605,1.0
1622759278.2550144,-96.68,-30.761999999999997,-41.992,-78.613,1.0
1622759278.258921,-50.781000000000006,-37.598,-38.086,-54.688,1.0
1622759278.262827,-104.98,-36.133,-40.039,-103.027,1.0
1622759278.266733,-161.13299999999998,-35.645,-36.621,-153.32,1.0
1622759278.2706397,-145.996,-38.086,-29.785,-125.488,1.0
1622759278.2745454,-96.68,-36.133,-17.578,-65.918,1.0
1622759278.2784517,-103.516,-34.668,-20.508000000000003,-99.609,1.0
1622759278.282358,-163.086,-46.387,-31.25,-164.551,1.0
1622759278.2862642,-174.31599999999997,-43.457,-29.785,-153.32,1.0
1622759278.290171,-127.93,-29.785,-30.273000000000003,-95.215,1.0
1622759278.294077,-106.445,-52.733999999999995,-39.551,-90.82,1.0
1622759278.2979832,-151.36700000000002,-51.27,-49.805,1.0,1.0
1622759278.3018894,-175.293,-20.02,-41.016000000000005,1.0,1.0
1622759278.3057954,-130.859,-19.043,-29.296999999999997,1.0,1.0
1622759278.309702,-91.79700000000001,-19.043,-32.227,1.0,1.0
1622759278.3136082,-118.652,-17.578,-41.504,1.0,1.0
1622759278.3175142,-166.016,-43.457,-42.968999999999994,1.0,1.0
1622759278.3214207,-131.836,-53.711000000000006,-31.738000000000003,1.0,1.0
1622759278.325327,-70.801,-31.25,-24.901999999999997,1.0,1.0
1622759278.3292332,-82.52,-15.137,-33.691,1.0,1.0
1622759278.3331394,-137.695,-29.296999999999997,-36.133,1.0,1.0
1622759278.3370457,-118.164,-43.457,-28.809,1.0,1.0
1622759278.340952,-43.945,-44.922,-27.831999999999997,1.0,1.0
1622759278.3448582,-19.043,-40.039,-28.809,1.0,1.0
1622759278.3487644,-54.688,-46.875,-37.598,1.0,1.0
1622759278.3526707,-69.824,-42.968999999999994,-36.621,1.0,1.0
1622759278.356577,-21.973000000000003,-3.418,-38.574,1.0,1.0
1622759278.3604832,14.16,1.465,-46.875,1.0,1.0
1622759278.3643897,-23.438000000000002,-30.761999999999997,-46.387,1.0,1.0
1622759278.3682957,-69.824,-32.227,-41.504,1.0,1.0
1622759278.372202,-37.598,-34.668,-28.32,1.0,1.0
1622759278.3761082,7.812,-46.387,-28.809,1.0,1.0
1622759278.3800144,-11.719000000000001,-32.715,-28.32,1.0,1.0
1622759278.3839207,-46.387,-9.766,-22.949,1.0,1.0
1622759278.387827,-19.531,-6.348,-23.438000000000002,1.0,1.0
1622759278.391733,37.109,-18.066,-17.09,1.0,1.0
1622759278.3956397,34.18,-25.391,-15.137,1.0,1.0
1622759278.3995454,-22.949,-16.113,-25.391,1.0,1.0
1622759278.4034522,-20.02,-25.391,-29.785,1.0,1.0
1622759278.407358,37.109,-64.453,-13.184000000000001,1.0,1.0
1622759278.4112642,42.968999999999994,-63.965,-9.766,1.0,1.0
1622759278.415171,-11.23,-48.828,-25.879,1.0,1.0
1622759278.419077,-60.547,-39.551,-34.668,1.0,1.0
1622759278.422983,-14.648,-22.461,-27.344,1.0,1.0
1622759278.4268894,32.227,-2.441,-33.203,1.0,1.0
1622759278.4307954,-4.883,-12.207,-43.457,1.0,1.0
1622759278.434702,-46.387,-32.227,-25.391,1.0,1.0
1622759278.4386082,-15.625,-15.625,-20.508000000000003,4.883,1.0
1622759278.4425144,29.785,-5.371,-41.504,25.391,1.0
1622759278.4464207,1.465,-46.875,-42.968999999999994,-16.602,1.0
1622759278.450327,-54.199,-74.707,-43.457,-60.059,1.0
1622759278.4542332,-28.32,-47.363,-36.133,-14.648,1.0
1622759278.4581394,38.086,-26.855,-8.301,39.551,1.0
1622759278.4620454,22.949,-16.113,-0.977,15.625,1.0
1622759278.465952,-30.761999999999997,-16.602,-16.113,-34.18,1.0
1622759278.4698582,-22.949,-41.992,-21.973000000000003,-20.996,1.0
1622759278.4737644,24.414,-43.457,-20.508000000000003,37.598,1.0
1622759278.4776707,27.831999999999997,-42.968999999999994,-32.715,41.504,1.0
1622759278.481577,-20.508000000000003,-44.922,-49.316,-20.996,1.0
1622759278.4854832,-44.922,-42.968999999999994,-66.895,-50.781000000000006,1.0
1622759278.4893894,-55.176,-9.766,-32.227,-42.48,1.0
1622759278.4932957,12.695,1.953,-3.906,21.484,1.0
1622759278.497202,30.273000000000003,-26.366999999999997,-13.184000000000001,17.578,1.0
1622759278.5011082,-44.922,-46.387,-46.387,-40.527,1.0
1622759278.5050144,-75.684,-28.809,-38.574,-55.176,1.0
1622759278.508921,-19.043,-21.973000000000003,-19.043,-13.672,1.0
1622759278.512827,25.391,-17.09,-26.366999999999997,17.578,1.0
1622759278.516733,-4.883,-28.32,-40.039,-12.695,1.0
1622759278.5206397,-60.059,-42.968999999999994,-37.109,-49.805,1.0
1622759278.5245454,-30.761999999999997,-30.761999999999997,-23.438000000000002,-15.625,1.0
1622759278.5284517,31.25,-27.344,-29.296999999999997,25.391,1.0
1622759278.532358,-0.977,-42.968999999999994,-36.621,-16.113,1.0
1622759278.5362642,-66.406,-52.246,-18.066,-71.777,1.0
1622759278.540171,-44.922,-7.324,-7.324,-41.016000000000005,1.0
1622759278.544077,16.113,15.625,-9.766,17.09,1.0
1622759278.5479832,5.371,-17.578,-15.625,-6.836,1.0
1622759278.5518894,-64.941,-36.621,-27.344,-79.102,1.0
1622759278.5557954,-74.707,-51.758,7.812,-96.191,1.0
1622759278.559702,-1.953,-28.809,-8.301,-19.531,1.0
1622759278.5636082,26.855,-0.977,-46.387,10.742,1.0
1622759278.5675142,-37.109,-9.277000000000001,-42.48,-58.593999999999994,1.0
1622759278.5714207,-101.074,-25.879,-13.672,-103.027,1.0
1622759278.575327,-65.918,-32.227,-29.785,-78.125,1.0
1622759278.5792332,-27.831999999999997,-34.18,-0.488,1.0,1.0
1622759278.5831394,-45.41,-20.508000000000003,-22.461,1.0,1.0
1622759278.5870457,-103.027,-19.043,-66.895,1.0,1.0
1622759278.590952,-97.16799999999999,-28.809,-70.312,1.0,1.0
1622759278.5948582,-43.945,-30.273000000000003,-51.27,1.0,1.0
1622759278.5987644,-58.105,-12.207,-49.316,1.0,1.0
1622759278.6026707,-139.648,-20.996,-59.57,1.0,1.0
1622759278.606577,-141.602,-36.621,-52.246,1.0,1.0
1622759278.6104832,-80.078,-38.086,-47.363,1.0,1.0
1622759278.6143897,-90.82,-46.875,-57.617,1.0,1.0
1622759278.6182957,-139.16,-31.738000000000003,-68.359,1.0,1.0
1622759278.622202,-153.809,-2.441,-44.434,1.0,1.0
1622759278.6261082,-130.859,-9.277000000000001,-20.02,1.0,1.0
1622759278.6300144,-87.891,-24.414,-23.438000000000002,1.0,1.0
1622759278.6339207,-113.281,-41.016000000000005,-36.621,1.0,1.0
1622759278.637827,-177.24599999999998,-66.406,-53.223,1.0,1.0
1622759278.641733,-152.832,-29.785,-68.848,1.0,1.0
1622759278.6456397,-91.79700000000001,19.531,-71.777,1.0,1.0
1622759278.6495454,-117.18799999999999,13.184000000000001,-50.781000000000006,1.0,1.0
1622759278.6534522,-167.48,-7.812,-31.25,1.0,1.0
1622759278.657358,-131.836,-21.484,-35.156,1.0,1.0
1622759278.6612642,-57.617,-32.715,-25.391,1.0,1.0
1622759278.665171,-46.875,-43.945,-23.926,1.0,1.0
1622759278.669077,-95.70299999999999,-52.246,-57.617,1.0,1.0
1622759278.672983,-106.445,-61.523,-59.082,-102.539,1.0
1622759278.6768894,-56.641000000000005,-57.617,-31.738000000000003,-44.434,1.0
1622759278.6807954,-30.761999999999997,-32.227,-36.621,-26.366999999999997,1.0
1622759278.684702,-65.918,-2.93,-49.805,-70.312,1.0
1622759278.6886082,-83.49600000000001,-2.441,-40.039,-76.66,1.0
1622759278.6925144,-30.273000000000003,-15.137,-28.809,-31.25,1.0
1622759278.6964207,12.695,-8.789,-19.531,-3.418,1.0
1622759278.700327,-11.23,-4.395,-29.785,-32.715,1.0
1622759278.7042332,-47.363,-16.602,-48.828,-60.059,1.0
