timestamps,TP9,AF7,AF8,TP10,Right AUX
1622759923.7079759,-18.555,-19.531,-26.855,-9.277000000000001,1.0
1622759923.711882,-38.574,-25.879,-29.296999999999997,-66.895,1.0
1622759923.7157884,-41.016000000000005,-30.761999999999997,-28.32,-53.223,1.0
1622759923.7196946,-22.461,-28.32,-29.785,7.324,1.0
1622759923.7236009,-23.438000000000002,-27.831999999999997,-35.156,-2.93,1.0
1622759923.727507,-41.992,-30.761999999999997,-40.039,-66.895,1.0
1622759923.731413,-43.945,-31.738000000000003,-40.039,-69.336,1.0
1622759923.7353199,-25.879,-28.809,-35.645,-5.371,1.0
1622759923.7392254,-11.23,-26.855,-28.32,17.578,1.0
1622759923.7431324,-26.855,-34.18,-30.273000000000003,-42.48,1.0
1622759923.747038,-41.992,-42.968999999999994,-33.203,-70.801,1.0
1622759923.7509441,-26.855,-32.715,-24.414,-8.789,1.0
1622759923.754851,-10.254000000000001,-18.066,-19.531,1.0,1.0
1622759923.758757,-25.391,-29.785,-29.296999999999997,1.0,1.0
1622759923.762663,-50.293,-42.968999999999994,-36.133,1.0,1.0
1622759923.7665696,-40.039,-33.203,-30.761999999999997,1.0,1.0
1622759923.7704754,-19.043,-22.949,-26.366999999999997,1.0,1.0
1622759923.774382,-20.996,-24.414,-29.785,1.0,1.0
1622759923.7782884,-37.598,-35.645,-37.109,1.0,1.0
1622759923.7821946,-36.621,-36.621,-32.715,1.0,1.0
1622759923.7861009,-16.113,-26.855,-21.973000000000003,1.0,1.0
1622759923.790007,-11.719000000000001,-22.949,-21.484,1.0,1.0
1622759923.7939134,-29.785,-34.18,-25.391,1.0,1.0
1622759923.7978196,-38.086,-40.039,-31.738000000000003,1.0,1.0
1622759923.8017254,-16.602,-25.391,-28.809,-8.789,1.0
1622759923.805632,-5.371,-22.949,-30.761999999999997,13.672,1.0
1622759923.8095384,-33.691,-35.645,-43.457,-49.805,1.0
1622759923.8134446,-44.922,-39.062,-37.109,-80.078,1.0
1622759923.8173509,-20.02,-31.25,-28.809,-15.137,1.0
1622759923.821257,-1.465,-19.531,-26.366999999999997,30.761999999999997,1.0
1622759923.8251634,-10.742,-20.508000000000003,-30.761999999999997,-13.672,1.0
1622759923.8290696,-34.668,-38.086,-37.109,-67.87100000000001,1.0
1622759923.8329759,-29.785,-35.645,-27.344,-35.645,1.0
1622759923.836882,-7.812,-23.926,-23.438000000000002,19.043,1.0
1622759923.8407884,-13.672,-32.715,-30.273000000000003,-7.812,1.0
1622759923.8446946,-36.621,-44.434,-29.296999999999997,-69.824,1.0
1622759923.848601,-40.527,-40.039,-30.273000000000003,1.0,1.0
1622759923.852507,-20.996,-24.901999999999997,-28.809,1.0,1.0
1622759923.856413,-13.184000000000001,-28.809,-25.391,1.0,1.0
1622759923.8603199,-25.879,-36.621,-31.738000000000003,1.0,1.0
1622759923.8642254,-32.715,-36.621,-35.156,1.0,1.0
1622759923.8681316,-13.672,-22.461,-23.926,1.0,1.0
1622759923.872038,-1.953,-11.719000000000001,-19.043,1.0,1.0
1622759923.8759441,-22.461,-20.508000000000003,-25.879,1.0,1.0
1622759923.879851,-33.203,-29.296999999999997,-27.831999999999997,1.0,1.0
1622759923.883757,-20.508000000000003,-25.879,-26.855,1.0,1.0
1622759923.8876634,-5.859,-12.695,-21.484,1.0,1.0
1622759923.8915696,-13.672,-17.09,-22.949,1.0,1.0
1622759923.8954754,-33.691,-30.761999999999997,-29.296999999999997,-65.918,1.0
1622759923.899382,-36.621,-31.25,-28.809,-40.527,1.0
1622759923.9032884,-19.531,-22.461,-20.508000000000003,21.484,1.0
1622759923.9071941,-18.555,-21.973000000000003,-21.973000000000003,5.371,1.0
1622759923.9111009,-40.039,-33.203,-26.366999999999997,-60.059,1.0
1622759923.915007,-41.504,-28.809,-25.879,-56.641000000000005,1.0
1622759923.9189134,-21.973000000000003,-23.438000000000002,-27.831999999999997,3.906,1.0
1622759923.9228196,-18.555,-26.855,-25.879,19.043,1.0
1622759923.9267259,-37.598,-32.227,-32.715,-48.34,1.0
1622759923.930632,-43.457,-33.691,-33.203,-72.75399999999999,1.0
1622759923.9345384,-23.438000000000002,-25.391,-24.414,-8.789,1.0
1622759923.9384446,-15.137,-21.973000000000003,-24.414,23.926,1.0
1622759923.9423509,-3.418,-21.973000000000003,-22.461,25.879,1.0
1622759923.946257,-21.484,-30.273000000000003,-32.227,-43.457,1.0
1622759923.9501634,-35.156,-39.062,-36.621,-76.172,1.0
1622759923.9540699,-18.555,-28.32,-29.785,-19.531,1.0
1622759923.9579759,-10.254000000000001,-24.414,-31.25,10.742,1.0
1622759923.961882,-24.414,-24.414,-30.273000000000003,-29.296999999999997,1.0
1622759923.9657884,-44.922,-39.551,-35.156,-80.078,1.0
1622759923.9696946,-35.156,-41.016000000000005,-33.691,-45.898,1.0
1622759923.9736009,-12.207,-26.855,-20.996,19.043,1.0
1622759923.977507,-12.207,-28.809,-19.043,0.0,1.0
1622759923.981413,-28.809,-33.203,-22.461,-54.688,1.0
1622759923.9853199,-30.273000000000003,-33.203,-25.879,-43.457,1.0
1622759923.9892254,-13.184000000000001,-22.949,-23.438000000000002,1.0,1.0
1622759923.9931324,-13.672,-18.066,-24.414,1.0,1.0
1622759923.997038,-31.25,-26.855,-32.227,1.0,1.0
1622759924.0009441,-36.133,-35.156,-33.691,1.0,1.0
1622759924.004851,-16.602,-32.227,-31.25,1.0,1.0
1622759924.008757,-5.859,-21.973000000000003,-21.973000000000003,1.0,1.0
1622759924.012663,-14.16,-22.461,-22.461,1.0,1.0
1622759924.0165696,-28.32,-35.156,-25.879,1.0,1.0
1622759924.0204754,-28.32,-37.109,-24.901999999999997,1.0,1.0
1622759924.024382,-13.672,-26.855,-28.32,1.0,1.0
1622759924.0282884,-24.901999999999997,-31.25,-32.227,1.0,1.0
1622759924.0321946,-41.504,-35.645,-31.738000000000003,1.0,1.0
1622759924.0361009,-34.18,-27.344,-27.344,-46.387,1.0
1622759924.040007,-22.949,-20.996,-27.831999999999997,5.859,1.0
1622759924.0439134,-25.391,-23.438000000000002,-31.738000000000003,-16.602,1.0
1622759924.0478196,-41.504,-38.086,-37.109,-82.52,1.0
1622759924.0517254,-40.527,-39.551,-36.133,-75.195,1.0
1622759924.055632,-17.578,-26.855,-26.855,-7.324,1.0
1622759924.0595384,-9.277000000000001,-25.391,-27.831999999999997,0.0,1.0
1622759924.0634446,-26.366999999999997,-43.457,-32.227,-60.059,1.0
1622759924.0673509,-41.992,-43.945,-31.25,-72.75399999999999,1.0
1622759924.071257,-23.438000000000002,-32.227,-26.366999999999997,-1.953,1.0
1622759924.0751634,-10.742,-29.296999999999997,-24.414,26.855,1.0
1622759924.0790696,-36.133,-38.574,-29.785,-33.203,1.0
1622759924.0829759,-38.574,-29.296999999999997,-29.296999999999997,-49.805,1.0
1622759924.086882,-45.898,-34.668,-29.296999999999997,-70.801,1.0
1622759924.0907884,-27.344,-27.344,-26.366999999999997,-12.695,1.0
1622759924.0946946,-4.883,-23.438000000000002,-24.414,25.879,1.0
1622759924.098601,-25.879,-34.668,-32.227,-31.25,1.0
1622759924.102507,-39.551,-33.691,-33.691,-79.102,1.0
1622759924.106413,-21.973000000000003,-25.879,-30.761999999999997,-36.621,1.0
1622759924.1103199,-10.742,-27.831999999999997,-29.296999999999997,15.625,1.0
1622759924.1142254,-18.555,-33.203,-34.18,-14.648,1.0
1622759924.1181316,-39.551,-41.992,-38.574,-76.66,1.0
1622759924.122038,-36.133,-39.062,-36.133,-55.663999999999994,1.0
1622759924.1259441,-19.531,-32.715,-28.32,12.207,1.0
1622759924.129851,-13.672,-30.761999999999997,-27.831999999999997,7.324,1.0
1622759924.133757,-20.02,-31.25,-29.785,-51.27,1.0
1622759924.1376634,-38.574,-44.922,-30.761999999999997,-57.617,1.0
1622759924.1415696,-41.992,-41.016000000000005,-26.855,0.977,1.0
1622759924.1454754,-19.531,-27.344,-14.648,17.09,1.0
1622759924.149382,-17.09,-18.066,-12.207,-30.273000000000003,1.0
1622759924.1532884,-39.062,-26.855,-23.438000000000002,-56.641000000000005,1.0
1622759924.1571941,-39.062,-38.086,-24.414,-4.883,1.0
1622759924.1611009,-19.043,-32.227,-19.531,36.621,1.0
1622759924.165007,-15.137,-29.296999999999997,-23.926,-17.09,1.0
1622759924.1689134,-31.738000000000003,-31.25,-26.366999999999997,-74.219,1.0
1622759924.1728196,-42.968999999999994,-35.645,-29.296999999999997,-35.156,1.0
1622759924.1767259,-20.996,-29.785,-30.761999999999997,1.0,1.0
1622759924.180632,1.465,-17.578,-21.484,1.0,1.0
1622759924.1845384,-14.16,-21.973000000000003,-23.926,1.0,1.0
1622759924.1884446,-30.761999999999997,-35.645,-33.203,1.0,1.0
1622759924.1923509,-30.273000000000003,-32.227,-34.18,1.0,1.0
1622759924.196257,-10.254000000000001,-18.066,-26.855,1.0,1.0
1622759924.2001634,0.488,-14.16,-20.996,1.0,1.0
1622759924.2040699,-23.438000000000002,-24.901999999999997,-28.32,1.0,1.0
1622759924.2079759,-31.25,-32.227,-32.227,1.0,1.0
1622759924.211882,-10.742,-29.296999999999997,-26.366999999999997,1.0,1.0
1622759924.2157884,-6.836,-24.901999999999997,-20.996,1.0,1.0
1622759924.2196946,-23.926,-33.691,-24.414,1.0,1.0
1622759924.2236009,-32.227,-39.551,-27.831999999999997,-65.918,1.0
1622759924.227507,-16.113,-25.391,-19.043,-4.395,1.0
1622759924.231413,-9.766,-23.438000000000002,-16.602,29.785,1.0
1622759924.2353199,-25.391,-35.156,-26.366999999999997,-20.996,1.0
1622759924.2392254,-36.133,-39.551,-30.761999999999997,-58.105,1.0
1622759924.2431324,-23.926,-29.296999999999997,-22.461,-14.16,1.0
1622759924.247038,-14.648,-19.531,-22.949,25.879,1.0
1622759924.2509441,-14.16,-28.32,-28.32,-11.719000000000001,1.0
1622759924.254851,-25.879,-33.203,-28.809,-62.988,1.0
1622759924.258757,-30.761999999999997,-26.855,-29.785,-36.621,1.0
1622759924.262663,-13.184000000000001,-16.113,-28.809,26.366999999999997,1.0
1622759924.2665696,-19.531,-25.391,-32.227,2.93,1.0
1622759924.2704754,-17.578,-26.366999999999997,-24.901999999999997,2.441,1.0
1622759924.274382,-36.133,-35.156,-27.344,-57.129,1.0
1622759924.2782884,-41.992,-42.48,-32.227,-43.945,1.0
1622759924.2821946,-11.23,-30.761999999999997,-25.879,25.879,1.0
1622759924.2861009,-13.672,-31.738000000000003,-29.296999999999997,18.555,1.0
1622759924.290007,-34.18,-37.109,-35.156,-46.875,1.0
1622759924.2939134,-33.691,-35.645,-33.203,-53.223,1.0
1622759924.2978196,-16.113,-34.18,-30.761999999999997,10.742,1.0
1622759924.3017254,-15.137,-30.273000000000003,-29.296999999999997,23.926,1.0
1622759924.305632,-35.156,-37.109,-29.785,-41.504,1.0
1622759924.3095384,-44.922,-40.039,-28.809,-69.336,1.0
1622759924.3134446,-31.25,-29.785,-22.949,-18.555,1.0
1622759924.3173509,-14.16,-23.926,-18.555,1.0,1.0
1622759924.321257,-33.203,-31.25,-27.344,1.0,1.0
1622759924.3251634,-61.523,-47.852,-36.133,1.0,1.0
1622759924.3290696,-47.852,-41.504,-30.273000000000003,1.0,1.0
1622759924.3329759,-23.926,-23.438000000000002,-23.438000000000002,1.0,1.0
1622759924.336882,-27.831999999999997,-27.831999999999997,-29.785,1.0,1.0
1622759924.3407884,-47.363,-35.156,-32.715,1.0,1.0
1622759924.3446946,-42.48,-35.156,-27.831999999999997,1.0,1.0
1622759924.348601,-18.066,-31.738000000000003,-23.926,1.0,1.0
1622759924.352507,-27.344,-32.715,-28.809,1.0,1.0
1622759924.356413,-51.27,-42.48,-33.203,1.0,1.0
1622759924.3603199,-54.199,-48.828,-38.574,1.0,1.0
1622759924.3642254,-35.645,-34.668,-39.551,-24.901999999999997,1.0
1622759924.3681316,-19.531,-26.855,-34.18,5.371,1.0
1622759924.372038,-31.25,-35.156,-37.109,-51.27,1.0
1622759924.3759441,-49.316,-41.504,-39.062,-83.008,1.0
1622759924.379851,-36.133,-31.25,-32.227,-31.738000000000003,1.0
1622759924.383757,-11.719000000000001,-15.625,-27.831999999999997,19.043,1.0
1622759924.3876634,-22.461,-26.855,-30.273000000000003,-26.366999999999997,1.0
1622759924.3915696,-43.945,-45.41,-31.738000000000003,-90.33200000000001,1.0
1622759924.3954754,-33.203,-39.551,-28.32,-52.246,1.0
1622759924.399382,-14.16,-28.32,-28.32,12.695,1.0
1622759924.4032884,-13.672,-28.809,-33.203,-5.859,1.0
1622759924.4071941,-37.109,-34.668,-37.598,-69.336,1.0
1622759924.4111009,-33.203,-37.109,-30.761999999999997,-57.617,1.0
1622759924.415007,-24.901999999999997,-40.039,-29.785,-36.133,1.0
1622759924.4189134,-14.648,-43.945,-35.156,18.066,1.0
1622759924.4228196,-20.996,-38.574,-33.691,8.789,1.0
1622759924.4267259,-36.133,-42.48,-34.668,-55.176,1.0
1622759924.430632,-43.457,-39.062,-38.574,-62.012,1.0
1622759924.4345384,-32.715,-29.296999999999997,-38.574,-2.93,1.0
1622759924.4384446,-25.391,-31.738000000000003,-38.574,6.836,1.0
1622759924.4423509,-40.039,-39.062,-40.039,-54.688,1.0
1622759924.446257,-60.547,-47.363,-39.551,-82.031,1.0
1622759924.4501634,-47.852,-36.621,-32.227,-29.296999999999997,1.0
1622759924.4540699,-24.901999999999997,-25.879,-26.855,9.766,1.0
1622759924.4579759,-10.254000000000001,-24.901999999999997,-25.391,-38.574,1.0
1622759924.461882,-27.831999999999997,-36.133,-32.715,-84.473,1.0
1622759924.4657884,-36.621,-45.898,-41.992,-39.062,1.0
1622759924.4696946,-21.484,-30.761999999999997,-31.738000000000003,16.602,1.0
1622759924.4736009,-8.301,-22.461,-27.831999999999997,-9.277000000000001,1.0
1622759924.477507,-20.996,-29.296999999999997,-33.203,-69.824,1.0
1622759924.481413,-39.551,-36.133,-36.621,-54.688,1.0
1622759924.4853199,-39.062,-41.016000000000005,-40.039,11.719000000000001,1.0
1622759924.4892254,-16.113,-34.668,-30.761999999999997,10.254000000000001,1.0
1622759924.4931324,-21.484,-32.715,-33.691,-53.711000000000006,1.0
1622759924.497038,-38.086,-41.992,-39.551,-61.523,1.0
1622759924.5009441,-25.879,-36.621,-27.831999999999997,10.742,1.0
1622759924.504851,-13.184000000000001,-22.461,-21.973000000000003,1.0,1.0
1622759924.508757,-21.973000000000003,-20.996,-27.831999999999997,1.0,1.0
1622759924.512663,-41.992,-30.761999999999997,-33.691,1.0,1.0
1622759924.5165696,-47.852,-40.039,-32.715,1.0,1.0
1622759924.5204754,-32.715,-39.062,-33.691,1.0,1.0
1622759924.524382,-9.766,-24.901999999999997,-28.32,1.0,1.0
1622759924.5282884,-20.508000000000003,-26.366999999999997,-31.25,1.0,1.0
1622759924.5321946,-37.598,-33.691,-36.133,1.0,1.0
1622759924.5361009,-21.484,-29.785,-23.926,1.0,1.0
1622759924.540007,-12.207,-32.227,-23.438000000000002,1.0,1.0
1622759924.5439134,-21.973000000000003,-40.527,-28.32,1.0,1.0
1622759924.5478196,-39.551,-48.828,-30.273000000000003,1.0,1.0
1622759924.5517254,-35.156,-40.039,-28.32,-42.48,1.0
1622759924.555632,-12.207,-23.926,-22.949,23.438000000000002,1.0
1622759924.5595384,-14.16,-25.391,-24.901999999999997,7.324,1.0
1622759924.5634446,-38.574,-34.668,-28.809,-55.176,1.0
1622759924.5673509,-44.434,-34.18,-27.344,-57.129,1.0
1622759924.571257,-23.926,-24.414,-21.484,3.418,1.0
1622759924.5751634,-10.254000000000001,-20.02,-21.973000000000003,11.23,1.0
1622759924.5790696,-35.645,-29.785,-29.785,-54.688,1.0
1622759924.5829759,-50.293,-37.598,-29.785,-75.195,1.0
1622759924.586882,-24.414,-27.344,-25.391,-11.23,1.0
1622759924.5907884,-12.207,-25.391,-22.949,17.578,1.0
1622759924.5946946,-25.391,-38.086,-26.366999999999997,-36.133,1.0
1622759924.598601,-14.16,-32.227,-32.227,-37.109,1.0
1622759924.602507,-40.527,-39.551,-36.133,-65.918,1.0
1622759924.606413,-33.203,-33.203,-33.203,-16.113,1.0
1622759924.6103199,-12.695,-28.32,-24.414,24.901999999999997,1.0
1622759924.6142254,-27.344,-36.621,-28.809,-29.785,1.0
1622759924.6181316,-43.457,-37.109,-30.761999999999997,-82.52,1.0
1622759924.622038,-29.296999999999997,-31.25,-26.366999999999997,-39.062,1.0
1622759924.6259441,-13.184000000000001,-27.831999999999997,-27.344,15.137,1.0
1622759924.629851,-22.949,-29.785,-32.227,-14.16,1.0
1622759924.633757,-41.992,-39.551,-36.621,-72.75399999999999,1.0
1622759924.6376634,-31.25,-29.785,-32.227,-54.688,1.0
1622759924.6415696,-7.324,-21.484,-25.879,9.277000000000001,1.0
1622759924.6454754,-7.812,-25.391,-26.366999999999997,1.0,1.0
1622759924.649382,-25.879,-31.25,-30.273000000000003,1.0,1.0
1622759924.6532884,-25.879,-36.621,-28.809,1.0,1.0
1622759924.6571941,-11.719000000000001,-26.366999999999997,-23.926,1.0,1.0
1622759924.6611009,-8.789,-20.996,-24.901999999999997,1.0,1.0
1622759924.665007,-21.484,-24.901999999999997,-32.715,1.0,1.0
1622759924.6689134,-42.968999999999994,-33.203,-42.968999999999994,1.0,1.0
1622759924.6728196,-31.738000000000003,-30.761999999999997,-40.039,1.0,1.0
1622759924.6767259,-4.883,-23.926,-31.25,1.0,1.0
1622759924.680632,-14.648,-29.785,-36.133,1.0,1.0
1622759924.6845384,-42.968999999999994,-35.645,-42.48,1.0,1.0
1622759924.6884446,-39.062,-36.621,-33.691,1.0,1.0
1622759924.6923509,-14.648,-23.926,-24.414,1.0,1.0
1622759924.696257,-20.508000000000003,-28.32,-37.598,1.0,1.0
1622759924.7001634,-42.48,-45.41,-44.434,1.0,1.0
1622759924.7040699,-32.715,-37.598,-33.691,1.0,1.0
1622759924.7079759,-14.16,-25.391,-26.855,1.0,1.0
1622759924.711882,-12.695,-18.555,-26.366999999999997,1.0,1.0
1622759924.7157884,-38.086,-28.32,-32.715,1.0,1.0
1622759924.7196946,-53.711000000000006,-46.875,-33.691,1.0,1.0
1622759924.7236009,-28.32,-33.691,-27.344,1.0,1.0
1622759924.727507,-8.789,-21.973000000000003,-24.414,1.0,1.0
1622759924.731413,-24.414,-32.227,-30.761999999999997,1.0,1.0
1622759924.7353199,-42.48,-41.016000000000005,-33.203,1.0,1.0
1622759924.7392254,-29.785,-35.156,-26.855,1.0,1.0
1622759924.7431324,-4.883,-26.366999999999997,-28.32,1.0,1.0
1622759924.747038,-14.648,-35.645,-34.668,1.0,1.0
1622759924.7509441,-35.645,-41.992,-36.621,1.0,1.0
1622759924.754851,-28.809,-39.551,-36.621,1.0,1.0
1622759924.758757,-14.648,-28.32,-36.133,1.0,1.0
1622759924.762663,-17.578,-25.879,-34.18,1.0,1.0
1622759924.7665696,-29.296999999999997,-36.621,-34.18,1.0,1.0
1622759924.7704754,-32.227,-41.016000000000005,-36.133,1.0,1.0
1622759924.774382,-9.766,-31.738000000000003,-30.273000000000003,1.0,1.0
1622759924.7782884,0.488,-20.02,-25.879,1.0,1.0
1622759924.7821946,-27.344,-22.949,-34.18,1.0,1.0
1622759924.7861009,-37.109,-32.715,-37.598,-74.707,1.0
1622759924.790007,-12.207,-27.344,-33.691,-16.602,1.0
1622759924.7939134,-1.953,-19.531,-28.32,24.901999999999997,1.0
1622759924.7978196,-17.09,-24.414,-29.296999999999997,-20.996,1.0
1622759924.8017254,-37.109,-34.18,-34.18,-66.406,1.0
1622759924.805632,-32.227,-29.296999999999997,-31.25,-27.344,1.0
1622759924.8095384,-8.789,-20.02,-26.855,30.761999999999997,1.0
1622759924.8134446,-21.484,-33.691,-37.598,-0.977,1.0
1622759924.8173509,-45.898,-39.062,-41.504,-62.5,1.0
1622759924.821257,-41.504,-30.273000000000003,-34.18,-42.48,1.0
1622759924.8251634,-17.09,-19.043,-23.438000000000002,29.785,1.0
1622759924.8290696,-12.695,-16.602,-25.879,17.578,1.0
1622759924.8329759,-25.879,-27.344,-30.761999999999997,-10.254000000000001,1.0
1622759924.836882,-40.527,-33.203,-34.18,-67.383,1.0
1622759924.8407884,-37.109,-29.785,-34.18,-51.27,1.0
1622759924.8446946,-21.973000000000003,-19.043,-29.296999999999997,10.742,1.0
1622759924.848601,-17.09,-21.973000000000003,-25.879,13.672,1.0
1622759924.852507,-39.062,-32.715,-30.761999999999997,-46.387,1.0
1622759924.856413,-55.663999999999994,-33.203,-33.691,-64.941,1.0
1622759924.8603199,-34.18,-36.621,-30.761999999999997,-7.812,1.0
1622759924.8642254,-20.02,-38.086,-33.691,16.602,1.0
1622759924.8681316,-35.645,-41.504,-37.109,-42.968999999999994,1.0
1622759924.872038,-46.875,-42.968999999999994,-33.203,-74.707,1.0
1622759924.8759441,-31.738000000000003,-32.227,-26.366999999999997,-20.996,1.0
1622759924.879851,-12.695,-26.855,-24.901999999999997,26.366999999999997,1.0
1622759924.883757,-29.785,-36.621,-34.18,-17.09,1.0
1622759924.8876634,-44.434,-44.434,-38.086,-70.801,1.0
1622759924.8915696,-29.296999999999997,-36.133,-32.715,-35.156,1.0
1622759924.8954754,-15.137,-22.949,-31.25,19.043,1.0
1622759924.899382,-21.973000000000003,-25.879,-36.621,-8.789,1.0
1622759924.9032884,-38.574,-38.574,-39.551,-67.87100000000001,1.0
1622759924.9071941,-35.645,-36.133,-36.133,-62.5,1.0
1622759924.9111009,-17.578,-28.32,-34.668,-4.395,1.0
1622759924.915007,-23.438000000000002,-27.831999999999997,-34.668,0.977,1.0
1622759924.9189134,-36.621,-31.25,-35.645,-62.012,1.0
1622759924.9228196,-41.504,-36.133,-38.086,-79.102,1.0
1622759924.9267259,-32.227,-30.273000000000003,-34.668,-19.043,1.0
1622759924.930632,-21.484,-27.344,-34.18,5.859,1.0
1622759924.9345384,-46.387,-42.48,-41.016000000000005,-47.852,1.0
1622759924.9384446,-61.523,-45.41,-36.621,-78.125,1.0
1622759924.9423509,-38.574,-29.296999999999997,-24.901999999999997,-32.227,1.0
1622759924.946257,-15.625,-14.16,-16.602,21.973000000000003,1.0
1622759924.9501634,-27.831999999999997,-32.227,-24.414,-15.625,1.0
1622759924.9540699,-49.316,-47.363,-31.25,-76.66,1.0
1622759924.9579759,-36.621,-39.062,-27.344,-46.387,1.0
1622759924.961882,-21.484,-30.273000000000003,-24.414,8.301,1.0
1622759924.9657884,-24.901999999999997,-30.761999999999997,-23.926,-3.906,1.0
1622759924.9696946,-45.41,-38.574,-30.761999999999997,-67.383,1.0
1622759924.9736009,-31.738000000000003,-40.039,-24.901999999999997,-66.895,1.0
1622759924.977507,-28.32,-36.133,-28.809,-48.828,1.0
1622759924.981413,-19.043,-29.785,-28.32,11.23,1.0
1622759924.9853199,-15.625,-24.901999999999997,-22.461,13.184000000000001,1.0
1622759924.9892254,-35.156,-29.296999999999997,-29.785,-51.27,1.0
1622759924.9931324,-47.852,-31.738000000000003,-27.344,-62.012,1.0
1622759924.997038,-22.461,-22.461,-16.113,10.254000000000001,1.0
1622759925.0009441,-11.23,-23.926,-18.066,25.879,1.0
1622759925.004851,-26.366999999999997,-38.086,-29.785,-40.527,1.0
1622759925.008757,-41.016000000000005,-40.527,-35.645,-71.777,1.0
1622759925.012663,-31.738000000000003,-35.156,-31.25,-18.555,1.0
1622759925.0165696,-17.578,-33.203,-32.227,26.366999999999997,1.0
1622759925.0204754,-22.949,-33.691,-33.203,9.277000000000001,1.0
1622759925.024382,-42.968999999999994,-40.527,-38.086,-46.387,1.0
1622759925.0282884,-57.129,-48.34,-41.016000000000005,-81.543,1.0
1622759925.0321946,-40.527,-36.133,-35.156,-30.273000000000003,1.0
1622759925.0361009,-18.555,-25.391,-26.366999999999997,18.555,1.0
1622759925.040007,-23.926,-29.785,-29.785,-16.602,1.0
1622759925.0439134,-38.574,-41.016000000000005,-36.621,-71.777,1.0
1622759925.0478196,-38.574,-41.504,-31.25,-41.016000000000005,1.0
1622759925.0517254,-10.254000000000001,-26.855,-23.438000000000002,25.391,1.0
1622759925.055632,-5.371,-31.25,-29.296999999999997,0.977,1.0
1622759925.0595384,-30.273000000000003,-41.016000000000005,-31.25,-60.547,1.0
1622759925.0634446,-26.366999999999997,-37.109,-26.366999999999997,-41.992,1.0
1622759925.0673509,-2.441,-28.809,-28.32,1.0,1.0
1622759925.071257,0.0,-28.809,-30.273000000000003,1.0,1.0
1622759925.0751634,-21.484,-38.086,-33.691,1.0,1.0
1622759925.0790696,-33.203,-40.039,-33.203,1.0,1.0
1622759925.0829759,-13.184000000000001,-27.831999999999997,-26.366999999999997,1.0,1.0
1622759925.086882,-2.441,-18.555,-25.879,1.0,1.0
1622759925.0907884,-18.555,-23.926,-27.831999999999997,1.0,1.0
1622759925.0946946,-34.18,-33.691,-28.809,1.0,1.0
1622759925.098601,-24.901999999999997,-31.738000000000003,-27.831999999999997,1.0,1.0
1622759925.102507,-5.371,-29.785,-22.949,1.0,1.0
1622759925.106413,-12.207,-37.598,-27.344,1.0,1.0
1622759925.1103199,-37.598,-48.34,-34.18,1.0,1.0
1622759925.1142254,-33.691,-38.574,-33.691,-46.875,1.0
1622759925.1181316,-6.836,-21.973000000000003,-24.901999999999997,20.02,1.0
1622759925.122038,-4.395,-22.461,-27.831999999999997,8.301,1.0
1622759925.1259441,-25.391,-27.831999999999997,-31.738000000000003,-58.105,1.0
1622759925.129851,-33.691,-28.809,-29.296999999999997,-59.082,1.0
1622759925.133757,-20.996,-20.996,-26.855,9.277000000000001,1.0
1622759925.1376634,-14.648,-25.879,-29.296999999999997,23.438000000000002,1.0
1622759925.1415696,-32.715,-48.828,-36.133,-42.48,1.0
1622759925.1454754,-40.527,-49.316,-35.645,-73.73,1.0
1622759925.149382,-25.391,-29.785,-30.273000000000003,-20.996,1.0
1622759925.1532884,-12.207,-23.926,-29.785,16.602,1.0
1622759925.1571941,-24.901999999999997,-33.691,-30.761999999999997,-28.32,1.0
1622759925.1611009,-37.109,-31.25,-23.926,-34.18,1.0
1622759925.165007,-52.246,-39.551,-27.344,-69.336,1.0
1622759925.1689134,-33.203,-33.203,-24.901999999999997,-15.625,1.0
1622759925.1728196,-18.555,-23.926,-20.02,29.785,1.0
1622759925.1767259,-23.926,-25.879,-25.391,-17.578,1.0
1622759925.180632,-46.387,-26.855,-28.32,-75.684,1.0
1622759925.1845384,-40.527,-25.879,-23.438000000000002,-41.016000000000005,1.0
1622759925.1884446,-19.043,-30.761999999999997,-25.879,12.695,1.0
1622759925.1923509,-29.785,-34.18,-30.761999999999997,-15.137,1.0
1622759925.196257,-43.945,-34.668,-31.25,-75.684,1.0
1622759925.2001634,-40.527,-33.691,-27.831999999999997,-64.941,1.0
1622759925.2040699,-26.855,-29.296999999999997,-25.391,-2.441,1.0
1622759925.2079759,-22.949,-27.831999999999997,-31.25,1.0,1.0
1622759925.211882,-37.598,-37.598,-37.109,1.0,1.0
1622759925.2157884,-42.968999999999994,-39.062,-36.621,1.0,1.0
1622759925.2196946,-22.461,-21.973000000000003,-27.344,1.0,1.0
1622759925.2236009,-11.719000000000001,-15.625,-25.391,1.0,1.0
1622759925.227507,-23.438000000000002,-20.508000000000003,-34.18,1.0,1.0
1622759925.231413,-43.457,-32.715,-35.645,1.0,1.0
1622759925.2353199,-32.715,-35.156,-32.715,1.0,1.0
1622759925.2392254,-10.742,-24.901999999999997,-25.879,1.0,1.0
1622759925.2431324,-29.785,-27.831999999999997,-33.203,1.0,1.0
1622759925.247038,-51.27,-38.086,-41.504,1.0,1.0
1622759925.2509441,-45.898,-31.25,-36.621,1.0,1.0
1622759925.254851,-23.926,-17.09,-31.738000000000003,1.0,1.0
1622759925.258757,-25.879,-21.973000000000003,-39.551,1.0,1.0
1622759925.262663,-44.922,-35.645,-46.875,1.0,1.0
1622759925.2665696,-43.457,-31.25,-37.109,1.0,1.0
1622759925.2704754,-20.508000000000003,-21.973000000000003,-27.831999999999997,1.0,1.0
1622759925.274382,-15.137,-23.438000000000002,-29.296999999999997,1.0,1.0
1622759925.2782884,-32.715,-27.344,-32.715,1.0,1.0
1622759925.2821946,-38.574,-39.062,-30.273000000000003,1.0,1.0
1622759925.2861009,-23.438000000000002,-35.645,-23.926,1.0,1.0
1622759925.290007,-15.137,-29.785,-22.461,1.0,1.0
1622759925.2939134,-35.645,-43.457,-31.25,1.0,1.0
1622759925.2978196,-46.387,-49.316,-34.18,1.0,1.0
1622759925.3017254,-32.715,-37.109,-29.785,1.0,1.0
1622759925.305632,-11.23,-22.949,-22.949,1.0,1.0
1622759925.3095384,-15.137,-29.785,-24.414,1.0,1.0
1622759925.3134446,-43.945,-45.898,-35.156,1.0,1.0
1622759925.3173509,-45.898,-39.551,-33.691,1.0,1.0
1622759925.321257,-24.414,-24.414,-26.366999999999997,1.0,1.0
1622759925.3251634,-19.531,-24.901999999999997,-25.391,1.0,1.0
1622759925.3290696,-42.48,-32.715,-37.109,1.0,1.0
1622759925.3329759,-51.27,-37.109,-37.598,1.0,1.0
1622759925.336882,-32.227,-29.785,-28.32,1.0,1.0
1622759925.3407884,-28.809,-26.366999999999997,-28.809,1.0,1.0
1622759925.3446946,-44.434,-33.691,-30.273000000000003,1.0,1.0
1622759925.348601,-52.733999999999995,-45.41,-35.156,-82.52,1.0
1622759925.352507,-34.18,-41.016000000000005,-35.645,-30.761999999999997,1.0
1622759925.356413,-21.484,-32.227,-31.25,7.812,1.0
1622759925.3603199,-31.25,-34.668,-32.715,-40.039,1.0
1622759925.3642254,-41.992,-41.504,-33.203,-78.613,1.0
1622759925.3681316,-25.879,-34.668,-28.809,-30.273000000000003,1.0
1622759925.372038,-7.812,-23.926,-27.831999999999997,22.461,1.0
1622759925.3759441,-15.137,-35.156,-30.273000000000003,-0.977,1.0
1622759925.379851,-28.809,-44.922,-30.761999999999997,-54.688,1.0
1622759925.383757,-28.32,-35.156,-30.761999999999997,-39.062,1.0
1622759925.3876634,-5.371,-23.438000000000002,-25.879,29.296999999999997,1.0
1622759925.3915696,1.953,-20.996,-21.973000000000003,30.761999999999997,1.0
1622759925.3954754,-11.719000000000001,-27.344,-24.901999999999997,6.348,1.0
1622759925.399382,-33.203,-44.922,-33.691,-57.129,1.0
1622759925.4032884,-34.668,-42.48,-38.574,-47.852,1.0
1622759925.4071941,-12.695,-28.809,-32.715,25.391,1.0
1622759925.4111009,-12.695,-32.715,-36.133,27.831999999999997,1.0
1622759925.415007,-27.831999999999997,-40.527,-43.457,-41.992,1.0
1622759925.4189134,-28.32,-43.945,-42.968999999999994,-52.733999999999995,1.0
1622759925.4228196,-19.531,-42.968999999999994,-40.039,10.742,1.0
1622759925.4267259,-6.836,-39.062,-36.621,31.738000000000003,1.0
1622759925.430632,-14.648,-43.945,-35.645,-24.901999999999997,1.0
1622759925.4345384,-31.738000000000003,-36.621,-33.691,-56.641000000000005,1.0
1622759925.4384446,-26.855,-33.691,-29.785,-16.113,1.0
1622759925.4423509,-12.207,-31.25,-25.879,1.0,1.0
1622759925.446257,-17.09,-26.366999999999997,-25.391,1.0,1.0
1622759925.4501634,-47.363,-36.133,-33.691,1.0,1.0
1622759925.4540699,-57.129,-38.086,-32.227,1.0,1.0
1622759925.4579759,-53.711000000000006,-34.18,-32.715,1.0,1.0
1622759925.461882,-52.246,-21.973000000000003,-29.785,1.0,1.0
1622759925.4657884,-72.75399999999999,-27.344,-25.391,1.0,1.0
1622759925.4696946,-80.566,-31.738000000000003,-33.691,1.0,1.0
1622759925.4736009,-65.918,-23.926,-34.668,1.0,1.0
1622759925.477507,-89.844,-38.086,-39.062,1.0,1.0
1622759925.481413,-124.023,-55.176,-47.363,1.0,1.0
1622759925.4853199,-136.23,-60.059,-50.293,1.0,1.0
1622759925.4892254,-130.371,-52.246,-49.316,-131.34799999999998,1.0
1622759925.4931324,-125.488,-46.387,-44.434,-106.934,1.0
1622759925.497038,-142.09,-47.852,-46.387,-166.016,1.0
1622759925.5009441,-158.691,-60.059,-54.199,-213.37900000000002,1.0
1622759925.504851,-142.09,-56.641000000000005,-50.781000000000006,-163.086,1.0
1622759925.508757,-121.094,-40.039,-46.875,-98.633,1.0
1622759925.512663,-131.836,-44.434,-58.593999999999994,-130.859,1.0
1622759925.5165696,-145.50799999999998,-59.57,-61.035,-189.94099999999997,1.0
1622759925.5204754,-130.371,-52.246,-55.176,-151.855,1.0
1622759925.524382,-103.027,-41.992,-54.199,-76.66,1.0
1622759925.5282884,-85.449,-40.527,-45.898,-70.312,1.0
1622759925.5321946,-101.56200000000001,-47.363,-48.828,-129.395,1.0
1622759925.5361009,-2.441,-30.273000000000003,-33.203,-25.879,1.0
1622759925.540007,-9.277000000000001,-31.25,-32.227,-11.23,1.0
1622759925.5439134,7.324,-20.508000000000003,-33.203,52.246,1.0
1622759925.5478196,19.043,-19.531,-34.18,54.199,1.0
1622759925.5517254,0.0,-26.855,-39.062,-10.254000000000001,1.0
1622759925.555632,-7.812,-28.809,-40.527,-21.973000000000003,1.0
1622759925.5595384,13.672,-23.926,-32.227,41.016000000000005,1.0
1622759925.5634446,28.32,-19.531,-34.18,66.406,1.0
1622759925.5673509,19.043,-25.391,-36.133,11.23,1.0
1622759925.571257,3.906,-36.621,-36.621,-34.18,1.0
1622759925.5751634,17.09,-29.785,-39.551,10.742,1.0
1622759925.5790696,39.551,-15.137,-33.203,59.57,1.0
1622759925.5829759,24.414,-24.414,-18.555,20.508000000000003,1.0
1622759925.586882,4.395,-29.296999999999997,-25.391,-31.25,1.0
1622759925.5907884,-8.301,-38.086,-28.32,0.977,1.0
1622759925.5946946,-0.977,-31.738000000000003,-25.391,60.059,1.0
1622759925.598601,11.719000000000001,-17.09,-20.02,33.203,1.0
1622759925.602507,5.859,-20.02,-26.366999999999997,-37.598,1.0
1622759925.606413,-14.648,-38.574,-38.574,-20.996,1.0
1622759925.6103199,-17.578,-39.062,-38.574,44.434,1.0
1622759925.6142254,3.906,-26.366999999999997,-30.273000000000003,45.898,1.0
1622759925.6181316,0.0,-28.809,-27.344,-18.066,1.0
1622759925.622038,-29.785,-39.062,-38.086,-36.621,1.0
1622759925.6259441,-35.156,-40.039,-38.574,26.366999999999997,1.0
1622759925.629851,-14.16,-32.227,-31.738000000000003,1.0,1.0
1622759925.633757,-12.695,-28.809,-31.738000000000003,1.0,1.0
1622759925.6376634,-32.715,-34.18,-38.086,1.0,1.0
1622759925.6415696,-38.086,-41.016000000000005,-35.645,1.0,1.0
1622759925.6454754,-25.391,-36.133,-30.273000000000003,1.0,1.0
1622759925.649382,-15.137,-20.508000000000003,-27.831999999999997,1.0,1.0
1622759925.6532884,-25.879,-28.809,-26.366999999999997,1.0,1.0
1622759925.6571941,-42.48,-42.968999999999994,-30.273000000000003,1.0,1.0
1622759925.6611009,-32.227,-39.062,-30.761999999999997,1.0,1.0
1622759925.665007,-15.137,-32.227,-27.831999999999997,1.0,1.0
1622759925.6689134,-26.855,-40.039,-31.738000000000003,1.0,1.0
1622759925.6728196,-46.387,-47.852,-39.062,1.0,1.0
1622759925.6767259,-39.551,-34.18,-35.645,-38.086,1.0
1622759925.680632,-20.996,-21.973000000000003,-27.344,23.926,1.0
1622759925.6845384,-16.602,-28.32,-26.366999999999997,20.996,1.0
1622759925.6884446,-29.785,-35.645,-28.809,-43.457,1.0
1622759925.6923509,-29.296999999999997,-36.133,-27.831999999999997,-46.875,1.0
1622759925.696257,-5.859,-22.461,-21.484,16.113,1.0
1622759925.7001634,0.0,-15.137,-20.02,27.344,1.0
1622759925.7040699,-23.926,-31.25,-25.391,-34.18,1.0
1622759925.7079759,-37.109,-36.133,-26.855,-61.523,1.0
1622759925.711882,-28.32,-24.901999999999997,-23.438000000000002,-12.207,1.0
1622759925.7157884,-1.465,-16.602,-19.531,26.855,1.0
1622759925.7196946,-12.207,-32.227,-22.949,-13.184000000000001,1.0
1622759925.7236009,-44.922,-40.527,-23.926,-38.086,1.0
1622759925.727507,-53.711000000000006,-47.852,-30.273000000000003,-73.73,1.0
1622759925.731413,-21.484,-29.296999999999997,-29.296999999999997,-12.207,1.0
1622759925.7353199,-11.23,-24.901999999999997,-27.831999999999997,29.296999999999997,1.0
1622759925.7392254,-20.508000000000003,-34.18,-29.296999999999997,-15.137,1.0
1622759925.7431324,-32.227,-34.18,-32.227,-67.87100000000001,1.0
1622759925.747038,-28.32,-31.738000000000003,-30.761999999999997,-39.551,1.0
1622759925.7509441,-14.648,-32.227,-33.203,12.695,1.0
1622759925.754851,-19.531,-33.203,-34.18,-6.348,1.0
1622759925.758757,-32.715,-37.598,-38.574,-72.266,1.0
1622759925.762663,-34.668,-41.504,-35.156,-73.73,1.0
1622759925.7665696,-19.531,-31.25,-27.344,-0.488,1.0
1622759925.7704754,-12.695,-25.879,-28.809,1.0,1.0
1622759925.774382,-34.668,-37.109,-33.203,1.0,1.0
1622759925.7782884,-58.105,-50.781000000000006,-38.574,1.0,1.0
1622759925.7821946,-40.039,-37.109,-35.645,1.0,1.0
1622759925.7861009,-20.508000000000003,-25.391,-34.668,1.0,1.0
1622759925.790007,-29.296999999999997,-35.645,-42.48,1.0,1.0
1622759925.7939134,-44.922,-41.016000000000005,-41.016000000000005,1.0,1.0
1622759925.7978196,-37.109,-35.156,-31.738000000000003,1.0,1.0
1622759925.8017254,-9.766,-28.809,-29.296999999999997,1.0,1.0
1622759925.805632,-15.625,-30.273000000000003,-30.761999999999997,1.0,1.0
1622759925.8095384,-30.761999999999997,-36.621,-26.366999999999997,1.0,1.0
1622759925.8134446,-37.598,-36.621,-26.366999999999997,1.0,1.0
1622759925.8173509,-24.414,-26.855,-23.438000000000002,12.695,1.0
1622759925.821257,-20.508000000000003,-31.738000000000003,-26.366999999999997,1.953,1.0
1622759925.8251634,-33.691,-51.758,-31.738000000000003,-65.918,1.0
1622759925.8290696,-35.156,-47.852,-33.691,-71.289,1.0
1622759925.8329759,-26.855,-34.668,-30.761999999999997,-9.766,1.0
1622759925.836882,-23.438000000000002,-31.25,-32.227,1.465,1.0
1622759925.8407884,-35.156,-35.156,-36.621,-62.012,1.0
1622759925.8446946,-44.434,-42.48,-40.527,-83.008,1.0
1622759925.848601,-30.273000000000003,-39.551,-37.109,-19.531,1.0
1622759925.852507,-13.184000000000001,-25.879,-29.785,15.625,1.0
1622759925.856413,-15.625,-29.296999999999997,-32.715,-29.785,1.0
1622759925.8603199,-31.738000000000003,-44.922,-37.109,-75.684,1.0
1622759925.8642254,-24.901999999999997,-37.109,-35.645,1.0,1.0
1622759925.8681316,0.0,-16.113,-32.227,1.0,1.0
1622759925.872038,-6.836,-20.508000000000003,-38.086,1.0,1.0
1622759925.8759441,-44.922,-41.016000000000005,-45.41,1.0,1.0
1622759925.879851,-40.527,-36.621,-45.41,1.0,1.0
1622759925.883757,-16.113,-20.996,-38.086,1.0,1.0
1622759925.8876634,-19.531,-26.366999999999997,-30.761999999999997,1.0,1.0
1622759925.8915696,-30.761999999999997,-39.551,-33.203,1.0,1.0
1622759925.8954754,-32.227,-41.992,-38.086,1.0,1.0
1622759925.899382,-20.996,-33.691,-38.086,1.0,1.0
1622759925.9032884,-17.09,-28.32,-35.156,1.0,1.0
1622759925.9071941,-38.086,-36.621,-38.086,1.0,1.0
1622759925.9111009,-56.641000000000005,-42.968999999999994,-40.039,-100.098,1.0
1622759925.915007,-35.645,-41.016000000000005,-41.992,-44.434,1.0
1622759925.9189134,-7.324,-33.691,-39.551,2.441,1.0
1622759925.9228196,-17.09,-30.273000000000003,-31.738000000000003,-34.668,1.0
1622759925.9267259,-47.852,-41.504,-37.109,-87.402,1.0
1622759925.930632,-48.828,-39.551,-37.598,-64.941,1.0
1622759925.9345384,-26.366999999999997,-30.273000000000003,-27.831999999999997,-8.301,1.0
1622759925.9384446,-30.761999999999997,-39.062,-30.273000000000003,-26.855,1.0
1622759925.9423509,-52.733999999999995,-47.363,-33.691,-87.891,1.0
1622759925.946257,-54.199,-43.945,-32.227,-76.172,1.0
1622759925.9501634,-26.855,-37.109,-24.901999999999997,-2.441,1.0
1622759925.9540699,-20.02,-32.715,-23.438000000000002,0.0,1.0
1622759925.9579759,-36.621,-31.738000000000003,-37.109,-78.613,1.0
1622759925.961882,-46.875,-40.039,-37.109,-87.891,1.0
1622759925.9657884,-48.34,-43.945,-42.48,-14.16,1.0
1622759925.9696946,-32.227,-31.738000000000003,-34.668,18.555,1.0
1622759925.9736009,-27.831999999999997,-23.926,-34.668,-37.109,1.0
1622759925.977507,-40.039,-29.296999999999997,-42.48,-68.359,1.0
1622759925.981413,-54.199,-40.039,-41.992,-24.414,1.0
1622759925.9853199,-44.922,-37.598,-38.086,19.531,1.0
1622759925.9892254,-27.831999999999997,-28.809,-29.785,-12.695,1.0
1622759925.9931324,-41.016000000000005,-33.203,-37.109,-75.195,1.0
1622759925.997038,-60.059,-40.527,-46.875,-45.41,1.0
1622759926.0009441,-41.992,-27.344,-36.621,6.836,1.0
1622759926.004851,-17.09,-17.09,-28.32,1.0,1.0
1622759926.008757,-20.996,-26.366999999999997,-32.715,1.0,1.0
1622759926.012663,-43.945,-39.551,-36.133,1.0,1.0
1622759926.0165696,-45.898,-35.645,-31.25,1.0,1.0
1622759926.0204754,-33.203,-25.391,-24.901999999999997,1.0,1.0
1622759926.024382,-27.831999999999997,-26.855,-22.949,1.0,1.0
1622759926.0282884,-38.086,-36.133,-27.831999999999997,1.0,1.0
1622759926.0321946,-60.547,-47.363,-31.738000000000003,1.0,1.0
1622759926.0361009,-59.57,-39.062,-34.668,1.0,1.0
1622759926.040007,-49.805,-35.645,-46.387,1.0,1.0
1622759926.0439134,-58.593999999999994,-41.504,-37.598,1.0,1.0
1622759926.0478196,-56.152,-39.551,-25.879,1.0,1.0
1622759926.0517254,-46.387,-33.203,-25.879,-29.785,1.0
1622759926.055632,-39.062,-34.668,-31.25,-4.883,1.0
1622759926.0595384,-38.086,-40.039,-35.645,-49.316,1.0
1622759926.0634446,-49.316,-40.039,-29.296999999999997,-83.008,1.0
1622759926.0673509,-53.711000000000006,-36.621,-30.273000000000003,-52.246,1.0
1622759926.071257,-41.504,-25.879,-29.296999999999997,0.488,1.0
1622759926.0751634,-52.246,-31.738000000000003,-31.25,-33.691,1.0
1622759926.0790696,-66.895,-47.852,-42.968999999999994,-91.309,1.0
1622759926.0829759,-55.176,-42.968999999999994,-36.133,-62.988,1.0
1622759926.086882,-40.039,-33.203,-28.32,-6.348,1.0
1622759926.0907884,-33.203,-38.574,-32.227,-16.602,1.0
1622759926.0946946,-53.711000000000006,-46.387,-41.504,-75.684,1.0
1622759926.098601,-35.645,-34.668,-37.598,-69.824,1.0
1622759926.102507,-39.551,-37.109,-36.621,-63.965,1.0
1622759926.106413,-36.133,-31.25,-40.527,-7.324,1.0
1622759926.1103199,-20.508000000000003,-30.273000000000003,-34.668,7.812,1.0
1622759926.1142254,-36.133,-37.109,-34.18,-56.641000000000005,1.0
1622759926.1181316,-52.733999999999995,-36.133,-40.039,-80.078,1.0
1622759926.122038,-25.391,-25.879,-37.598,-18.066,1.0
1622759926.1259441,-13.672,-30.273000000000003,-34.668,12.695,1.0
1622759926.129851,-35.156,-41.992,-39.551,-48.34,1.0
1622759926.133757,-47.363,-46.387,-43.457,-83.49600000000001,1.0
1622759926.1376634,-31.25,-43.945,-35.645,-29.296999999999997,1.0
1622759926.1415696,-18.066,-33.203,-30.761999999999997,14.648,1.0
1622759926.1454754,-13.672,-23.926,-23.438000000000002,-17.09,1.0
1622759926.149382,-19.043,-29.785,-36.133,-68.359,1.0
1622759926.1532884,-42.48,-44.434,-46.387,-49.316,1.0
1622759926.1571941,-22.461,-28.32,-33.203,3.906,1.0
1622759926.1611009,0.0,-17.578,-23.438000000000002,-7.812,1.0
1622759926.165007,-12.695,-21.484,-31.25,-68.359,1.0
1622759926.1689134,-31.738000000000003,-29.296999999999997,-41.016000000000005,-69.824,1.0
1622759926.1728196,-28.809,-40.039,-38.574,5.371,1.0
1622759926.1767259,0.0,-28.32,-27.831999999999997,26.366999999999997,1.0
1622759926.180632,-2.93,-24.414,-30.761999999999997,-40.527,1.0
1622759926.1845384,-15.137,-28.32,-39.062,-62.5,1.0
1622759926.1884446,-4.395,-23.438000000000002,-28.809,-16.602,1.0
1622759926.1923509,-15.137,-29.296999999999997,-20.02,1.0,1.0
1622759926.196257,-16.113,-33.691,-26.366999999999997,1.0,1.0
1622759926.2001634,-15.625,-33.691,-28.32,1.0,1.0
1622759926.2040699,-36.133,-38.574,-30.761999999999997,1.0,1.0
1622759926.2079759,-30.273000000000003,-37.109,-25.879,1.0,1.0
1622759926.211882,-21.973000000000003,-30.273000000000003,-25.391,1.0,1.0
1622759926.2157884,-33.203,-35.645,-33.691,1.0,1.0
1622759926.2196946,-35.645,-40.527,-32.227,1.0,1.0
1622759926.2236009,-20.02,-28.809,-24.414,1.0,1.0
1622759926.227507,-10.254000000000001,-26.366999999999997,-19.043,1.0,1.0
1622759926.231413,-10.742,-32.227,-23.438000000000002,1.0,1.0
1622759926.2353199,-25.879,-39.551,-29.785,1.0,1.0
1622759926.2392254,-30.273000000000003,-33.691,-21.973000000000003,-37.109,1.0
1622759926.2431324,-8.301,-18.066,-22.461,12.695,1.0
1622759926.247038,-5.859,-23.926,-39.551,4.395,1.0
1622759926.2509441,-27.831999999999997,-37.109,-42.968999999999994,-32.227,1.0
1622759926.254851,-40.527,-41.992,-37.109,-37.598,1.0
1622759926.258757,-26.366999999999997,-25.391,-33.203,-10.742,1.0
1622759926.262663,-18.555,-22.949,-33.691,15.625,1.0
1622759926.2665696,-44.434,-49.316,-38.574,-15.137,1.0
1622759926.2704754,-64.453,-59.57,-34.18,-107.91,1.0
1622759926.274382,-40.039,-46.387,-33.203,-52.733999999999995,1.0
1622759926.2782884,-13.672,-30.761999999999997,-32.715,40.039,1.0
1622759926.2821946,-29.296999999999997,-46.875,-30.761999999999997,-22.461,1.0
1622759926.2861009,-39.062,-43.457,-30.761999999999997,-81.055,1.0
1622759926.290007,-46.387,-44.922,-29.296999999999997,-70.312,1.0
1622759926.2939134,-30.761999999999997,-35.645,-25.391,-23.438000000000002,1.0
1622759926.2978196,-15.625,-20.996,-19.531,15.137,1.0
1622759926.3017254,-29.296999999999997,-28.809,-23.926,-24.414,1.0
1622759926.305632,-44.434,-37.109,-32.227,-84.961,1.0
1622759926.3095384,-55.663999999999994,-34.668,-41.016000000000005,-71.289,1.0
1622759926.3134446,-41.504,-41.504,-41.504,-10.254000000000001,1.0
1622759926.3173509,-24.414,-35.645,-35.645,-19.043,1.0
1622759926.321257,-39.062,-42.48,-37.598,-75.684,1.0
1622759926.3251634,-45.898,-50.781000000000006,-35.645,-83.008,1.0
1622759926.3290696,-18.555,-32.227,-25.879,-27.831999999999997,1.0
1622759926.3329759,-17.578,-28.809,-28.32,1.0,1.0
1622759926.336882,-43.945,-40.527,-36.133,1.0,1.0
1622759926.3407884,-52.246,-46.875,-35.645,1.0,1.0
1622759926.3446946,-46.875,-33.203,-28.32,1.0,1.0
1622759926.348601,-37.109,-29.785,-28.809,1.0,1.0
1622759926.352507,-40.527,-44.434,-41.016000000000005,1.0,1.0
1622759926.356413,-57.129,-51.758,-41.016000000000005,1.0,1.0
1622759926.3603199,-60.547,-43.457,-35.156,1.0,1.0
1622759926.3642254,-41.992,-37.109,-27.831999999999997,1.0,1.0
1622759926.3681316,-57.617,-50.781000000000006,-33.203,1.0,1.0
1622759926.372038,-72.75399999999999,-57.617,-36.621,1.0,1.0
1622759926.3759441,-60.059,-53.711000000000006,-33.203,1.0,1.0
1622759926.379851,-41.504,-45.41,-30.761999999999997,1.0,1.0
1622759926.383757,-31.25,-40.527,-26.855,1.0,1.0
1622759926.3876634,-41.992,-44.434,-34.18,1.0,1.0
1622759926.3915696,-52.733999999999995,-43.945,-33.203,1.0,1.0
1622759926.3954754,-42.968999999999994,-42.48,-30.273000000000003,1.0,1.0
1622759926.399382,-30.273000000000003,-34.18,-31.25,1.0,1.0
1622759926.4032884,-39.551,-41.504,-38.574,1.0,1.0
1622759926.4071941,-52.246,-53.223,-42.48,1.0,1.0
1622759926.4111009,-39.551,-41.016000000000005,-27.831999999999997,1.0,1.0
1622759926.415007,-24.901999999999997,-34.668,-23.438000000000002,1.0,1.0
1622759926.4189134,-42.48,-43.457,-33.203,1.0,1.0
1622759926.4228196,-60.547,-51.27,-37.109,1.0,1.0
1622759926.4267259,-58.105,-48.828,-33.203,-20.02,1.0
1622759926.430632,-26.855,-42.48,-24.901999999999997,-3.418,1.0
1622759926.4345384,-28.809,-45.41,-28.809,-29.785,1.0
1622759926.4384446,-53.223,-46.875,-39.062,-89.844,1.0
1622759926.4423509,-41.504,-47.852,-37.109,-79.102,1.0
1622759926.446257,-30.761999999999997,-40.527,-27.344,-4.883,1.0
1622759926.4501634,-29.785,-36.133,-32.227,-17.09,1.0
1622759926.4540699,-39.062,-46.875,-35.156,-71.289,1.0
1622759926.4579759,-50.293,-52.733999999999995,-35.156,-77.637,1.0
1622759926.461882,-39.551,-39.062,-38.086,-28.32,1.0
1622759926.4657884,-21.484,-31.738000000000003,-35.156,3.418,1.0
1622759926.4696946,-29.785,-42.48,-41.016000000000005,-47.363,1.0
1622759926.4736009,-51.758,-49.805,-41.504,-91.309,1.0
1622759926.477507,-37.598,-42.48,-33.203,-35.156,1.0
1622759926.481413,-19.043,-31.738000000000003,-27.344,-3.418,1.0
1622759926.4853199,-29.296999999999997,-30.761999999999997,-32.227,-39.551,1.0
1622759926.4892254,-38.574,-38.574,-28.809,-82.52,1.0
1622759926.4931324,-28.32,-30.273000000000003,-20.02,-49.316,1.0
1622759926.497038,-24.414,-25.879,-18.066,23.438000000000002,1.0
1622759926.5009441,-26.855,-33.203,-20.508000000000003,-0.488,1.0
1622759926.504851,-35.645,-41.992,-27.344,-71.777,1.0
1622759926.508757,-44.922,-42.968999999999994,-29.296999999999997,-59.57,1.0
1622759926.512663,-13.184000000000001,-23.926,-21.973000000000003,20.996,1.0
1622759926.5165696,1.465,-23.438000000000002,-22.461,16.602,1.0
1622759926.5204754,-9.277000000000001,-25.391,-32.715,-54.688,1.0
1622759926.524382,-31.25,-37.109,-39.551,-67.87100000000001,1.0
1622759926.5282884,-39.062,-36.621,-35.156,-12.207,1.0
1622759926.5321946,-29.296999999999997,-21.973000000000003,-29.296999999999997,2.93,1.0
1622759926.5361009,-23.926,-24.414,-30.273000000000003,-62.012,1.0
1622759926.540007,-29.785,-27.831999999999997,-28.32,-66.895,1.0
1622759926.5439134,-44.922,-34.668,-25.391,-7.324,1.0
1622759926.5478196,-34.18,-41.504,-27.344,19.531,1.0
1622759926.5517254,-10.742,-31.738000000000003,-25.879,-21.973000000000003,1.0
1622759926.555632,-12.695,-33.203,-27.344,-65.43,1.0
1622759926.5595384,-35.156,-41.992,-33.691,-38.574,1.0
1622759926.5634446,-28.809,-39.062,-33.203,12.695,1.0
1622759926.5673509,-1.465,-26.855,-32.227,1.0,1.0
1622759926.571257,-22.949,-34.18,-34.18,1.0,1.0
1622759926.5751634,-37.598,-44.434,-36.133,1.0,1.0
1622759926.5790696,-18.555,-37.598,-37.109,1.0,1.0
1622759926.5829759,-5.371,-31.738000000000003,-38.086,1.0,1.0
1622759926.586882,-9.277000000000001,-28.809,-36.621,1.0,1.0
1622759926.5907884,-31.738000000000003,-33.691,-38.086,1.0,1.0
1622759926.5946946,-33.691,-34.668,-35.156,1.0,1.0
1622759926.598601,-15.625,-31.738000000000003,-30.761999999999997,1.0,1.0
1622759926.602507,-17.578,-35.156,-32.227,1.0,1.0
1622759926.606413,-33.203,-40.039,-33.203,1.0,1.0
1622759926.6103199,-44.434,-46.387,-34.18,1.0,1.0
1622759926.6142254,-34.18,-41.992,-32.715,-24.901999999999997,1.0
1622759926.6181316,-7.324,-31.738000000000003,-24.901999999999997,22.949,1.0
1622759926.622038,-26.366999999999997,-39.551,-28.32,-20.996,1.0
1622759926.6259441,-55.663999999999994,-51.758,-33.691,-78.613,1.0
1622759926.629851,-45.41,-44.922,-28.809,-42.48,1.0
1622759926.633757,-29.785,-30.273000000000003,-24.901999999999997,16.602,1.0
1622759926.6376634,-30.761999999999997,-30.761999999999997,-29.785,-2.441,1.0
1622759926.6415696,-43.457,-44.922,-38.574,-67.383,1.0
1622759926.6454754,-47.852,-36.621,-38.574,-58.593999999999994,1.0
1622759926.649382,-31.25,-25.391,-32.227,8.301,1.0
1622759926.6532884,-30.761999999999997,-31.738000000000003,-34.668,1.465,1.0
1622759926.6571941,-51.758,-40.527,-44.434,-68.359,1.0
1622759926.6611009,-55.176,-43.945,-38.086,-64.941,1.0
1622759926.665007,-65.43,-51.27,-38.086,-66.406,1.0
1622759926.6689134,-58.105,-41.016000000000005,-34.18,-16.602,1.0
1622759926.6728196,-34.668,-38.086,-28.32,8.301,1.0
1622759926.6767259,-41.992,-43.945,-30.761999999999997,-44.434,1.0
1622759926.680632,-50.781000000000006,-43.457,-33.203,-75.684,1.0
1622759926.6845384,-26.366999999999997,-32.227,-31.25,-11.23,1.0
1622759926.6884446,-15.137,-22.461,-31.25,16.113,1.0
1622759926.6923509,-52.246,-29.296999999999997,-29.296999999999997,-44.922,1.0
1622759926.696257,-70.801,-40.527,-29.785,-81.055,1.0
1622759926.7001634,-42.48,-31.25,-29.785,-33.203,1.0
1622759926.7040699,-31.738000000000003,-30.273000000000003,-25.391,3.418,1.0
1622759926.7079759,-53.711000000000006,-30.273000000000003,-37.109,1.0,1.0
1622759926.711882,-61.523,-29.785,-45.898,1.0,1.0
1622759926.7157884,-44.922,-36.621,-40.039,1.0,1.0
1622759926.7196946,-33.203,-25.879,-38.086,1.0,1.0
1622759926.7236009,-28.809,-25.879,-36.133,1.0,1.0
1622759926.727507,-49.805,-31.25,-41.504,1.0,1.0
1622759926.731413,-53.223,-31.25,-35.156,1.0,1.0
1622759926.7353199,-25.391,-20.996,-28.809,1.0,1.0
1622759926.7392254,-16.602,-17.09,-32.227,1.0,1.0
1622759926.7431324,-33.691,-27.831999999999997,-40.527,1.0,1.0
1622759926.747038,-44.434,-38.086,-37.109,1.0,1.0
1622759926.7509441,-27.344,-39.551,-24.414,1.0,1.0
1622759926.754851,-20.508000000000003,-31.738000000000003,-23.926,1.0,1.0
1622759926.758757,-43.457,-30.761999999999997,-22.461,1.0,1.0
1622759926.762663,-52.246,-41.992,-28.809,1.0,1.0
1622759926.7665696,-32.715,-35.645,-26.366999999999997,1.0,1.0
1622759926.7704754,-20.996,-27.831999999999997,-18.555,1.0,1.0
1622759926.774382,-19.043,-30.273000000000003,-19.531,1.0,1.0
1622759926.7782884,-29.785,-33.203,-20.996,1.0,1.0
1622759926.7821946,-30.273000000000003,-38.574,-19.043,1.0,1.0
1622759926.7861009,-2.93,-27.344,-14.16,1.0,1.0
1622759926.790007,1.465,-26.366999999999997,-18.555,1.0,1.0
1622759926.7939134,-22.949,-32.715,-23.926,1.0,1.0
1622759926.7978196,-20.508000000000003,-34.668,-16.113,1.0,1.0
1622759926.8017254,-1.465,-29.785,-9.277000000000001,41.992,1.0
1622759926.805632,6.348,-16.113,-14.16,53.223,1.0
1622759926.8095384,-2.441,-27.344,-15.625,-0.977,1.0
1622759926.8134446,-18.066,-34.668,-14.16,-33.203,1.0
1622759926.8173509,-13.672,-23.438000000000002,-20.02,3.906,1.0
1622759926.821257,-9.277000000000001,-17.578,-16.602,30.273000000000003,1.0
1622759926.8251634,-42.968999999999994,-27.344,-23.438000000000002,-28.809,1.0
1622759926.8290696,-61.035,-31.738000000000003,-31.25,-86.914,1.0
1622759926.8329759,-74.707,-32.227,-27.344,-78.125,1.0
1622759926.836882,-93.262,-41.016000000000005,-34.18,-54.199,1.0
1622759926.8407884,-81.543,-38.086,-36.133,-79.59,1.0
1622759926.8446946,-118.652,-52.246,-41.504,-152.832,1.0
1622759926.848601,-152.344,-66.406,-45.41,-166.016,1.0
1622759926.852507,-134.766,-58.105,-37.598,-119.141,1.0
1622759926.856413,-142.09,-62.012,-40.527,-130.371,1.0
1622759926.8603199,-180.176,-75.684,-44.922,-200.195,1.0
1622759926.8642254,-208.984,-87.891,-51.758,-231.445,1.0
1622759926.8681316,-190.43,-81.055,-49.316,-175.78099999999998,1.0
1622759926.872038,-170.898,-77.637,-47.363,-144.531,1.0
1622759926.8759441,-198.73,-101.56200000000001,-55.176,-204.102,1.0
1622759926.879851,-219.727,-104.98,-56.641000000000005,-242.676,1.0
1622759926.883757,-198.73,-96.191,-54.199,-192.87099999999998,1.0
1622759926.8876634,-169.43400000000003,-98.633,-41.992,-135.254,1.0
1622759926.8915696,-165.03900000000002,-102.051,-43.945,-162.59799999999998,1.0
1622759926.8954754,-3.906,-40.527,-44.922,-21.484,1.0
1622759926.899382,-3.418,-46.387,-45.898,-51.27,1.0
1622759926.9032884,7.812,-30.761999999999997,-44.434,6.836,1.0
1622759926.9071941,32.227,-13.672,-35.156,59.57,1.0
1622759926.9111009,30.273000000000003,-15.625,-31.25,33.203,1.0
1622759926.915007,17.578,-12.207,-34.668,-6.836,1.0
1622759926.9189134,34.18,-11.23,-30.273000000000003,28.32,1.0
1622759926.9228196,55.663999999999994,-8.789,-23.926,87.891,1.0
1622759926.9267259,58.593999999999994,0.977,-24.414,75.195,1.0
1622759926.930632,53.223,-6.348,-30.761999999999997,14.648,1.0
1622759926.9345384,49.805,-6.836,-29.296999999999997,17.09,1.0
1622759926.9384446,65.918,5.859,-21.973000000000003,78.613,1.0
1622759926.9423509,66.406,13.184000000000001,-28.809,1.0,1.0
1622759926.946257,56.641000000000005,2.93,-33.203,1.0,1.0
1622759926.9501634,43.457,-7.812,-34.18,1.0,1.0
1622759926.9540699,45.898,1.465,-33.203,1.0,1.0
1622759926.9579759,62.5,8.789,-28.32,1.0,1.0
1622759926.961882,52.246,-0.488,-30.273000000000003,1.0,1.0
1622759926.9657884,25.879,-8.789,-39.551,1.0,1.0
1622759926.9696946,41.016000000000005,-11.23,-32.227,1.0,1.0
1622759926.9736009,62.988,-2.93,-24.414,1.0,1.0
1622759926.977507,49.805,-1.953,-34.18,1.0,1.0
1622759926.981413,14.16,-9.766,-40.527,1.0,1.0
1622759926.9853199,13.184000000000001,-15.625,-33.203,1.0,1.0
1622759926.9892254,41.504,-9.277000000000001,-22.949,81.543,1.0
1622759926.9931324,36.621,-8.789,-30.273000000000003,68.359,1.0
1622759926.997038,21.973000000000003,-14.648,-29.785,-3.418,1.0
1622759927.0009441,11.719000000000001,-10.254000000000001,-26.855,-2.93,1.0
1622759927.004851,30.273000000000003,-1.953,-20.508000000000003,63.477,1.0
1622759927.008757,37.598,1.953,-14.648,80.078,1.0
1622759927.012663,21.484,-5.859,-21.484,22.949,1.0
1622759927.0165696,12.207,-13.672,-28.32,-7.812,1.0
1622759927.0204754,13.184000000000001,-12.207,-26.366999999999997,37.109,1.0
1622759927.024382,24.414,0.0,-20.508000000000003,72.266,1.0
1622759927.0282884,13.184000000000001,4.883,-23.438000000000002,23.438000000000002,1.0
1622759927.0321946,-13.184000000000001,-13.184000000000001,-29.785,-24.414,1.0
1622759927.0361009,-4.883,-24.901999999999997,-19.043,-39.062,1.0
1622759927.040007,0.0,-17.578,-21.484,2.93,1.0
1622759927.0439134,13.184000000000001,-9.766,-21.973000000000003,51.758,1.0
1622759927.0478196,6.836,-17.09,-26.366999999999997,16.602,1.0
1622759927.0517254,-22.949,-21.484,-32.715,-39.062,1.0
1622759927.055632,-13.672,-6.836,-29.296999999999997,-13.184000000000001,1.0
1622759927.0595384,10.254000000000001,-10.742,-20.508000000000003,43.457,1.0
1622759927.0634446,-1.953,-21.973000000000003,-22.461,31.25,1.0
1622759927.0673509,-11.23,-28.809,-26.855,-14.16,1.0
1622759927.071257,-20.02,-25.879,-32.227,-17.09,1.0
1622759927.0751634,-13.672,-0.977,-26.855,25.879,1.0
1622759927.0790696,7.812,-4.883,-20.996,41.016000000000005,1.0
1622759927.0829759,-9.277000000000001,-25.879,-32.227,6.836,1.0
1622759927.086882,-14.648,-33.203,-36.621,-56.641000000000005,1.0
1622759927.0907884,-24.414,-31.738000000000003,-39.062,-65.43,1.0
1622759927.0946946,-10.254000000000001,-21.484,-33.691,-2.93,1.0
1622759927.098601,-0.977,-17.09,-34.668,10.742,1.0
1622759927.102507,-25.391,-23.438000000000002,-41.016000000000005,-51.758,1.0
1622759927.106413,-31.25,-31.25,-38.086,-68.359,1.0
1622759927.1103199,-17.09,-23.438000000000002,-28.809,-8.789,1.0
1622759927.1142254,-8.301,-17.578,-23.926,28.809,1.0
1622759927.1181316,-13.184000000000001,-22.461,-25.391,-12.207,1.0
1622759927.122038,-33.203,-30.273000000000003,-28.809,-64.453,1.0
1622759927.1259441,-32.715,-31.25,-25.879,-36.621,1.0
1622759927.129851,-15.137,-25.879,-23.926,1.0,1.0
1622759927.133757,-20.996,-24.901999999999997,-28.32,1.0,1.0
1622759927.1376634,-38.574,-32.227,-31.738000000000003,1.0,1.0
1622759927.1415696,-30.761999999999997,-32.715,-30.273000000000003,1.0,1.0
1622759927.1454754,-15.625,-24.414,-28.809,1.0,1.0
1622759927.149382,-20.02,-27.344,-31.738000000000003,1.0,1.0
1622759927.1532884,-39.062,-38.086,-31.25,1.0,1.0
1622759927.1571941,-43.945,-39.551,-28.809,1.0,1.0
1622759927.1611009,-19.043,-27.831999999999997,-26.366999999999997,1.0,1.0
1622759927.165007,-20.02,-30.761999999999997,-24.414,1.0,1.0
1622759927.1689134,-39.062,-46.387,-30.273000000000003,1.0,1.0
1622759927.1728196,-52.246,-50.293,-31.738000000000003,1.0,1.0
1622759927.1767259,-57.129,-38.086,-30.273000000000003,-32.715,1.0
1622759927.180632,-37.109,-29.296999999999997,-26.855,5.859,1.0
1622759927.1845384,-36.621,-41.504,-28.32,-29.785,1.0
1622759927.1884446,-54.199,-44.434,-34.668,-78.613,1.0
1622759927.1923509,-49.805,-32.227,-34.668,-50.781000000000006,1.0
1622759927.196257,-25.391,-28.32,-27.344,7.324,1.0
1622759927.2001634,-17.09,-36.621,-25.879,-3.906,1.0
1622759927.2040699,-42.968999999999994,-46.875,-35.645,-61.035,1.0
1622759927.2079759,-46.875,-42.48,-34.18,-51.758,1.0
1622759927.211882,-24.901999999999997,-29.296999999999997,-28.809,-0.488,1.0
1622759927.2157884,-30.273000000000003,-36.133,-30.273000000000003,2.93,1.0
1622759927.2196946,-51.758,-44.922,-36.133,-55.663999999999994,1.0
1622759927.2236009,-43.945,-41.504,-37.109,-70.312,1.0
1622759927.227507,-51.758,-44.434,-41.016000000000005,-70.801,1.0
1622759927.231413,-28.809,-41.016000000000005,-36.621,0.488,1.0
1622759927.2353199,-24.901999999999997,-31.25,-33.203,4.395,1.0
1622759927.2392254,-31.738000000000003,-36.133,-30.273000000000003,-51.27,1.0
1622759927.2431324,-42.48,-36.133,-29.296999999999997,-68.848,1.0
1622759927.247038,-31.738000000000003,-27.831999999999997,-27.831999999999997,-16.113,1.0
1622759927.2509441,-7.324,-22.949,-26.855,22.461,1.0
1622759927.254851,-20.996,-25.879,-27.344,-26.855,1.0
1622759927.258757,-32.227,-35.645,-29.785,-74.707,1.0
1622759927.262663,-21.484,-31.25,-30.273000000000003,-33.203,1.0
1622759927.2665696,-11.23,-17.09,-20.508000000000003,27.344,1.0
1622759927.2704754,-7.324,-20.996,-21.973000000000003,1.0,1.0
1622759927.274382,-19.531,-33.203,-27.344,1.0,1.0
1622759927.2782884,-36.133,-35.645,-29.785,1.0,1.0
1622759927.2821946,-35.645,-20.996,-27.344,1.0,1.0
1622759927.2861009,-26.366999999999997,-20.02,-29.296999999999997,1.0,1.0
1622759927.290007,-30.761999999999997,-22.949,-36.133,1.0,1.0
1622759927.2939134,-45.898,-19.531,-33.203,1.0,1.0
1622759927.2978196,-26.366999999999997,-16.113,-27.831999999999997,1.0,1.0
1622759927.3017254,-2.93,-17.578,-26.855,1.0,1.0
1622759927.305632,-25.879,-26.366999999999997,-34.668,1.0,1.0
1622759927.3095384,-41.016000000000005,-31.25,-37.109,1.0,1.0
1622759927.3134446,-27.831999999999997,-26.855,-28.809,1.0,1.0
1622759927.3173509,-20.508000000000003,-21.484,-28.809,1.0,1.0
1622759927.321257,-22.461,-29.296999999999997,-32.715,1.0,1.0
1622759927.3251634,-46.387,-38.574,-40.039,1.0,1.0
1622759927.3290696,-39.062,-31.25,-34.668,1.0,1.0
1622759927.3329759,-4.883,-16.113,-27.831999999999997,1.0,1.0
1622759927.336882,-24.901999999999997,-20.508000000000003,-33.203,1.0,1.0
1622759927.3407884,-54.688,-34.18,-42.48,1.0,1.0
1622759927.3446946,-42.968999999999994,-30.761999999999997,-44.922,1.0,1.0
1622759927.348601,-16.113,-23.926,-35.645,1.0,1.0
1622759927.352507,-18.555,-30.761999999999997,-39.551,1.0,1.0
1622759927.356413,-39.551,-38.574,-43.945,1.0,1.0
1622759927.3603199,-39.551,-42.48,-38.086,1.0,1.0
1622759927.3642254,-41.992,-41.016000000000005,-29.785,-62.5,1.0
1622759927.3681316,-22.949,-29.296999999999997,-21.484,5.859,1.0
1622759927.372038,-22.949,-27.831999999999997,-28.32,5.859,1.0
1622759927.3759441,-35.156,-35.645,-31.738000000000003,-50.781000000000006,1.0
1622759927.379851,-41.992,-42.48,-27.831999999999997,-58.593999999999994,1.0
1622759927.383757,-28.32,-25.391,-23.438000000000002,-0.488,1.0
1622759927.3876634,-11.23,-20.996,-18.555,30.761999999999997,1.0
1622759927.3915696,-28.32,-34.18,-22.949,-20.508000000000003,1.0
1622759927.3954754,-41.504,-35.156,-26.855,-63.477,1.0
1622759927.399382,-28.32,-29.785,-20.996,-15.137,1.0
1622759927.4032884,-11.23,-21.973000000000003,-20.996,31.25,1.0
1622759927.4071941,-25.879,-22.461,-34.18,-18.555,1.0
1622759927.4111009,-25.391,-32.227,-35.645,-25.391,1.0
1622759927.415007,-46.875,-41.016000000000005,-39.551,-67.383,1.0
1622759927.4189134,-33.691,-34.18,-39.062,-26.366999999999997,1.0
1622759927.4228196,-13.672,-24.901999999999997,-31.25,29.785,1.0
1622759927.4267259,-23.438000000000002,-31.25,-30.273000000000003,3.906,1.0
1622759927.430632,-43.457,-32.227,-30.273000000000003,-55.663999999999994,1.0
1622759927.4345384,-33.203,-26.366999999999997,-31.25,-36.133,1.0
1622759927.4384446,-12.695,-29.785,-26.366999999999997,23.438000000000002,1.0
1622759927.4423509,-9.277000000000001,-29.296999999999997,-22.949,22.949,1.0
1622759927.446257,-28.32,-32.227,-30.761999999999997,-42.968999999999994,1.0
1622759927.4501634,-34.18,-35.156,-33.691,-56.152,1.0
1622759927.4540699,-13.184000000000001,-25.391,-27.831999999999997,9.766,1.0
1622759927.4579759,-11.719000000000001,-20.996,-28.32,1.0,1.0
1622759927.461882,-28.809,-30.273000000000003,-34.668,1.0,1.0
1622759927.4657884,-45.898,-40.039,-39.062,1.0,1.0
1622759927.4696946,-32.715,-34.18,-37.109,1.0,1.0
1622759927.4736009,-11.23,-25.391,-34.18,1.0,1.0
1622759927.477507,-27.831999999999997,-27.831999999999997,-35.645,1.0,1.0
1622759927.481413,-44.922,-32.715,-34.668,1.0,1.0
1622759927.4853199,-23.926,-27.344,-28.809,1.0,1.0
1622759927.4892254,-14.16,-25.391,-26.855,1.0,1.0
1622759927.4931324,-21.484,-30.273000000000003,-28.809,1.0,1.0
1622759927.497038,-42.48,-37.109,-31.25,1.0,1.0
1622759927.5009441,-43.457,-42.968999999999994,-35.156,1.0,1.0
1622759927.504851,-12.207,-32.227,-31.738000000000003,7.812,1.0
1622759927.508757,-6.836,-23.926,-27.831999999999997,9.766,1.0
1622759927.512663,-24.414,-39.551,-36.621,-56.152,1.0
1622759927.5165696,-28.809,-38.574,-35.645,-58.105,1.0
1622759927.5204754,-17.578,-25.879,-27.344,2.441,1.0
1622759927.524382,-7.324,-19.531,-24.414,19.043,1.0
1622759927.5282884,-22.949,-25.391,-30.273000000000003,-32.227,1.0
1622759927.5321946,-44.434,-38.086,-34.18,-68.848,1.0
1622759927.5361009,-20.996,-29.785,-27.344,-21.973000000000003,1.0
1622759927.540007,0.977,-21.973000000000003,-24.414,29.785,1.0
1622759927.5439134,-16.602,-27.831999999999997,-30.761999999999997,-14.648,1.0
1622759927.5478196,-32.715,-34.18,-36.621,-71.289,1.0
1622759927.5517254,-49.805,-41.992,-41.504,-81.055,1.0
1622759927.555632,-36.133,-33.203,-37.598,-34.18,1.0
1622759927.5595384,-20.02,-29.785,-32.715,22.461,1.0
1622759927.5634446,-24.414,-37.109,-35.645,-13.672,1.0
1622759927.5673509,-43.945,-45.41,-41.504,-70.312,1.0
1622759927.571257,-45.41,-35.645,-35.645,-44.922,1.0
1622759927.5751634,-23.926,-30.761999999999997,-23.926,12.207,1.0
1622759927.5790696,-23.926,-41.016000000000005,-27.831999999999997,5.859,1.0
1622759927.5829759,-44.434,-44.922,-32.715,-52.246,1.0
1622759927.586882,-45.41,-37.598,-27.831999999999997,-51.758,1.0
1622759927.5907884,-25.879,-24.901999999999997,-20.508000000000003,11.719000000000001,1.0
1622759927.5946946,-14.648,-27.344,-19.043,20.02,1.0
1622759927.598601,-4.883,-24.901999999999997,-27.831999999999997,-45.41,1.0
1622759927.602507,-25.879,-36.621,-37.109,-74.707,1.0
1622759927.606413,-40.527,-43.945,-42.48,-19.531,1.0
1622759927.6103199,-19.043,-30.761999999999997,-32.227,17.578,1.0
1622759927.6142254,-7.324,-21.484,-24.414,-27.344,1.0
1622759927.6181316,-26.366999999999997,-27.831999999999997,-28.32,-74.219,1.0
1622759927.622038,-42.968999999999994,-38.086,-31.738000000000003,-35.156,1.0
1622759927.6259441,-37.109,-36.621,-32.227,20.996,1.0
1622759927.629851,-22.949,-27.831999999999997,-31.25,-2.93,1.0
1622759927.633757,-33.203,-31.738000000000003,-34.18,-62.988,1.0
1622759927.6376634,-45.898,-45.41,-34.668,-59.082,1.0
1622759927.6415696,-34.668,-39.062,-31.738000000000003,8.301,1.0
1622759927.6454754,-25.879,-23.438000000000002,-33.203,1.0,1.0
1622759927.649382,-27.344,-30.761999999999997,-33.691,1.0,1.0
1622759927.6532884,-38.086,-43.457,-32.227,1.0,1.0
1622759927.6571941,-41.016000000000005,-32.227,-29.296999999999997,1.0,1.0
1622759927.6611009,-20.508000000000003,-24.414,-26.366999999999997,1.0,1.0
1622759927.665007,-14.648,-27.831999999999997,-28.32,1.0,1.0
1622759927.6689134,-33.691,-35.645,-31.25,1.0,1.0
1622759927.6728196,-40.039,-39.062,-33.203,1.0,1.0
1622759927.6767259,-23.438000000000002,-28.809,-33.691,1.0,1.0
1622759927.680632,-4.883,-21.973000000000003,-24.414,1.0,1.0
1622759927.6845384,-11.23,-30.761999999999997,-26.855,1.0,1.0
1622759927.6884446,-26.366999999999997,-42.48,-30.273000000000003,1.0,1.0
1622759927.6923509,-21.484,-34.668,-24.901999999999997,-22.949,1.0
1622759927.696257,-7.812,-27.831999999999997,-22.949,17.578,1.0
1622759927.7001634,-21.484,-37.598,-28.809,-17.578,1.0
1622759927.7040699,-40.527,-44.434,-35.156,-67.383,1.0
1622759927.7079759,-30.761999999999997,-35.645,-29.785,-36.133,1.0
1622759927.711882,-9.277000000000001,-26.366999999999997,-23.438000000000002,29.785,1.0
1622759927.7157884,-10.742,-31.738000000000003,-25.879,11.23,1.0
1622759927.7196946,-37.598,-51.27,-37.109,-63.477,1.0
1622759927.7236009,-48.34,-50.293,-37.598,-57.617,1.0
1622759927.727507,-25.391,-38.086,-27.344,10.742,1.0
1622759927.731413,-16.602,-31.738000000000003,-29.296999999999997,19.531,1.0
1622759927.7353199,-33.691,-39.551,-33.203,-40.039,1.0
1622759927.7392254,-34.18,-40.039,-33.203,-56.152,1.0
1622759927.7431324,-33.691,-43.457,-32.715,-60.059,1.0
1622759927.747038,-23.438000000000002,-36.133,-29.785,0.488,1.0
1622759927.7509441,-11.23,-24.901999999999997,-27.344,18.555,1.0
1622759927.754851,-33.203,-33.691,-33.691,-47.852,1.0
1622759927.758757,-49.316,-40.527,-33.691,-69.824,1.0
1622759927.762663,-33.203,-31.25,-28.32,-8.301,1.0
1622759927.7665696,-28.32,-33.203,-28.809,13.672,1.0
1622759927.7704754,-41.016000000000005,-42.968999999999994,-30.273000000000003,-36.621,1.0
1622759927.774382,-48.34,-44.434,-32.715,-71.289,1.0
1622759927.7782884,-37.109,-35.645,-29.296999999999997,-35.645,1.0
1622759927.7821946,-20.02,-29.785,-26.366999999999997,13.184000000000001,1.0
1622759927.7861009,-19.531,-29.296999999999997,-32.227,1.0,1.0
1622759927.790007,-36.133,-37.109,-37.109,1.0,1.0
1622759927.7939134,-37.109,-38.574,-33.203,1.0,1.0
1622759927.7978196,-20.02,-21.973000000000003,-29.296999999999997,1.0,1.0
1622759927.8017254,-22.949,-20.996,-32.227,1.0,1.0
1622759927.805632,-36.621,-31.738000000000003,-38.086,1.0,1.0
1622759927.8095384,-32.715,-35.156,-40.039,1.0,1.0
1622759927.8134446,-15.625,-27.344,-37.109,1.0,1.0
1622759927.8173509,4.395,-21.484,-39.062,1.0,1.0
1622759927.821257,-9.277000000000001,-34.668,-48.34,1.0,1.0
1622759927.8251634,-35.645,-50.293,-52.733999999999995,1.0,1.0
1622759927.8290696,-22.461,-40.039,-42.968999999999994,1.0,1.0
1622759927.8329759,-4.395,-20.508000000000003,-33.691,1.0,1.0
1622759927.836882,-17.578,-31.25,-39.551,1.0,1.0
1622759927.8407884,-34.668,-46.875,-43.457,1.0,1.0
1622759927.8446946,-24.901999999999997,-33.203,-39.551,1.0,1.0
1622759927.848601,-8.789,-18.066,-35.645,1.0,1.0
1622759927.852507,-18.066,-25.391,-34.18,1.0,1.0
1622759927.856413,-43.945,-36.621,-38.574,1.0,1.0
1622759927.8603199,-46.387,-39.551,-35.645,1.0,1.0
1622759927.8642254,-28.809,-33.691,-30.761999999999997,1.0,1.0
1622759927.8681316,-29.785,-39.062,-34.18,1.0,1.0
1622759927.872038,-53.711000000000006,-49.316,-40.039,1.0,1.0
1622759927.8759441,-60.059,-45.898,-37.109,1.0,1.0
1622759927.879851,-44.434,-32.715,-30.761999999999997,1.0,1.0
1622759927.883757,-31.738000000000003,-25.391,-28.809,1.0,1.0
1622759927.8876634,-41.016000000000005,-41.016000000000005,-34.18,1.0,1.0
1622759927.8915696,-47.852,-48.828,-33.691,1.0,1.0
1622759927.8954754,-36.621,-36.133,-29.296999999999997,1.0,1.0
1622759927.899382,-14.16,-22.461,-27.344,1.0,1.0
1622759927.9032884,-16.602,-23.926,-30.273000000000003,1.0,1.0
1622759927.9071941,-46.387,-34.18,-32.715,1.0,1.0
1622759927.9111009,-42.48,-29.785,-27.831999999999997,1.0,1.0
1622759927.915007,-16.602,-20.508000000000003,-26.366999999999997,1.0,1.0
1622759927.9189134,-9.766,-30.761999999999997,-25.391,1.0,1.0
1622759927.9228196,-37.109,-40.527,-31.25,1.0,1.0
1622759927.9267259,-42.968999999999994,-40.527,-33.203,-62.012,1.0
1622759927.930632,-22.949,-31.25,-27.831999999999997,1.465,1.0
1622759927.9345384,-16.602,-26.366999999999997,-29.785,9.277000000000001,1.0
1622759927.9384446,-36.621,-41.016000000000005,-35.156,-52.246,1.0
1622759927.9423509,-47.852,-41.016000000000005,-39.551,-74.707,1.0
1622759927.946257,-24.901999999999997,-28.32,-31.25,-15.137,1.0
1622759927.9501634,-11.23,-25.391,-23.926,24.414,1.0
1622759927.9540699,-26.366999999999997,-37.598,-31.25,-28.32,1.0
1622759927.9579759,-40.039,-45.898,-36.621,-76.172,1.0
1622759927.961882,-31.25,-39.062,-27.831999999999997,-29.296999999999997,1.0
1622759927.9657884,-18.555,-30.761999999999997,-23.926,15.625,1.0
1622759927.9696946,-24.901999999999997,-26.366999999999997,-29.296999999999997,-13.672,1.0
1622759927.9736009,-25.879,-29.785,-27.344,-66.895,1.0
1622759927.977507,-44.434,-36.621,-34.18,-46.387,1.0
1622759927.981413,-32.227,-36.621,-32.715,20.508000000000003,1.0
1622759927.9853199,-10.254000000000001,-23.926,-23.926,10.254000000000001,1.0
1622759927.9892254,-20.02,-21.973000000000003,-22.461,-57.129,1.0
1622759927.9931324,-44.434,-30.761999999999997,-27.344,-64.453,1.0
1622759927.997038,-40.527,-34.18,-27.831999999999997,-3.906,1.0
1622759928.0009441,-26.366999999999997,-33.691,-27.831999999999997,20.508000000000003,1.0
1622759928.004851,-24.901999999999997,-30.273000000000003,-26.855,-35.156,1.0
1622759928.008757,-30.273000000000003,-34.668,-28.32,-67.87100000000001,1.0
1622759928.012663,-37.598,-34.18,-28.32,-16.113,1.0
1622759928.0165696,-20.02,-23.926,-23.438000000000002,23.438000000000002,1.0
1622759928.0204754,-18.555,-27.831999999999997,-30.761999999999997,6.836,1.0
1622759928.024382,-15.137,-22.461,-30.761999999999997,7.324,1.0
1622759928.0282884,-25.391,-27.344,-34.668,-48.34,1.0
1622759928.0321946,-29.296999999999997,-33.203,-39.551,-70.312,1.0
1622759928.0361009,-18.555,-28.32,-37.109,-14.16,1.0
1622759928.040007,-4.883,-15.137,-32.227,16.602,1.0
1622759928.0439134,-19.531,-27.344,-38.086,-38.574,1.0
1622759928.0478196,-42.968999999999994,-45.898,-38.086,-80.566,1.0
1622759928.0517254,-28.809,-37.109,-32.227,-36.133,1.0
1622759928.055632,-16.113,-25.879,-32.715,11.719000000000001,1.0
1622759928.0595384,-32.715,-25.879,-35.156,-23.438000000000002,1.0
1622759928.0634446,-47.852,-43.457,-35.645,-79.102,1.0
1622759928.0673509,-45.41,-42.968999999999994,-35.645,-72.266,1.0
1622759928.071257,-32.227,-38.574,-29.785,-42.48,1.0
1622759928.0751634,-19.043,-26.855,-22.949,7.324,1.0
1622759928.0790696,-17.09,-26.855,-20.02,-3.906,1.0
1622759928.0829759,-38.086,-36.621,-26.855,-62.988,1.0
1622759928.086882,-47.363,-32.715,-22.461,-45.41,1.0
1622759928.0907884,-19.531,-17.578,-15.625,18.555,1.0
1622759928.0946946,-18.555,-24.414,-27.344,6.836,1.0
1622759928.098601,-38.086,-37.598,-34.668,-60.547,1.0
1622759928.102507,-37.598,-43.457,-32.715,-70.312,1.0
1622759928.106413,-8.789,-28.32,-23.438000000000002,2.441,1.0
1622759928.1103199,-7.812,-20.508000000000003,-18.555,23.438000000000002,1.0
1622759928.1142254,-26.855,-37.109,-36.621,-7.812,1.0
1622759928.1181316,-45.898,-40.527,-41.504,-74.219,1.0
1622759928.122038,-49.316,-45.41,-38.574,-79.102,1.0
1622759928.1259441,-31.738000000000003,-37.598,-27.831999999999997,-10.254000000000001,1.0
1622759928.129851,-30.761999999999997,-32.227,-26.855,12.207,1.0
1622759928.133757,-44.434,-30.761999999999997,-33.691,-42.968999999999994,1.0
1622759928.1376634,-51.758,-39.062,-34.668,-76.172,1.0
1622759928.1415696,-37.598,-35.156,-34.18,-30.273000000000003,1.0
1622759928.1454754,-20.508000000000003,-28.32,-32.227,14.648,1.0
1622759928.149382,-29.785,-36.621,-33.691,-24.901999999999997,1.0
1622759928.1532884,-46.387,-43.457,-37.598,-81.055,1.0
1622759928.1571941,-41.504,-41.016000000000005,-34.18,-50.781000000000006,1.0
1622759928.1611009,-25.391,-31.25,-31.25,1.0,1.0
1622759928.165007,-20.02,-29.296999999999997,-33.203,1.0,1.0
1622759928.1689134,-40.039,-37.598,-35.645,1.0,1.0
1622759928.1728196,-42.48,-40.527,-33.203,1.0,1.0
1622759928.1767259,-23.926,-27.831999999999997,-27.831999999999997,1.0,1.0
1622759928.180632,-20.508000000000003,-19.043,-27.831999999999997,1.0,1.0
1622759928.1845384,-31.25,-27.831999999999997,-32.227,1.0,1.0
1622759928.1884446,-48.828,-39.551,-33.203,1.0,1.0
1622759928.1923509,-32.227,-34.668,-30.761999999999997,1.0,1.0
1622759928.196257,-15.137,-29.296999999999997,-28.32,1.0,1.0
1622759928.2001634,-28.32,-36.621,-29.296999999999997,1.0,1.0
1622759928.2040699,-45.41,-43.945,-30.761999999999997,1.0,1.0
1622759928.2079759,-29.785,-38.574,-30.761999999999997,-30.273000000000003,1.0
1622759928.211882,0.488,-28.32,-25.879,21.973000000000003,1.0
1622759928.2157884,-15.625,-32.227,-29.785,-10.254000000000001,1.0
1622759928.2196946,-47.852,-44.922,-35.156,-68.848,1.0
1622759928.2236009,-38.086,-42.48,-28.809,-48.34,1.0
1622759928.227507,-21.484,-27.831999999999997,-22.949,15.625,1.0
1622759928.231413,-15.137,-30.761999999999997,-26.855,6.348,1.0
1622759928.2353199,-31.25,-40.039,-33.691,-56.152,1.0
1622759928.2392254,-39.551,-38.574,-29.785,-57.617,1.0
1622759928.2431324,-23.926,-33.203,-27.344,-4.883,1.0
1622759928.247038,-13.672,-28.32,-29.785,10.254000000000001,1.0
1622759928.2509441,-22.461,-38.574,-33.203,-45.898,1.0
1622759928.254851,-33.691,-35.156,-33.691,-58.593999999999994,1.0
1622759928.258757,-39.551,-30.273000000000003,-29.785,-74.219,1.0
1622759928.262663,-22.461,-23.926,-24.901999999999997,-7.812,1.0
1622759928.2665696,-12.207,-25.879,-23.926,15.625,1.0
1622759928.2704754,-28.32,-40.527,-27.831999999999997,-48.828,1.0
1622759928.274382,-46.875,-44.922,-30.761999999999997,-80.566,1.0
1622759928.2782884,-38.574,-29.296999999999997,-27.344,-28.809,1.0
1622759928.2821946,-18.066,-24.901999999999997,-27.344,13.184000000000001,1.0
1622759928.2861009,-22.461,-37.598,-28.809,-28.809,1.0
1622759928.290007,-48.828,-43.945,-32.715,-83.008,1.0
1622759928.2939134,-34.18,-31.738000000000003,-30.273000000000003,-39.062,1.0
1622759928.2978196,-9.277000000000001,-20.02,-27.831999999999997,13.672,1.0
1622759928.3017254,-11.719000000000001,-19.531,-33.203,1.0,1.0
1622759928.305632,-35.156,-28.809,-36.133,1.0,1.0
1622759928.3095384,-43.945,-37.109,-34.18,1.0,1.0
1622759928.3134446,-22.461,-27.344,-26.366999999999997,1.0,1.0
1622759928.3173509,-15.625,-23.438000000000002,-24.414,1.0,1.0
1622759928.321257,-38.574,-39.062,-31.738000000000003,1.0,1.0
1622759928.3251634,-52.733999999999995,-45.898,-37.598,1.0,1.0
1622759928.3290696,-26.855,-35.645,-30.273000000000003,1.0,1.0
1622759928.3329759,-8.789,-30.761999999999997,-26.855,1.0,1.0
1622759928.336882,-32.715,-43.457,-36.621,1.0,1.0
1622759928.3407884,-54.688,-45.41,-41.992,1.0,1.0
1622759928.3446946,-41.504,-34.668,-33.691,1.0,1.0
1622759928.348601,-18.066,-31.738000000000003,-31.738000000000003,1.0,1.0
1622759928.352507,-31.738000000000003,-38.086,-36.133,1.0,1.0
1622759928.356413,-42.968999999999994,-45.898,-36.133,1.0,1.0
1622759928.3603199,-37.109,-41.016000000000005,-33.203,1.0,1.0
1622759928.3642254,-22.949,-27.344,-28.32,1.0,1.0
1622759928.3681316,-25.391,-28.32,-30.273000000000003,1.0,1.0
1622759928.372038,-42.968999999999994,-41.016000000000005,-38.086,1.0,1.0
1622759928.3759441,-43.945,-43.457,-38.574,1.0,1.0
1622759928.379851,-26.855,-27.831999999999997,-32.227,1.0,1.0
1622759928.383757,-20.02,-24.901999999999997,-30.273000000000003,1.0,1.0
1622759928.3876634,-27.831999999999997,-35.645,-33.203,1.0,1.0
1622759928.3915696,-34.18,-38.574,-36.621,1.0,1.0
1622759928.3954754,-20.508000000000003,-29.296999999999997,-30.761999999999997,-6.348,1.0
1622759928.399382,-10.254000000000001,-13.672,-24.414,27.344,1.0
1622759928.4032884,-40.039,-28.32,-37.598,-35.156,1.0
1622759928.4071941,-40.039,-47.363,-42.968999999999994,-76.172,1.0
1622759928.4111009,-25.391,-37.109,-32.227,-29.785,1.0
1622759928.415007,-19.043,-20.508000000000003,-30.761999999999997,24.414,1.0
1622759928.4189134,-22.461,-23.926,-38.574,-2.441,1.0
1622759928.4228196,-41.992,-36.621,-39.551,-63.477,1.0
1622759928.4267259,-42.968999999999994,-34.18,-35.645,-45.898,1.0
1622759928.430632,-26.366999999999997,-28.809,-37.109,15.137,1.0
1622759928.4345384,-23.438000000000002,-40.039,-36.133,4.395,1.0
1622759928.4384446,-44.434,-47.363,-39.062,-62.012,1.0
1622759928.4423509,-49.316,-47.363,-37.109,-62.988,1.0
1622759928.446257,-15.625,-33.203,-26.366999999999997,1.465,1.0
1622759928.4501634,-13.672,-22.949,-25.879,10.254000000000001,1.0
1622759928.4540699,-33.691,-32.227,-30.273000000000003,-47.363,1.0
1622759928.4579759,-34.668,-38.574,-33.691,-65.43,1.0
1622759928.461882,-28.809,-19.531,-31.25,-10.742,1.0
1622759928.4657884,-21.484,-12.207,-26.366999999999997,22.949,1.0
1622759928.4696946,-24.901999999999997,-33.203,-26.366999999999997,-23.926,1.0
1622759928.4736009,-35.645,-36.133,-25.879,-65.918,1.0
1622759928.477507,-26.855,-30.761999999999997,-25.391,-33.203,1.0
1622759928.481413,-4.395,-24.901999999999997,-20.508000000000003,22.461,1.0
1622759928.4853199,-13.184000000000001,-24.414,-29.785,-5.859,1.0
1622759928.4892254,-28.32,-31.738000000000003,-31.25,-72.75399999999999,1.0
1622759928.4931324,-39.551,-40.039,-34.668,-52.246,1.0
1622759928.497038,-39.062,-39.062,-37.109,14.648,1.0
1622759928.5009441,-18.555,-25.879,-26.366999999999997,12.207,1.0
1622759928.504851,-15.625,-26.855,-23.926,-54.199,1.0
1622759928.508757,-41.504,-32.715,-30.273000000000003,-55.663999999999994,1.0
1622759928.512663,-55.176,-37.109,-29.785,3.418,1.0
1622759928.5165696,-31.25,-32.227,-26.366999999999997,24.414,1.0
1622759928.5204754,-14.648,-27.344,-21.973000000000003,-23.926,1.0
1622759928.524382,-45.898,-38.574,-36.621,-64.453,1.0
1622759928.5282884,-55.663999999999994,-41.016000000000005,-41.016000000000005,-14.648,1.0
1622759928.5321946,-22.461,-28.32,-29.785,19.531,1.0
1622759928.5361009,-17.578,-25.879,-28.32,1.0,1.0
1622759928.540007,-33.691,-37.109,-29.296999999999997,1.0,1.0
1622759928.5439134,-40.039,-41.016000000000005,-26.366999999999997,1.0,1.0
1622759928.5478196,-36.621,-30.273000000000003,-26.855,1.0,1.0
1622759928.5517254,-23.926,-20.996,-26.855,1.0,1.0
1622759928.555632,-31.25,-30.761999999999997,-28.809,1.0,1.0
1622759928.5595384,-53.711000000000006,-40.039,-35.645,1.0,1.0
1622759928.5634446,-36.133,-35.156,-31.25,1.0,1.0
1622759928.5673509,-15.137,-28.809,-19.043,1.0,1.0
1622759928.571257,-24.901999999999997,-30.273000000000003,-20.508000000000003,1.0,1.0
1622759928.5751634,-38.086,-40.039,-28.32,1.0,1.0
1622759928.5790696,-41.504,-35.645,-31.738000000000003,1.0,1.0
1622759928.5829759,-21.973000000000003,-24.901999999999997,-29.296999999999997,-1.953,1.0
1622759928.586882,-18.066,-28.32,-30.761999999999997,12.695,1.0
1622759928.5907884,-41.992,-45.898,-42.48,-53.223,1.0
1622759928.5946946,-55.176,-46.875,-41.504,-79.59,1.0
1622759928.598601,-39.551,-31.25,-33.203,-12.207,1.0
1622759928.602507,-17.578,-25.391,-29.785,27.344,1.0
1622759928.606413,-30.761999999999997,-36.621,-36.133,-25.879,1.0
1622759928.6103199,-49.805,-56.152,-39.551,-66.895,1.0
1622759928.6142254,-35.645,-48.34,-30.761999999999997,-26.366999999999997,1.0
1622759928.6181316,-7.812,-31.25,-27.831999999999997,25.391,1.0
1622759928.622038,-21.484,-36.621,-28.32,-7.812,1.0
1622759928.6259441,-46.875,-47.363,-35.645,-67.87100000000001,1.0
1622759928.629851,-47.363,-39.062,-31.25,-72.266,1.0
1622759928.633757,-40.039,-38.574,-33.691,-44.434,1.0
1622759928.6376634,-16.113,-30.273000000000003,-31.25,12.207,1.0
1622759928.6415696,-20.02,-29.296999999999997,-29.296999999999997,-6.348,1.0
1622759928.6454754,-48.34,-36.621,-33.691,-71.289,1.0
1622759928.649382,-47.363,-34.18,-33.691,-60.547,1.0
1622759928.6532884,-11.719000000000001,-28.809,-25.391,17.578,1.0
1622759928.6571941,-14.648,-31.25,-30.273000000000003,19.043,1.0
1622759928.6611009,-41.992,-40.527,-39.062,-59.57,1.0
1622759928.665007,-52.246,-42.968999999999994,-39.062,-76.66,1.0
1622759928.6689134,-28.32,-36.133,-33.203,-4.395,1.0
1622759928.6728196,-15.625,-36.133,-34.668,14.648,1.0
1622759928.6767259,-40.039,-47.363,-43.945,1.0,1.0
1622759928.680632,-36.621,-41.016000000000005,-40.527,1.0,1.0
1622759928.6845384,-14.648,-22.461,-30.273000000000003,1.0,1.0
1622759928.6884446,-10.742,-20.02,-27.831999999999997,1.0,1.0
1622759928.6923509,-16.113,-32.715,-30.273000000000003,1.0,1.0
1622759928.696257,-29.785,-35.645,-37.109,1.0,1.0
1622759928.7001634,-24.901999999999997,-27.344,-38.086,1.0,1.0
1622759928.7040699,-11.719000000000001,-22.949,-33.691,1.0,1.0
1622759928.7079759,-12.207,-31.25,-36.133,1.0,1.0
1622759928.711882,-34.668,-42.968999999999994,-42.968999999999994,1.0,1.0
1622759928.7157884,-36.133,-34.668,-41.992,1.0,1.0
1622759928.7196946,-11.719000000000001,-28.809,-32.715,1.0,1.0
1622759928.7236009,-22.461,-35.156,-37.598,1.0,1.0
1622759928.727507,-35.156,-40.527,-43.945,1.0,1.0
1622759928.731413,-44.434,-39.551,-41.992,1.0,1.0
1622759928.7353199,-32.227,-35.156,-33.691,1.0,1.0
1622759928.7392254,-14.648,-25.391,-25.391,1.0,1.0
1622759928.7431324,-27.831999999999997,-24.901999999999997,-30.273000000000003,1.0,1.0
1622759928.747038,-44.434,-28.32,-35.645,1.0,1.0
1622759928.7509441,-27.831999999999997,-28.809,-29.785,1.0,1.0
1622759928.754851,-1.953,-24.901999999999997,-22.461,1.0,1.0
1622759928.758757,-17.09,-31.25,-25.879,1.0,1.0
1622759928.762663,-39.551,-41.504,-31.25,1.0,1.0
1622759928.7665696,-25.391,-38.574,-33.203,1.0,1.0
1622759928.7704754,-13.672,-27.344,-32.227,1.0,1.0
1622759928.774382,-29.785,-30.761999999999997,-35.645,1.0,1.0
1622759928.7782884,-36.621,-44.922,-43.945,1.0,1.0
1622759928.7821946,-38.574,-37.598,-38.086,1.0,1.0
1622759928.7861009,-20.996,-25.391,-28.32,1.0,1.0
1622759928.790007,0.0,-21.484,-23.438000000000002,1.0,1.0
1622759928.7939134,-21.484,-33.203,-29.296999999999997,1.0,1.0
1622759928.7978196,-36.133,-40.527,-36.133,1.0,1.0
1622759928.8017254,-25.391,-23.926,-30.761999999999997,1.0,1.0
1622759928.805632,-20.996,-20.02,-32.715,1.0,1.0
1622759928.8095384,-28.809,-32.715,-37.109,1.0,1.0
1622759928.8134446,-41.016000000000005,-43.945,-33.691,1.0,1.0
1622759928.8173509,-38.086,-35.156,-31.25,-45.41,1.0
1622759928.821257,-14.16,-25.879,-25.391,12.695,1.0
1622759928.8251634,-22.949,-34.18,-28.809,-13.672,1.0
1622759928.8290696,-45.898,-41.504,-35.645,-81.055,1.0
1622759928.8329759,-38.574,-39.062,-36.621,-65.43,1.0
1622759928.836882,-23.926,-25.391,-32.227,-2.93,1.0
1622759928.8407884,-23.438000000000002,-25.391,-31.25,-9.766,1.0
1622759928.8446946,-41.992,-39.551,-36.133,-70.312,1.0
1622759928.848601,-41.992,-40.527,-33.203,-71.777,1.0
1622759928.852507,-14.16,-32.227,-23.438000000000002,-4.395,1.0
1622759928.856413,-17.09,-30.761999999999997,-23.438000000000002,11.23,1.0
1622759928.8603199,-50.293,-41.016000000000005,-33.691,-54.199,1.0
1622759928.8642254,-38.086,-40.039,-37.109,-57.129,1.0
1622759928.8681316,-52.246,-43.945,-34.18,-75.684,1.0
1622759928.872038,-23.438000000000002,-37.598,-23.926,-7.324,1.0
1622759928.8759441,-10.254000000000001,-33.203,-24.901999999999997,20.02,1.0
1622759928.879851,-22.461,-38.574,-32.715,-34.668,1.0
1622759928.883757,-40.527,-40.039,-35.645,-70.801,1.0
1622759928.8876634,-50.781000000000006,-39.062,-33.691,-37.598,1.0
1622759928.8915696,-35.645,-47.363,-30.273000000000003,9.277000000000001,1.0
1622759928.8954754,-42.48,-53.223,-32.227,-29.785,1.0
1622759928.899382,-62.012,-63.477,-40.039,-86.426,1.0
1622759928.9032884,-51.27,-60.059,-39.551,-51.758,1.0
1622759928.9071941,-30.273000000000003,-39.062,-28.32,11.23,1.0
1622759928.9111009,-26.855,-38.086,-21.484,1.0,1.0
1622759928.915007,-44.434,-45.898,-31.25,1.0,1.0
1622759928.9189134,-53.223,-40.527,-37.109,1.0,1.0
1622759928.9228196,-23.438000000000002,-34.18,-28.32,1.0,1.0
1622759928.9267259,-5.371,-32.715,-23.926,1.0,1.0
1622759928.930632,-22.949,-34.668,-28.32,1.0,1.0
1622759928.9345384,-38.086,-39.551,-30.273000000000003,1.0,1.0
1622759928.9384446,-23.926,-32.715,-25.879,1.0,1.0
1622759928.9423509,-8.301,-25.879,-23.926,1.0,1.0
1622759928.946257,-29.785,-37.109,-28.809,1.0,1.0
1622759928.9501634,-51.27,-48.34,-34.18,1.0,1.0
1622759928.9540699,-40.527,-44.922,-29.785,1.0,1.0
1622759928.9579759,-17.09,-24.414,-22.949,24.901999999999997,1.0
1622759928.961882,-22.461,-24.901999999999997,-26.366999999999997,-8.789,1.0
1622759928.9657884,-47.363,-46.387,-29.785,-69.336,1.0
1622759928.9696946,-30.761999999999997,-42.48,-29.785,-42.48,1.0
1622759928.9736009,-9.766,-29.785,-27.831999999999997,19.043,1.0
1622759928.977507,-20.508000000000003,-27.344,-27.344,9.277000000000001,1.0
1622759928.981413,-33.691,-36.133,-32.715,-48.828,1.0
1622759928.9853199,-39.551,-42.48,-40.039,-57.129,1.0
1622759928.9892254,-13.184000000000001,-32.715,-34.18,9.766,1.0
1622759928.9931324,-1.953,-31.25,-31.25,22.949,1.0
1622759928.997038,-26.366999999999997,-44.434,-33.691,-35.156,1.0
1622759929.0009441,-39.062,-44.922,-32.227,-69.336,1.0
1622759929.004851,-29.785,-37.598,-36.133,-22.461,1.0
1622759929.008757,-19.531,-30.761999999999997,-35.645,31.25,1.0
1622759929.012663,-20.996,-27.831999999999997,-39.062,-12.695,1.0
1622759929.0165696,-34.18,-39.551,-42.48,-65.43,1.0
1622759929.0204754,-28.32,-40.039,-34.668,-29.785,1.0
1622759929.024382,-6.836,-24.414,-28.32,21.973000000000003,1.0
1622759929.0282884,-21.484,-30.761999999999997,-29.785,-6.836,1.0
1622759929.0321946,-49.316,-41.504,-35.645,-64.941,1.0
1622759929.0361009,-39.062,-39.551,-39.062,-46.387,1.0
1622759929.040007,-21.973000000000003,-33.203,-35.645,11.719000000000001,1.0
1622759929.0439134,-28.809,-30.761999999999997,-32.227,10.742,1.0
1622759929.0478196,-45.898,-42.968999999999994,-36.133,-47.852,1.0
1622759929.0517254,-51.758,-49.805,-36.133,-60.059,1.0
1622759929.055632,-32.715,-39.551,-25.879,7.812,1.0
1622759929.0595384,-21.973000000000003,-37.598,-23.438000000000002,29.785,1.0
1622759929.0634446,-38.086,-41.504,-32.227,-36.133,1.0
1622759929.0673509,-41.504,-41.992,-30.761999999999997,-67.383,1.0
1622759929.071257,-22.949,-27.831999999999997,-24.901999999999997,-13.672,1.0
1622759929.0751634,-3.906,-17.578,-27.344,33.203,1.0
1622759929.0790696,-15.137,-35.645,-34.668,-11.719000000000001,1.0
1622759929.0829759,-29.296999999999997,-39.062,-34.18,-63.965,1.0
1622759929.086882,-13.672,-28.32,-28.32,-33.203,1.0
1622759929.0907884,3.906,-12.207,-24.901999999999997,29.296999999999997,1.0
1622759929.0946946,-5.859,-17.578,-26.855,14.648,1.0
1622759929.098601,-18.066,-20.996,-20.508000000000003,-50.781000000000006,1.0
1622759929.102507,-31.738000000000003,-28.809,-28.809,-47.363,1.0
1622759929.106413,-28.809,-23.926,-29.785,9.766,1.0
1622759929.1103199,-8.789,-19.531,-19.531,13.184000000000001,1.0
1622759929.1142254,-15.137,-21.484,-21.973000000000003,-42.48,1.0
1622759929.1181316,-39.062,-26.855,-31.25,-55.176,1.0
1622759929.122038,-48.828,-32.227,-35.645,6.836,1.0
1622759929.1259441,-24.901999999999997,-32.227,-28.32,30.273000000000003,1.0
1622759929.129851,-9.277000000000001,-28.809,-26.366999999999997,-25.391,1.0
1622759929.133757,-35.645,-39.062,-28.809,-62.5,1.0
1622759929.1376634,-44.922,-44.922,-24.414,-20.02,1.0
1622759929.1415696,-28.809,-35.645,-25.391,23.438000000000002,1.0
1622759929.1454754,-28.809,-29.296999999999997,-28.32,1.0,1.0
1622759929.149382,-45.41,-37.598,-31.738000000000003,1.0,1.0
1622759929.1532884,-55.176,-50.293,-35.645,1.0,1.0
1622759929.1571941,-38.086,-39.062,-33.691,1.0,1.0
1622759929.1611009,-18.555,-25.879,-31.738000000000003,1.0,1.0
1622759929.165007,-36.133,-32.715,-34.18,1.0,1.0
1622759929.1689134,-54.199,-39.551,-37.598,1.0,1.0
1622759929.1728196,-43.945,-32.227,-37.109,1.0,1.0
1622759929.1767259,-23.926,-23.438000000000002,-33.691,1.0,1.0
1622759929.180632,-22.949,-32.715,-36.133,1.0,1.0
1622759929.1845384,-39.551,-46.875,-38.574,1.0,1.0
1622759929.1884446,-39.551,-42.48,-32.227,1.0,1.0
1622759929.1923509,-18.555,-23.926,-26.855,2.93,1.0
1622759929.196257,-9.277000000000001,-21.973000000000003,-24.901999999999997,19.531,1.0
1622759929.2001634,-39.551,-30.761999999999997,-30.761999999999997,-51.27,1.0
1622759929.2040699,-46.387,-34.668,-34.668,-82.52,1.0
1622759929.2079759,-26.366999999999997,-28.809,-34.18,-29.785,1.0
1622759929.211882,-24.414,-17.578,-36.133,1.953,1.0
1622759929.2157884,-36.621,-25.391,-36.621,-41.992,1.0
1622759929.2196946,-51.758,-44.922,-41.016000000000005,-88.37899999999999,1.0
1622759929.2236009,-44.434,-38.574,-38.574,-47.363,1.0
1622759929.227507,-29.296999999999997,-22.461,-29.785,5.371,1.0
1622759929.231413,-34.668,-36.133,-31.25,-22.949,1.0
1622759929.2353199,-48.34,-52.246,-28.32,-77.148,1.0
1622759929.2392254,-50.293,-38.086,-29.785,-70.312,1.0
1622759929.2431324,-52.246,-30.273000000000003,-26.855,-51.27,1.0
1622759929.247038,-23.926,-31.25,-20.508000000000003,14.16,1.0
1622759929.2509441,-23.438000000000002,-33.203,-23.926,-2.441,1.0
1622759929.254851,-37.598,-36.621,-31.25,-66.406,1.0
1622759929.258757,-36.621,-33.203,-35.645,-57.129,1.0
1622759929.262663,-26.366999999999997,-26.366999999999997,-30.273000000000003,4.883,1.0
1622759929.2665696,-16.113,-31.25,-26.855,10.254000000000001,1.0
1622759929.2704754,-31.738000000000003,-40.039,-30.273000000000003,-49.316,1.0
1622759929.274382,-49.316,-41.016000000000005,-29.785,-74.219,1.0
1622759929.2782884,-19.531,-28.809,-24.414,-9.766,1.0
1622759929.2821946,-18.555,-20.508000000000003,-27.831999999999997,14.648,1.0
1622759929.2861009,-38.574,-29.785,-33.691,-41.016000000000005,1.0
1622759929.290007,-46.875,-43.945,-31.25,-70.801,1.0
1622759929.2939134,-42.48,-38.086,-30.273000000000003,-27.831999999999997,1.0
1622759929.2978196,-20.02,-23.926,-24.901999999999997,24.901999999999997,1.0
1622759929.3017254,-25.879,-24.414,-25.879,-6.836,1.0
1622759929.305632,-47.852,-28.809,-34.668,-71.289,1.0
1622759929.3095384,-44.922,-29.296999999999997,-32.227,-43.945,1.0
1622759929.3134446,-24.414,-29.296999999999997,-32.715,17.09,1.0
1622759929.3173509,-20.996,-25.391,-34.18,0.488,1.0
1622759929.321257,-48.828,-35.645,-38.086,-62.5,1.0
1622759929.3251634,-52.733999999999995,-43.945,-37.598,-63.477,1.0
1622759929.3290696,-29.296999999999997,-32.227,-34.18,-4.883,1.0
1622759929.3329759,-24.901999999999997,-26.366999999999997,-29.296999999999997,1.0,1.0
1622759929.336882,-32.715,-37.598,-30.273000000000003,1.0,1.0
1622759929.3407884,-39.062,-43.945,-30.761999999999997,1.0,1.0
1622759929.3446946,-30.273000000000003,-28.32,-27.831999999999997,1.0,1.0
1622759929.348601,-7.812,-20.996,-26.366999999999997,1.0,1.0
1622759929.352507,-24.414,-28.32,-37.598,1.0,1.0
1622759929.356413,-52.246,-34.18,-41.992,1.0,1.0
1622759929.3603199,-37.109,-29.296999999999997,-36.133,1.0,1.0
1622759929.3642254,-8.789,-17.09,-29.785,1.0,1.0
1622759929.3681316,-20.02,-26.366999999999997,-33.203,1.0,1.0
1622759929.372038,-44.922,-43.945,-41.504,1.0,1.0
1622759929.3759441,-50.293,-44.434,-41.992,1.0,1.0
1622759929.379851,-29.785,-34.18,-34.668,1.0,1.0
1622759929.383757,-24.901999999999997,-27.344,-34.668,1.0,1.0
1622759929.3876634,-47.852,-42.968999999999994,-46.387,1.0,1.0
1622759929.3915696,-49.316,-44.434,-49.316,1.0,1.0
1622759929.3954754,-23.926,-34.668,-36.621,1.0,1.0
1622759929.399382,-11.23,-28.32,-30.761999999999997,1.0,1.0
1622759929.4032884,-30.273000000000003,-30.761999999999997,-35.156,1.0,1.0
1622759929.4071941,-39.551,-42.48,-37.598,1.0,1.0
1622759929.4111009,-11.719000000000001,-34.18,-35.156,1.0,1.0
1622759929.415007,0.488,-26.855,-33.691,1.0,1.0
1622759929.4189134,-16.113,-39.062,-39.062,1.0,1.0
1622759929.4228196,-38.574,-49.805,-42.48,1.0,1.0
1622759929.4267259,-33.691,-45.898,-34.668,-48.34,1.0
1622759929.430632,-6.836,-29.785,-24.901999999999997,13.672,1.0
1622759929.4345384,-17.578,-26.366999999999997,-30.273000000000003,-10.742,1.0
1622759929.4384446,-39.062,-43.945,-36.133,-71.777,1.0
1622759929.4423509,-39.062,-50.293,-39.551,-64.453,1.0
1622759929.446257,-20.508000000000003,-30.273000000000003,-33.203,-2.441,1.0
1622759929.4501634,-10.742,-26.855,-31.25,5.371,1.0
1622759929.4540699,-38.086,-44.922,-39.062,-65.918,1.0
1622759929.4579759,-57.617,-43.457,-40.527,-86.914,1.0
1622759929.461882,-35.156,-37.109,-37.109,-22.461,1.0
1622759929.4657884,-12.207,-30.273000000000003,-31.25,2.441,1.0
1622759929.4696946,-26.366999999999997,-31.738000000000003,-31.738000000000003,-49.316,1.0
1622759929.4736009,-38.086,-32.715,-35.645,-47.852,1.0
1622759929.477507,-47.852,-36.621,-35.645,-61.035,1.0
1622759929.481413,-30.761999999999997,-27.344,-34.18,-5.371,1.0
1622759929.4853199,-10.254000000000001,-23.926,-23.926,30.761999999999997,1.0
1622759929.4892254,-27.831999999999997,-33.691,-24.901999999999997,-19.531,1.0
1622759929.4931324,-53.711000000000006,-41.016000000000005,-32.715,-62.5,1.0
1622759929.497038,-42.48,-29.785,-26.855,-20.508000000000003,1.0
1622759929.5009441,-25.879,-22.949,-23.926,23.438000000000002,1.0
1622759929.504851,-32.715,-34.668,-29.785,-16.113,1.0
1622759929.508757,-48.828,-45.41,-37.598,-72.75399999999999,1.0
1622759929.512663,-35.156,-40.039,-33.691,-48.34,1.0
1622759929.5165696,-12.207,-26.855,-24.901999999999997,14.648,1.0
1622759929.5204754,-23.438000000000002,-26.366999999999997,-27.831999999999997,1.0,1.0
1622759929.524382,-51.27,-39.062,-40.039,1.0,1.0
1622759929.5282884,-52.246,-42.48,-39.062,1.0,1.0
1622759929.5321946,-20.02,-29.296999999999997,-27.344,1.0,1.0
1622759929.5361009,-10.742,-21.973000000000003,-23.926,1.0,1.0
1622759929.540007,-34.668,-30.761999999999997,-29.785,1.0,1.0
1622759929.5439134,-41.016000000000005,-42.968999999999994,-31.738000000000003,1.0,1.0
1622759929.5478196,-29.296999999999997,-34.18,-24.901999999999997,1.0,1.0
1622759929.5517254,-30.761999999999997,-26.366999999999997,-22.461,1.0,1.0
1622759929.555632,-31.738000000000003,-32.715,-27.831999999999997,1.0,1.0
1622759929.5595384,-37.598,-40.527,-29.296999999999997,1.0,1.0
1622759929.5634446,-39.062,-37.109,-22.949,1.0,1.0
1622759929.5673509,-26.855,-29.296999999999997,-24.901999999999997,12.207,1.0
1622759929.571257,-30.273000000000003,-31.738000000000003,-32.227,-10.254000000000001,1.0
1622759929.5751634,-49.316,-47.852,-37.109,-66.406,1.0
1622759929.5790696,-40.039,-38.574,-31.738000000000003,-46.875,1.0
1622759929.5829759,-12.695,-26.855,-24.901999999999997,17.09,1.0
1622759929.586882,-15.625,-30.761999999999997,-27.831999999999997,9.277000000000001,1.0
1622759929.5907884,-44.434,-39.551,-36.621,-60.547,1.0
1622759929.5946946,-52.246,-42.48,-39.062,-73.73,1.0
1622759929.598601,-15.625,-30.761999999999997,-28.809,-2.93,1.0
1622759929.602507,-7.324,-31.738000000000003,-26.855,22.949,1.0
1622759929.606413,-30.273000000000003,-36.621,-30.761999999999997,-41.504,1.0
1622759929.6103199,-39.062,-44.922,-32.715,-74.219,1.0
1622759929.6142254,-43.945,-44.922,-38.086,-72.266,1.0
1622759929.6181316,-28.32,-29.296999999999997,-35.156,-22.461,1.0
1622759929.622038,-13.184000000000001,-30.761999999999997,-41.016000000000005,-1.465,1.0
1622759929.6259441,-23.926,-38.086,-41.992,-52.246,1.0
1622759929.629851,-46.875,-44.922,-39.062,-84.961,1.0
1622759929.633757,-27.831999999999997,-36.133,-29.296999999999997,-33.691,1.0
1622759929.6376634,-15.625,-25.391,-29.785,7.812,1.0
1622759929.6415696,-26.366999999999997,-34.668,-38.086,-25.879,1.0
1622759929.6454754,-41.016000000000005,-43.945,-33.203,-72.75399999999999,1.0
1622759929.649382,-34.18,-38.086,-31.738000000000003,-43.945,1.0
1622759929.6532884,-4.883,-23.438000000000002,-25.391,22.949,1.0
1622759929.6571941,-18.066,-20.996,-28.809,7.324,1.0
1622759929.6611009,-27.831999999999997,-31.738000000000003,-31.738000000000003,-55.663999999999994,1.0
1622759929.665007,-47.852,-39.551,-33.691,-54.199,1.0
1622759929.6689134,-43.457,-35.156,-36.621,5.859,1.0
1622759929.6728196,-18.555,-22.461,-28.809,17.578,1.0
1622759929.6767259,-20.02,-24.414,-31.25,-44.922,1.0
1622759929.680632,-37.598,-26.366999999999997,-38.086,-63.477,1.0
1622759929.6845384,-42.968999999999994,-38.574,-39.062,0.0,1.0
1622759929.6884446,-28.32,-41.992,-34.668,29.785,1.0
1622759929.6923509,-15.625,-28.32,-33.691,-24.901999999999997,1.0
1622759929.696257,-35.156,-37.598,-42.48,-74.707,1.0
1622759929.7001634,-51.758,-49.316,-42.968999999999994,-30.761999999999997,1.0
1622759929.7040699,-31.25,-45.898,-36.133,22.461,1.0
1622759929.7079759,-20.02,-37.109,-32.715,1.0,1.0
1622759929.711882,-33.203,-39.062,-36.621,1.0,1.0
1622759929.7157884,-48.34,-46.875,-34.668,1.0,1.0
1622759929.7196946,-45.898,-42.48,-31.25,1.0,1.0
1622759929.7236009,-25.879,-30.761999999999997,-26.366999999999997,1.0,1.0
1622759929.727507,-20.996,-30.761999999999997,-26.855,1.0,1.0
1622759929.731413,-32.227,-35.156,-34.18,1.0,1.0
1622759929.7353199,-32.227,-29.296999999999997,-34.18,1.0,1.0
1622759929.7392254,-34.18,-25.391,-33.203,1.0,1.0
1622759929.7431324,-28.32,-32.715,-33.691,1.0,1.0
1622759929.747038,-37.109,-37.109,-32.715,1.0,1.0
1622759929.7509441,-36.621,-34.668,-31.25,1.0,1.0
1622759929.754851,-20.996,-26.855,-23.438000000000002,-11.23,1.0
1622759929.758757,-16.602,-18.555,-16.113,10.254000000000001,1.0
1622759929.762663,-21.973000000000003,-25.391,-20.02,-40.527,1.0
1622759929.7665696,-39.062,-38.086,-26.855,-74.707,1.0
1622759929.7704754,-38.574,-34.668,-31.25,-33.691,1.0
1622759929.774382,-21.484,-20.996,-27.344,11.23,1.0
1622759929.7782884,-25.879,-27.344,-33.691,-25.391,1.0
1622759929.7821946,-50.293,-48.34,-43.457,-86.914,1.0
1622759929.7861009,-50.781000000000006,-46.387,-38.574,-52.733999999999995,1.0
1622759929.790007,-22.949,-28.32,-30.761999999999997,22.949,1.0
1622759929.7939134,-20.02,-20.02,-29.785,-2.441,1.0
1622759929.7978196,-41.992,-34.668,-31.738000000000003,-61.035,1.0
1622759929.8017254,-44.434,-35.156,-37.109,-74.707,1.0
1622759929.805632,-36.133,-33.203,-35.156,-43.945,1.0
1622759929.8095384,-17.578,-34.18,-28.32,19.531,1.0
1622759929.8134446,-17.09,-30.761999999999997,-28.32,9.766,1.0
1622759929.8173509,-36.133,-40.527,-34.18,-58.105,1.0
1622759929.821257,-43.945,-42.48,-38.574,-59.082,1.0
1622759929.8251634,-32.227,-28.809,-33.691,2.441,1.0
1622759929.8290696,-27.344,-38.574,-32.715,8.301,1.0
1622759929.8329759,-36.133,-44.434,-33.691,-45.898,1.0
1622759929.836882,-44.434,-44.922,-39.062,-68.359,1.0
1622759929.8407884,-30.761999999999997,-39.062,-38.574,-13.672,1.0
1622759929.8446946,-11.719000000000001,-29.296999999999997,-34.668,14.648,1.0
1622759929.848601,-16.113,-33.691,-38.574,1.0,1.0
1622759929.852507,-42.48,-42.48,-39.062,1.0,1.0
1622759929.856413,-40.039,-39.551,-38.086,1.0,1.0
1622759929.8603199,-17.09,-27.344,-36.133,1.0,1.0
1622759929.8642254,-29.296999999999997,-28.32,-34.18,1.0,1.0
1622759929.8681316,-55.176,-39.062,-39.062,1.0,1.0
1622759929.872038,-45.41,-39.062,-40.039,1.0,1.0
1622759929.8759441,-25.391,-29.785,-34.18,1.0,1.0
1622759929.879851,-27.831999999999997,-32.715,-31.738000000000003,1.0,1.0
1622759929.883757,-38.574,-43.945,-34.18,1.0,1.0
1622759929.8876634,-46.387,-45.898,-36.133,1.0,1.0
1622759929.8915696,-25.879,-28.809,-31.25,1.0,1.0
1622759929.8954754,-13.672,-24.414,-32.227,1.0,1.0
1622759929.899382,-37.109,-36.621,-46.875,1.0,1.0
1622759929.9032884,-55.176,-40.039,-49.316,1.0,1.0
1622759929.9071941,-36.621,-36.621,-40.527,1.0,1.0
1622759929.9111009,-19.043,-24.414,-35.156,1.0,1.0
1622759929.915007,-32.227,-24.901999999999997,-37.109,1.0,1.0
1622759929.9189134,-46.387,-40.527,-41.992,1.0,1.0
1622759929.9228196,-42.968999999999994,-39.551,-41.992,1.0,1.0
1622759929.9267259,-26.366999999999997,-35.156,-42.968999999999994,1.0,1.0
1622759929.930632,-28.809,-36.133,-44.434,1.0,1.0
1622759929.9345384,-42.48,-40.039,-41.504,1.0,1.0
1622759929.9384446,-44.434,-38.086,-38.086,1.0,1.0
1622759929.9423509,-30.761999999999997,-32.715,-36.621,-2.441,1.0
1622759929.946257,-15.625,-25.879,-31.738000000000003,3.906,1.0
1622759929.9501634,-29.785,-32.715,-30.761999999999997,-58.593999999999994,1.0
1622759929.9540699,-42.48,-41.016000000000005,-33.203,-71.777,1.0
1622759929.9579759,-24.414,-33.203,-29.785,-13.672,1.0
1622759929.961882,-8.301,-18.555,-18.066,14.648,1.0
1622759929.9657884,-27.831999999999997,-28.809,-24.414,-33.691,1.0
1622759929.9696946,-49.316,-42.968999999999994,-37.598,-72.266,1.0
1622759929.9736009,-38.574,-30.273000000000003,-31.25,-27.831999999999997,1.0
1622759929.977507,-24.414,-23.438000000000002,-26.366999999999997,17.578,1.0
1622759929.981413,-31.738000000000003,-31.738000000000003,-31.738000000000003,-24.414,1.0
1622759929.9853199,-47.852,-40.527,-32.715,-82.031,1.0
1622759929.9892254,-39.551,-32.227,-23.926,-51.27,1.0
1622759929.9931324,-16.602,-26.855,-25.879,0.0,1.0
1622759929.997038,-14.648,-29.785,-34.18,-16.113,1.0
1622759930.0009441,-44.434,-37.109,-41.016000000000005,-73.73,1.0
1622759930.004851,-40.039,-38.086,-37.109,-67.87100000000001,1.0
1622759930.008757,-10.742,-22.949,-28.809,-0.488,1.0
1622759930.012663,-14.648,-23.926,-29.785,4.395,1.0
1622759930.0165696,-40.527,-46.875,-35.645,-62.012,1.0
1622759930.0204754,-50.293,-48.34,-35.645,-84.961,1.0
1622759930.024382,-28.32,-32.227,-30.273000000000003,-20.996,1.0
1622759930.0282884,-6.836,-26.366999999999997,-27.344,16.113,1.0
1622759930.0321946,-32.227,-33.203,-31.738000000000003,-36.621,1.0
1622759930.0361009,-30.273000000000003,-46.875,-36.133,-80.078,1.0
1622759930.040007,-28.809,-44.922,-28.32,-31.25,1.0
1622759930.0439134,-34.18,-30.273000000000003,-29.785,24.414,1.0
1622759930.0478196,-11.719000000000001,-25.391,-30.273000000000003,-11.23,1.0
1622759930.0517254,-20.996,-25.879,-32.227,-70.312,1.0
1622759930.055632,-44.922,-24.901999999999997,-40.039,-49.316,1.0
1622759930.0595384,-36.133,-22.461,-35.645,19.531,1.0
1622759930.0634446,-21.484,-23.926,-34.18,12.207,1.0
1622759930.0673509,-14.16,-25.879,-36.133,-62.012,1.0
1622759930.071257,-33.203,-34.668,-36.621,-62.988,1.0
1622759930.0751634,-40.039,-32.227,-39.551,6.836,1.0
1622759930.0790696,-17.578,-26.366999999999997,-34.18,17.578,1.0
1622759930.0829759,-16.113,-30.761999999999997,-34.18,1.0,1.0
1622759930.086882,-40.039,-38.086,-39.062,1.0,1.0
1622759930.0907884,-47.363,-41.504,-41.016000000000005,1.0,1.0
1622759930.0946946,-27.344,-30.273000000000003,-37.109,1.0,1.0
1622759930.098601,-9.277000000000001,-17.578,-27.831999999999997,1.0,1.0
1622759930.102507,-23.926,-19.531,-29.296999999999997,1.0,1.0
1622759930.106413,-37.109,-26.855,-34.18,1.0,1.0
1622759930.1103199,-19.531,-19.531,-29.785,1.0,1.0
1622759930.1142254,-15.625,-20.02,-28.809,1.0,1.0
1622759930.1181316,-37.109,-30.273000000000003,-34.18,1.0,1.0
1622759930.122038,-44.922,-42.48,-36.133,1.0,1.0
1622759930.1259441,-29.785,-35.645,-30.761999999999997,1.0,1.0
1622759930.129851,-18.555,-22.949,-24.901999999999997,27.344,1.0
1622759930.133757,-27.831999999999997,-32.715,-25.879,9.277000000000001,1.0
1622759930.1376634,-43.945,-44.434,-31.25,-46.875,1.0
1622759930.1415696,-35.645,-39.551,-28.809,-37.598,1.0
1622759930.1454754,-12.695,-23.926,-17.578,26.855,1.0
1622759930.149382,-8.789,-17.09,-20.996,29.296999999999997,1.0
1622759930.1532884,-25.879,-28.809,-34.18,-43.945,1.0
1622759930.1571941,-37.109,-43.945,-36.133,-62.5,1.0
1622759930.1611009,-18.555,-29.785,-27.344,5.859,1.0
1622759930.165007,-1.953,-19.531,-23.926,31.25,1.0
1622759930.1689134,-34.18,-33.691,-32.227,-41.016000000000005,1.0
1622759930.1728196,-49.805,-47.363,-35.156,-75.684,1.0
1622759930.1767259,-37.598,-42.48,-41.992,-71.777,1.0
1622759930.180632,-24.414,-29.785,-33.691,-15.625,1.0
1622759930.1845384,-18.066,-20.996,-33.203,10.742,1.0
1622759930.1884446,-17.09,-34.18,-29.785,-31.25,1.0
1622759930.1923509,-29.785,-42.968999999999994,-30.273000000000003,-66.895,1.0
1622759930.196257,-24.901999999999997,-30.273000000000003,-33.203,-27.831999999999997,1.0
1622759930.2001634,-10.254000000000001,-23.926,-34.18,19.531,1.0
1622759930.2040699,-21.973000000000003,-42.48,-38.574,-16.113,1.0
1622759930.2079759,-37.598,-48.34,-39.062,-73.73,1.0
1622759930.211882,-38.086,-43.945,-38.086,-59.57,1.0
1622759930.2157884,-18.555,-36.133,-33.691,4.883,1.0
1622759930.2196946,-14.16,-35.645,-33.691,0.977,1.0
1622759930.2236009,-16.602,-26.855,-31.738000000000003,-1.465,1.0
1622759930.227507,-36.133,-37.109,-39.062,-70.312,1.0
1622759930.231413,-38.574,-36.621,-38.086,-62.988,1.0
1622759930.2353199,-13.184000000000001,-20.02,-29.785,8.789,1.0
1622759930.2392254,-4.395,-14.16,-25.879,10.254000000000001,1.0
1622759930.2431324,-32.715,-21.973000000000003,-31.25,-53.223,1.0
1622759930.247038,-44.434,-35.645,-37.598,-68.848,1.0
1622759930.2509441,-28.809,-40.039,-37.109,-10.742,1.0
1622759930.254851,-18.555,-27.344,-28.809,17.578,1.0
1622759930.258757,-31.738000000000003,-28.809,-29.785,-36.133,1.0
1622759930.262663,-49.316,-41.992,-36.621,-72.75399999999999,1.0
1622759930.2665696,-38.086,-34.668,-32.227,-15.625,1.0
1622759930.2704754,-13.672,-24.901999999999997,-26.855,1.0,1.0
1622759930.274382,-20.996,-36.133,-31.25,1.0,1.0
1622759930.2782884,-53.223,-49.316,-31.25,1.0,1.0
1622759930.2821946,-43.945,-38.574,-28.32,1.0,1.0
1622759930.2861009,-11.719000000000001,-24.414,-26.855,1.0,1.0
1622759930.290007,-17.09,-23.438000000000002,-31.738000000000003,1.0,1.0
1622759930.2939134,-44.434,-34.668,-34.668,1.0,1.0
1622759930.2978196,-41.504,-40.527,-33.691,1.0,1.0
1622759930.3017254,-12.207,-29.785,-30.761999999999997,1.0,1.0
1622759930.305632,-17.09,-31.738000000000003,-35.645,1.0,1.0
1622759930.3095384,-46.875,-45.41,-41.504,1.0,1.0
1622759930.3134446,-55.176,-45.41,-41.016000000000005,1.0,1.0
1622759930.3173509,-37.109,-32.227,-41.992,-19.531,1.0
1622759930.321257,-20.508000000000003,-27.831999999999997,-38.574,11.23,1.0
1622759930.3251634,-37.109,-39.551,-41.992,-39.551,1.0
1622759930.3290696,-53.711000000000006,-42.968999999999994,-40.039,-76.172,1.0
1622759930.3329759,-40.039,-30.273000000000003,-32.715,-34.668,1.0
1622759930.336882,-19.043,-19.531,-30.273000000000003,11.719000000000001,1.0
1622759930.3407884,-28.809,-28.32,-43.457,-26.855,1.0
1622759930.3446946,-50.293,-44.922,-54.199,-83.984,1.0
1622759930.348601,-48.34,-41.016000000000005,-43.457,-56.152,1.0
1622759930.352507,-24.414,-30.273000000000003,-34.18,11.719000000000001,1.0
1622759930.356413,-11.23,-28.32,-34.668,5.859,1.0
1622759930.3603199,-47.363,-42.968999999999994,-39.551,-69.824,1.0
1622759930.3642254,-43.945,-48.828,-33.203,-77.637,1.0
1622759930.3681316,-47.852,-41.504,-33.203,-58.105,1.0
1622759930.372038,-32.715,-40.039,-34.668,-1.953,1.0
1622759930.3759441,-25.879,-39.551,-37.109,-5.371,1.0
1622759930.379851,-43.945,-41.992,-33.691,-61.523,1.0
1622759930.383757,-48.828,-43.945,-29.785,-67.383,1.0
1622759930.3876634,-27.831999999999997,-38.574,-26.366999999999997,-5.859,1.0
1622759930.3915696,-22.461,-35.645,-24.901999999999997,13.184000000000001,1.0
1622759930.3954754,-41.016000000000005,-38.086,-25.879,-47.852,1.0
1622759930.399382,-51.27,-45.898,-23.926,-73.242,1.0
1622759930.4032884,-39.062,-41.992,-23.438000000000002,-15.137,1.0
1622759930.4071941,-31.738000000000003,-32.227,-29.296999999999997,15.625,1.0
1622759930.4111009,-40.527,-40.039,-33.691,1.0,1.0
1622759930.415007,-50.781000000000006,-46.875,-32.227,1.0,1.0
1622759930.4189134,-40.527,-37.598,-29.296999999999997,1.0,1.0
1622759930.4228196,-21.484,-25.879,-22.949,1.0,1.0
1622759930.4267259,-22.949,-26.855,-19.043,1.0,1.0
1622759930.430632,-44.434,-33.691,-26.855,1.0,1.0
1622759930.4345384,-43.945,-39.551,-31.738000000000003,1.0,1.0
1622759930.4384446,-26.855,-36.133,-31.738000000000003,1.0,1.0
1622759930.4423509,-24.414,-31.25,-30.761999999999997,1.0,1.0
1622759930.446257,-44.434,-42.48,-33.691,1.0,1.0
1622759930.4501634,-52.733999999999995,-47.852,-36.621,1.0,1.0
1622759930.4540699,-40.039,-39.062,-27.344,1.0,1.0
1622759930.4579759,-32.715,-30.761999999999997,-22.949,1.0,1.0
1622759930.461882,-49.316,-34.668,-30.761999999999997,1.0,1.0
1622759930.4657884,-58.105,-47.852,-34.18,1.0,1.0
1622759930.4696946,-39.062,-37.598,-27.831999999999997,1.0,1.0
1622759930.4736009,-17.09,-28.32,-22.949,1.0,1.0
1622759930.477507,-17.578,-24.901999999999997,-24.414,1.0,1.0
1622759930.481413,-50.293,-27.831999999999997,-40.527,1.0,1.0
1622759930.4853199,-32.227,-36.133,-36.133,1.0,1.0
1622759930.4892254,4.883,-24.901999999999997,-21.484,1.0,1.0
1622759930.4931324,-13.672,-28.809,-30.761999999999997,1.0,1.0
1622759930.497038,-36.133,-41.504,-36.133,1.0,1.0
1622759930.5009441,-45.898,-37.109,-32.715,1.0,1.0
1622759930.504851,-29.785,-26.366999999999997,-33.203,1.0,1.0
1622759930.508757,-14.16,-20.02,-29.296999999999997,1.0,1.0
1622759930.512663,-30.761999999999997,-34.18,-32.227,1.0,1.0
1622759930.5165696,-48.34,-38.574,-33.203,1.0,1.0
1622759930.5204754,-30.761999999999997,-18.066,-24.901999999999997,1.0,1.0
1622759930.524382,-13.672,-15.625,-20.508000000000003,1.0,1.0
1622759930.5282884,-35.645,-30.273000000000003,-29.296999999999997,1.0,1.0
1622759930.5321946,-62.988,-40.527,-40.039,1.0,1.0
1622759930.5361009,-49.805,-38.086,-37.109,1.0,1.0
1622759930.540007,-27.344,-25.391,-32.715,1.0,1.0
1622759930.5439134,-31.25,-32.715,-30.273000000000003,1.0,1.0
1622759930.5478196,-31.25,-40.527,-30.761999999999997,1.0,1.0
1622759930.5517254,-27.831999999999997,-39.062,-39.551,-47.363,1.0
1622759930.555632,-17.578,-28.809,-39.551,10.254000000000001,1.0
1622759930.5595384,-19.531,-36.621,-38.574,-4.395,1.0
1622759930.5634446,-36.133,-47.363,-38.086,-66.895,1.0
1622759930.5673509,-43.457,-42.968999999999994,-34.18,-62.988,1.0
1622759930.571257,-26.366999999999997,-34.668,-26.366999999999997,3.906,1.0
1622759930.5751634,-18.555,-27.831999999999997,-27.344,13.672,1.0
1622759930.5790696,-44.434,-49.805,-42.48,-58.105,1.0
1622759930.5829759,-56.641000000000005,-58.105,-44.922,-83.984,1.0
1622759930.586882,-22.949,-32.227,-33.203,-24.414,1.0
1622759930.5907884,-10.254000000000001,-31.25,-28.809,10.254000000000001,1.0
1622759930.5946946,-27.831999999999997,-44.434,-34.18,-35.645,1.0
1622759930.598601,-41.504,-35.156,-31.738000000000003,-90.33200000000001,1.0
1622759930.602507,-51.758,-44.922,-34.18,-60.059,1.0
1622759930.606413,-37.109,-37.109,-32.227,-9.766,1.0
1622759930.6103199,-26.366999999999997,-16.602,-26.366999999999997,-39.062,1.0
1622759930.6142254,-39.062,-24.414,-30.273000000000003,-97.16799999999999,1.0
1622759930.6181316,-51.27,-41.016000000000005,-38.086,-73.242,1.0
1622759930.622038,-38.086,-42.48,-30.273000000000003,-10.742,1.0
1622759930.6259441,-15.625,-33.691,-21.484,-17.578,1.0
1622759930.629851,-15.625,-26.855,-25.391,-73.242,1.0
1622759930.633757,-45.41,-35.156,-33.691,-79.59,1.0
1622759930.6376634,-44.434,-39.062,-34.668,-12.695,1.0
1622759930.6415696,-16.113,-31.738000000000003,-30.761999999999997,5.859,1.0
1622759930.6454754,-12.695,-28.809,-30.761999999999997,1.0,1.0
1622759930.649382,-21.973000000000003,-34.18,-33.203,1.0,1.0
1622759930.6532884,-30.273000000000003,-34.668,-33.691,1.0,1.0
1622759930.6571941,-17.09,-26.366999999999997,-28.32,1.0,1.0
1622759930.6611009,-5.859,-25.879,-31.25,1.0,1.0
1622759930.665007,-24.901999999999997,-32.227,-41.016000000000005,1.0,1.0
1622759930.6689134,-30.273000000000003,-32.715,-40.039,1.0,1.0
1622759930.6728196,-19.531,-22.461,-37.109,1.0,1.0
1622759930.6767259,-9.766,-25.879,-34.668,1.0,1.0
1622759930.680632,-19.043,-34.668,-35.156,1.0,1.0
1622759930.6845384,-38.574,-47.363,-41.504,1.0,1.0
1622759930.6884446,-37.598,-47.852,-37.598,1.0,1.0
1622759930.6923509,-17.578,-28.809,-29.785,13.672,1.0
1622759930.696257,-19.531,-33.203,-31.25,2.93,1.0
1622759930.7001634,-47.363,-51.758,-39.551,-57.617,1.0
1622759930.7040699,-47.852,-42.48,-37.109,-55.663999999999994,1.0
1622759930.7079759,-17.578,-22.949,-26.366999999999997,17.09,1.0
1622759930.711882,-16.113,-22.949,-25.879,23.438000000000002,1.0
1622759930.7157884,-41.016000000000005,-35.156,-30.273000000000003,-46.387,1.0
1622759930.7196946,-51.758,-43.945,-34.668,-69.824,1.0
1622759930.7236009,-26.855,-29.296999999999997,-29.296999999999997,-6.836,1.0
1622759930.727507,-6.348,-15.625,-23.926,32.227,1.0
1622759930.731413,-21.484,-26.366999999999997,-30.273000000000003,-24.901999999999997,1.0
1622759930.7353199,-38.574,-36.621,-36.133,-76.66,1.0
1622759930.7392254,-41.992,-34.18,-34.668,-74.707,1.0
1622759930.7431324,-31.738000000000003,-29.296999999999997,-33.691,-26.855,1.0
1622759930.747038,-21.484,-24.414,-30.761999999999997,15.625,1.0
1622759930.7509441,-29.296999999999997,-37.109,-36.621,-24.414,1.0
1622759930.754851,-48.34,-43.945,-41.016000000000005,-78.613,1.0
1622759930.758757,-31.738000000000003,-26.366999999999997,-34.18,-31.738000000000003,1.0
1622759930.762663,-4.883,-18.066,-22.949,28.809,1.0
1622759930.7665696,-16.602,-29.785,-26.366999999999997,-7.812,1.0
1622759930.7704754,-39.551,-34.18,-32.715,-69.336,1.0
1622759930.774382,-33.203,-40.039,-29.296999999999997,-52.246,1.0
1622759930.7782884,0.0,-27.344,-23.438000000000002,17.578,1.0
1622759930.7821946,3.418,-21.484,-21.484,14.16,1.0
1622759930.7861009,-26.366999999999997,-37.109,-40.039,-62.988,1.0
1622759930.790007,-46.875,-49.805,-41.016000000000005,-71.289,1.0
1622759930.7939134,-47.852,-50.781000000000006,-42.968999999999994,-7.812,1.0
1622759930.7978196,-20.02,-29.296999999999997,-35.645,12.695,1.0
1622759930.8017254,-14.16,-27.831999999999997,-28.32,-54.199,1.0
1622759930.805632,-31.738000000000003,-39.551,-28.809,-88.867,1.0
1622759930.8095384,-32.715,-39.551,-29.296999999999997,-30.761999999999997,1.0
1622759930.8134446,-26.855,-39.551,-29.785,5.859,1.0
1622759930.8173509,-20.508000000000003,-32.715,-30.273000000000003,-39.062,1.0
1622759930.821257,-32.715,-41.504,-37.109,-82.031,1.0
1622759930.8251634,-51.27,-52.246,-38.086,-46.875,1.0
1622759930.8290696,-33.691,-38.574,-30.761999999999997,4.883,1.0
1622759930.8329759,-15.625,-28.809,-26.855,1.0,1.0
1622759930.836882,-31.25,-33.203,-37.598,1.0,1.0
1622759930.8407884,-42.48,-41.992,-42.48,1.0,1.0
1622759930.8446946,-26.366999999999997,-35.645,-31.738000000000003,1.0,1.0
1622759930.848601,-11.23,-25.879,-30.273000000000003,1.0,1.0
1622759930.852507,-10.742,-23.438000000000002,-30.273000000000003,1.0,1.0
1622759930.856413,-31.738000000000003,-32.715,-31.738000000000003,1.0,1.0
1622759930.8603199,-41.016000000000005,-31.738000000000003,-35.156,1.0,1.0
1622759930.8642254,-19.531,-22.461,-29.296999999999997,1.0,1.0
1622759930.8681316,-17.09,-29.296999999999997,-27.831999999999997,1.0,1.0
1622759930.872038,-39.062,-39.062,-36.621,1.0,1.0
1622759930.8759441,-54.199,-44.434,-41.016000000000005,1.0,1.0
1622759930.879851,-33.691,-36.133,-40.527,-19.531,1.0
1622759930.883757,-16.113,-30.273000000000003,-33.691,12.695,1.0
1622759930.8876634,-35.156,-36.621,-35.156,-37.109,1.0
1622759930.8915696,-48.828,-43.945,-40.039,-75.684,1.0
1622759930.8954754,-31.738000000000003,-39.551,-33.203,-30.273000000000003,1.0
1622759930.899382,-17.578,-25.879,-27.344,18.555,1.0
1622759930.9032884,-27.344,-35.645,-34.18,-20.508000000000003,1.0
1622759930.9071941,-47.852,-48.828,-39.062,-74.707,1.0
1622759930.9111009,-45.898,-35.645,-36.621,-53.223,1.0
1622759930.915007,-20.508000000000003,-27.344,-29.296999999999997,8.301,1.0
1622759930.9189134,-12.695,-26.366999999999997,-25.391,4.395,1.0
1622759930.9228196,-31.738000000000003,-30.273000000000003,-27.831999999999997,-55.176,1.0
1622759930.9267259,-46.875,-38.574,-36.621,-70.312,1.0
1622759930.930632,-47.363,-37.109,-33.203,-58.105,1.0
1622759930.9345384,-23.926,-27.344,-24.414,13.184000000000001,1.0
1622759930.9384446,-12.207,-19.043,-17.578,17.09,1.0
1622759930.9423509,-35.156,-23.926,-20.996,-53.223,1.0
1622759930.946257,-38.574,-24.414,-20.02,-62.012,1.0
1622759930.9501634,-12.695,-11.23,-15.625,0.977,1.0
1622759930.9540699,-18.066,-15.137,-23.438000000000002,16.602,1.0
1622759930.9579759,-39.062,-31.25,-32.715,-42.48,1.0
1622759930.961882,-49.316,-42.968999999999994,-38.086,-78.613,1.0
1622759930.9657884,-31.25,-30.761999999999997,-30.273000000000003,-25.391,1.0
1622759930.9696946,-10.254000000000001,-17.09,-24.414,21.484,1.0
1622759930.9736009,-24.414,-28.809,-30.273000000000003,1.0,1.0
1622759930.977507,-41.504,-42.48,-36.133,1.0,1.0
1622759930.981413,-33.691,-33.203,-34.668,1.0,1.0
1622759930.9853199,-3.906,-20.508000000000003,-29.785,1.0,1.0
1622759930.9892254,-15.625,-21.973000000000003,-33.691,1.0,1.0
1622759930.9931324,-39.551,-28.809,-38.574,1.0,1.0
1622759930.997038,-20.996,-26.366999999999997,-29.296999999999997,1.0,1.0
1622759931.0009441,-9.277000000000001,-20.02,-24.414,1.0,1.0
1622759931.004851,-18.066,-22.949,-30.761999999999997,1.0,1.0
1622759931.008757,-40.039,-29.296999999999997,-38.574,1.0,1.0
1622759931.012663,-50.781000000000006,-36.133,-35.156,1.0,1.0
1622759931.0165696,-30.273000000000003,-29.785,-24.901999999999997,1.0,1.0
1622759931.0204754,-22.949,-25.879,-25.391,1.0,1.0
1622759931.024382,-44.922,-41.992,-31.25,1.0,1.0
1622759931.0282884,-59.082,-51.758,-35.645,1.0,1.0
1622759931.0321946,-53.223,-40.039,-35.645,1.0,1.0
1622759931.0361009,-31.738000000000003,-30.273000000000003,-26.366999999999997,1.0,1.0
1622759931.040007,-22.949,-29.296999999999997,-27.831999999999997,1.0,1.0
1622759931.0439134,-41.016000000000005,-33.691,-34.668,1.0,1.0
1622759931.0478196,-38.086,-34.668,-31.25,1.0,1.0
1622759931.0517254,-14.16,-29.296999999999997,-22.949,1.0,1.0
1622759931.055632,-10.742,-29.296999999999997,-22.949,1.0,1.0
1622759931.0595384,-27.344,-42.968999999999994,-30.761999999999997,1.0,1.0
1622759931.0634446,-31.738000000000003,-44.434,-31.25,1.0,1.0
1622759931.0673509,-19.043,-32.227,-27.831999999999997,1.465,1.0
1622759931.071257,-17.09,-29.785,-28.32,15.137,1.0
1622759931.0751634,-34.18,-37.109,-35.156,-45.41,1.0
1622759931.0790696,-43.457,-39.062,-38.574,-67.87100000000001,1.0
1622759931.0829759,-34.18,-30.761999999999997,-36.133,-4.395,1.0
1622759931.086882,-22.949,-22.461,-34.18,29.296999999999997,1.0
1622759931.0907884,-25.391,-25.391,-35.156,-20.996,1.0
1622759931.0946946,-38.086,-31.738000000000003,-33.691,-63.965,1.0
1622759931.098601,-30.273000000000003,-35.156,-25.391,-21.973000000000003,1.0
1622759931.102507,-13.184000000000001,-26.855,-20.02,29.785,1.0
1622759931.106413,-20.02,-30.273000000000003,-23.438000000000002,-1.465,1.0
1622759931.1103199,-38.574,-44.434,-29.785,-61.523,1.0
1622759931.1142254,-32.715,-32.227,-22.949,-44.434,1.0
1622759931.1181316,-8.789,-23.438000000000002,-13.672,11.23,1.0
1622759931.122038,-16.113,-27.831999999999997,-22.949,0.0,1.0
1622759931.1259441,-39.551,-33.691,-30.273000000000003,-54.199,1.0
1622759931.129851,-42.968999999999994,-34.668,-29.785,-62.012,1.0
1622759931.133757,-18.066,-21.973000000000003,-28.32,-2.441,1.0
1622759931.1376634,-2.441,-13.672,-25.391,18.066,1.0
1622759931.1415696,-21.973000000000003,-27.344,-31.25,-44.434,1.0
1622759931.1454754,-39.062,-33.203,-35.645,-74.707,1.0
1622759931.149382,-35.156,-26.855,-30.273000000000003,-23.438000000000002,1.0
1622759931.1532884,-17.09,-25.879,-26.855,16.113,1.0
1622759931.1571941,-21.484,-33.203,-30.761999999999997,-25.879,1.0
1622759931.1611009,-22.461,-30.761999999999997,-26.366999999999997,-67.87100000000001,1.0
1622759931.165007,-39.062,-42.968999999999994,-31.738000000000003,-34.18,1.0
1622759931.1689134,-33.203,-41.504,-27.344,14.648,1.0
1622759931.1728196,-17.09,-25.391,-23.926,-3.906,1.0
1622759931.1767259,-29.785,-28.809,-28.809,-69.824,1.0
1622759931.180632,-55.176,-38.574,-32.715,-61.523,1.0
1622759931.1845384,-36.133,-33.203,-28.32,7.812,1.0
1622759931.1884446,-18.555,-33.691,-31.738000000000003,11.23,1.0
1622759931.1923509,-30.273000000000003,-36.621,-35.645,-52.246,1.0
1622759931.196257,-44.434,-41.992,-35.645,-64.941,1.0
1622759931.2001634,-42.968999999999994,-34.668,-32.227,-9.277000000000001,1.0
1622759931.2040699,-17.578,-26.366999999999997,-30.273000000000003,16.602,1.0
1622759931.2079759,-14.16,-31.25,-29.296999999999997,6.836,1.0
1622759931.211882,-35.156,-34.18,-29.785,-50.293,1.0
1622759931.2157884,-40.527,-37.109,-28.809,-67.87100000000001,1.0
1622759931.2196946,-28.809,-30.273000000000003,-23.438000000000002,-8.301,1.0
1622759931.2236009,-20.508000000000003,-21.973000000000003,-25.879,17.578,1.0
1622759931.227507,-33.203,-30.761999999999997,-30.761999999999997,-33.203,1.0
1622759931.231413,-46.387,-38.086,-32.227,-76.172,1.0
1622759931.2353199,-21.973000000000003,-26.855,-26.855,-28.809,1.0
1622759931.2392254,-2.93,-17.09,-23.438000000000002,21.973000000000003,1.0
1622759931.2431324,-27.831999999999997,-21.973000000000003,-29.785,-26.855,1.0
