timestamps,TP9,AF7,AF8,TP10,Right AUX
1624332454.287992,-47.363,-37.109,-30.273000000000003,-71.777,1.0
1624332454.2918983,-28.809,-32.715,-45.898,-16.113,1.0
1624332454.2958045,-13.184000000000001,-26.855,-25.391,29.785,1.0
1624332454.2997108,-28.809,-31.738000000000003,-21.973000000000003,-25.391,1.0
1624332454.303617,-45.41,-14.648,-28.809,-62.988,1.0
1624332454.3075233,-4.395,-4.395,-47.852,2.93,1.0
1624332454.3114297,38.086,-47.363,-68.359,63.477,1.0
1624332454.3153358,20.508000000000003,-77.148,-48.828,14.648,1.0
1624332454.319242,1.465,-58.105,-24.901999999999997,-46.875,1.0
1624332454.3231483,-2.441,-15.625,-22.949,-22.949,1.0
1624332454.3270545,21.973000000000003,-5.371,-10.742,47.363,1.0
1624332454.3309608,23.926,-23.438000000000002,0.977,33.203,1.0
1624332454.334867,-36.133,-27.344,-20.508000000000003,1.0,1.0
1624332454.338773,-46.387,-24.901999999999997,-37.598,1.0,1.0
1624332454.3426797,-5.859,-13.184000000000001,-41.016000000000005,1.0,1.0
1624332454.3465855,0.977,-15.625,-38.574,1.0,1.0
1624332454.3504922,-19.043,-39.062,-50.293,1.0,1.0
1624332454.354398,-38.086,-42.968999999999994,-58.593999999999994,1.0,1.0
1624332454.3583043,-10.254000000000001,-15.625,-27.344,1.0,1.0
1624332454.362211,-0.977,4.883,-24.901999999999997,1.0,1.0
1624332454.366117,-47.852,-16.113,-25.879,1.0,1.0
1624332454.370023,-50.293,-26.855,-18.066,1.0,1.0
1624332454.3739295,-21.484,-28.809,-35.156,1.0,1.0
1624332454.3778355,9.766,-63.477,-24.901999999999997,1.0,1.0
1624332454.381742,-43.457,-68.848,-20.508000000000003,0.488,1.0
1624332454.3856483,-66.406,-55.663999999999994,-23.926,-68.848,1.0
1624332454.3895545,-100.586,-41.992,-65.918,-128.418,1.0
1624332454.3934608,-77.148,-46.387,-105.95700000000001,-68.848,1.0
1624332454.397367,-16.602,-22.949,-31.738000000000003,22.461,1.0
1624332454.4012733,-10.254000000000001,-9.277000000000001,37.598,1.953,1.0
1624332454.4051795,-59.57,-28.32,-3.906,-86.426,1.0
1624332454.4090855,-74.219,-37.598,-30.273000000000003,-69.336,1.0
1624332454.412992,-34.668,-38.086,-1.953,19.043,1.0
1624332454.4168983,-17.578,-47.363,17.578,20.508000000000003,1.0
1624332454.4208045,-63.965,-38.086,-20.996,-65.43,1.0
1624332454.4247108,-69.336,-3.418,-32.715,-62.988,1.0
1624332454.428617,-25.879,-39.062,-3.906,1.0,1.0
1624332454.4325233,0.977,-15.625,-20.996,1.0,1.0
1624332454.4364295,-8.789,7.324,-26.855,1.0,1.0
1624332454.4403358,-49.316,-26.366999999999997,-34.668,1.0,1.0
1624332454.444242,-71.289,-61.523,-35.645,1.0,1.0
1624332454.4481483,-42.48,-52.246,-16.113,1.0,1.0
1624332454.4520545,-34.18,-46.387,-21.484,1.0,1.0
1624332454.455961,-43.457,-41.992,-17.09,1.0,1.0
1624332454.459867,-45.898,-25.879,-10.742,1.0,1.0
1624332454.463773,-29.296999999999997,-7.324,-42.968999999999994,1.0,1.0
1624332454.4676797,-15.625,-20.508000000000003,-48.828,1.0,1.0
1624332454.4715855,-43.945,-45.898,-26.366999999999997,1.0,1.0
1624332454.4754918,-8.301,-28.809,-7.812,-93.262,1.0
1624332454.479398,-27.831999999999997,4.395,-27.344,-61.035,1.0
1624332454.4833043,-0.977,-8.789,-17.578,20.508000000000003,1.0
1624332454.487211,8.789,-28.32,-26.855,12.695,1.0
1624332454.491117,-30.761999999999997,-49.805,-92.285,-57.617,1.0
1624332454.4950233,-63.965,-66.406,-92.285,-44.922,1.0
1624332454.4989295,-44.922,-59.57,-34.668,23.926,1.0
1624332454.5028355,-28.809,-37.598,-20.508000000000003,11.23,1.0
1624332454.506742,-36.133,-20.02,-14.16,-74.707,1.0
1624332454.5106483,-47.363,-21.484,-8.301,-87.891,1.0
1624332454.5145543,-35.645,-3.906,2.93,-5.371,1.0
1624332454.5184608,2.441,7.324,5.859,39.551,1.0
1624332454.522367,-16.602,-33.691,-7.812,36.621,1.0
1624332454.5262733,23.926,-25.391,-22.461,69.824,1.0
1624332454.5301795,-54.199,-49.316,-70.312,-77.148,1.0
1624332454.5340858,-86.426,-46.875,-59.082,-118.652,1.0
1624332454.537992,-40.039,-54.199,-14.648,-10.742,1.0
1624332454.5418983,-32.227,-55.176,-21.973000000000003,7.324,1.0
1624332454.5458045,-57.129,-22.949,-36.621,-71.289,1.0
1624332454.5497108,-69.824,-32.227,-28.809,-101.56200000000001,1.0
1624332454.553617,-44.434,-57.617,-45.41,-41.016000000000005,1.0
1624332454.5575233,-11.719000000000001,-38.086,-43.945,15.625,1.0
1624332454.5614297,-14.16,1.953,-12.207,-15.625,1.0
1624332454.5653358,-34.18,5.859,4.883,-73.242,1.0
1624332454.569242,-38.086,-55.176,-49.316,-70.801,1.0
1624332454.5731483,-13.672,-30.761999999999997,-49.316,-14.16,1.0
1624332454.5770545,-6.348,-15.625,-35.645,16.113,1.0
1624332454.5809608,-32.227,-40.039,-31.738000000000003,-34.18,1.0
1624332454.584867,-50.781000000000006,-37.598,-11.719000000000001,-92.285,1.0
1624332454.588773,-14.648,-22.949,-5.859,-42.968999999999994,1.0
1624332454.5926797,30.761999999999997,-27.344,-19.531,40.527,1.0
1624332454.5965855,-6.836,-12.207,-23.438000000000002,-0.977,1.0
1624332454.6004922,-67.87100000000001,-6.348,-33.203,-98.633,1.0
1624332454.604398,-65.918,-32.227,-53.223,-94.238,1.0
1624332454.6083043,-27.831999999999997,-47.363,-47.852,-3.906,1.0
1624332454.612211,-21.484,-40.039,-36.133,-3.418,1.0
1624332454.616117,-37.598,12.207,-58.105,-73.73,1.0
1624332454.620023,-27.344,-4.883,-41.992,6.348,1.0
1624332454.6239295,6.836,-40.527,-15.625,24.901999999999997,1.0
1624332454.6278355,0.0,-50.781000000000006,-9.766,-42.968999999999994,1.0
1624332454.631742,-31.25,-42.968999999999994,-20.508000000000003,-86.914,1.0
1624332454.6356483,-33.203,-32.715,-20.508000000000003,-26.855,1.0
1624332454.6395545,0.977,-20.996,-37.109,35.645,1.0
1624332454.6434608,-5.859,-8.301,-46.387,-25.879,1.0
1624332454.647367,-49.316,-12.207,-43.945,-99.609,1.0
1624332454.6512733,-57.129,-26.855,-43.945,-40.527,1.0
1624332454.6551795,-17.09,-34.18,-32.227,37.109,1.0
1624332454.6590855,-3.418,-25.879,-37.598,7.324,1.0
1624332454.662992,-21.973000000000003,-40.039,-20.996,4.395,1.0
1624332454.6668983,-72.75399999999999,-55.663999999999994,-43.945,-101.074,1.0
1624332454.6708045,-69.336,-12.207,-43.945,-92.773,1.0
1624332454.6747108,-10.742,-1.465,-41.992,18.066,1.0
1624332454.678617,8.301,-5.371,-24.414,42.48,1.0
1624332454.6825233,-36.133,-13.184000000000001,-6.836,-51.27,1.0
1624332454.6864295,-56.641000000000005,-52.733999999999995,-3.906,-86.914,1.0
1624332454.6903358,-8.301,-62.5,6.348,6.348,1.0
1624332454.694242,21.973000000000003,-42.48,-17.09,45.41,1.0
1624332454.6981483,-12.695,-12.207,-21.484,-29.296999999999997,1.0
1624332454.7020545,-48.828,-12.207,-20.02,-85.449,1.0
1624332454.705961,-26.366999999999997,-25.391,-51.758,-23.926,1.0
1624332454.709867,-23.926,-14.16,-10.742,1.0,1.0
1624332454.713773,21.973000000000003,15.625,30.761999999999997,1.0,1.0
1624332454.7176797,2.441,8.789,3.418,1.0,1.0
1624332454.7215855,-41.504,-42.48,-46.875,1.0,1.0
1624332454.7254918,-29.296999999999997,-63.477,-36.133,1.0,1.0
1624332454.729398,-30.761999999999997,-54.688,-37.598,1.0,1.0
1624332454.7333043,-57.129,-24.901999999999997,-40.527,1.0,1.0
1624332454.737211,-69.824,-1.953,-18.066,1.0,1.0
1624332454.741117,-62.012,-4.883,-17.09,1.0,1.0
1624332454.7450233,-23.926,-2.441,-19.043,1.0,1.0
1624332454.7489295,2.441,-18.555,-20.02,1.0,1.0
1624332454.7528355,-33.691,-44.434,-35.645,1.0,1.0
1624332454.756742,-55.176,-68.848,-31.25,-100.098,1.0
1624332454.7606483,-11.23,-41.016000000000005,-18.555,-19.531,1.0
1624332454.7645543,22.461,-8.789,-46.875,37.598,1.0
1624332454.7684608,-1.953,-35.156,-57.129,-9.277000000000001,1.0
1624332454.772367,-44.922,-31.738000000000003,-22.461,-56.152,1.0
1624332454.7762733,-63.477,-10.254000000000001,-11.23,-18.555,1.0
1624332454.7801795,-25.879,-19.531,-8.301,19.043,1.0
1624332454.7840858,-4.883,-34.18,-23.438000000000002,-49.316,1.0
1624332454.787992,-19.043,-45.898,-36.133,-110.84,1.0
1624332454.7918983,-22.461,-22.949,-23.926,-44.922,1.0
1624332454.7958045,6.348,6.348,-21.484,32.227,1.0
1624332454.7997108,17.578,-9.277000000000001,-17.578,-25.391,1.0
1624332454.803617,7.324,-38.086,-16.602,57.617,1.0
1624332454.8075233,-8.789,-0.488,-16.113,0.0,1.0
1624332454.8114297,-29.296999999999997,-8.789,-38.574,-64.941,1.0
1624332454.8153358,-4.395,-45.898,-50.781000000000006,-3.418,1.0
1624332454.819242,7.324,-41.016000000000005,-20.996,40.039,1.0
1624332454.8231483,-54.688,-11.719000000000001,-11.719000000000001,-55.176,1.0
1624332454.8270545,-103.027,-22.949,-34.668,-141.602,1.0
1624332454.8309608,-75.195,-28.32,-37.598,-90.33200000000001,1.0
1624332454.834867,-24.901999999999997,-25.391,-22.949,4.883,1.0
1624332454.838773,-11.719000000000001,-33.691,-21.973000000000003,3.418,1.0
1624332454.8426797,-31.25,-41.504,-24.414,-59.57,1.0
1624332454.8465855,-33.203,-58.105,-12.207,-51.758,1.0
1624332454.8504922,-65.43,-23.438000000000002,-32.715,1.0,1.0
1624332454.854398,-12.207,-20.996,-25.879,1.0,1.0
1624332454.8583043,-1.465,-19.531,-39.062,1.0,1.0
1624332454.862211,-54.199,-37.109,-59.57,1.0,1.0
1624332454.866117,-66.406,-64.941,-49.316,1.0,1.0
1624332454.870023,-11.23,-64.453,-16.602,1.0,1.0
1624332454.8739295,2.93,-47.363,-29.296999999999997,1.0,1.0
1624332454.8778355,-36.133,-40.039,-57.617,1.0,1.0
1624332454.881742,-56.152,-44.434,-46.387,1.0,1.0
1624332454.8856483,-18.555,-28.32,-26.366999999999997,1.0,1.0
1624332454.8895545,7.324,-3.906,-12.207,1.0,1.0
1624332454.8934608,-35.645,-15.137,-27.344,1.0,1.0
1624332454.897367,-36.621,-22.949,-53.711000000000006,-45.41,1.0
1624332454.9012733,-69.824,-31.738000000000003,-11.23,-97.656,1.0
1624332454.9051795,-38.574,-37.109,-8.789,-19.531,1.0
1624332454.9090855,6.836,-29.785,-21.484,56.152,1.0
1624332454.912992,-13.184000000000001,-25.879,-13.672,0.0,1.0
1624332454.9168983,-75.684,-34.668,-31.25,-96.68,1.0
1624332454.9208045,-70.312,-33.203,-49.805,-68.848,1.0
1624332454.9247108,-31.738000000000003,-29.785,-41.016000000000005,9.277000000000001,1.0
1624332454.928617,-32.715,-43.945,-41.992,-10.742,1.0
1624332454.9325233,-51.27,-50.781000000000006,-47.852,-84.961,1.0
1624332454.9364295,-50.293,-32.227,-45.898,-73.73,1.0
1624332454.9403358,-26.855,-34.18,-48.828,2.441,1.0
1624332454.944242,1.953,-34.668,-2.93,28.809,1.0
1624332454.9481483,-20.02,-42.968999999999994,-6.348,-7.812,1.0
1624332454.9520545,-69.824,-32.715,-20.508000000000003,-95.70299999999999,1.0
1624332454.955961,-65.43,-9.766,-28.809,-84.473,1.0
1624332454.959867,-24.901999999999997,-4.395,-40.039,-0.977,1.0
1624332454.963773,-27.344,-28.809,-52.733999999999995,12.207,1.0
1624332454.9676797,-52.733999999999995,-57.129,-36.133,-60.059,1.0
1624332454.9715855,-59.57,-62.988,-17.578,-86.426,1.0
1624332454.9754918,-20.02,-19.531,-5.859,2.441,1.0
1624332454.979398,11.719000000000001,7.812,-15.137,57.129,1.0
1624332454.9833043,-25.879,-9.277000000000001,-34.668,-19.043,1.0
1624332454.987211,-68.359,-27.344,-30.761999999999997,-92.285,1.0
1624332454.991117,-101.074,-53.223,-40.527,-46.875,1.0
1624332454.9950233,-71.289,-40.527,-28.809,5.859,1.0
1624332454.9989295,-46.875,-37.598,-32.227,-35.156,1.0
1624332455.0028355,-57.129,-51.758,-44.434,-92.285,1.0
1624332455.006742,-63.477,-62.012,-29.785,-58.593999999999994,1.0
1624332455.0106483,-32.715,-55.176,-11.23,25.391,1.0
1624332455.0145543,-1.465,-23.438000000000002,-13.184000000000001,8.301,1.0
1624332455.0184608,-33.203,-25.391,-31.25,-63.477,1.0
1624332455.022367,-74.707,-36.133,-50.293,-56.641000000000005,1.0
1624332455.0262733,-79.102,-30.273000000000003,-50.781000000000006,32.227,1.0
1624332455.0301795,-47.852,-42.968999999999994,-59.082,41.016000000000005,1.0
1624332455.0340858,-17.09,-53.223,-41.992,-59.57,1.0
1624332455.037992,-7.812,-26.366999999999997,-49.316,-0.977,1.0
1624332455.0418983,-43.457,-6.348,-42.48,-79.59,1.0
1624332455.0458045,-57.129,-16.602,-38.574,-77.637,1.0
1624332455.0497108,-15.137,-8.789,-13.672,5.371,1.0
1624332455.053617,0.977,2.441,10.254000000000001,12.695,1.0
1624332455.0575233,-19.531,10.254000000000001,15.137,-54.199,1.0
1624332455.0614297,-28.809,-32.227,9.766,-63.965,1.0
1624332455.0653358,-19.531,-73.73,-13.672,-8.789,1.0
1624332455.069242,-20.02,-52.733999999999995,-48.828,-1.953,1.0
1624332455.0731483,-44.922,-24.414,-50.293,-63.965,1.0
1624332455.0770545,-58.593999999999994,-24.414,-29.785,-93.75,1.0
1624332455.0809608,-28.32,-20.508000000000003,-35.156,-36.621,1.0
1624332455.084867,-26.366999999999997,-62.012,-51.27,1.0,1.0
1624332455.088773,-4.395,-45.898,-50.781000000000006,1.0,1.0
1624332455.0926797,-33.203,-22.949,-23.438000000000002,1.0,1.0
1624332455.0965855,-80.078,-23.926,-19.531,1.0,1.0
1624332455.1004922,-42.48,-20.996,-13.672,1.0,1.0
1624332455.104398,3.906,-21.973000000000003,1.953,1.0,1.0
1624332455.1083043,-10.742,-50.781000000000006,-2.441,1.0,1.0
1624332455.112211,-42.968999999999994,-70.312,-34.668,1.0,1.0
1624332455.116117,-55.176,-53.711000000000006,-54.199,1.0,1.0
1624332455.120023,-22.949,-37.109,-45.41,1.0,1.0
1624332455.1239295,-11.23,-20.996,-37.109,1.0,1.0
1624332455.1278355,-50.293,-17.09,-46.875,1.0,1.0
1624332455.131742,-57.129,-34.668,-50.781000000000006,-96.191,1.0
1624332455.1356483,-62.012,-24.901999999999997,-41.992,-69.824,1.0
1624332455.1395545,-33.203,-23.926,-29.296999999999997,-0.488,1.0
1624332455.1434608,-35.156,-34.668,-16.113,-15.625,1.0
1624332455.147367,-51.27,-32.227,-1.953,-82.52,1.0
1624332455.1512733,-44.434,-23.438000000000002,-12.207,-79.59,1.0
1624332455.1551795,-20.02,-32.715,-17.09,-10.254000000000001,1.0
1624332455.1590855,-7.812,-53.223,-25.879,15.625,1.0
1624332455.162992,-40.039,-43.945,-53.711000000000006,-57.617,1.0
1624332455.1668983,-76.172,-42.968999999999994,-44.434,-106.934,1.0
1624332455.1708045,-63.477,-44.434,-30.273000000000003,-51.27,1.0
1624332455.1747108,-38.574,-18.555,-43.457,-5.371,1.0
1624332455.178617,6.348,-24.901999999999997,2.93,35.156,1.0
1624332455.1825233,-19.043,-16.113,-26.855,-40.527,1.0
1624332455.1864295,-40.527,-27.344,-38.574,-84.473,1.0
1624332455.1903358,-37.598,-63.477,-57.129,-42.48,1.0
1624332455.194242,0.977,-56.152,-28.32,22.949,1.0
1624332455.1981483,-7.324,-36.133,-5.859,-17.09,1.0
1624332455.2020545,-65.918,-34.18,-45.41,-116.699,1.0
1624332455.205961,-57.129,-26.855,-42.968999999999994,-76.172,1.0
1624332455.209867,-14.648,-24.414,-30.273000000000003,19.043,1.0
1624332455.213773,-15.137,-26.366999999999997,-37.109,-2.93,1.0
1624332455.2176797,-56.152,-33.203,-38.574,-87.402,1.0
1624332455.2215855,-56.641000000000005,-26.366999999999997,-30.273000000000003,-77.148,1.0
1624332455.2254918,-22.461,-23.926,-18.066,1.0,1.0
1624332455.229398,25.391,-6.348,-15.625,1.0,1.0
1624332455.2333043,-0.977,-60.059,-26.855,1.0,1.0
1624332455.237211,-47.363,-92.773,-36.621,1.0,1.0
1624332455.241117,-33.203,-61.523,-49.805,1.0,1.0
1624332455.2450233,-21.484,-36.621,-73.242,1.0,1.0
1624332455.2489295,-19.531,-13.184000000000001,-44.434,1.0,1.0
1624332455.2528355,-47.852,-22.461,-40.527,1.0,1.0
1624332455.256742,-59.082,-38.086,-40.527,1.0,1.0
1624332455.2606483,-4.883,-11.23,2.441,1.0,1.0
1624332455.2645543,26.855,-2.93,5.371,1.0,1.0
1624332455.2684608,-2.93,-28.32,-16.602,1.0,1.0
1624332455.272367,-28.32,-55.663999999999994,-29.785,-35.645,1.0
1624332455.2762733,-71.777,-30.761999999999997,-50.781000000000006,-104.492,1.0
1624332455.2801795,-52.733999999999995,-13.184000000000001,-28.809,-42.48,1.0
1624332455.2840858,-29.785,-10.742,-37.109,11.719000000000001,1.0
1624332455.287992,-43.457,-11.719000000000001,-45.898,-41.504,1.0
1624332455.2918983,-73.242,-20.02,-14.648,-98.145,1.0
1624332455.2958045,-45.41,-47.852,-1.465,-41.016000000000005,1.0
1624332455.2997108,0.488,-82.52,-6.836,38.574,1.0
1624332455.303617,-15.625,-50.293,-32.227,-0.977,1.0
1624332455.3075233,-62.012,-23.926,-54.199,-93.262,1.0
1624332455.3114297,-62.988,-41.016000000000005,-47.363,-83.008,1.0
1624332455.3153358,-21.973000000000003,-40.039,-35.156,0.977,1.0
1624332455.319242,-64.453,-33.691,-46.387,-18.555,1.0
1624332455.3231483,-49.316,-32.715,-60.547,27.831999999999997,1.0
1624332455.3270545,-27.831999999999997,-35.156,-56.641000000000005,-29.785,1.0
1624332455.3309608,-27.344,-21.973000000000003,-28.32,-92.285,1.0
1624332455.334867,-48.828,-24.901999999999997,5.371,-53.711000000000006,1.0
1624332455.338773,-45.41,-49.316,6.836,28.32,1.0
1624332455.3426797,-28.809,-44.434,-11.719000000000001,29.296999999999997,1.0
1624332455.3465855,-46.387,-43.945,-29.296999999999997,-63.965,1.0
1624332455.3504922,-62.012,-61.523,-35.645,-76.66,1.0
1624332455.354398,-57.129,-48.828,-52.246,10.742,1.0
1624332455.3583043,-29.296999999999997,-39.062,-63.477,27.831999999999997,1.0
1624332455.362211,-28.32,-35.645,-38.086,-47.852,1.0
1624332455.366117,-32.227,-31.738000000000003,-16.602,-12.695,1.0
1624332455.370023,-47.852,-43.945,-24.414,-81.543,1.0
1624332455.3739295,-25.879,-40.527,-26.855,-45.41,1.0
1624332455.3778355,-16.113,-32.715,-46.875,13.672,1.0
1624332455.381742,-37.598,-33.203,-48.34,-17.09,1.0
1624332455.3856483,-47.852,-42.968999999999994,-43.457,-85.449,1.0
1624332455.3895545,-33.691,-58.105,-37.109,-84.961,1.0
1624332455.3934608,-22.461,-35.645,-30.761999999999997,-17.578,1.0
1624332455.397367,-29.785,-24.901999999999997,-26.366999999999997,-6.836,1.0
1624332455.4012733,-43.945,-34.18,-24.414,-64.453,1.0
1624332455.4051795,-57.617,-31.738000000000003,-37.109,-93.75,1.0
1624332455.4090855,-14.648,-7.324,-32.715,-8.789,1.0
1624332455.412992,-49.805,-50.781000000000006,-21.973000000000003,1.0,1.0
1624332455.4168983,-0.488,-28.32,-24.901999999999997,1.0,1.0
1624332455.4208045,-25.879,-12.207,-41.504,1.0,1.0
1624332455.4247108,-53.711000000000006,-35.645,-41.016000000000005,1.0,1.0
1624332455.428617,-33.203,-37.109,-39.551,1.0,1.0
1624332455.4325233,1.953,-20.508000000000003,-49.805,1.0,1.0
1624332455.4364295,6.836,-13.184000000000001,-34.668,1.0,1.0
1624332455.4403358,-46.875,-30.273000000000003,-17.578,1.0,1.0
1624332455.444242,-55.663999999999994,-29.296999999999997,-19.043,1.0,1.0
1624332455.4481483,-10.742,-34.18,-23.926,1.0,1.0
1624332455.4520545,-12.207,-53.711000000000006,-35.645,1.0,1.0
1624332455.455961,-50.293,-45.41,-57.617,1.0,1.0
1624332455.459867,-50.293,-49.316,-30.273000000000003,-82.52,1.0
1624332455.463773,-69.824,-32.715,-57.617,-81.055,1.0
1624332455.4676797,-35.645,-18.555,-51.758,-7.324,1.0
1624332455.4715855,-9.766,-7.324,-17.09,-1.953,1.0
1624332455.4754918,-39.551,-25.391,-9.766,-73.242,1.0
1624332455.479398,-45.898,-41.504,-21.484,-66.406,1.0
1624332455.4833043,-11.719000000000001,-30.273000000000003,-18.555,12.207,1.0
1624332455.487211,-2.441,-15.625,-34.668,20.02,1.0
1624332455.491117,-39.551,-35.645,-64.941,-59.57,1.0
1624332455.4950233,-63.965,-65.918,-52.733999999999995,-95.70299999999999,1.0
1624332455.4989295,-25.879,-51.758,-12.695,-20.508000000000003,1.0
1624332455.5028355,-3.906,-26.855,4.883,33.691,1.0
1624332455.506742,-0.488,-40.527,-24.414,46.875,1.0
1624332455.5106483,-31.738000000000003,-45.898,-36.621,-40.527,1.0
1624332455.5145543,-62.5,-31.738000000000003,-35.156,-89.355,1.0
1624332455.5184608,-39.062,-19.531,-24.414,-10.742,1.0
1624332455.522367,-12.207,-9.766,-12.207,42.968999999999994,1.0
1624332455.5262733,-40.039,-16.602,-12.207,-26.855,1.0
1624332455.5301795,-64.941,-34.668,-35.156,-93.262,1.0
1624332455.5340858,-51.758,-39.062,-42.968999999999994,-48.34,1.0
1624332455.537992,-27.831999999999997,-41.016000000000005,-34.668,12.207,1.0
1624332455.5418983,-35.645,-43.457,-41.992,-22.949,1.0
1624332455.5458045,-62.988,-42.968999999999994,-39.062,-89.355,1.0
1624332455.5497108,-62.012,-43.457,-26.855,-68.359,1.0
1624332455.553617,-50.293,-14.648,-49.805,13.672,1.0
1624332455.5575233,-4.395,-23.438000000000002,-4.883,19.531,1.0
1624332455.5614297,-24.901999999999997,-69.336,0.977,-53.223,1.0
1624332455.5653358,-51.758,-52.246,-10.742,-69.336,1.0
1624332455.569242,-44.434,-15.137,-34.18,15.137,1.0
1624332455.5731483,-15.625,-7.324,-48.34,34.18,1.0
1624332455.5770545,-10.254000000000001,-22.949,-42.48,-67.87100000000001,1.0
1624332455.5809608,-38.086,-28.32,-30.761999999999997,-98.145,1.0
1624332455.584867,-59.082,-30.273000000000003,-54.199,-28.32,1.0
1624332455.588773,-22.461,-33.203,-34.18,19.531,1.0
1624332455.5926797,16.602,-30.273000000000003,13.672,-25.879,1.0
1624332455.5965855,-28.32,-25.391,-0.488,-99.12100000000001,1.0
1624332455.6004922,-32.227,-40.527,-61.035,-62.012,1.0
1624332455.604398,-44.922,-20.996,-22.461,-63.477,1.0
1624332455.6083043,-26.366999999999997,-39.551,-18.066,-3.418,1.0
1624332455.612211,-2.93,-41.016000000000005,-19.531,25.879,1.0
1624332455.616117,-1.465,-41.992,-4.395,-17.09,1.0
1624332455.620023,-35.645,-47.363,-27.831999999999997,-76.172,1.0
1624332455.6239295,-45.41,-31.25,-40.039,-42.48,1.0
1624332455.6278355,-19.531,-6.836,-25.391,26.366999999999997,1.0
1624332455.631742,-23.438000000000002,-9.277000000000001,-41.504,-11.23,1.0
1624332455.6356483,-53.711000000000006,-36.621,-40.527,-82.52,1.0
1624332455.6395545,-38.086,-44.434,-27.344,-49.316,1.0
1624332455.6434608,13.184000000000001,-31.738000000000003,-16.602,40.039,1.0
1624332455.647367,0.977,-66.406,-22.949,33.203,1.0
1624332455.6512733,6.348,-58.105,-20.996,9.277000000000001,1.0
1624332455.6551795,-31.738000000000003,-53.223,-25.879,-69.336,1.0
1624332455.6590855,-41.016000000000005,-37.598,-27.831999999999997,-63.477,1.0
1624332455.662992,-1.953,-16.602,-20.02,18.555,1.0
1624332455.6668983,-25.879,-13.672,-50.781000000000006,-6.836,1.0
1624332455.6708045,-85.449,-20.996,-83.49600000000001,-113.77,1.0
1624332455.6747108,-82.52,-11.23,-43.945,-110.84,1.0
1624332455.678617,-35.645,-14.16,-18.066,-15.137,1.0
1624332455.6825233,19.531,-34.668,3.418,39.551,1.0
1624332455.6864295,10.742,-40.527,20.508000000000003,-11.719000000000001,1.0
1624332455.6903358,-55.176,-49.316,-22.461,-88.867,1.0
1624332455.694242,-61.035,-16.602,-30.273000000000003,-93.75,1.0
1624332455.6981483,-24.414,-18.555,-23.438000000000002,-17.09,1.0
1624332455.7020545,-12.695,-14.16,-25.391,12.695,1.0
1624332455.705961,-30.273000000000003,-22.949,-35.156,-45.41,1.0
1624332455.709867,-30.273000000000003,-44.922,-45.898,-84.961,1.0
1624332455.713773,2.441,-45.41,-20.996,-15.137,1.0
1624332455.7176797,12.207,-31.738000000000003,-13.184000000000001,38.574,1.0
1624332455.7215855,-20.996,-24.414,-26.855,-22.461,1.0
1624332455.7254918,-49.805,-21.973000000000003,-20.02,-89.355,1.0
1624332455.729398,-49.316,-30.273000000000003,-27.344,-65.918,1.0
1624332455.7333043,-29.785,-32.227,-35.645,-5.859,1.0
1624332455.737211,-39.551,-28.32,-33.203,-24.414,1.0
1624332455.741117,5.371,-57.129,-34.668,-3.418,1.0
1624332455.7450233,-48.828,-65.43,-9.766,-76.66,1.0
1624332455.7489295,-65.43,-40.039,-17.578,-62.012,1.0
1624332455.7528355,-45.898,-33.691,-44.434,-1.953,1.0
1624332455.756742,-43.945,-32.715,-28.32,-13.672,1.0
1624332455.7606483,-57.617,-26.366999999999997,-12.207,-81.543,1.0
1624332455.7645543,-56.152,-28.32,-22.461,-80.078,1.0
1624332455.7684608,-25.879,-17.578,-25.879,-3.906,1.0
1624332455.772367,-18.555,-33.203,-34.18,4.883,1.0
1624332455.7762733,-39.551,-48.828,-26.366999999999997,-64.941,1.0
1624332455.7801795,-36.133,-46.387,-32.715,-79.59,1.0
1624332455.7840858,-5.371,-49.805,-61.035,-2.441,1.0
1624332455.787992,-30.761999999999997,-37.109,-12.695,1.0,1.0
1624332455.7918983,-5.859,-13.184000000000001,10.742,1.0,1.0
1624332455.7958045,-30.761999999999997,-20.02,-19.043,1.0,1.0
1624332455.7997108,-52.246,-43.457,-40.527,1.0,1.0
1624332455.803617,-16.113,-35.156,-24.414,1.0,1.0
1624332455.8075233,11.23,-8.301,-17.578,1.0,1.0
1624332455.8114297,-20.996,-26.366999999999997,-29.296999999999997,1.0,1.0
1624332455.8153358,-37.598,-41.504,-29.785,1.0,1.0
1624332455.819242,-28.32,-44.922,-34.18,1.0,1.0
1624332455.8231483,-21.973000000000003,-41.504,-42.968999999999994,1.0,1.0
1624332455.8270545,-30.761999999999997,-27.831999999999997,-37.598,1.0,1.0
1624332455.8309608,-62.988,-36.621,-44.922,1.0,1.0
1624332455.834867,-38.086,-13.184000000000001,-11.719000000000001,-81.055,1.0
1624332455.838773,-28.32,-44.922,-18.066,-41.504,1.0
1624332455.8426797,-0.977,-54.688,-18.555,27.344,1.0
1624332455.8465855,-7.812,-27.831999999999997,-29.296999999999997,0.488,1.0
1624332455.8504922,-53.223,-13.672,-31.25,-79.102,1.0
1624332455.854398,-48.828,-24.414,-21.484,-57.129,1.0
1624332455.8583043,-12.695,-43.945,-40.527,20.02,1.0
1624332455.862211,-0.977,-63.965,-49.316,21.484,1.0
1624332455.866117,-30.273000000000003,-61.523,-44.434,-47.363,1.0
1624332455.870023,-42.968999999999994,-18.066,-50.293,-66.895,1.0
1624332455.8739295,-9.766,-7.324,-52.733999999999995,4.395,1.0
1624332455.8778355,-2.441,-23.926,-53.223,24.414,1.0
1624332455.881742,-12.207,-37.109,-13.672,3.418,1.0
1624332455.8856483,-33.203,-66.895,-42.48,-60.547,1.0
1624332455.8895545,-66.406,-65.918,-50.781000000000006,-89.355,1.0
1624332455.8934608,-53.711000000000006,-34.18,-35.645,-39.062,1.0
1624332455.897367,-34.668,-24.414,-44.434,-4.883,1.0
1624332455.9012733,-52.246,-26.366999999999997,-37.109,-61.035,1.0
1624332455.9051795,-68.848,-24.901999999999997,-18.555,-107.91,1.0
1624332455.9090855,-53.223,-23.438000000000002,-27.344,-61.035,1.0
1624332455.912992,-8.301,-15.625,-29.296999999999997,13.672,1.0
1624332455.9168983,6.836,-21.973000000000003,-32.715,-0.977,1.0
1624332455.9208045,-24.901999999999997,-38.086,-38.574,-70.801,1.0
1624332455.9247108,-22.949,-19.043,-32.715,-52.246,1.0
1624332455.928617,-32.715,-22.461,-41.016000000000005,1.465,1.0
1624332455.9325233,-4.883,-14.648,-28.809,-9.766,1.0
1624332455.9364295,-6.348,-1.953,-27.344,-78.125,1.0
1624332455.9403358,-31.738000000000003,-12.207,-15.137,-82.52,1.0
1624332455.944242,-15.137,-37.598,5.859,0.0,1.0
1624332455.9481483,19.531,-54.199,-9.766,21.484,1.0
1624332455.9520545,-19.043,-56.641000000000005,-46.875,-51.758,1.0
1624332455.955961,-74.219,-51.27,-52.246,-80.078,1.0
1624332455.959867,-66.406,-35.645,-38.574,-7.812,1.0
1624332455.963773,-23.926,-7.324,-30.273000000000003,28.809,1.0
1624332455.9676797,-19.531,-16.602,-45.898,-41.016000000000005,1.0
1624332455.9715855,-38.086,-31.25,-50.293,-92.773,1.0
1624332455.9754918,-43.457,-3.418,-24.901999999999997,-51.758,1.0
1624332455.979398,-62.5,-27.831999999999997,-26.366999999999997,-89.355,1.0
1624332455.9833043,-27.831999999999997,-35.645,-17.578,-14.648,1.0
1624332455.987211,-28.809,-39.551,-19.531,15.137,1.0
1624332455.991117,-39.551,-43.945,-21.973000000000003,-43.457,1.0
1624332455.9950233,-38.086,-34.668,-45.898,-75.684,1.0
1624332455.9989295,-36.133,-43.457,-71.777,-31.25,1.0
1624332456.0028355,-15.137,-26.366999999999997,-35.156,26.855,1.0
1624332456.006742,-17.09,-19.043,-17.09,-12.695,1.0
1624332456.0106483,-50.781000000000006,-29.785,-48.828,-83.49600000000001,1.0
1624332456.0145543,-46.387,-38.086,-40.527,-46.875,1.0
1624332456.0184608,-1.465,-44.434,-11.719000000000001,36.133,1.0
1624332456.022367,-3.906,-40.039,-19.531,1.0,1.0
1624332456.0262733,-10.742,-30.273000000000003,2.441,1.0,1.0
1624332456.0301795,-54.199,-22.461,-13.184000000000001,1.0,1.0
1624332456.0340858,-56.152,-16.602,-33.203,1.0,1.0
1624332456.037992,-24.414,-26.366999999999997,-28.32,1.0,1.0
1624332456.0418983,-13.184000000000001,-56.152,-36.621,1.0,1.0
1624332456.0458045,-34.668,-50.293,-65.43,1.0,1.0
1624332456.0497108,-52.733999999999995,-24.414,-62.012,1.0,1.0
1624332456.053617,-25.391,-31.738000000000003,-22.949,1.0,1.0
1624332456.0575233,-14.16,-19.531,-6.836,1.0,1.0
1624332456.0614297,-54.688,-9.766,-34.18,1.0,1.0
1624332456.0653358,-68.848,-44.434,-53.711000000000006,1.0,1.0
1624332456.069242,-69.336,-18.555,-50.293,-27.831999999999997,1.0
1624332456.0731483,-44.434,-16.602,-22.949,2.93,1.0
1624332456.0770545,3.418,-16.602,8.301,-54.199,1.0
1624332456.0809608,-4.883,-41.992,18.555,-101.074,1.0
1624332456.084867,-66.406,-56.152,-41.016000000000005,-37.598,1.0
1624332456.088773,-50.293,-22.461,-66.406,40.527,1.0
1624332456.0926797,-20.508000000000003,1.465,-27.344,5.859,1.0
1624332456.0965855,-48.34,-19.531,-32.715,-82.031,1.0
1624332456.1004922,-78.613,-51.758,-62.012,-72.75399999999999,1.0
1624332456.104398,-44.434,-34.668,-44.434,12.207,1.0
1624332456.1083043,5.859,-22.461,-17.578,24.901999999999997,1.0
1624332456.112211,-22.949,-42.48,-10.742,-47.363,1.0
1624332456.116117,-77.637,-57.129,-31.738000000000003,-76.66,1.0
1624332456.120023,-78.613,-51.758,-7.812,-113.77,1.0
1624332456.1239295,-41.992,-30.761999999999997,-32.227,-51.758,1.0
1624332456.1278355,12.695,-28.809,-54.199,33.203,1.0
1624332456.131742,-31.25,-59.082,-54.199,-28.32,1.0
1624332456.1356483,-111.816,-53.711000000000006,-48.828,-138.672,1.0
1624332456.1395545,-111.32799999999999,-22.461,-38.574,-129.88299999999998,1.0
1624332456.1434608,-55.176,-30.273000000000003,-34.18,-32.715,1.0
1624332456.147367,-31.738000000000003,-67.383,-28.809,-6.348,1.0
1624332456.1512733,-48.828,-51.27,-32.715,-70.801,1.0
1624332456.1551795,-49.805,-25.391,-63.965,-81.543,1.0
1624332456.1590855,-26.366999999999997,-35.645,-69.336,-9.766,1.0
1624332456.162992,-22.949,-19.531,-21.973000000000003,1.0,1.0
1624332456.1668983,15.137,-25.391,-4.883,1.0,1.0
1624332456.1708045,-7.812,-35.156,-2.441,1.0,1.0
1624332456.1747108,-46.387,-46.387,-42.968999999999994,1.0,1.0
1624332456.178617,-27.344,-45.898,-65.918,1.0,1.0
1624332456.1825233,-14.648,-24.901999999999997,-26.855,1.0,1.0
1624332456.1864295,-39.551,-20.996,-10.254000000000001,1.0,1.0
1624332456.1903358,-60.547,-23.926,-27.831999999999997,1.0,1.0
1624332456.194242,-34.668,-23.926,-8.789,1.0,1.0
1624332456.1981483,6.836,-41.016000000000005,0.488,1.0,1.0
1624332456.2020545,0.0,-49.316,-33.691,1.0,1.0
1624332456.205961,-43.457,-47.852,-29.296999999999997,1.0,1.0
1624332456.209867,-67.383,-1.465,-15.137,-102.051,1.0
1624332456.213773,-56.152,-14.16,-25.391,-63.965,1.0
1624332456.2176797,-12.695,-34.18,-40.527,16.113,1.0
1624332456.2215855,0.0,-40.527,-26.366999999999997,10.254000000000001,1.0
1624332456.2254918,-27.831999999999997,-42.48,-16.113,-51.758,1.0
1624332456.229398,-21.484,-57.617,-23.926,-29.785,1.0
1624332456.2333043,11.719000000000001,-37.598,-16.113,40.527,1.0
1624332456.237211,-14.16,-7.812,-6.348,10.254000000000001,1.0
1624332456.241117,-45.898,-4.883,-17.09,-67.383,1.0
1624332456.2450233,-54.688,-4.883,-62.988,-80.566,1.0
1624332456.2489295,-53.711000000000006,-9.766,-61.523,-34.668,1.0
1624332456.2528355,-37.598,-23.438000000000002,-14.16,-7.324,1.0
1624332456.256742,-1.465,-31.25,-32.715,23.438000000000002,1.0
1624332456.2606483,-33.203,-15.137,-20.02,-47.852,1.0
1624332456.2645543,-30.273000000000003,-3.418,-1.465,-52.246,1.0
1624332456.2684608,18.066,17.578,-4.883,41.992,1.0
1624332456.272367,6.836,-3.906,-43.457,52.246,1.0
1624332456.2762733,-40.039,-52.733999999999995,-59.082,-41.504,1.0
1624332456.2801795,-69.336,-65.918,-56.641000000000005,-98.145,1.0
1624332456.2840858,-63.477,-57.617,-46.875,-51.758,1.0
1624332456.287992,-40.527,-50.293,-28.809,0.488,1.0
1624332456.2918983,-38.574,-28.32,-8.301,-32.715,1.0
1624332456.2958045,-48.828,-11.23,1.465,-74.219,1.0
1624332456.2997108,-37.598,-23.926,-21.973000000000003,-39.062,1.0
1624332456.303617,-75.195,-37.109,-50.781000000000006,46.875,1.0
1624332456.3075233,-43.457,-31.738000000000003,-48.34,34.18,1.0
1624332456.3114297,-36.133,-29.785,-35.645,-51.758,1.0
1624332456.3153358,-55.663999999999994,-58.593999999999994,-18.066,-72.75399999999999,1.0
1624332456.319242,-44.434,-70.801,-15.625,-16.602,1.0
1624332456.3231483,-5.859,-20.02,-26.366999999999997,-7.324,1.0
1624332456.3270545,10.254000000000001,2.93,-20.508000000000003,-68.359,1.0
1624332456.3309608,-23.438000000000002,-40.527,-15.137,-70.312,1.0
1624332456.334867,-58.105,-56.152,-38.574,-3.906,1.0
1624332456.338773,-27.831999999999997,-9.277000000000001,-41.992,31.25,1.0
1624332456.3426797,-27.831999999999997,-0.977,-31.25,-13.184000000000001,1.0
1624332456.3465855,-63.477,-20.996,-48.34,-84.473,1.0
1624332456.3504922,-44.922,-29.785,-3.906,-79.59,1.0
1624332456.354398,-65.918,-33.203,-52.246,-98.145,1.0
1624332456.3583043,-21.484,-31.738000000000003,-68.848,-19.531,1.0
1624332456.362211,3.418,-42.968999999999994,-22.949,18.555,1.0
1624332456.366117,-16.602,-20.996,-2.93,-36.621,1.0
1624332456.370023,-48.34,-7.324,-32.227,-87.891,1.0
1624332456.3739295,-32.715,-13.672,-27.344,-40.527,1.0
1624332456.3778355,-13.184000000000001,-23.438000000000002,-9.766,7.324,1.0
1624332456.381742,-40.039,-36.133,-23.438000000000002,-52.733999999999995,1.0
1624332456.3856483,-71.777,-38.574,-45.898,-126.95299999999999,1.0
1624332456.3895545,-64.941,-41.504,-58.105,-92.285,1.0
1624332456.3934608,-27.344,-35.156,-43.457,2.441,1.0
1624332456.397367,7.324,-39.551,-46.387,1.0,1.0
1624332456.4012733,-20.996,-14.648,-28.32,1.0,1.0
1624332456.4051795,-73.242,-32.715,-31.25,1.0,1.0
1624332456.4090855,-55.663999999999994,-34.668,-35.156,1.0,1.0
1624332456.412992,-9.766,-19.531,-34.668,1.0,1.0
1624332456.4168983,-21.973000000000003,-31.25,-39.062,1.0,1.0
1624332456.4208045,-49.316,-42.48,-38.086,1.0,1.0
1624332456.4247108,-19.043,-8.789,-23.926,1.0,1.0
1624332456.428617,14.648,-19.043,-16.602,1.0,1.0
1624332456.4325233,-31.25,-79.102,-26.366999999999997,1.0,1.0
1624332456.4364295,-80.078,-78.125,-33.203,1.0,1.0
1624332456.4403358,-68.848,-12.207,-12.695,1.0,1.0
1624332456.444242,-52.246,-16.113,-35.156,-86.914,1.0
1624332456.4481483,-7.812,-20.02,-22.949,2.93,1.0
1624332456.4520545,-2.93,-53.223,-20.508000000000003,8.301,1.0
1624332456.455961,-33.691,-51.758,-27.831999999999997,-66.406,1.0
1624332456.459867,-65.43,-16.113,-42.48,-94.727,1.0
1624332456.463773,-25.879,-5.371,-38.086,-18.555,1.0
1624332456.4676797,-0.488,-38.574,-32.715,25.391,1.0
1624332456.4715855,-45.41,-35.645,-30.761999999999997,-55.663999999999994,1.0
1624332456.4754918,-59.57,-16.113,-24.901999999999997,-100.586,1.0
1624332456.479398,-17.578,-2.93,-16.113,-26.366999999999997,1.0
1624332456.4833043,-8.789,-28.32,-10.742,23.438000000000002,1.0
1624332456.487211,-31.738000000000003,-63.477,-13.184000000000001,-23.926,1.0
1624332456.491117,-89.355,-43.945,-67.87100000000001,-82.52,1.0
1624332456.4950233,-100.586,-28.809,-45.898,-126.95299999999999,1.0
1624332456.4989295,-67.87100000000001,-51.758,-25.879,-69.824,1.0
1624332456.5028355,-5.859,-50.293,-10.742,23.926,1.0
1624332456.506742,-8.301,-34.668,-23.438000000000002,4.883,1.0
1624332456.5106483,-55.663999999999994,-31.25,-28.809,-83.008,1.0
1624332456.5145543,-34.18,-16.602,-4.395,-60.059,1.0
1624332456.5184608,-18.555,-32.227,-44.922,4.395,1.0
1624332456.522367,-42.48,-42.968999999999994,-76.66,-18.066,1.0
1624332456.5262733,-64.941,-26.855,-51.27,-86.426,1.0
1624332456.5301795,-79.59,-34.668,-46.875,-104.00399999999999,1.0
1624332456.5340858,-45.898,-19.531,-24.901999999999997,-32.227,1.0
1624332456.537992,-26.366999999999997,-49.805,-34.18,5.859,1.0
1624332456.5418983,-10.254000000000001,-14.648,-25.391,10.742,1.0
1624332456.5458045,-39.062,0.0,-25.879,-61.523,1.0
1624332456.5497108,-34.668,0.0,-7.324,-59.57,1.0
1624332456.553617,12.695,-19.531,-17.09,24.414,1.0
1624332456.5575233,9.766,-43.945,-57.617,39.062,1.0
1624332456.5614297,-45.41,-43.945,-50.781000000000006,-46.875,1.0
1624332456.5653358,-74.707,-57.129,-26.855,-108.398,1.0
1624332456.569242,-40.527,-71.289,-32.715,-39.062,1.0
1624332456.5731483,-4.395,-35.156,-52.246,38.086,1.0
1624332456.5770545,-32.227,6.348,-35.645,-12.695,1.0
1624332456.5809608,-49.805,10.254000000000001,-8.301,-70.312,1.0
1624332456.584867,-71.289,-6.836,-31.738000000000003,-89.355,1.0
1624332456.588773,-47.852,-9.766,-36.133,-38.574,1.0
1624332456.5926797,-16.113,-26.855,-54.688,26.366999999999997,1.0
1624332456.5965855,-40.527,-28.809,-47.852,-13.184000000000001,1.0
1624332456.6004922,-53.223,-28.809,-20.02,-80.078,1.0
1624332456.604398,-12.207,-20.508000000000003,-39.551,-35.645,1.0
1624332456.6083043,24.901999999999997,-11.719000000000001,-34.18,47.363,1.0
1624332456.612211,10.742,-8.789,3.906,27.831999999999997,1.0
1624332456.616117,-34.18,-33.203,3.418,-69.336,1.0
1624332456.620023,-29.296999999999997,-58.105,-1.953,-66.895,1.0
1624332456.6239295,-16.602,-48.34,-21.484,0.977,1.0
1624332456.6278355,-27.831999999999997,-36.133,-41.504,-3.418,1.0
1624332456.631742,20.996,-14.648,-28.32,41.016000000000005,1.0
1624332456.6356483,-37.598,3.906,-63.965,-63.965,1.0
1624332456.6395545,-79.59,-4.883,-80.566,-106.445,1.0
1624332456.6434608,-25.391,-19.043,-50.781000000000006,-10.742,1.0
1624332456.647367,1.953,-40.039,-10.254000000000001,21.973000000000003,1.0
1624332456.6512733,-36.133,-58.105,-5.859,-60.059,1.0
1624332456.6551795,-66.895,-31.25,-34.18,-112.305,1.0
1624332456.6590855,-40.039,-17.578,-53.711000000000006,-50.293,1.0
1624332456.662992,14.16,-10.742,-23.926,26.855,1.0
1624332456.6668983,-9.766,-8.789,-12.207,-33.203,1.0
1624332456.6708045,-56.152,0.0,-19.531,-110.84,1.0
1624332456.6747108,-42.968999999999994,2.93,-41.016000000000005,-76.172,1.0
1624332456.678617,-38.086,-48.828,-33.691,1.953,1.0
1624332456.6825233,-16.602,-26.366999999999997,-29.785,12.207,1.0
1624332456.6864295,-38.086,-45.898,-39.551,-32.227,1.0
1624332456.6903358,-70.312,-27.344,-54.688,-35.645,1.0
1624332456.694242,-66.895,-2.441,-59.57,11.23,1.0
1624332456.6981483,-36.133,-12.695,-29.785,6.836,1.0
1624332456.7020545,-33.691,-23.438000000000002,-4.883,-76.66,1.0
1624332456.705961,-69.824,-33.203,-9.766,-117.18799999999999,1.0
1624332456.709867,-60.059,-38.574,-6.836,-44.434,1.0
1624332456.713773,-18.555,-30.761999999999997,-5.859,20.996,1.0
1624332456.7176797,-17.09,-31.25,-43.457,-12.695,1.0
1624332456.7215855,-52.733999999999995,-39.551,-66.406,-64.941,1.0
1624332456.7254918,-42.48,-17.578,-55.176,-80.566,1.0
1624332456.729398,-41.992,-2.93,-10.742,-68.359,1.0
1624332456.7333043,-20.508000000000003,-24.414,16.113,8.789,1.0
1624332456.737211,10.742,-48.828,-1.465,41.992,1.0
1624332456.741117,-2.93,-63.477,-26.366999999999997,-17.578,1.0
1624332456.7450233,-54.688,-44.922,-27.831999999999997,-75.195,1.0
1624332456.7489295,-63.477,-13.184000000000001,-50.293,-38.574,1.0
1624332456.7528355,-41.992,-23.438000000000002,-62.5,3.906,1.0
1624332456.756742,-48.828,-40.039,-53.223,-41.992,1.0
1624332456.7606483,-68.848,-10.742,-44.434,-95.215,1.0
1624332456.7645543,-55.663999999999994,-2.441,-25.391,-51.758,1.0
1624332456.7684608,-26.366999999999997,-54.199,-7.324,8.789,1.0
1624332456.772367,-16.602,13.184000000000001,-24.414,1.0,1.0
1624332456.7762733,-27.344,-13.672,-20.02,1.0,1.0
1624332456.7801795,-39.551,-38.574,-21.484,1.0,1.0
1624332456.7840858,-35.156,-39.551,-34.18,1.0,1.0
1624332456.787992,-10.742,-61.523,-32.227,1.0,1.0
1624332456.7918983,-0.977,-79.102,-38.574,1.0,1.0
1624332456.7958045,-28.32,-25.391,-50.781000000000006,1.0,1.0
1624332456.7997108,-51.27,1.465,-40.039,1.0,1.0
1624332456.803617,-16.602,-19.043,-24.414,1.0,1.0
1624332456.8075233,-15.625,-22.461,-22.461,1.0,1.0
1624332456.8114297,-51.758,-36.621,-32.227,1.0,1.0
1624332456.8153358,-51.758,-28.32,-41.504,1.0,1.0
1624332456.819242,-29.785,-81.055,-54.688,-51.27,1.0
1624332456.8231483,15.137,-14.648,-48.34,32.715,1.0
1624332456.8270545,23.926,-2.93,-41.504,38.574,1.0
1624332456.8309608,1.465,-45.898,-20.02,-33.203,1.0
1624332456.834867,-13.672,-24.414,-1.953,-53.223,1.0
1624332456.838773,-10.254000000000001,4.883,-21.973000000000003,-5.371,1.0
1624332456.8426797,-3.906,-0.488,-25.391,17.09,1.0
1624332456.8465855,-24.414,-13.184000000000001,-14.16,-42.968999999999994,1.0
1624332456.8504922,-18.066,-44.434,3.418,-68.848,1.0
1624332456.854398,-5.371,-50.781000000000006,-17.578,-20.508000000000003,1.0
1624332456.8583043,-22.949,-23.926,-50.781000000000006,4.883,1.0
1624332456.862211,-30.761999999999997,1.465,-41.992,-31.738000000000003,1.0
1624332456.866117,0.977,-35.156,-62.5,-8.301,1.0
1624332456.870023,-26.366999999999997,-62.988,-32.227,-63.477,1.0
1624332456.8739295,-28.32,-20.996,-3.906,-27.344,1.0
1624332456.8778355,-16.113,-2.441,-5.371,21.973000000000003,1.0
1624332456.881742,-26.366999999999997,-3.906,-32.715,-19.043,1.0
1624332456.8856483,-59.082,4.883,-58.593999999999994,-92.773,1.0
1624332456.8895545,-49.316,-14.16,-50.781000000000006,-61.523,1.0
1624332456.8934608,-0.488,-16.602,-37.109,28.32,1.0
1624332456.897367,5.371,-14.648,-20.996,28.809,1.0
1624332456.9012733,-28.32,-39.551,-10.742,-50.293,1.0
1624332456.9051795,-35.645,-62.012,-0.977,-65.43,1.0
1624332456.9090855,28.809,-39.062,27.344,53.223,1.0
1624332456.912992,-3.418,-35.156,-30.273000000000003,83.984,1.0
1624332456.9168983,0.977,-36.133,-18.555,-43.945,1.0
1624332456.9208045,-72.75399999999999,-66.406,-50.781000000000006,-107.42200000000001,1.0
1624332456.9247108,-81.055,-55.176,-49.316,-54.688,1.0
1624332456.928617,-25.391,-11.719000000000001,-12.207,-2.93,1.0
1624332456.9325233,-7.324,4.883,-13.672,-55.176,1.0
1624332456.9364295,-33.203,-24.414,-31.25,-97.656,1.0
1624332456.9403358,-50.781000000000006,-69.824,-25.879,-28.32,1.0
1624332456.944242,-20.996,-27.831999999999997,-20.996,41.992,1.0
1624332456.9481483,-15.625,21.484,-38.574,18.555,1.0
1624332456.9520545,-43.457,-7.324,-41.992,-44.434,1.0
1624332456.955961,-68.359,-32.227,-19.531,-41.016000000000005,1.0
1624332456.959867,-57.129,-79.102,-22.461,-87.891,1.0
1624332456.963773,-23.926,-59.082,-20.02,-21.973000000000003,1.0
1624332456.9676797,0.0,-17.578,-48.828,27.344,1.0
1624332456.9715855,-24.901999999999997,16.113,-57.129,-20.02,1.0
1624332456.9754918,-58.105,2.441,-53.711000000000006,-95.70299999999999,1.0
1624332456.979398,-48.828,-13.184000000000001,-35.645,-71.289,1.0
1624332456.9833043,-4.883,-6.836,-11.23,17.578,1.0
1624332456.987211,-19.043,-21.484,-16.602,-4.883,1.0
1624332456.991117,-72.75399999999999,-47.852,-22.949,-102.539,1.0
1624332456.9950233,-56.152,-45.898,-12.207,-74.219,1.0
1624332456.9989295,1.953,-25.391,-18.066,30.273000000000003,1.0
1624332457.0028355,11.719000000000001,-28.809,-40.527,39.551,1.0
1624332457.006742,-10.254000000000001,-12.695,-36.133,15.625,1.0
1624332457.0106483,-39.551,-6.836,-20.02,-67.383,1.0
1624332457.0145543,-35.645,-26.366999999999997,-16.602,-63.965,1.0
1624332457.0184608,-32.715,-24.414,-42.968999999999994,-10.254000000000001,1.0
1624332457.022367,-20.508000000000003,-3.906,-23.438000000000002,8.301,1.0
1624332457.0262733,-23.438000000000002,-8.789,-24.901999999999997,-36.133,1.0
1624332457.0301795,-42.48,-22.949,-59.57,-73.242,1.0
1624332457.0340858,-29.785,-59.57,-40.039,-20.02,1.0
1624332457.037992,3.418,-60.059,9.766,39.062,1.0
1624332457.0418983,-5.371,-18.555,10.254000000000001,-10.254000000000001,1.0
1624332457.0458045,-56.641000000000005,-17.578,-27.344,-87.402,1.0
1624332457.0497108,-43.457,-10.742,-47.852,-42.968999999999994,1.0
1624332457.053617,-62.988,-34.18,-21.973000000000003,28.32,1.0
1624332457.0575233,-20.508000000000003,-37.109,1.465,-15.137,1.0
1624332457.0614297,-8.301,-33.691,1.465,-99.609,1.0
1624332457.0653358,-30.761999999999997,-40.039,-23.926,-81.543,1.0
1624332457.069242,-21.484,-28.809,-38.086,1.953,1.0
1624332457.0731483,-6.348,-29.785,-47.852,5.859,1.0
1624332457.0770545,-34.18,-40.527,-55.663999999999994,-62.988,1.0
1624332457.0809608,-65.918,-41.504,-34.18,-70.312,1.0
1624332457.084867,-56.641000000000005,-34.668,-19.531,16.602,1.0
1624332457.088773,-33.691,-12.695,-41.504,29.296999999999997,1.0
1624332457.0926797,-28.809,-10.254000000000001,-52.246,-73.242,1.0
1624332457.0965855,-24.414,-23.438000000000002,-18.555,-119.141,1.0
1624332457.1004922,-46.875,-17.09,-2.93,-77.637,1.0
1624332457.104398,-44.922,-0.977,-5.859,-67.383,1.0
1624332457.1083043,-26.855,-16.602,-29.296999999999997,-2.441,1.0
1624332457.112211,-1.953,-10.742,-23.926,26.366999999999997,1.0
1624332457.116117,-18.555,-9.277000000000001,-32.715,-42.968999999999994,1.0
1624332457.120023,-53.711000000000006,-20.508000000000003,-58.593999999999994,-92.285,1.0
1624332457.1239295,-47.363,-40.039,-34.668,-28.809,1.0
1624332457.1278355,-23.926,-46.875,-9.766,20.508000000000003,1.0
1624332457.131742,-40.039,-31.738000000000003,-29.785,-32.715,1.0
1624332457.1356483,-60.547,-19.043,-30.761999999999997,-82.031,1.0
1624332457.1395545,-35.156,-8.301,-34.668,-28.809,1.0
1624332457.1434608,28.809,-23.438000000000002,-7.324,64.941,1.0
1624332457.147367,3.418,-52.246,-23.926,1.0,1.0
1624332457.1512733,-16.602,-28.32,-31.25,1.0,1.0
1624332457.1551795,-61.523,-2.93,-42.48,1.0,1.0
1624332457.1590855,-69.824,-3.418,-51.27,1.0,1.0
1624332457.162992,-21.484,-21.973000000000003,-26.855,1.0,1.0
1624332457.1668983,-16.113,-59.57,-17.578,1.0,1.0
1624332457.1708045,-33.203,-48.828,-22.461,1.0,1.0
1624332457.1747108,-18.555,-15.137,-25.879,1.0,1.0
1624332457.178617,-12.207,-8.301,-52.246,1.0,1.0
1624332457.1825233,-21.484,-19.531,-44.434,1.0,1.0
1624332457.1864295,-47.363,-21.973000000000003,-15.625,1.0,1.0
1624332457.1903358,-45.41,-9.277000000000001,-1.465,1.0,1.0
1624332457.194242,-35.645,-44.922,-41.016000000000005,-56.641000000000005,1.0
1624332457.1981483,-6.348,-29.296999999999997,-17.09,21.973000000000003,1.0
1624332457.2020545,6.836,8.301,11.23,30.273000000000003,1.0
1624332457.205961,-4.395,-20.508000000000003,6.836,-27.344,1.0
1624332457.209867,-33.691,-44.922,-34.668,-57.129,1.0
1624332457.213773,-37.109,-22.461,-62.5,-11.719000000000001,1.0
1624332457.2176797,-21.484,-34.668,-41.504,17.09,1.0
1624332457.2215855,-41.992,-41.992,-31.25,-49.316,1.0
1624332457.2254918,-54.688,-2.93,-22.461,-90.82,1.0
1624332457.229398,-27.831999999999997,-21.973000000000003,-31.25,-26.855,1.0
1624332457.2333043,8.789,-66.406,-46.875,42.48,1.0
1624332457.237211,-1.953,-24.901999999999997,-10.742,3.906,1.0
1624332457.241117,12.695,-32.715,-2.441,-7.324,1.0
1624332457.2450233,-58.593999999999994,-54.688,-24.414,-106.934,1.0
1624332457.2489295,-76.172,-38.086,-46.875,-70.801,1.0
1624332457.2528355,-22.949,-9.277000000000001,-41.016000000000005,26.855,1.0
1624332457.256742,-17.09,-20.508000000000003,-37.598,-2.441,1.0
1624332457.2606483,-52.246,-49.316,-35.156,-85.93799999999999,1.0
1624332457.2645543,-48.34,-50.293,-22.461,-57.617,1.0
1624332457.2684608,-1.465,-14.648,-16.602,30.761999999999997,1.0
1624332457.272367,7.812,-5.371,-27.344,22.949,1.0
1624332457.2762733,-37.598,-40.527,-31.25,-63.965,1.0
1624332457.2801795,-61.035,-32.715,-17.09,-88.867,1.0
1624332457.2840858,-30.273000000000003,-15.137,-9.277000000000001,-17.578,1.0
1624332457.287992,-14.16,-10.742,-43.457,15.137,1.0
1624332457.2918983,7.324,-42.48,-63.477,-48.34,1.0
1624332457.2958045,-1.953,-65.43,-25.879,-77.148,1.0
1624332457.2997108,-43.457,-39.551,-5.859,-12.207,1.0
1624332457.303617,-45.898,-5.859,-22.949,41.992,1.0
1624332457.3075233,-14.16,16.602,-25.879,-21.484,1.0
1624332457.3114297,-36.133,5.371,-23.438000000000002,-87.891,1.0
1624332457.3153358,-57.617,-19.043,-32.715,-35.645,1.0
1624332457.319242,-6.348,-18.555,-39.551,13.672,1.0
1624332457.3231483,15.625,-31.738000000000003,-30.273000000000003,-39.551,1.0
1624332457.3270545,-27.344,-40.039,-5.371,-101.56200000000001,1.0
1624332457.3309608,-62.012,-41.992,-20.508000000000003,-61.035,1.0
1624332457.334867,-51.758,-38.574,-4.883,-82.52,1.0
1624332457.338773,-55.176,-13.184000000000001,-8.789,-39.551,1.0
1624332457.3426797,-23.926,0.488,-29.785,10.742,1.0
1624332457.3465855,-25.391,-7.324,-30.761999999999997,-23.926,1.0
1624332457.3504922,-63.477,-28.809,-36.621,-87.891,1.0
1624332457.354398,-60.059,-46.387,-34.18,-63.477,1.0
1624332457.3583043,-9.277000000000001,-55.663999999999994,-32.227,19.043,1.0
1624332457.362211,-3.906,-63.965,-32.227,-1.465,1.0
1624332457.366117,-26.366999999999997,-35.645,0.488,-62.5,1.0
1624332457.370023,-32.715,-19.043,10.742,-55.176,1.0
1624332457.3739295,-16.602,-13.184000000000001,-26.855,8.789,1.0
1624332457.3778355,-26.366999999999997,-2.93,-50.781000000000006,0.0,1.0
1624332457.381742,-25.391,-28.809,-19.043,-3.418,1.0
1624332457.3856483,-55.176,-45.41,-21.484,-80.078,1.0
1624332457.3895545,-58.593999999999994,-45.41,-21.484,-74.707,1.0
1624332457.3934608,-20.996,-31.25,-22.461,13.672,1.0
1624332457.397367,-3.906,-19.043,-15.625,28.809,1.0
1624332457.4012733,-34.668,-28.32,-24.901999999999997,-57.617,1.0
1624332457.4051795,-57.129,-29.785,-40.527,-88.37899999999999,1.0
1624332457.4090855,-12.207,-2.441,-36.133,2.93,1.0
1624332457.412992,8.301,-2.441,-35.645,45.41,1.0
1624332457.4168983,-29.296999999999997,-39.062,-44.434,-30.273000000000003,1.0
1624332457.4208045,-42.48,-50.781000000000006,-32.715,-74.707,1.0
1624332457.4247108,-19.531,-30.761999999999997,-28.32,-32.227,1.0
1624332457.428617,-41.992,-56.152,-41.016000000000005,12.207,1.0
1624332457.4325233,-0.977,-30.273000000000003,-32.715,-14.16,1.0
1624332457.4364295,-28.809,-9.277000000000001,-47.363,-83.49600000000001,1.0
1624332457.4403358,-68.359,-22.949,-40.039,-60.059,1.0
1624332457.444242,-35.156,-19.043,-4.883,23.926,1.0
1624332457.4481483,5.859,-2.441,3.418,5.859,1.0
1624332457.4520545,-19.043,-15.625,-37.109,-49.316,1.0
1624332457.455961,-62.5,-47.363,-57.617,-46.875,1.0
1624332457.459867,-48.828,-56.641000000000005,-25.879,-1.465,1.0
1624332457.463773,-11.23,-40.039,-17.578,13.672,1.0
1624332457.4676797,2.441,-31.25,-22.949,-60.547,1.0
1624332457.4715855,-23.438000000000002,-44.434,-18.066,-99.609,1.0
1624332457.4754918,-62.988,-14.16,-17.578,-97.16799999999999,1.0
1624332457.479398,-76.66,-42.968999999999994,-21.484,-95.70299999999999,1.0
1624332457.4833043,-32.715,-39.062,-30.761999999999997,-8.789,1.0
1624332457.487211,1.465,-16.113,-17.578,17.09,1.0
1624332457.491117,-24.901999999999997,-30.273000000000003,-8.789,-51.758,1.0
1624332457.4950233,-39.062,-38.574,-36.621,-72.266,1.0
1624332457.4989295,-14.648,-39.551,-49.316,-0.488,1.0
1624332457.5028355,-19.043,-39.551,-44.434,14.16,1.0
1624332457.506742,-50.293,5.371,-38.086,-59.082,1.0
1624332457.5106483,-67.383,19.531,-17.578,-92.773,1.0
1624332457.5145543,-44.922,-13.184000000000001,-18.066,-38.086,1.0
1624332457.5184608,-19.531,-28.809,-26.855,15.625,1.0
1624332457.522367,-30.761999999999997,-8.301,-21.484,1.0,1.0
1624332457.5262733,-37.598,-21.973000000000003,-25.879,1.0,1.0
1624332457.5301795,-55.663999999999994,-49.316,-35.156,1.0,1.0
1624332457.5340858,-30.273000000000003,-54.688,-44.922,1.0,1.0
1624332457.537992,0.977,-48.828,-37.109,1.0,1.0
1624332457.5418983,-20.508000000000003,-33.203,-18.066,1.0,1.0
1624332457.5458045,-57.617,-20.996,-8.301,1.0,1.0
1624332457.5497108,-49.805,-14.16,-9.766,1.0,1.0
1624332457.553617,-24.414,-11.23,-18.555,1.0,1.0
1624332457.5575233,-45.41,-11.23,-37.598,1.0,1.0
1624332457.5614297,-65.43,-11.719000000000001,-56.152,1.0,1.0
1624332457.5653358,-56.152,-43.457,-51.27,1.0,1.0
1624332457.569242,-23.438000000000002,-13.672,0.0,-40.527,1.0
1624332457.5731483,-65.918,-9.766,-9.766,-84.961,1.0
1624332457.5770545,-48.34,-17.578,-21.484,-21.973000000000003,1.0
1624332457.5809608,-8.789,-41.016000000000005,-11.23,33.691,1.0
1624332457.584867,-28.32,-46.387,-19.043,-23.926,1.0
1624332457.588773,-69.336,-28.809,-35.156,-96.68,1.0
1624332457.5926797,-41.992,-19.043,-22.461,-44.922,1.0
1624332457.5965855,9.277000000000001,-7.324,-6.348,41.504,1.0
1624332457.6004922,2.93,-32.715,-34.668,18.066,1.0
1624332457.604398,-39.062,-48.828,-55.663999999999994,-55.176,1.0
1624332457.6083043,-42.968999999999994,-20.508000000000003,-37.109,-51.27,1.0
1624332457.612211,-9.766,-8.301,-38.574,12.207,1.0
1624332457.616117,0.977,-16.602,-7.324,6.836,1.0
1624332457.620023,-18.066,-36.621,-18.066,-59.082,1.0
1624332457.6239295,-62.988,-41.992,-49.316,-71.777,1.0
1624332457.6278355,-54.199,-20.508000000000003,-49.316,-6.348,1.0
1624332457.631742,-6.348,-26.855,-18.555,49.316,1.0
1624332457.6356483,-5.859,-46.875,-20.508000000000003,-6.348,1.0
1624332457.6395545,-50.781000000000006,-30.273000000000003,-31.738000000000003,-64.453,1.0
1624332457.6434608,-68.359,-40.527,-26.855,-12.695,1.0
1624332457.647367,-33.691,-48.34,-23.926,35.645,1.0
1624332457.6512733,-20.508000000000003,-9.766,-34.18,-34.668,1.0
1624332457.6551795,-52.733999999999995,-7.812,-46.875,-121.094,1.0
1624332457.6590855,-69.824,-25.391,-38.086,-66.895,1.0
1624332457.662992,-27.831999999999997,-18.066,-8.301,-75.195,1.0
1624332457.6668983,-19.531,-21.484,-19.531,-25.879,1.0
1624332457.6708045,-5.371,-6.348,-26.366999999999997,19.531,1.0
1624332457.6747108,-36.621,-9.277000000000001,-27.831999999999997,-43.457,1.0
1624332457.678617,-62.988,-24.414,-24.901999999999997,-103.516,1.0
1624332457.6825233,-30.761999999999997,-20.996,-16.602,-46.875,1.0
1624332457.6864295,-11.23,-49.805,-41.992,11.719000000000001,1.0
1624332457.6903358,0.0,-46.875,-35.645,-4.883,1.0
1624332457.694242,-18.066,-14.648,-20.02,-64.453,1.0
1624332457.6981483,-56.152,-29.785,-54.199,-74.219,1.0
1624332457.7020545,-41.016000000000005,-33.203,-57.617,-13.184000000000001,1.0
1624332457.705961,-27.831999999999997,-5.859,-26.855,-10.254000000000001,1.0
1624332457.709867,-20.996,-31.25,-23.438000000000002,1.0,1.0
1624332457.713773,-32.715,-54.688,-30.273000000000003,1.0,1.0
1624332457.7176797,-32.715,-36.621,-37.109,1.0,1.0
1624332457.7215855,-17.09,-20.02,-37.109,1.0,1.0
1624332457.7254918,-15.137,-16.113,-21.973000000000003,1.0,1.0
1624332457.729398,-50.781000000000006,-17.578,-22.461,1.0,1.0
1624332457.7333043,-46.875,-20.996,-11.719000000000001,1.0,1.0
1624332457.737211,-21.973000000000003,-31.738000000000003,-20.02,1.0,1.0
1624332457.741117,-16.602,-25.879,-31.25,1.0,1.0
1624332457.7450233,-38.574,-20.02,-30.761999999999997,1.0,1.0
1624332457.7489295,-61.523,-27.831999999999997,-32.715,1.0,1.0
1624332457.7528355,-28.809,-14.648,-32.715,1.0,1.0
1624332457.756742,-54.688,0.0,-44.922,-51.758,1.0
1624332457.7606483,-45.898,-30.273000000000003,-36.133,-13.184000000000001,1.0
1624332457.7645543,-54.199,-44.434,-36.621,-54.688,1.0
1624332457.7684608,-73.73,-44.434,-26.855,-99.609,1.0
1624332457.772367,-46.875,-13.672,-19.043,-38.086,1.0
1624332457.7762733,-8.789,-10.254000000000001,-28.32,30.273000000000003,1.0
1624332457.7801795,-8.301,-23.438000000000002,-26.855,-8.789,1.0
1624332457.7840858,-31.738000000000003,-12.207,-22.461,-64.453,1.0
1624332457.787992,-48.34,-9.277000000000001,-15.625,-48.828,1.0
1624332457.7918983,-36.133,-6.836,-11.23,2.441,1.0
1624332457.7958045,-40.039,-11.719000000000001,-15.625,-16.113,1.0
1624332457.7997108,-70.312,-32.715,-43.457,-91.79700000000001,1.0
1624332457.803617,-43.457,-38.574,-16.602,-72.266,1.0
1624332457.8075233,-23.438000000000002,6.836,-1.465,-42.48,1.0
1624332457.8114297,1.953,11.719000000000001,-6.348,35.156,1.0
1624332457.8153358,5.371,-12.695,-4.395,33.691,1.0
1624332457.819242,-44.434,-36.133,-31.738000000000003,-68.359,1.0
1624332457.8231483,-65.918,-40.527,-35.156,-88.37899999999999,1.0
1624332457.8270545,-6.348,-13.672,-19.043,14.648,1.0
1624332457.8309608,15.625,-7.324,-27.344,40.527,1.0
1624332457.834867,-39.551,-57.129,-27.344,-45.41,1.0
1624332457.838773,-73.242,-79.102,-26.855,-89.355,1.0
1624332457.8426797,-36.621,-47.852,-25.879,-17.09,1.0
1624332457.8465855,-6.836,-28.809,-12.695,34.668,1.0
1624332457.8504922,-26.855,1.953,-42.48,1.0,1.0
1624332457.854398,-52.246,7.324,-6.348,1.0,1.0
1624332457.8583043,-49.316,-5.859,13.672,1.0,1.0
1624332457.862211,-41.016000000000005,-20.02,-11.23,1.0,1.0
1624332457.866117,-19.043,-44.922,-28.809,1.0,1.0
1624332457.870023,-21.484,-46.875,-32.715,1.0,1.0
1624332457.8739295,-42.968999999999994,-12.695,-20.996,1.0,1.0
1624332457.8778355,-42.968999999999994,-13.184000000000001,-29.785,1.0,1.0
1624332457.881742,-23.926,-28.809,-45.41,1.0,1.0
1624332457.8856483,-28.809,-34.18,-37.109,1.0,1.0
1624332457.8895545,-48.828,-43.945,-30.273000000000003,1.0,1.0
1624332457.8934608,-49.805,-30.273000000000003,-30.761999999999997,1.0,1.0
1624332457.897367,-56.152,-41.504,-20.508000000000003,-75.195,1.0
1624332457.9012733,-4.883,-40.039,-11.23,16.113,1.0
1624332457.9051795,0.488,-30.273000000000003,-19.531,2.93,1.0
1624332457.9090855,-28.809,-13.184000000000001,-51.758,-79.102,1.0
1624332457.912992,-60.547,-18.555,-48.828,-86.426,1.0
1624332457.9168983,-33.203,-21.973000000000003,-32.227,-1.953,1.0
1624332457.9208045,7.812,-5.371,-31.738000000000003,30.761999999999997,1.0
1624332457.9247108,-34.668,-11.23,-48.828,-57.617,1.0
1624332457.928617,-64.453,-9.277000000000001,-61.035,-104.00399999999999,1.0
1624332457.9325233,-44.922,3.906,-62.012,-42.48,1.0
1624332457.9364295,-41.016000000000005,-13.672,-45.41,-7.324,1.0
1624332457.9403358,-63.477,-29.785,-37.598,-72.75399999999999,1.0
1624332457.944242,-37.109,-31.25,-29.296999999999997,-47.363,1.0
1624332457.9481483,-65.43,-47.852,-12.207,-89.355,1.0
1624332457.9520545,-24.414,-30.761999999999997,-0.488,-4.395,1.0
1624332457.955961,2.441,-22.461,-6.836,41.992,1.0
1624332457.959867,-21.973000000000003,-28.809,-14.16,-22.461,1.0
1624332457.963773,-54.199,-0.488,-30.761999999999997,-85.93799999999999,1.0
1624332457.9676797,-58.105,3.906,-45.898,-56.152,1.0
1624332457.9715855,-17.578,-6.348,-27.831999999999997,17.09,1.0
1624332457.9754918,-13.672,-3.418,-17.09,-9.277000000000001,1.0
1624332457.979398,-36.133,-15.137,-6.348,-80.566,1.0
1624332457.9833043,-32.715,-54.199,-11.23,-58.105,1.0
1624332457.987211,0.488,-26.855,-20.996,31.738000000000003,1.0
1624332457.991117,-22.461,-16.113,-30.273000000000003,28.32,1.0
1624332457.9950233,-38.574,-29.785,-31.738000000000003,-61.523,1.0
1624332457.9989295,-62.5,-45.41,-33.203,-70.312,1.0
1624332458.0028355,-47.363,-53.223,-25.879,-4.883,1.0
1624332458.006742,-19.531,-34.668,-37.598,31.25,1.0
1624332458.0106483,-7.324,-27.344,-39.551,-38.574,1.0
1624332458.0145543,-21.484,-20.02,-10.742,-102.539,1.0
1624332458.0184608,-38.574,-20.508000000000003,-24.901999999999997,-17.578,1.0
1624332458.022367,-36.621,-37.109,-37.109,60.547,1.0
1624332458.0262733,-28.32,-28.32,-36.133,-15.137,1.0
1624332458.0301795,-57.617,-14.16,-64.941,-108.398,1.0
1624332458.0340858,-79.102,-24.414,-58.105,-67.383,1.0
1624332458.037992,-59.082,-21.973000000000003,-28.809,-92.285,1.0
1624332458.0418983,-34.668,-20.996,-23.926,-32.715,1.0
1624332458.0458045,-11.719000000000001,-28.32,-35.156,14.648,1.0
1624332458.0497108,-20.996,-40.039,-39.062,-34.668,1.0
1624332458.053617,-34.668,-51.758,-21.973000000000003,-79.102,1.0
1624332458.0575233,-20.508000000000003,-33.203,2.93,-27.831999999999997,1.0
1624332458.0614297,12.695,10.742,-1.953,35.645,1.0
1624332458.0653358,-4.395,3.418,-32.227,-9.766,1.0
1624332458.069242,-46.387,-36.133,-45.41,-77.148,1.0
1624332458.0731483,-21.973000000000003,-28.809,-28.32,-31.25,1.0
1624332458.0770545,13.672,1.465,-10.254000000000001,42.48,1.0
1624332458.0809608,-18.066,-10.742,-16.113,-0.977,1.0
1624332458.084867,8.301,-34.668,-13.672,1.0,1.0
1624332458.088773,-56.641000000000005,-33.203,-48.34,1.0,1.0
1624332458.0926797,-83.984,-14.16,-43.945,1.0,1.0
1624332458.0965855,-43.945,-30.761999999999997,-35.645,1.0,1.0
1624332458.1004922,-16.602,-43.945,-28.809,1.0,1.0
1624332458.104398,-36.621,-1.465,-20.996,1.0,1.0
1624332458.1083043,-56.152,-0.977,-30.273000000000003,1.0,1.0
1624332458.112211,-38.086,-30.761999999999997,-28.809,1.0,1.0
1624332458.116117,-25.391,-36.133,-20.996,1.0,1.0
1624332458.120023,-38.574,-21.973000000000003,-11.23,1.0,1.0
1624332458.1239295,-56.152,-29.785,-11.719000000000001,1.0,1.0
1624332458.1278355,-29.785,-37.598,-23.438000000000002,1.0,1.0
1624332458.131742,-6.836,-12.207,-38.574,7.324,1.0
1624332458.1356483,-4.883,-20.996,-84.473,9.766,1.0
1624332458.1395545,-24.901999999999997,-26.855,-53.223,-56.152,1.0
1624332458.1434608,-58.105,-26.366999999999997,-28.32,-93.75,1.0
1624332458.147367,-30.761999999999997,-12.695,-15.625,-30.273000000000003,1.0
1624332458.1512733,9.277000000000001,-11.23,-4.395,35.645,1.0
1624332458.1551795,-15.137,-40.039,-21.484,-16.113,1.0
1624332458.1590855,-62.988,-66.895,-46.387,-95.215,1.0
1624332458.162992,-37.598,-44.434,-28.809,-48.34,1.0
1624332458.1668983,10.254000000000001,-2.441,-3.906,39.551,1.0
1624332458.1708045,-5.371,-12.207,-15.137,12.695,1.0
1624332458.1747108,-34.18,-29.296999999999997,-19.043,-63.965,1.0
1624332458.178617,-61.035,-6.836,-32.715,-93.262,1.0
1624332458.1825233,-73.73,-22.949,-61.523,-89.355,1.0
1624332458.1864295,-38.086,-27.344,-62.988,-4.883,1.0
1624332458.1903358,-35.645,-38.574,-62.5,-24.901999999999997,1.0
1624332458.194242,-58.593999999999994,-29.785,-37.598,-93.75,1.0
1624332458.1981483,-60.547,-32.715,0.0,-76.66,1.0
1624332458.2020545,-18.555,-45.898,1.465,5.371,1.0
1624332458.205961,6.836,-34.668,-3.906,30.761999999999997,1.0
1624332458.209867,-24.901999999999997,-25.391,-6.836,-43.945,1.0
1624332458.213773,-74.707,-22.461,-45.41,-97.16799999999999,1.0
1624332458.2176797,-54.199,-18.555,-53.711000000000006,-34.668,1.0
1624332458.2215855,-5.371,-24.901999999999997,-30.273000000000003,35.156,1.0
1624332458.2254918,-25.391,-68.359,-47.363,1.0,1.0
1624332458.229398,-46.875,-67.383,-54.199,1.0,1.0
1624332458.2333043,-51.27,-30.761999999999997,-30.761999999999997,1.0,1.0
1624332458.237211,-27.831999999999997,-1.465,-19.043,1.0,1.0
1624332458.241117,2.93,-0.977,-23.926,1.0,1.0
1624332458.2450233,-24.901999999999997,4.395,-33.203,1.0,1.0
1624332458.2489295,-69.336,-1.465,-44.434,1.0,1.0
1624332458.2528355,-71.289,-38.086,-52.733999999999995,1.0,1.0
1624332458.256742,-44.922,-44.434,-30.273000000000003,1.0,1.0
1624332458.2606483,-30.273000000000003,-21.484,1.465,1.0,1.0
1624332458.2645543,-34.18,-32.715,2.441,1.0,1.0
1624332458.2684608,-32.715,-63.965,-18.555,1.0,1.0
1624332458.272367,-71.289,-28.32,-44.922,-83.008,1.0
1624332458.2762733,-34.18,-24.901999999999997,-45.41,-14.648,1.0
1624332458.2801795,-39.062,-20.02,-49.805,-31.738000000000003,1.0
1624332458.2840858,-78.613,-34.668,-48.34,-104.492,1.0
1624332458.287992,-62.012,-27.831999999999997,-24.901999999999997,-75.684,1.0
1624332458.2918983,-11.719000000000001,-12.695,-11.23,20.02,1.0
1624332458.2958045,8.789,-28.32,-23.438000000000002,29.785,1.0
1624332458.2997108,-15.137,-41.016000000000005,-28.32,-40.039,1.0
1624332458.303617,-30.273000000000003,-27.344,-26.855,-62.012,1.0
1624332458.3075233,-13.184000000000001,-27.831999999999997,-28.32,-9.277000000000001,1.0
1624332458.3114297,-13.184000000000001,-14.16,-34.18,11.23,1.0
1624332458.3153358,-45.41,-6.836,-34.18,-61.035,1.0
1624332458.319242,-15.137,-19.531,-33.203,-37.598,1.0
1624332458.3231483,-36.133,-41.992,-30.273000000000003,-72.75399999999999,1.0
1624332458.3270545,-18.066,-30.761999999999997,-17.09,-12.207,1.0
1624332458.3309608,-17.09,-11.23,-27.344,22.949,1.0
1624332458.334867,-42.968999999999994,-23.926,-35.156,-38.574,1.0
1624332458.338773,-58.105,-37.598,-30.761999999999997,-94.727,1.0
1624332458.3426797,-21.973000000000003,-44.922,-32.227,-40.039,1.0
1624332458.3465855,-4.883,-45.41,-27.344,20.508000000000003,1.0
1624332458.3504922,-48.34,-25.879,-43.945,-29.296999999999997,1.0
1624332458.354398,-74.219,-2.93,-57.617,-106.445,1.0
1624332458.3583043,-17.09,7.812,-31.25,-45.898,1.0
1624332458.362211,18.555,-30.761999999999997,-21.484,40.039,1.0
1624332458.366117,-33.203,-29.296999999999997,-34.668,6.348,1.0
1624332458.370023,-54.199,-31.25,-52.246,-79.102,1.0
1624332458.3739295,-75.195,-19.043,-50.293,-101.074,1.0
1624332458.3778355,-66.406,-24.414,-48.34,-11.23,1.0
1624332458.381742,-27.344,-30.273000000000003,-35.645,26.366999999999997,1.0
1624332458.3856483,-16.113,-38.574,-16.113,-46.387,1.0
1624332458.3895545,-27.831999999999997,-48.828,-5.371,-74.707,1.0
1624332458.3934608,-18.066,-31.738000000000003,-4.883,-6.348,1.0
1624332458.397367,6.348,-6.836,-14.16,38.574,1.0
1624332458.4012733,-5.371,-18.555,-24.901999999999997,-12.695,1.0
1624332458.4051795,-53.223,-41.016000000000005,-46.875,-78.613,1.0
1624332458.4090855,-72.266,-15.625,-42.968999999999994,-43.457,1.0
1624332458.412992,-63.965,-30.273000000000003,-59.57,-100.586,1.0
1624332458.4168983,-19.531,-32.227,-21.484,-20.02,1.0
1624332458.4208045,10.254000000000001,-14.16,8.789,33.203,1.0
1624332458.4247108,-20.02,-21.973000000000003,-10.742,-40.039,1.0
1624332458.428617,-43.457,-23.926,-32.227,-88.37899999999999,1.0
1624332458.4325233,-21.973000000000003,-5.371,-44.434,-34.668,1.0
1624332458.4364295,-7.324,-13.672,-41.504,10.742,1.0
1624332458.4403358,-16.113,-8.301,-31.25,-25.391,1.0
1624332458.444242,-30.761999999999997,-22.949,-38.574,-82.52,1.0
1624332458.4481483,-11.719000000000001,-41.504,-44.922,-34.18,1.0
1624332458.4520545,12.695,-23.926,-46.387,41.504,1.0
1624332458.455961,0.488,-22.461,-25.391,17.578,1.0
1624332458.459867,-41.016000000000005,-7.324,-49.316,1.0,1.0
1624332458.463773,-68.848,-1.465,-30.273000000000003,1.0,1.0
1624332458.4676797,-52.246,-5.859,-20.02,1.0,1.0
1624332458.4715855,-18.555,-16.113,-19.043,1.0,1.0
1624332458.4754918,-20.02,-25.391,-30.273000000000003,1.0,1.0
1624332458.479398,-45.41,-34.18,-32.715,1.0,1.0
1624332458.4833043,-32.715,-20.996,-28.809,1.0,1.0
1624332458.487211,10.742,-24.901999999999997,-34.18,1.0,1.0
1624332458.491117,23.438000000000002,-60.547,-0.488,1.0,1.0
1624332458.4950233,-22.461,-51.758,-14.16,1.0,1.0
1624332458.4989295,-50.781000000000006,-2.93,-61.035,1.0,1.0
1624332458.5028355,-25.391,1.953,-32.227,1.0,1.0
1624332458.506742,-25.391,-27.344,-12.207,-11.23,1.0
1624332458.5106483,-10.254000000000001,-71.777,-10.254000000000001,22.461,1.0
1624332458.5145543,-32.227,-78.125,-25.391,-55.663999999999994,1.0
1624332458.5184608,-50.781000000000006,-41.016000000000005,-30.761999999999997,-93.75,1.0
1624332458.522367,-27.831999999999997,2.93,-34.18,-23.438000000000002,1.0
1624332458.5262733,-2.93,13.184000000000001,-44.434,20.996,1.0
1624332458.5301795,-15.137,-13.672,-56.641000000000005,-26.366999999999997,1.0
1624332458.5340858,-35.645,-47.363,-50.781000000000006,-76.172,1.0
1624332458.537992,-35.645,-49.316,-34.668,-44.434,1.0
1624332458.5418983,-23.438000000000002,-20.02,-16.113,14.648,1.0
1624332458.5458045,-19.531,-15.137,4.395,-7.812,1.0
1624332458.5497108,-54.688,-12.695,-10.742,-88.867,1.0
1624332458.553617,-45.898,-8.301,-32.715,-79.102,1.0
1624332458.5575233,-31.25,0.488,-8.301,-45.898,1.0
1624332458.5614297,-21.973000000000003,-25.391,-30.761999999999997,21.484,1.0
1624332458.5653358,-40.527,-58.593999999999994,-59.57,-17.09,1.0
1624332458.569242,-66.406,-47.852,-40.039,-88.867,1.0
1624332458.5731483,-43.945,-30.761999999999997,-8.789,-36.133,1.0
1624332458.5770545,-10.742,-18.555,-10.742,24.414,1.0
1624332458.5809608,-32.227,-25.391,-37.598,-30.273000000000003,1.0
1624332458.584867,-53.711000000000006,-14.648,-21.973000000000003,-96.191,1.0
1624332458.588773,-45.898,-1.953,-1.465,-66.406,1.0
1624332458.5926797,-33.691,-13.184000000000001,-23.926,-7.812,1.0
1624332458.5965855,-48.828,-38.086,-37.109,-33.203,1.0
1624332458.6004922,-26.855,-47.363,-39.062,-20.02,1.0
1624332458.604398,-48.828,3.418,-7.324,-77.637,1.0
1624332458.6083043,-50.781000000000006,0.977,-16.113,-53.223,1.0
1624332458.612211,-10.742,-27.344,-40.039,20.508000000000003,1.0
1624332458.616117,8.301,-13.184000000000001,-21.484,23.438000000000002,1.0
1624332458.620023,-25.879,2.441,-3.906,-52.246,1.0
1624332458.6239295,-49.316,-27.831999999999997,-18.066,-74.219,1.0
1624332458.6278355,-12.207,-34.668,-20.02,11.719000000000001,1.0
1624332458.631742,-3.418,-33.691,-20.996,30.761999999999997,1.0
1624332458.6356483,-64.941,-44.922,-47.363,-75.195,1.0
1624332458.6395545,-98.633,-40.039,-47.363,-125.977,1.0
1624332458.6434608,-62.5,-34.18,-26.366999999999997,-49.316,1.0
1624332458.647367,-23.438000000000002,-19.043,-18.066,-0.977,1.0
1624332458.6512733,-5.371,-17.578,-6.348,30.761999999999997,1.0
1624332458.6551795,-10.742,-12.695,-5.371,-23.926,1.0
1624332458.6590855,-43.457,-22.461,-29.296999999999997,-76.66,1.0
1624332458.662992,-24.414,-52.246,-34.18,-15.625,1.0
1624332458.6668983,4.395,-63.477,-36.621,44.434,1.0
1624332458.6708045,-20.508000000000003,-27.831999999999997,-37.598,-9.766,1.0
1624332458.6747108,-55.176,-6.836,-43.457,-85.93799999999999,1.0
1624332458.678617,-33.691,-20.508000000000003,-29.785,-43.945,1.0
1624332458.6825233,8.789,-21.973000000000003,-4.395,43.945,1.0
1624332458.6864295,-4.395,-33.203,-9.766,16.602,1.0
1624332458.6903358,-44.434,-53.223,-19.043,-67.383,1.0
1624332458.694242,-41.992,-46.875,-22.461,-77.637,1.0
1624332458.6981483,-33.203,-8.789,-25.879,-38.086,1.0
1624332458.7020545,-16.602,-4.395,-45.898,29.296999999999997,1.0
1624332458.705961,-23.926,-12.695,-62.012,-3.906,1.0
1624332458.709867,-57.129,-17.09,-69.824,-85.93799999999999,1.0
1624332458.713773,-52.246,-14.16,-60.547,-73.73,1.0
1624332458.7176797,-14.648,-28.809,-30.761999999999997,3.906,1.0
1624332458.7215855,-10.254000000000001,-51.758,-7.812,18.066,1.0
1624332458.7254918,-43.945,-33.203,-8.301,-49.805,1.0
1624332458.729398,-64.453,-39.551,-21.484,-80.078,1.0
1624332458.7333043,-30.761999999999997,-72.266,-12.695,-16.113,1.0
1624332458.737211,5.371,-41.016000000000005,2.441,33.203,1.0
1624332458.741117,-24.901999999999997,-47.852,-66.406,-39.062,1.0
1624332458.7450233,-53.711000000000006,-18.555,-51.27,-100.586,1.0
1624332458.7489295,-72.266,-10.742,-38.574,-52.733999999999995,1.0
1624332458.7528355,-52.246,-38.086,-35.156,2.93,1.0
1624332458.756742,-7.324,-35.645,-38.086,-40.039,1.0
1624332458.7606483,-15.625,-22.461,-41.016000000000005,-112.79299999999999,1.0
1624332458.7645543,-68.848,-25.879,-45.41,-71.777,1.0
1624332458.7684608,-62.012,-37.598,-35.156,5.371,1.0
1624332458.772367,-25.879,-29.785,-12.695,-11.719000000000001,1.0
1624332458.7762733,-34.18,-5.859,-13.672,-69.336,1.0
1624332458.7801795,-64.453,-27.344,-36.133,-60.059,1.0
1624332458.7840858,-55.176,-58.593999999999994,-46.875,-5.371,1.0
1624332458.787992,-71.289,8.301,-41.992,-70.312,1.0
1624332458.7918983,-34.18,10.742,-25.879,1.465,1.0
1624332458.7958045,-28.32,-3.418,-16.602,-15.625,1.0
1624332458.7997108,-53.711000000000006,-24.901999999999997,-31.738000000000003,-83.008,1.0
1624332458.803617,-25.879,-39.062,-22.461,-46.387,1.0
1624332458.8075233,13.672,-19.531,-8.789,38.574,1.0
1624332458.8114297,8.301,-15.137,-55.663999999999994,29.785,1.0
1624332458.8153358,-46.875,-46.387,-69.824,-70.801,1.0
1624332458.819242,-78.125,-21.484,-28.32,-103.027,1.0
1624332458.8231483,-31.25,24.901999999999997,-29.296999999999997,-19.043,1.0
1624332458.8270545,-14.648,9.766,-50.293,11.23,1.0
1624332458.8309608,-58.593999999999994,-21.973000000000003,-24.414,-67.87100000000001,1.0
1624332458.834867,-41.504,-26.366999999999997,-29.785,1.0,1.0
1624332458.838773,-48.828,-18.066,-23.438000000000002,1.0,1.0
1624332458.8426797,-17.09,-19.043,-10.742,1.0,1.0
1624332458.8465855,-4.395,-25.391,-20.996,1.0,1.0
1624332458.8504922,-48.34,-40.527,-44.922,1.0,1.0
1624332458.854398,-75.195,-42.968999999999994,-47.363,1.0,1.0
1624332458.8583043,-51.27,-23.438000000000002,-45.898,1.0,1.0
1624332458.862211,-23.926,-28.809,-26.855,1.0,1.0
1624332458.866117,-16.602,-27.831999999999997,-5.371,1.0,1.0
1624332458.870023,-36.133,-31.25,-22.461,1.0,1.0
1624332458.8739295,-40.527,-52.733999999999995,-51.27,1.0,1.0
1624332458.8778355,-15.625,-39.062,-68.848,1.0,1.0
1624332458.881742,-10.742,24.414,-43.457,35.645,1.0
1624332458.8856483,-26.855,9.277000000000001,-55.663999999999994,-13.184000000000001,1.0
1624332458.8895545,-49.316,-5.371,-31.738000000000003,-76.172,1.0
1624332458.8934608,-46.875,-38.086,-20.02,-50.293,1.0
1624332458.897367,-13.184000000000001,-57.129,-8.789,21.484,1.0
1624332458.9012733,7.812,-23.926,4.883,26.855,1.0
1624332458.9051795,-24.414,-4.395,-24.414,-51.27,1.0
1624332458.9090855,-46.387,-28.809,-38.086,-66.406,1.0
1624332458.912992,-27.831999999999997,-52.246,-40.039,-3.418,1.0
1624332458.9168983,-9.766,-71.289,-46.875,8.301,1.0
1624332458.9208045,-42.48,-67.87100000000001,-47.363,-54.199,1.0
1624332458.9247108,-58.105,-0.488,-35.156,-77.148,1.0
1624332458.928617,-58.593999999999994,10.742,-64.453,-82.52,1.0
1624332458.9325233,-26.366999999999997,-7.324,-46.387,-7.812,1.0
1624332458.9364295,-18.555,-48.34,-28.32,16.113,1.0
1624332458.9403358,-48.828,-30.761999999999997,-9.766,-59.082,1.0
1624332458.944242,-50.293,-15.625,-1.465,-89.844,1.0
1624332458.9481483,-24.901999999999997,-58.105,-16.602,-30.273000000000003,1.0
1624332458.9520545,1.953,-48.828,-10.742,33.691,1.0
1624332458.955961,-3.418,-9.277000000000001,-9.277000000000001,0.0,1.0
1624332458.959867,-37.109,-18.066,-41.016000000000005,-65.918,1.0
1624332458.963773,-32.715,-25.391,-48.828,-47.363,1.0
1624332458.9676797,-13.184000000000001,-28.32,-42.48,9.766,1.0
1624332458.9715855,-25.879,-38.086,-28.809,-8.301,1.0
1624332458.9754918,-17.578,-3.906,-44.434,-80.566,1.0
1624332458.979398,-49.316,-7.812,-18.066,-84.473,1.0
1624332458.9833043,-37.598,-41.992,-17.578,3.418,1.0
1624332458.987211,5.859,-69.824,-44.434,30.761999999999997,1.0
1624332458.991117,3.906,-48.34,-50.293,-36.621,1.0
1624332458.9950233,-32.227,-15.137,-31.25,-67.87100000000001,1.0
1624332458.9989295,-49.316,-7.324,-28.32,-15.625,1.0
1624332459.0028355,-32.227,-12.695,-31.738000000000003,12.207,1.0
1624332459.006742,-32.227,-4.395,-34.668,-63.965,1.0
1624332459.0106483,-52.246,-16.113,-35.645,-94.238,1.0
1624332459.0145543,-64.941,-36.621,-32.227,-23.926,1.0
1624332459.0184608,-52.733999999999995,-29.296999999999997,-38.086,13.672,1.0
1624332459.022367,-20.996,-69.824,-44.922,10.254000000000001,1.0
1624332459.0262733,1.953,-20.996,-23.438000000000002,38.574,1.0
1624332459.0301795,-50.293,-9.277000000000001,-18.555,-57.129,1.0
1624332459.0340858,-73.73,-22.949,-28.32,-100.586,1.0
1624332459.037992,-23.926,-15.625,-7.324,-17.578,1.0
1624332459.0418983,17.578,-43.945,5.859,41.016000000000005,1.0
1624332459.0458045,-16.602,-59.57,-25.391,-26.855,1.0
1624332459.0497108,-73.73,-50.293,-49.805,-112.305,1.0
1624332459.053617,-69.336,-37.109,-65.43,-70.801,1.0
1624332459.0575233,-13.672,-19.531,-63.477,17.09,1.0
1624332459.0614297,-1.465,-20.996,-0.488,5.371,1.0
1624332459.0653358,-46.875,-34.668,6.348,-73.73,1.0
1624332459.069242,-55.663999999999994,-46.875,-17.09,-88.37899999999999,1.0
1624332459.0731483,-29.785,-8.789,-26.366999999999997,-38.574,1.0
1624332459.0770545,12.695,-2.93,-34.18,34.668,1.0
1624332459.0809608,-22.461,-20.02,-46.875,-20.508000000000003,1.0
1624332459.084867,-67.383,-20.996,-45.898,-106.934,1.0
1624332459.088773,-63.965,-26.855,-47.852,-95.215,1.0
1624332459.0926797,-19.043,-50.781000000000006,-38.574,-6.836,1.0
1624332459.0965855,13.672,-40.527,-9.277000000000001,20.996,1.0
1624332459.1004922,-20.508000000000003,-10.742,-24.414,-61.523,1.0
1624332459.104398,-63.965,-9.766,-71.777,-99.609,1.0
1624332459.1083043,-34.668,-15.625,-54.199,-18.555,1.0
1624332459.112211,14.648,-9.766,4.395,38.574,1.0
1624332459.116117,28.32,-26.855,0.488,-25.879,1.0
1624332459.120023,-36.133,-34.668,-8.301,-92.773,1.0
1624332459.1239295,-66.406,-21.973000000000003,-8.789,-44.922,1.0
1624332459.1278355,-34.18,-12.695,-40.039,11.719000000000001,1.0
1624332459.131742,-23.438000000000002,-14.648,-47.852,-26.855,1.0
1624332459.1356483,-44.434,-16.602,-31.25,-80.566,1.0
1624332459.1395545,-70.312,-18.066,-38.574,-39.551,1.0
1624332459.1434608,-47.363,-41.504,-44.922,16.602,1.0
1624332459.147367,-5.371,-34.668,-39.551,-15.625,1.0
1624332459.1512733,-20.996,-20.02,-43.945,-89.844,1.0
1624332459.1551795,-49.316,-34.668,-40.527,-74.219,1.0
1624332459.1590855,-27.344,-18.066,-18.066,31.738000000000003,1.0
1624332459.162992,-37.598,-55.663999999999994,-39.551,-24.414,1.0
1624332459.1668983,-5.859,-50.781000000000006,-47.852,46.875,1.0
1624332459.1708045,-41.504,-16.113,-41.016000000000005,-21.973000000000003,1.0
1624332459.1747108,-82.031,-12.695,-34.668,-107.42200000000001,1.0
1624332459.178617,-56.641000000000005,-10.254000000000001,-18.066,-62.988,1.0
1624332459.1825233,-9.277000000000001,-34.18,11.719000000000001,35.156,1.0
1624332459.1864295,-11.23,-78.125,-4.883,23.438000000000002,1.0
1624332459.1903358,-39.062,-53.223,-29.296999999999997,-58.593999999999994,1.0
1624332459.194242,-45.898,-5.859,-27.831999999999997,-57.129,1.0
1624332459.1981483,-28.32,6.348,-46.387,0.488,1.0
1624332459.2020545,-34.18,-16.602,-40.039,1.465,1.0
1624332459.205961,-66.406,-48.34,-33.691,-76.66,1.0
1624332459.209867,-43.945,-28.809,-4.395,1.0,1.0
1624332459.213773,-55.176,-21.973000000000003,-13.672,1.0,1.0
1624332459.2176797,-25.879,-8.301,-22.461,1.0,1.0
1624332459.2215855,-10.254000000000001,-8.789,-25.879,1.0,1.0
1624332459.2254918,-40.039,-22.949,-30.761999999999997,1.0,1.0
1624332459.229398,-33.203,-43.945,-35.156,1.0,1.0
1624332459.2333043,-1.465,-59.57,-31.738000000000003,1.0,1.0
1624332459.237211,7.324,-48.34,-43.945,1.0,1.0
1624332459.241117,-3.418,-31.25,-54.688,1.0,1.0
1624332459.2450233,-39.062,-46.875,-41.504,1.0,1.0
1624332459.2489295,-36.133,-20.02,-17.578,1.0,1.0
1624332459.2528355,-12.695,7.324,3.906,1.0,1.0
1624332459.256742,2.441,-9.766,-32.227,44.434,1.0
1624332459.2606483,-13.672,-28.32,-28.809,-8.301,1.0
1624332459.2645543,-43.945,-46.387,-16.602,-90.33200000000001,1.0
1624332459.2684608,-36.621,-56.641000000000005,-27.831999999999997,-55.663999999999994,1.0
1624332459.272367,10.254000000000001,-36.133,-5.371,50.781000000000006,1.0
1624332459.2762733,17.578,-20.996,0.488,44.434,1.0
1624332459.2801795,-41.992,-39.551,-28.32,-61.523,1.0
1624332459.2840858,-50.781000000000006,-28.809,-53.223,-66.406,1.0
1624332459.287992,-29.296999999999997,-28.32,-58.105,-2.441,1.0
1624332459.2918983,-30.761999999999997,-43.457,-42.48,-1.953,1.0
1624332459.2958045,-41.016000000000005,-27.831999999999997,-24.901999999999997,-53.223,1.0
1624332459.2997108,-58.105,-12.207,-33.691,-82.52,1.0
1624332459.303617,-61.523,-22.461,-28.32,-78.125,1.0
1624332459.3075233,-43.945,-7.812,-17.578,-21.484,1.0
1624332459.3114297,-22.949,-7.812,-13.672,3.906,1.0
1624332459.3153358,-29.296999999999997,-29.296999999999997,-11.719000000000001,-44.922,1.0
1624332459.319242,-22.461,-28.809,-7.812,-50.781000000000006,1.0
1624332459.3231483,-0.977,2.441,-6.348,12.695,1.0
1624332459.3270545,2.93,1.953,-27.344,39.062,1.0
1624332459.3309608,-38.574,-33.203,-36.621,-37.598,1.0
1624332459.334867,-85.93799999999999,-25.879,-35.156,-119.141,1.0
1624332459.338773,-49.805,-1.465,-50.781000000000006,-69.336,1.0
1624332459.3426797,-3.418,-22.949,-49.805,21.484,1.0
1624332459.3465855,-16.113,-47.852,-29.785,-2.441,1.0
1624332459.3504922,-21.484,-36.621,-24.414,-83.984,1.0
1624332459.354398,-37.109,-34.18,-3.418,-71.777,1.0
1624332459.3583043,-28.32,-25.879,-3.418,32.227,1.0
1624332459.362211,-0.488,-49.805,-26.366999999999997,41.016000000000005,1.0
1624332459.366117,-10.742,-36.621,-41.504,-68.359,1.0
1624332459.370023,-65.918,-11.719000000000001,-50.293,-84.961,1.0
1624332459.3739295,-61.035,-14.648,-38.574,12.207,1.0
1624332459.3778355,-2.93,-19.531,-20.996,36.133,1.0
1624332459.381742,-0.977,-29.296999999999997,-33.203,-46.387,1.0
1624332459.3856483,-42.968999999999994,-31.25,-36.133,-90.33200000000001,1.0
1624332459.3895545,-38.086,-39.551,-14.16,-9.277000000000001,1.0
1624332459.3934608,-4.883,-54.688,-15.625,42.48,1.0
1624332459.397367,-43.945,-13.672,-45.898,-5.859,1.0
1624332459.4012733,-21.484,-22.949,-41.504,20.996,1.0
1624332459.4051795,-47.852,-49.805,-30.761999999999997,-58.593999999999994,1.0
1624332459.4090855,-58.593999999999994,-35.645,-26.366999999999997,-92.285,1.0
1624332459.412992,-21.973000000000003,-44.434,-40.039,-12.695,1.0
1624332459.4168983,29.296999999999997,-41.016000000000005,-34.668,52.246,1.0
1624332459.4208045,-0.977,-1.953,-21.973000000000003,-16.113,1.0
1624332459.4247108,-59.082,2.441,-39.551,-89.844,1.0
1624332459.428617,-26.855,-19.043,-25.879,-17.578,1.0
1624332459.4325233,3.906,-27.831999999999997,-18.066,45.41,1.0
1624332459.4364295,-15.625,-21.484,-31.738000000000003,-8.301,1.0
1624332459.4403358,-51.758,-32.227,-33.691,-86.914,1.0
1624332459.444242,-46.875,-30.761999999999997,-10.254000000000001,-90.82,1.0
1624332459.4481483,-40.527,-41.016000000000005,-15.137,-46.387,1.0
1624332459.4520545,-13.672,-40.039,-13.672,19.531,1.0
1624332459.455961,-20.02,-63.965,-12.207,-11.719000000000001,1.0
1624332459.459867,-50.781000000000006,-62.5,-26.366999999999997,-88.867,1.0
1624332459.463773,-40.527,-9.766,-24.901999999999997,-62.5,1.0
1624332459.4676797,-12.695,11.719000000000001,-23.438000000000002,11.23,1.0
1624332459.4715855,-25.391,-1.465,-36.621,-2.93,1.0
1624332459.4754918,-59.082,-12.207,-22.949,-81.055,1.0
1624332459.479398,-48.828,-20.508000000000003,-16.602,-82.031,1.0
1624332459.4833043,-19.043,-28.809,-44.434,3.906,1.0
1624332459.487211,-18.555,-33.691,-51.758,27.831999999999997,1.0
1624332459.491117,-25.391,-35.156,-46.387,2.441,1.0
1624332459.4950233,-53.223,-35.156,-44.434,-78.125,1.0
1624332459.4989295,-58.593999999999994,-30.761999999999997,-39.551,-87.402,1.0
1624332459.5028355,-4.395,-10.742,-16.113,6.348,1.0
1624332459.506742,16.602,-2.441,-19.043,42.968999999999994,1.0
1624332459.5106483,-35.156,-22.461,-34.668,-43.457,1.0
1624332459.5145543,-57.129,-30.761999999999997,-28.809,-95.215,1.0
1624332459.5184608,-31.738000000000003,-29.785,-34.668,-38.574,1.0
1624332459.522367,10.742,-11.719000000000001,-20.02,39.551,1.0
1624332459.5262733,6.836,-3.906,0.977,5.859,1.0
1624332459.5301795,-43.945,-26.855,-22.949,-81.055,1.0
1624332459.5340858,-33.691,-23.438000000000002,-41.992,-47.363,1.0
1624332459.537992,-35.156,-1.953,-54.199,-44.434,1.0
1624332459.5418983,-18.066,-20.508000000000003,-33.203,18.555,1.0
1624332459.5458045,-17.09,-43.457,-37.109,-14.648,1.0
1624332459.5497108,-52.733999999999995,-25.879,-36.133,-87.891,1.0
1624332459.553617,-55.176,-7.812,-15.137,-63.477,1.0
1624332459.5575233,-32.715,-31.738000000000003,-17.09,0.977,1.0
1624332459.5614297,-35.645,-52.733999999999995,-22.949,-12.695,1.0
1624332459.5653358,-59.57,-39.062,-25.879,-82.031,1.0
1624332459.569242,-57.129,-38.086,-35.645,-78.125,1.0
1624332459.5731483,-13.184000000000001,-40.039,-28.809,14.648,1.0
1624332459.5770545,5.371,-9.277000000000001,-21.973000000000003,40.527,1.0
1624332459.5809608,-32.715,-15.625,-50.293,-50.293,1.0
1624332459.584867,-61.523,-7.812,-40.039,1.0,1.0
1624332459.588773,-65.43,13.672,-30.273000000000003,1.0,1.0
1624332459.5926797,-13.184000000000001,5.371,-9.277000000000001,1.0,1.0
1624332459.5965855,5.371,-40.527,-20.996,1.0,1.0
1624332459.6004922,-31.738000000000003,-49.805,-24.901999999999997,1.0,1.0
1624332459.604398,-65.918,-29.785,-24.414,1.0,1.0
1624332459.6083043,-31.25,-2.93,-26.855,1.0,1.0
1624332459.612211,-7.324,-12.695,-36.133,1.0,1.0
1624332459.616117,-33.691,-51.758,-44.434,1.0,1.0
1624332459.620023,-57.617,-50.781000000000006,-46.875,1.0,1.0
1624332459.6239295,-42.48,-24.901999999999997,-45.898,1.0,1.0
1624332459.6278355,-10.742,-24.901999999999997,-22.461,1.0,1.0
1624332459.631742,1.953,-54.688,-8.789,35.645,1.0
1624332459.6356483,-24.414,-43.457,-12.207,-13.672,1.0
1624332459.6395545,-58.593999999999994,-12.695,-26.855,-78.125,1.0
1624332459.6434608,-41.016000000000005,-11.719000000000001,-45.898,-38.574,1.0
1624332459.647367,-0.488,-8.301,-38.574,41.504,1.0
1624332459.6512733,-0.488,-3.906,-27.831999999999997,19.531,1.0
1624332459.6551795,-56.152,-30.761999999999997,-52.246,-86.426,1.0
1624332459.6590855,-48.828,-29.296999999999997,-42.48,-73.73,1.0
1624332459.662992,-16.113,-27.344,-20.508000000000003,15.137,1.0
1624332459.6668983,-20.996,-46.875,-13.184000000000001,6.348,1.0
1624332459.6708045,-29.785,-48.828,-6.348,-65.43,1.0
1624332459.6747108,-41.992,-61.035,-22.949,-79.59,1.0
1624332459.678617,-65.918,-31.25,-38.086,-90.33200000000001,1.0
1624332459.6825233,-25.391,-22.461,-36.621,-2.93,1.0
1624332459.6864295,-6.348,-12.695,-22.949,26.855,1.0
1624332459.6903358,-29.785,-13.184000000000001,-28.809,-45.41,1.0
1624332459.694242,-53.711000000000006,-39.062,-25.391,-77.637,1.0
1624332459.6981483,-22.461,-42.968999999999994,-0.977,-9.277000000000001,1.0
1624332459.7020545,2.93,-20.508000000000003,-8.301,33.203,1.0
1624332459.705961,-35.156,-26.366999999999997,-46.387,-38.086,1.0
1624332459.709867,-57.617,-30.761999999999997,-63.965,-89.355,1.0
1624332459.713773,-18.066,-29.785,-23.926,-21.484,1.0
1624332459.7176797,-7.812,-52.733999999999995,-5.371,25.391,1.0
1624332459.7215855,-14.648,-34.668,-18.066,-7.324,1.0
1624332459.7254918,-21.484,-35.156,-32.227,-74.707,1.0
1624332459.729398,-61.523,-20.996,-39.551,-83.49600000000001,1.0
1624332459.7333043,-49.805,8.301,-51.27,-12.695,1.0
1624332459.737211,-6.348,3.906,-36.133,-2.93,1.0
1624332459.741117,-6.348,-17.578,-7.812,-53.711000000000006,1.0
1624332459.7450233,-55.176,-34.668,-18.066,-61.523,1.0
1624332459.7489295,-50.293,-61.523,-18.066,-6.348,1.0
1624332459.7528355,3.418,-53.711000000000006,-8.789,9.766,1.0
1624332459.756742,-5.859,-30.273000000000003,-29.296999999999997,-65.918,1.0
1624332459.7606483,-50.293,-47.852,-43.457,-95.215,1.0
1624332459.7645543,-53.711000000000006,-33.691,-32.715,-16.602,1.0
1624332459.7684608,-23.926,-13.184000000000001,-31.25,41.992,1.0
1624332459.772367,-68.359,-57.129,-47.852,-41.992,1.0
1624332459.7762733,-32.227,-52.246,-27.344,-13.184000000000001,1.0
1624332459.7801795,-44.922,-26.366999999999997,-23.438000000000002,-64.453,1.0
1624332459.7840858,-56.641000000000005,-10.742,-38.086,-88.867,1.0
1624332459.787992,-29.296999999999997,-12.207,-35.645,-20.996,1.0
1624332459.7918983,-4.395,-25.391,-16.113,21.973000000000003,1.0
1624332459.7958045,-40.527,-37.598,-17.578,-54.688,1.0
1624332459.7997108,-69.824,-38.574,-21.484,-110.352,1.0
1624332459.803617,-39.062,-26.366999999999997,-12.695,-42.48,1.0
1624332459.8075233,1.953,7.812,2.93,34.668,1.0
1624332459.8114297,-10.742,6.836,-17.578,-9.277000000000001,1.0
1624332459.8153358,-53.711000000000006,-34.18,-34.18,-87.891,1.0
1624332459.819242,-47.363,-21.973000000000003,-39.062,1.0,1.0
1624332459.8231483,-21.973000000000003,-1.953,-49.316,1.0,1.0
1624332459.8270545,8.301,4.395,-53.711000000000006,1.0,1.0
1624332459.8309608,-19.531,3.906,-48.34,1.0,1.0
1624332459.834867,-72.266,-12.695,-66.406,1.0,1.0
1624332459.838773,-64.941,-37.109,-58.593999999999994,1.0,1.0
1624332459.8426797,1.465,-52.733999999999995,2.441,1.0,1.0
1624332459.8465855,5.859,-59.57,6.836,1.0,1.0
1624332459.8504922,-44.922,-44.434,-35.645,1.0,1.0
1624332459.854398,-59.57,-12.695,-33.203,1.0,1.0
1624332459.8583043,-25.391,-4.883,-18.066,1.0,1.0
1624332459.862211,12.207,-10.742,12.207,1.0,1.0
1624332459.866117,-0.977,-42.48,-46.875,27.344,1.0
1624332459.870023,-64.453,-47.852,-72.266,-83.984,1.0
1624332459.8739295,-60.059,-17.09,-46.387,-85.93799999999999,1.0
1624332459.8778355,-24.414,-11.719000000000001,-21.973000000000003,-5.859,1.0
1624332459.881742,-18.555,-31.25,-23.926,14.648,1.0
1624332459.8856483,-41.016000000000005,-38.574,-12.695,-44.922,1.0
1624332459.8895545,-59.082,-29.785,-3.418,-83.008,1.0
1624332459.8934608,-28.32,-8.301,-15.625,-23.438000000000002,1.0
1624332459.897367,-3.418,-18.066,-20.508000000000003,28.32,1.0
1624332459.9012733,-19.043,-49.316,-23.438000000000002,-28.32,1.0
1624332459.9051795,-23.438000000000002,-28.809,-24.901999999999997,-67.87100000000001,1.0
1624332459.9090855,-12.207,-29.296999999999997,-42.968999999999994,-3.906,1.0
1624332459.912992,-17.09,-12.695,-43.457,-19.531,1.0
1624332459.9168983,0.977,-9.766,-40.039,36.133,1.0
1624332459.9208045,-20.508000000000003,-17.578,-17.09,-18.555,1.0
1624332459.9247108,-54.688,-52.246,-19.531,-86.426,1.0
1624332459.928617,-53.223,-53.223,-37.109,-46.387,1.0
1624332459.9325233,-16.602,-22.949,-39.551,23.926,1.0
1624332459.9364295,-15.137,-2.93,-16.113,2.93,1.0
1624332459.9403358,-63.477,-26.855,-28.32,-84.961,1.0
1624332459.944242,-56.152,-58.593999999999994,-49.805,-72.266,1.0
1624332459.9481483,-12.207,-57.129,-24.901999999999997,20.02,1.0
1624332459.9520545,-13.672,-30.273000000000003,-0.977,21.973000000000003,1.0
1624332459.955961,-50.781000000000006,-19.043,-16.113,-68.848,1.0
1624332459.959867,-51.758,-38.574,-63.477,1.0,1.0
1624332459.963773,-57.617,-36.621,-51.758,1.0,1.0
1624332459.9676797,-1.465,-4.883,-9.766,1.0,1.0
1624332459.9715855,-3.906,-25.879,-14.648,1.0,1.0
1624332459.9754918,-67.383,-42.48,-29.785,1.0,1.0
1624332459.979398,-83.49600000000001,-31.25,-36.133,1.0,1.0
1624332459.9833043,-25.391,-38.086,-27.344,1.0,1.0
1624332459.987211,4.883,-60.059,-13.184000000000001,1.0,1.0
1624332459.991117,-25.879,-67.87100000000001,-25.391,1.0,1.0
1624332459.9950233,-46.875,-19.043,-38.086,1.0,1.0
1624332459.9989295,-40.039,-6.348,-48.34,1.0,1.0
1624332460.0028355,-18.066,-44.922,-41.016000000000005,1.0,1.0
1624332460.006742,1.465,-21.484,-28.32,47.852,1.0
1624332460.0106483,-17.578,-21.973000000000003,-27.831999999999997,-9.277000000000001,1.0
1624332460.0145543,-51.27,-34.668,-24.901999999999997,-77.148,1.0
1624332460.0184608,-38.574,-30.273000000000003,-34.668,-34.668,1.0
1624332460.022367,2.93,-13.184000000000001,-31.25,49.805,1.0
1624332460.0262733,12.695,-19.531,-11.23,35.645,1.0
1624332460.0301795,-14.648,-17.09,-12.207,-39.062,1.0
1624332460.0340858,-24.414,-10.254000000000001,-12.695,-35.156,1.0
1624332460.037992,3.906,-14.648,-5.859,36.621,1.0
1624332460.0418983,-3.906,-31.738000000000003,-21.484,15.625,1.0
1624332460.0458045,-33.691,-42.48,-38.086,-72.75399999999999,1.0
1624332460.0497108,-47.363,-53.223,-47.852,-74.707,1.0
1624332460.053617,-58.105,-16.113,-35.156,-70.801,1.0
1624332460.0575233,-26.855,-20.508000000000003,-25.879,1.953,1.0
1624332460.0614297,-14.648,-24.414,-24.414,11.23,1.0
1624332460.0653358,-52.246,-16.602,-20.508000000000003,-73.73,1.0
1624332460.069242,-74.707,-20.996,-7.812,-100.586,1.0
1624332460.0731483,-40.527,-23.926,-16.602,-25.879,1.0
1624332460.0770545,-20.02,-9.277000000000001,-27.344,15.137,1.0
1624332460.0809608,-67.87100000000001,-22.461,-33.691,-67.383,1.0
1624332460.084867,-101.56200000000001,-46.875,-31.25,-128.418,1.0
1624332460.088773,-58.105,-21.973000000000003,-2.93,-52.246,1.0
1624332460.0926797,-28.809,-3.418,-8.789,10.742,1.0
1624332460.0965855,-67.87100000000001,-21.973000000000003,-46.875,-55.663999999999994,1.0
1624332460.1004922,-18.066,-29.785,-28.809,-141.113,1.0
1624332460.104398,-40.039,-20.02,-28.809,-123.04700000000001,1.0
1624332460.1083043,-0.977,-26.855,-25.391,-41.992,1.0
1624332460.112211,18.066,-20.02,-29.296999999999997,-34.18,1.0
1624332460.116117,-40.527,-13.672,-36.621,-105.95700000000001,1.0
1624332460.120023,-84.473,-25.391,-34.18,-101.56200000000001,1.0
1624332460.1239295,-60.547,-30.273000000000003,-27.344,-18.555,1.0
1624332460.1278355,-11.719000000000001,-46.875,-27.831999999999997,-16.113,1.0
1624332460.131742,-15.137,-47.852,-28.809,-95.70299999999999,1.0
1624332460.1356483,-46.387,-21.973000000000003,-49.805,-106.934,1.0
1624332460.1395545,-39.551,-23.926,-58.593999999999994,-42.48,1.0
1624332460.1434608,8.301,-20.02,-11.719000000000001,-6.836,1.0
1624332460.147367,0.488,-13.184000000000001,-32.227,29.785,1.0
1624332460.1512733,12.695,-37.109,-31.738000000000003,32.227,1.0
1624332460.1551795,-42.968999999999994,-47.852,-38.574,-70.312,1.0
1624332460.1590855,-44.922,-37.598,-33.691,-81.543,1.0
1624332460.162992,-7.324,-17.578,-33.691,3.418,1.0
1624332460.1668983,-3.418,-11.719000000000001,-33.691,24.901999999999997,1.0
1624332460.1708045,-30.273000000000003,-30.273000000000003,-45.41,-44.434,1.0
1624332460.1747108,-46.875,-26.366999999999997,-56.152,-88.37899999999999,1.0
1624332460.178617,-21.484,-27.344,-37.598,-29.296999999999997,1.0
1624332460.1825233,-6.348,-35.156,-22.461,21.973000000000003,1.0
1624332460.1864295,-15.137,-23.438000000000002,-23.926,-24.414,1.0
1624332460.1903358,-23.926,-24.414,-17.09,-71.289,1.0
1624332460.194242,-62.012,-12.207,-30.761999999999997,1.0,1.0
1624332460.1981483,-36.133,-22.949,-19.043,1.0,1.0
1624332460.2020545,-21.484,-75.684,-32.715,1.0,1.0
1624332460.205961,-35.645,-91.79700000000001,-57.617,1.0,1.0
1624332460.209867,-57.129,-29.785,-39.062,1.0,1.0
1624332460.213773,-56.641000000000005,-13.184000000000001,-31.738000000000003,1.0,1.0
1624332460.2176797,-27.344,-26.366999999999997,-51.758,1.0,1.0
1624332460.2215855,-15.137,-26.366999999999997,-47.363,1.0,1.0
1624332460.2254918,-45.41,-23.926,-25.391,1.0,1.0
1624332460.229398,-35.645,-26.855,-12.695,1.0,1.0
1624332460.2333043,8.789,-19.043,-11.23,1.0,1.0
1624332460.237211,8.789,-15.137,-11.23,1.0,1.0
1624332460.241117,0.488,-63.965,-10.254000000000001,26.855,1.0
1624332460.2450233,-40.527,-20.02,-15.625,-66.406,1.0
1624332460.2489295,-54.688,-7.324,-42.968999999999994,-79.102,1.0
1624332460.2528355,-36.133,-6.836,-55.663999999999994,-15.625,1.0
1624332460.256742,-15.625,-7.812,-34.668,6.836,1.0
1624332460.2606483,-50.781000000000006,-33.203,-24.414,-60.059,1.0
1624332460.2645543,-67.87100000000001,-31.25,-21.973000000000003,-93.75,1.0
1624332460.2684608,-22.461,-9.277000000000001,-6.348,-9.277000000000001,1.0
1624332460.272367,7.812,-23.438000000000002,-11.719000000000001,51.758,1.0
1624332460.2762733,-18.555,-52.733999999999995,-29.785,-15.137,1.0
1624332460.2801795,-32.715,-45.898,-21.484,-66.895,1.0
1624332460.2840858,-8.789,-43.457,-18.066,-10.742,1.0
1624332460.287992,-15.625,-16.602,-15.625,-0.977,1.0
1624332460.2918983,16.113,-7.812,-12.207,62.5,1.0
1624332460.2958045,-1.953,-14.16,-26.366999999999997,4.395,1.0
1624332460.2997108,-48.34,-41.504,-43.457,-76.172,1.0
1624332460.303617,-39.551,-44.434,-36.133,-41.016000000000005,1.0
1624332460.3075233,-4.883,-20.996,-30.761999999999997,26.855,1.0
1624332460.3114297,-12.207,-8.789,-31.25,-1.465,1.0
1624332460.3153358,-36.133,-23.438000000000002,-29.296999999999997,-65.43,1.0
1624332460.319242,-27.344,-59.57,-30.761999999999997,-39.551,1.0
1624332460.3231483,9.277000000000001,-41.016000000000005,-21.484,43.457,1.0
1624332460.3270545,-0.977,-10.742,-30.761999999999997,23.438000000000002,1.0
1624332460.3309608,-44.922,-17.578,-46.387,-61.523,1.0
1624332460.334867,-20.996,-29.296999999999997,-12.207,-70.312,1.0
1624332460.338773,-29.296999999999997,-41.016000000000005,-38.574,2.93,1.0
1624332460.3426797,-10.254000000000001,-37.109,-35.645,19.043,1.0
1624332460.3465855,-6.348,-19.043,-8.301,-61.523,1.0
1624332460.3504922,-52.246,-35.156,-13.184000000000001,-101.074,1.0
1624332460.354398,-74.707,-69.336,-32.715,-27.831999999999997,1.0
1624332460.3583043,-29.296999999999997,-42.48,-26.855,35.156,1.0
1624332460.362211,-8.301,-20.508000000000003,-29.296999999999997,-11.719000000000001,1.0
1624332460.366117,-44.434,-24.414,-65.918,-86.426,1.0
1624332460.370023,-57.129,-21.484,-71.289,-48.828,1.0
1624332460.3739295,-28.32,-39.062,-28.809,31.25,1.0
1624332460.3778355,-1.465,-51.758,4.395,11.719000000000001,1.0
1624332460.381742,21.484,-19.531,-22.949,52.733999999999995,1.0
1624332460.3856483,-2.441,-37.109,-36.621,-3.906,1.0
1624332460.3895545,-29.296999999999997,-27.831999999999997,-34.18,-63.965,1.0
1624332460.3934608,-39.551,-40.527,-35.645,-48.828,1.0
1624332460.397367,-4.883,-32.715,-15.625,13.672,1.0
1624332460.4012733,-39.551,-36.621,-13.184000000000001,-52.733999999999995,1.0
1624332460.4051795,-76.172,-36.133,-17.09,-111.32799999999999,1.0
1624332460.4090855,-46.387,-19.043,-19.043,-38.086,1.0
1624332460.412992,-25.391,-15.625,-39.551,8.789,1.0
1624332460.4168983,-43.457,-17.578,-46.387,-48.828,1.0
1624332460.4208045,-54.688,-13.672,-22.949,-88.37899999999999,1.0
1624332460.4247108,-33.691,-26.855,-14.16,-41.504,1.0
1624332460.428617,-9.277000000000001,-56.152,-24.901999999999997,0.488,1.0
1624332460.4325233,5.371,-41.016000000000005,-35.645,44.922,1.0
1624332460.4364295,-49.805,7.812,-32.715,-39.062,1.0
1624332460.4403358,-82.031,5.859,-16.602,-107.42200000000001,1.0
1624332460.444242,-65.43,-20.996,-21.973000000000003,-64.453,1.0
1624332460.4481483,-33.203,-38.574,-24.901999999999997,5.371,1.0
1624332460.4520545,-31.25,-40.039,-13.672,-16.602,1.0
1624332460.455961,-58.105,-45.41,-13.184000000000001,-80.566,1.0
1624332460.459867,-48.828,-46.875,-23.438000000000002,-55.176,1.0
1624332460.463773,-14.648,-50.293,-33.203,19.043,1.0
1624332460.4676797,0.0,-35.645,-23.926,39.551,1.0
1624332460.4715855,-38.574,-21.973000000000003,-23.926,-41.016000000000005,1.0
1624332460.4754918,-42.968999999999994,-6.836,-34.18,-92.773,1.0
1624332460.479398,-33.203,-13.184000000000001,-20.02,-15.625,1.0
1624332460.4833043,-21.973000000000003,-24.414,-23.438000000000002,14.648,1.0
1624332460.487211,-21.973000000000003,-15.625,-25.879,-57.129,1.0
1624332460.491117,-45.898,-9.277000000000001,-26.366999999999997,-86.914,1.0
1624332460.4950233,-69.336,-25.879,-58.105,-19.043,1.0
1624332460.4989295,-28.809,-56.152,-66.406,21.973000000000003,1.0
1624332460.5028355,1.953,-50.781000000000006,-30.273000000000003,-29.296999999999997,1.0
1624332460.506742,-42.968999999999994,-31.25,-5.859,-81.543,1.0
1624332460.5106483,-59.082,-12.207,9.766,-58.593999999999994,1.0
1624332460.5145543,-33.691,-7.812,1.953,3.418,1.0
1624332460.5184608,-27.831999999999997,-23.438000000000002,-32.715,-8.789,1.0
1624332460.522367,-12.695,-7.324,-27.344,13.672,1.0
1624332460.5262733,-30.761999999999997,-8.789,-25.879,-44.434,1.0
1624332460.5301795,-72.266,-36.621,-29.296999999999997,-109.375,1.0
1624332460.5340858,-70.312,-47.852,-34.18,-66.406,1.0
1624332460.537992,-35.156,-42.48,-32.227,0.0,1.0
1624332460.5418983,-37.109,-51.758,-21.973000000000003,-25.391,1.0
1624332460.5458045,-54.688,-48.828,-20.02,-80.078,1.0
1624332460.5497108,-17.09,-28.32,-15.137,-31.738000000000003,1.0
1624332460.553617,11.719000000000001,-19.043,-22.949,48.34,1.0
1624332460.5575233,-10.742,-21.973000000000003,-46.387,23.926,1.0
1624332460.5614297,-47.852,-13.184000000000001,-55.176,-69.336,1.0
1624332460.5653358,-54.688,-14.16,-41.504,-87.402,1.0
1624332460.569242,-64.453,-40.527,-50.781000000000006,1.0,1.0
1624332460.5731483,-32.715,-37.109,-34.18,1.0,1.0
1624332460.5770545,-16.113,-9.766,-41.992,1.0,1.0
1624332460.5809608,-30.273000000000003,-10.254000000000001,-56.641000000000005,1.0,1.0
1624332460.584867,-20.996,-20.996,-27.831999999999997,1.0,1.0
1624332460.588773,-24.414,-26.366999999999997,-20.508000000000003,1.0,1.0
1624332460.5926797,-28.809,-32.227,-24.901999999999997,1.0,1.0
1624332460.5965855,-30.273000000000003,-18.555,-22.949,1.0,1.0
1624332460.6004922,-40.527,-15.625,4.395,1.0,1.0
1624332460.604398,-36.133,-25.391,2.93,1.0,1.0
1624332460.6083043,-26.855,-26.855,-19.531,1.0,1.0
1624332460.612211,-42.968999999999994,-41.016000000000005,-34.668,1.0,1.0
1624332460.616117,-25.391,-55.176,-25.879,-40.039,1.0
1624332460.620023,-49.805,-38.086,-22.949,-79.102,1.0
1624332460.6239295,-28.809,-28.809,-38.574,-27.831999999999997,1.0
1624332460.6278355,-9.277000000000001,-12.207,-51.27,16.602,1.0
1624332460.631742,-3.418,3.906,-38.086,-9.766,1.0
1624332460.6356483,-22.949,-23.438000000000002,-23.926,-65.43,1.0
1624332460.6395545,-35.645,-45.41,-34.18,-57.129,1.0
1624332460.6434608,-8.789,-20.996,-41.016000000000005,7.324,1.0
1624332460.647367,-5.371,-8.301,-23.438000000000002,-7.812,1.0
1624332460.6512733,-42.968999999999994,-25.391,-16.602,-86.426,1.0
1624332460.6551795,-58.593999999999994,-39.551,-35.156,-91.79700000000001,1.0
1624332460.6590855,-16.602,-32.715,-34.18,-6.348,1.0
1624332460.662992,16.113,-47.852,-45.898,31.738000000000003,1.0
1624332460.6668983,-6.348,-11.23,-53.223,8.301,1.0
1624332460.6708045,-52.246,-6.836,-31.25,-81.055,1.0
1624332460.6747108,-63.965,-25.391,-28.809,-87.402,1.0
1624332460.678617,-8.789,-18.555,-8.301,8.789,1.0
1624332460.6825233,7.812,-33.691,-5.859,37.109,1.0
1624332460.6864295,-29.296999999999997,-33.203,-31.25,-46.875,1.0
1624332460.6903358,-29.785,-5.859,-33.691,-71.289,1.0
1624332460.694242,2.93,-27.344,-36.621,4.395,1.0
1624332460.6981483,11.719000000000001,-47.363,-22.949,44.922,1.0
1624332460.7020545,-33.691,-23.438000000000002,-37.109,-35.645,1.0
1624332460.705961,-59.57,4.395,-55.176,-99.12100000000001,1.0
1624332460.709867,-33.203,-32.715,-23.926,-80.078,1.0
1624332460.713773,-7.324,-27.831999999999997,-17.09,-18.066,1.0
1624332460.7176797,10.254000000000001,-25.391,-16.113,32.227,1.0
1624332460.7215855,-14.648,-22.949,-24.414,-22.461,1.0
1624332460.7254918,-25.391,-30.273000000000003,-20.996,-71.289,1.0
1624332460.729398,10.742,-29.785,-4.395,-7.812,1.0
1624332460.7333043,12.207,-15.137,-39.551,36.621,1.0
1624332460.737211,-41.504,-8.789,-79.59,-34.18,1.0
1624332460.741117,-74.219,-19.043,-50.293,-112.305,1.0
1624332460.7450233,-60.547,-35.156,-18.555,-93.262,1.0
1624332460.7489295,-17.578,-39.551,-5.371,-6.348,1.0
1624332460.7528355,-3.906,-30.761999999999997,-13.672,14.648,1.0
1624332460.756742,-21.484,-93.262,-28.32,-0.488,1.0
1624332460.7606483,-61.523,-29.785,-32.227,-72.266,1.0
1624332460.7645543,-60.059,17.578,-42.48,-74.707,1.0
1624332460.7684608,-24.414,11.719000000000001,-31.738000000000003,6.836,1.0
1624332460.772367,-8.789,2.93,-22.949,22.949,1.0
1624332460.7762733,-52.733999999999995,-28.32,-35.645,-73.242,1.0
1624332460.7801795,-76.172,-46.387,-33.203,-109.375,1.0
1624332460.7840858,-34.18,-26.855,-10.742,-21.973000000000003,1.0
1624332460.787992,-13.184000000000001,-12.695,1.953,19.043,1.0
1624332460.7918983,-34.18,-24.901999999999997,-14.648,-44.922,1.0
1624332460.7958045,-64.453,-71.289,-33.203,-97.656,1.0
1624332460.7997108,-54.199,-73.73,-48.828,-50.781000000000006,1.0
1624332460.803617,-33.691,-29.296999999999997,-19.531,-8.789,1.0
1624332460.8075233,-7.324,-45.41,-55.176,31.25,1.0
1624332460.8114297,-22.461,-46.875,-74.219,-23.926,1.0
1624332460.8153358,-47.852,-35.156,-26.366999999999997,-81.055,1.0
1624332460.819242,-31.25,-31.738000000000003,-2.441,-37.598,1.0
1624332460.8231483,-2.93,-33.691,-2.441,25.879,1.0
1624332460.8270545,-24.414,-35.156,-22.461,-13.184000000000001,1.0
1624332460.8309608,-64.453,-35.156,-60.547,-88.867,1.0
1624332460.834867,-65.43,-31.738000000000003,-62.988,-77.148,1.0
1624332460.838773,-22.461,-22.949,-32.715,1.465,1.0
1624332460.8426797,-3.906,-22.949,-24.414,-3.418,1.0
1624332460.8465855,-41.992,-38.574,-23.926,-78.125,1.0
1624332460.8504922,-46.875,-15.137,-46.875,-76.66,1.0
1624332460.854398,-52.246,-19.531,-60.547,14.648,1.0
1624332460.8583043,-41.504,-40.527,-41.016000000000005,48.34,1.0
1624332460.862211,-34.668,-27.831999999999997,-27.831999999999997,-43.457,1.0
1624332460.866117,-42.48,11.719000000000001,-17.09,-103.027,1.0
1624332460.870023,-27.831999999999997,-0.488,-13.672,-36.621,1.0
1624332460.8739295,15.625,-55.663999999999994,-9.766,18.555,1.0
1624332460.8778355,23.438000000000002,-55.176,-26.366999999999997,-24.901999999999997,1.0
1624332460.881742,-3.906,-3.418,-45.41,-77.637,1.0
1624332460.8856483,-50.293,-3.418,-31.25,-39.551,1.0
1624332460.8895545,-50.781000000000006,-20.02,-24.901999999999997,32.715,1.0
1624332460.8934608,-21.973000000000003,-31.738000000000003,-22.461,4.883,1.0
1624332460.897367,-23.438000000000002,-41.504,-46.875,-0.977,1.0
1624332460.9012733,-37.598,-48.34,-26.366999999999997,-45.898,1.0
1624332460.9051795,-32.715,-52.246,-2.441,-70.801,1.0
1624332460.9090855,-21.973000000000003,-62.5,-23.438000000000002,-27.831999999999997,1.0
1624332460.912992,-12.207,-33.691,-41.016000000000005,17.09,1.0
1624332460.9168983,-25.391,3.906,-22.461,-26.366999999999997,1.0
1624332460.9208045,-61.035,-6.836,-25.879,-98.633,1.0
1624332460.9247108,-36.133,-20.508000000000003,-17.09,-51.27,1.0
1624332460.928617,16.602,-11.23,-14.16,48.34,1.0
1624332460.9325233,16.113,-7.324,-37.598,29.785,1.0
1624332460.9364295,-33.203,-1.465,-41.992,-58.105,1.0
1624332460.9403358,-64.941,-12.695,-52.733999999999995,-71.777,1.0
1624332460.944242,-60.059,-38.086,-32.715,1.0,1.0
1624332460.9481483,0.0,-40.039,-18.555,1.0,1.0
1624332460.9520545,2.441,-53.223,-29.785,1.0,1.0
1624332460.955961,-49.316,-56.641000000000005,-70.801,1.0,1.0
1624332460.959867,-47.363,-31.25,-49.805,1.0,1.0
1624332460.963773,-17.578,-20.996,-10.742,1.0,1.0
1624332460.9676797,-1.465,-23.926,-0.488,1.0,1.0
1624332460.9715855,-17.09,-14.16,12.695,1.0,1.0
1624332460.9754918,-50.293,-7.812,-5.371,1.0,1.0
1624332460.979398,-38.574,-9.766,-22.949,1.0,1.0
1624332460.9833043,-16.602,-23.926,-29.296999999999997,1.0,1.0
1624332460.987211,-23.438000000000002,-44.434,-37.598,1.0,1.0
1624332460.991117,-26.366999999999997,-3.418,-12.695,-62.012,1.0
1624332460.9950233,-57.129,-17.09,-20.996,-118.652,1.0
1624332460.9989295,-21.973000000000003,-14.648,-22.461,-37.598,1.0
1624332461.0028355,14.648,-35.156,-36.133,31.25,1.0
1624332461.006742,-20.508000000000003,-53.223,-56.152,-38.574,1.0
1624332461.0106483,-51.27,-28.809,-43.945,-104.00399999999999,1.0
1624332461.0145543,-36.621,-6.348,-26.366999999999997,-52.733999999999995,1.0
1624332461.0184608,4.395,-8.301,-27.344,20.996,1.0
1624332461.022367,9.766,-10.742,-20.508000000000003,12.207,1.0
1624332461.0262733,-41.504,-16.602,-42.48,-72.75399999999999,1.0
1624332461.0301795,-61.523,-21.973000000000003,-75.195,-94.727,1.0
1624332461.0340858,-33.691,-28.32,-55.663999999999994,-28.809,1.0
1624332461.037992,-17.578,-20.02,-1.465,21.973000000000003,1.0
1624332461.0418983,-20.508000000000003,-20.508000000000003,-1.953,5.859,1.0
1624332461.0458045,-74.707,-58.593999999999994,-24.901999999999997,-96.191,1.0
1624332461.0497108,-72.75399999999999,-56.641000000000005,-45.41,-89.844,1.0
1624332461.053617,-24.414,-23.438000000000002,-30.273000000000003,0.977,1.0
1624332461.0575233,-28.32,-23.438000000000002,-20.508000000000003,5.371,1.0
1624332461.0614297,-68.848,-27.344,-34.668,-74.707,1.0
1624332461.0653358,-71.777,-19.043,-31.25,-89.355,1.0
1624332461.069242,-34.668,-41.992,-41.016000000000005,-7.812,1.0
1624332461.0731483,-9.766,-70.801,-53.711000000000006,35.645,1.0
1624332461.0770545,-11.719000000000001,-48.34,-27.831999999999997,-20.508000000000003,1.0
1624332461.0809608,-32.715,-24.901999999999997,-10.742,-67.87100000000001,1.0
1624332461.084867,-62.012,-35.645,-74.219,-20.02,1.0
1624332461.088773,-38.086,-42.968999999999994,-54.199,15.625,1.0
1624332461.0926797,-19.531,-39.062,-13.184000000000001,-28.809,1.0
1624332461.0965855,-40.039,-59.082,-17.578,-85.449,1.0
1624332461.1004922,-55.176,-66.406,-26.855,-57.617,1.0
1624332461.104398,-43.945,-46.875,-33.203,21.973000000000003,1.0
1624332461.1083043,-22.949,-16.602,-37.598,16.113,1.0
1624332461.112211,-12.695,7.324,-28.809,-67.87100000000001,1.0
1624332461.116117,-21.484,-12.695,-41.016000000000005,-71.289,1.0
1624332461.120023,-33.691,-36.133,-55.663999999999994,2.93,1.0
1624332461.1239295,-21.973000000000003,-25.391,-40.527,20.996,1.0
1624332461.1278355,-21.484,-27.831999999999997,-34.18,-53.223,1.0
1624332461.131742,-25.879,-25.879,-32.715,-6.348,1.0
1624332461.1356483,-57.129,-48.34,-35.156,-84.961,1.0
1624332461.1395545,-62.988,-70.312,-38.086,-83.984,1.0
1624332461.1434608,-20.02,-51.758,-26.855,3.906,1.0
1624332461.147367,-16.113,-35.156,-22.461,6.836,1.0
1624332461.1512733,-47.363,-39.551,-7.812,-67.383,1.0
1624332461.1551795,-50.293,-45.898,-10.254000000000001,-72.266,1.0
1624332461.1590855,-13.672,-26.366999999999997,-41.504,-3.418,1.0
1624332461.162992,-6.836,-5.371,-53.223,19.531,1.0
1624332461.1668983,-54.688,-13.184000000000001,-56.152,-55.663999999999994,1.0
1624332461.1708045,-68.848,-24.414,-58.593999999999994,-103.027,1.0
1624332461.1747108,-23.926,-14.648,-19.531,-20.02,1.0
1624332461.178617,-34.668,-10.742,-33.203,1.0,1.0
1624332461.1825233,0.488,-10.742,-17.578,1.0,1.0
1624332461.1864295,-33.203,-40.039,-21.973000000000003,1.0,1.0
1624332461.1903358,-67.87100000000001,-45.898,-42.48,1.0,1.0
1624332461.194242,-47.363,-26.366999999999997,-44.922,1.0,1.0
1624332461.1981483,-16.113,-18.555,-32.227,1.0,1.0
1624332461.2020545,-14.16,-30.273000000000003,-22.949,1.0,1.0
1624332461.205961,-36.621,-55.176,-38.574,1.0,1.0
1624332461.209867,-35.645,-56.152,-49.805,1.0,1.0
1624332461.213773,11.23,-27.831999999999997,-28.809,1.0,1.0
1624332461.2176797,23.926,-6.836,-3.418,1.0,1.0
1624332461.2215855,-28.809,-5.371,-20.508000000000003,1.0,1.0
1624332461.2254918,-68.848,-41.016000000000005,-24.414,-90.82,1.0
1624332461.229398,-66.406,-23.438000000000002,-38.574,-73.73,1.0
1624332461.2333043,-26.366999999999997,-29.296999999999997,-42.48,13.184000000000001,1.0
1624332461.237211,-25.391,-29.296999999999997,-42.48,0.0,1.0
1624332461.241117,-57.129,-9.277000000000001,-35.156,-79.59,1.0
1624332461.2450233,-80.566,-9.766,-43.945,-87.402,1.0
1624332461.2489295,-42.968999999999994,-37.109,-40.039,-4.883,1.0
1624332461.2528355,3.418,-38.086,-11.23,44.434,1.0
1624332461.256742,-25.879,-17.09,-38.086,-25.879,1.0
1624332461.2606483,-65.918,-21.484,-53.711000000000006,-88.37899999999999,1.0
1624332461.2645543,-33.203,-39.551,-21.973000000000003,-23.926,1.0
1624332461.2684608,7.324,-40.039,-12.695,38.086,1.0
1624332461.272367,18.066,-14.648,-16.602,63.477,1.0
1624332461.2762733,7.324,6.348,4.883,9.277000000000001,1.0
1624332461.2801795,-46.875,-7.324,-15.625,-65.43,1.0
1624332461.2840858,-28.809,-14.16,-24.414,-16.113,1.0
1624332461.287992,22.949,-39.551,-1.465,62.5,1.0
1624332461.2918983,-0.488,-70.801,-36.133,10.742,1.0
1624332461.2958045,-46.387,-54.688,-77.148,-79.59,1.0
1624332461.2997108,-39.551,-24.901999999999997,-39.551,-47.363,1.0
1624332461.303617,10.742,0.488,1.953,39.062,1.0
1624332461.3075233,16.113,-5.859,9.277000000000001,25.879,1.0
1624332461.3114297,-31.25,-22.949,-11.23,-59.57,1.0
1624332461.3153358,-38.086,-36.133,-31.25,-58.105,1.0
1624332461.319242,-36.133,14.648,-45.41,1.0,1.0
1624332461.3231483,-14.648,20.02,-7.324,1.0,1.0
1624332461.3270545,-47.363,-13.184000000000001,-17.578,1.0,1.0
1624332461.3309608,-73.73,-45.41,-19.531,1.0,1.0
1624332461.334867,-50.781000000000006,-48.828,-11.719000000000001,1.0,1.0
1624332461.338773,-18.555,-37.109,-9.766,1.0,1.0
1624332461.3426797,-5.859,-30.273000000000003,-9.766,1.0,1.0
1624332461.3465855,-34.668,-41.016000000000005,-28.32,1.0,1.0
1624332461.3504922,-44.922,-23.926,-27.344,1.0,1.0
1624332461.354398,-25.879,-3.906,-24.414,1.0,1.0
1624332461.3583043,-30.273000000000003,-16.602,-46.387,1.0,1.0
1624332461.362211,-51.758,-16.602,-51.27,1.0,1.0
1624332461.366117,-52.246,-0.488,-60.059,-68.848,1.0
1624332461.370023,-76.172,-0.488,-40.039,-116.211,1.0
1624332461.3739295,-58.105,-23.438000000000002,-37.109,-54.688,1.0
1624332461.3778355,-31.25,-40.527,-45.41,5.371,1.0
1624332461.381742,-47.852,-32.227,-38.574,-44.922,1.0
1624332461.3856483,-63.965,-40.527,-23.926,-96.191,1.0
1624332461.3895545,-32.227,-64.941,-19.531,-43.457,1.0
1624332461.3934608,-6.836,-23.926,-25.391,20.02,1.0
1624332461.397367,-15.625,0.0,-27.344,-8.301,1.0
1624332461.4012733,-41.016000000000005,-36.621,-25.879,-74.707,1.0
1624332461.4051795,-53.223,-45.41,-33.691,-78.613,1.0
1624332461.4090855,-31.25,-26.366999999999997,-36.621,-6.836,1.0
1624332461.412992,0.0,-10.254000000000001,-39.551,15.137,1.0
1624332461.4168983,-7.324,-20.508000000000003,-30.273000000000003,-4.883,1.0
1624332461.4208045,-49.805,-17.09,-46.875,-78.613,1.0
1624332461.4247108,-39.551,-14.648,-59.082,-63.477,1.0
1624332461.428617,-12.207,-5.859,-23.926,15.625,1.0
1624332461.4325233,-27.344,-22.949,-19.531,6.348,1.0
1624332461.4364295,-57.129,-54.688,-29.296999999999997,-68.848,1.0
1624332461.4403358,-57.617,-48.34,-16.113,-79.102,1.0
1624332461.444242,-43.457,-16.602,-24.414,-23.438000000000002,1.0
1624332461.4481483,-33.203,-11.23,-45.898,-0.977,1.0
1624332461.4520545,-44.434,-25.879,-37.598,-57.129,1.0
1624332461.455961,-41.016000000000005,-22.461,-26.366999999999997,-85.93799999999999,1.0
1624332461.459867,-58.105,-52.733999999999995,-57.617,-24.414,1.0
1624332461.463773,-33.691,-91.79700000000001,-48.828,29.296999999999997,1.0
1624332461.4676797,13.184000000000001,-46.875,2.93,-20.508000000000003,1.0
1624332461.4715855,-10.742,4.883,-3.906,-89.355,1.0
1624332461.4754918,-73.73,-20.02,-59.57,-69.824,1.0
1624332461.479398,-46.387,-20.508000000000003,-65.43,-6.836,1.0
1624332461.4833043,-3.418,-9.766,-39.062,-18.555,1.0
1624332461.487211,-38.574,-29.785,-33.691,-72.75399999999999,1.0
1624332461.491117,-63.477,-21.973000000000003,-29.785,-58.593999999999994,1.0
1624332461.4950233,-38.086,-17.09,-8.789,-4.883,1.0
1624332461.4989295,-12.695,-36.133,-11.23,2.441,1.0
1624332461.5028355,-15.137,-40.039,-8.789,-61.035,1.0
1624332461.506742,-6.348,-38.086,-6.836,3.418,1.0
1624332461.5106483,-38.086,-37.598,-6.836,-66.406,1.0
1624332461.5145543,-43.945,-23.926,-20.02,-64.941,1.0
1624332461.5184608,-22.949,-40.039,-27.344,0.977,1.0
1624332461.522367,-22.949,-43.945,-41.016000000000005,-5.859,1.0
1624332461.5262733,-53.711000000000006,-53.223,-61.523,-84.473,1.0
1624332461.5301795,-43.945,-40.527,-62.5,-80.078,1.0
1624332461.5340858,-11.23,-14.648,-56.641000000000005,-9.277000000000001,1.0
1624332461.537992,-7.324,-22.461,-37.109,12.695,1.0
1624332461.5418983,-18.555,-16.602,-7.812,-39.551,1.0
1624332461.5458045,-47.363,-9.766,-6.348,-88.867,1.0
1624332461.5497108,-47.363,-18.066,-19.531,-41.504,1.0
1624332461.553617,-21.973000000000003,-35.645,-30.761999999999997,-8.789,1.0
1624332461.5575233,2.93,-29.785,-18.066,34.18,1.0
1624332461.5614297,-2.441,-13.672,-9.277000000000001,-12.207,1.0
1624332461.5653358,-32.227,-28.32,-30.273000000000003,-65.43,1.0
1624332461.569242,-21.973000000000003,-13.672,-27.344,-14.648,1.0
1624332461.5731483,0.488,-12.695,-11.719000000000001,38.574,1.0
1624332461.5770545,-18.555,-23.926,-18.066,-15.137,1.0
1624332461.5809608,-54.688,-21.484,-27.831999999999997,-92.773,1.0
1624332461.584867,-41.992,-20.996,-30.273000000000003,-53.223,1.0
1624332461.588773,0.977,-19.043,-41.504,25.391,1.0
1624332461.5926797,-13.184000000000001,-19.531,-54.199,-0.488,1.0
1624332461.5965855,-57.617,-29.296999999999997,-64.453,-80.078,1.0
1624332461.6004922,-52.246,-27.831999999999997,-44.922,-84.473,1.0
1624332461.604398,-35.645,-15.625,-41.016000000000005,-58.105,1.0
1624332461.6083043,10.742,-14.16,-22.461,31.25,1.0
1624332461.612211,8.789,-25.391,-29.785,21.484,1.0
1624332461.616117,-38.086,-62.012,-62.012,-72.266,1.0
1624332461.620023,-50.781000000000006,-48.34,-58.105,-83.984,1.0
1624332461.6239295,-22.949,-2.93,-32.227,2.93,1.0
1624332461.6278355,-19.531,-4.395,-21.973000000000003,25.391,1.0
1624332461.631742,-37.598,-31.25,-15.137,-42.968999999999994,1.0
1624332461.6356483,-41.504,-26.366999999999997,-0.977,-61.523,1.0
1624332461.6395545,-20.02,-28.809,-11.719000000000001,-3.906,1.0
1624332461.6434608,-16.113,-48.828,-29.785,18.066,1.0
1624332461.647367,-19.531,-30.273000000000003,-34.668,5.371,1.0
1624332461.6512733,-25.879,-18.555,-14.16,-48.34,1.0
1624332461.6551795,-41.016000000000005,-19.043,-19.531,-67.383,1.0
1624332461.6590855,-18.066,-18.066,-26.855,4.883,1.0
1624332461.662992,6.836,-29.785,-19.043,46.875,1.0
1624332461.6668983,-11.719000000000001,-41.992,-29.785,-13.672,1.0
1624332461.6708045,-39.551,-20.996,-41.992,-83.49600000000001,1.0
1624332461.6747108,-44.434,-17.09,-32.715,-58.105,1.0
1624332461.678617,-26.366999999999997,-23.438000000000002,-31.738000000000003,6.836,1.0
1624332461.6825233,-17.578,-19.531,-32.227,-4.395,1.0
1624332461.6864295,-33.691,-11.23,-16.113,-61.035,1.0
1624332461.6903358,-41.504,-14.648,-2.441,-49.316,1.0
1624332461.694242,-63.965,-26.366999999999997,-49.316,1.0,1.0
1624332461.6981483,-26.855,-27.344,-31.25,1.0,1.0
1624332461.7020545,-9.766,-36.133,-25.879,1.0,1.0
1624332461.705961,-36.621,-46.387,-35.645,1.0,1.0
1624332461.709867,-52.733999999999995,-39.551,-38.086,1.0,1.0
1624332461.713773,-23.926,-21.973000000000003,-27.831999999999997,1.0,1.0
1624332461.7176797,-26.366999999999997,-20.508000000000003,-24.901999999999997,1.0,1.0
1624332461.7215855,-47.852,-42.968999999999994,-18.066,1.0,1.0
1624332461.7254918,-40.039,-49.316,-9.766,1.0,1.0
1624332461.729398,-16.113,-23.926,-19.043,1.0,1.0
1624332461.7333043,-3.418,-7.812,-21.484,1.0,1.0
1624332461.737211,-50.781000000000006,-28.809,-31.738000000000003,1.0,1.0
1624332461.741117,-44.922,-35.156,-37.109,-75.195,1.0
1624332461.7450233,-62.5,-26.855,-40.039,-104.492,1.0
1624332461.7489295,-28.809,-30.273000000000003,-32.715,-25.879,1.0
1624332461.7528355,-1.465,-50.781000000000006,-24.901999999999997,26.366999999999997,1.0
1624332461.756742,-13.672,-53.711000000000006,-23.926,-23.438000000000002,1.0
1624332461.7606483,-45.41,-38.086,-23.926,-81.543,1.0
1624332461.7645543,-44.922,-9.277000000000001,-43.457,-47.363,1.0
1624332461.7684608,-15.625,22.949,-65.43,17.09,1.0
1624332461.772367,-18.066,19.531,-31.25,-11.719000000000001,1.0
1624332461.7762733,-60.059,-29.296999999999997,-3.906,-92.773,1.0
1624332461.7801795,-67.87100000000001,-55.176,-21.973000000000003,-78.613,1.0
1624332461.7840858,-18.066,-37.598,-37.598,1.465,1.0
1624332461.787992,-9.277000000000001,-4.883,-28.809,35.156,1.0
1624332461.7918983,-27.831999999999997,-14.16,-47.363,-12.695,1.0
1624332461.7958045,-57.129,-41.504,-21.973000000000003,-88.37899999999999,1.0
1624332461.7997108,-55.176,-28.32,-11.23,-65.43,1.0
1624332461.803617,-20.02,-6.348,-24.414,18.066,1.0
1624332461.8075233,-7.324,-25.879,-29.296999999999997,16.602,1.0
1624332461.8114297,-32.227,-38.086,-28.809,-59.082,1.0
1624332461.8153358,-45.41,-41.016000000000005,-19.043,-69.336,1.0
1624332461.819242,-27.344,-36.133,-20.996,-1.953,1.0
1624332461.8231483,-22.461,-32.715,-42.968999999999994,17.09,1.0
1624332461.8270545,-47.363,-25.391,-41.016000000000005,-49.805,1.0
1624332461.8309608,-50.781000000000006,-16.113,-17.578,-73.242,1.0
1624332461.834867,-81.055,-21.484,-60.547,-19.043,1.0
1624332461.838773,-39.062,-41.016000000000005,-19.043,20.02,1.0
1624332461.8426797,-12.207,-47.363,-5.859,-24.414,1.0
1624332461.8465855,-52.733999999999995,-19.531,-29.785,-90.82,1.0
1624332461.8504922,-68.848,-16.113,-27.344,-36.621,1.0
1624332461.854398,-48.828,-35.645,-14.16,61.523,1.0
1624332461.8583043,-14.16,-39.062,-29.785,13.184000000000001,1.0
1624332461.862211,-5.859,-29.785,-31.738000000000003,-98.633,1.0
1624332461.866117,-39.551,-29.296999999999997,-26.855,-92.285,1.0
1624332461.870023,-57.129,-21.484,-49.316,-13.184000000000001,1.0
1624332461.8739295,-27.344,0.488,-33.203,7.812,1.0
1624332461.8778355,-10.254000000000001,-19.531,-14.16,-64.941,1.0
1624332461.881742,-35.645,-29.785,-37.598,-31.25,1.0
1624332461.8856483,-48.828,-33.691,-33.203,-92.285,1.0
1624332461.8895545,-32.227,-28.32,-19.043,-48.34,1.0
1624332461.8934608,8.789,-35.645,-21.973000000000003,33.691,1.0
1624332461.897367,0.977,-56.152,-38.086,7.812,1.0
1624332461.9012733,-52.733999999999995,-43.945,-59.57,-83.984,1.0
1624332461.9051795,-48.34,-4.395,-64.453,-78.613,1.0
1624332461.9090855,-9.766,18.066,-34.18,1.953,1.0
1624332461.912992,-7.324,-7.812,-10.742,11.23,1.0
1624332461.9168983,-31.738000000000003,-40.039,-15.137,-64.941,1.0
1624332461.9208045,-54.688,-43.945,-23.438000000000002,-100.586,1.0
1624332461.9247108,-46.387,-27.831999999999997,-28.809,-43.457,1.0
1624332461.928617,-9.277000000000001,-33.203,-43.945,1.0,1.0
1624332461.9325233,-1.465,-51.27,-53.223,1.0,1.0
1624332461.9364295,-44.434,-34.668,-51.758,1.0,1.0
1624332461.9403358,-67.383,-21.973000000000003,-30.761999999999997,1.0,1.0
1624332461.944242,-36.133,-44.434,-20.996,1.0,1.0
1624332461.9481483,-7.812,-30.273000000000003,-19.043,1.0,1.0
1624332461.9520545,-17.09,-17.578,-33.691,1.0,1.0
