timestamps,TP9,AF7,AF8,TP10
1630096414.989,-27.832,-71.777,-80.078,-364.746
1630096414.993,-26.367,-67.871,-42.969,-341.797
1630096414.997,-41.016,-40.039,-18.066,192.871
1630096415.001,-60.059,-30.762,-40.527,243.164
1630096415.005,-52.246,-41.016,-66.406,-217.285
1630096415.009,-48.340,-45.898,-46.875,-374.512
1630096415.013,-9.277,-23.926,-4.883,100.098
1630096415.017,9.766,-20.020,-15.625,326.660
1630096415.020,-35.156,-40.527,-63.477,-57.129
1630096415.024,-40.039,-52.246,-62.988,-413.574
1630096415.028,-20.508,-49.805,-21.973,-70.801
1630096415.032,-27.832,-31.738,-20.020,299.316
1630096415.032,-27.832,-31.738,-20.020,299.316
1630096415.033,-40.527,-38.086,-50.781,65.918
1630096415.037,-18.066,-50.293,-49.316,-358.398
1630096415.041,-4.395,-37.598,3.418,-162.109
1630096415.045,-27.832,-35.156,-6.836,283.203
1630096415.049,-38.574,-42.480,-58.105,169.434
1630096415.053,-35.645,-36.133,-68.848,-296.387
1630096415.057,1.953,9.277,9.766,-256.348
1630096415.061,5.371,-14.648,11.230,199.219
1630096415.064,-21.973,-56.152,-44.434,223.633
1630096415.068,-33.203,-36.621,-66.406,-200.684
1630096415.072,-60.059,-32.715,-51.270,-433.105
1630096415.076,-62.012,-37.109,-17.090,-2.930
1630096415.079,-41.016,-38.086,-26.367,264.160
1630096415.083,-30.273,-40.039,-56.152,-38.086
1630096415.087,-27.832,-37.598,-60.547,-413.086
1630096415.091,-11.230,-24.902,-26.855,-121.582
1630096415.095,-18.066,-34.180,-28.320,314.453
1630096415.099,-21.484,-29.785,-30.273,187.500
1630096415.103,-26.367,-14.160,-27.832,-330.566
1630096415.107,-50.781,-32.227,-33.691,-311.523
1630096415.110,-38.086,-37.598,-30.762,202.148
1630096415.114,-42.969,-26.855,-41.504,208.984
1630096415.118,-44.434,-28.809,-62.500,-270.508
1630096415.122,-31.250,-32.715,-41.992,-364.258
1630096415.137,-10.254,-28.809,-20.020,145.996
1630096415.141,-25.391,-41.504,-27.832,316.895
1630096415.145,-63.965,-50.781,-52.246,-150.879
1630096415.149,-56.641,-47.852,-41.504,-423.828
1630096415.153,-23.438,-50.781,-5.371,18.555
1630096415.157,15.625,-32.227,23.438,371.582
1630096415.161,-26.367,-45.898,-39.551,56.152
1630096415.165,-68.848,-47.852,-69.336,-422.363
1630096415.168,-37.598,-10.254,-15.137,-139.648
1630096415.172,0.488,0.488,-3.906,330.078
1630096415.176,-10.742,-31.738,-31.738,151.367
1630096415.180,-75.684,-49.316,-52.246,-383.789
1630096415.183,-69.824,-41.992,-21.484,-309.082
1630096415.187,-43.945,-33.203,-9.766,237.305
1630096415.191,-45.898,-45.410,-35.156,237.793
1630096415.195,-53.223,-59.570,-62.012,-257.812
1630096415.199,-26.855,-43.457,-32.227,-322.754
1630096415.203,-10.254,-28.320,-1.465,161.133
1630096415.207,-28.320,-36.133,-20.508,307.129
1630096415.211,-56.152,-45.410,-54.199,-102.539
1630096415.214,-15.625,-13.672,-20.996,-384.766
1630096415.218,9.766,-5.859,16.113,28.320
1630096415.222,-22.461,-25.879,-18.555,320.312
1630096415.226,-46.387,-22.461,-40.039,26.855
1630096415.227,-48.340,-19.531,-28.809,-409.668
1630096415.231,-37.109,-29.785,6.348,-177.246
1630096415.235,-50.293,-43.945,-4.395,256.348
1630096415.239,-35.645,-37.598,-25.391,135.742
1630096415.243,-17.090,-16.602,-13.672,-327.637
1630096415.247,-20.508,-28.809,-12.207,-313.477
1630096415.251,-28.809,-26.855,-30.273,163.574
1630096415.255,-53.223,-4.883,-33.691,213.379
1630096415.258,-50.293,20.996,-32.715,-181.641
1630096415.262,-67.383,6.836,-38.086,-404.297
1630096415.266,-60.059,-20.996,-22.949,20.996
1630096415.270,-39.062,-32.715,-24.414,270.996
1630096415.274,-25.879,-27.832,-40.527,-76.172
1630096415.278,-58.594,-15.625,-40.527,-398.438
1630096415.282,-74.219,-25.391,-17.090,-68.848
1630096415.286,-25.879,-18.066,-9.766,299.316
1630096415.290,-21.484,-9.766,-49.316,65.918
1630096415.294,-42.969,-24.414,-60.547,-401.367
1630096415.298,-53.711,-32.227,-18.555,-217.285
1630096415.302,-20.996,-18.555,6.836,280.273
1630096415.305,-21.484,-24.414,-23.926,180.176
1630096415.309,-40.527,-51.270,-70.801,-351.562
1630096415.313,-33.203,-50.781,-35.156,-353.027
1630096415.317,-52.734,-38.574,-14.160,155.273
1630096415.317,-68.359,-31.250,-39.062,251.953
1630096415.321,-65.430,-39.551,-77.637,-191.895
1630096415.325,-49.316,-40.039,-58.594,-409.668
1630096415.329,-18.066,-35.645,-16.113,62.988
1630096415.333,-25.879,-40.039,-29.785,287.598
1630096415.337,-79.102,-36.621,-59.570,-43.457
1630096415.341,-55.664,-29.297,-45.410,-401.855
1630096415.345,13.672,9.277,40.039,-43.945
1630096415.348,-2.441,-7.812,11.719,329.590
1630096415.352,-38.574,-56.152,-56.152,78.125
1630096415.356,-39.062,-49.316,-59.082,-380.371
1630096415.360,-38.086,-36.621,-30.762,-270.508
1630096415.364,-40.527,-38.086,-29.297,213.379
1630096415.368,-36.133,-43.945,-52.734,200.195
1630096415.372,-27.344,-51.758,-62.500,-251.953
1630096415.376,-37.109,-42.480,-32.715,-353.027
1630096415.380,-41.992,-40.527,-20.996,125.000
1630096415.384,-33.691,-48.340,-41.992,306.641
1630096415.388,-1.465,-29.297,-39.551,-86.914
1630096415.392,-24.414,-21.484,-32.715,-411.621
1630096415.395,-67.871,-42.480,-41.016,-60.547
1630096415.399,-47.852,-44.434,-46.387,263.672
1630096415.403,-19.043,-25.879,-53.223,-3.418
1630096415.407,-38.086,-30.273,-69.824,-421.387
1630096415.407,-53.223,-34.668,-51.270,-165.039
1630096415.411,-41.504,-26.367,-47.363,250.488
1630096415.415,-41.992,-29.297,-62.500,95.703
1630096415.419,-50.781,-31.738,-65.430,-332.031
1630096415.423,-50.293,-44.922,-42.480,-283.203
1630096415.427,-20.020,-48.340,-20.508,194.824
1630096415.431,32.715,-1.953,7.812,312.500
1630096415.435,0.488,-14.648,-36.621,-196.777
1630096415.438,-36.621,-42.480,-47.363,-401.367
1630096415.442,-25.391,-31.738,-13.672,129.395
1630096415.446,-17.090,-36.133,-43.945,317.871
1630096415.450,-20.996,-51.758,-86.426,-112.793
1630096415.455,-62.500,-56.641,-70.801,-440.430
1630096415.459,-34.668,-29.785,-7.812,-48.340
1630096415.463,-16.602,-27.344,-14.648,293.945
1630096415.467,-73.242,-60.059,-62.988,41.016
1630096415.471,-63.477,-70.312,-63.965,-386.230
1630096415.475,-25.879,-41.504,-18.066,-150.879
1630096415.479,-44.434,-47.363,-26.855,278.809
1630096415.483,-33.203,-59.082,-61.035,112.305
1630096415.486,-33.691,-43.945,-63.477,-342.285
1630096415.490,-23.438,-20.020,-0.488,-239.746
1630096415.494,-21.484,-33.691,-1.953,218.262
1630096415.498,-46.875,-41.504,-45.410,243.164
1630096415.512,-55.664,-44.922,-63.965,-189.453
1630096415.516,-29.297,-60.547,-44.922,-360.840
1630096415.520,-22.461,-49.805,-20.508,122.559
1630096415.524,-53.711,-39.062,-41.504,324.707
1630096415.528,-27.832,-34.668,-65.918,-32.715
1630096415.532,44.434,10.742,0.488,-288.086
1630096415.536,44.922,3.906,33.691,15.137
1630096415.540,9.277,-40.527,-30.273,251.953
1630096415.543,-27.344,-36.133,-64.453,29.785
1630096415.547,-61.035,-33.691,-65.918,-403.320
1630096415.551,-56.641,-41.016,-33.691,-238.770
1630096415.555,-36.133,-37.109,-31.250,253.906
1630096415.557,-26.367,-33.203,-50.293,214.844
1630096415.561,-29.785,-37.598,-51.270,-241.699
1630096415.565,-29.785,-48.828,-24.902,-278.809
1630096415.569,-9.766,-51.758,-18.555,174.805
1630096415.573,-11.230,-30.762,-30.273,290.039
1630096415.577,-41.016,-35.156,-58.105,-115.723
1630096415.581,-32.227,-48.340,-60.547,-408.691
1630096415.585,-13.184,-37.598,-29.297,-5.371
1630096415.588,-1.465,-4.883,-2.930,333.008
1630096415.592,-30.273,-14.648,-38.574,14.160
1630096415.596,-46.387,-46.387,-74.707,-422.852
1630096415.600,-15.137,-49.316,-36.621,-115.234
1630096415.602,-19.531,-51.758,-27.832,304.688
1630096415.606,-42.480,-40.039,-47.852,96.680
1630096415.610,-39.551,-43.457,-62.500,-385.742
1630096415.614,-4.883,-40.527,-35.645,-220.703
1630096415.618,16.113,-23.926,-16.602,331.055
1630096415.622,-4.883,-46.387,-48.340,290.527
1630096415.626,-76.172,-59.570,-73.730,-259.766
1630096415.630,-83.496,-42.480,-41.504,-396.973
1630096415.633,-23.926,-0.488,14.648,154.297
1630096415.637,-45.898,-21.484,-11.230,282.715
1630096415.641,-79.590,-52.734,-63.477,-190.430
1630096415.645,-57.617,-49.316,-55.176,-449.219
1630096415.649,-20.996,-49.805,-26.855,-38.086
1630096415.653,-15.625,-54.688,-34.668,265.625
1630096415.657,-46.875,-63.477,-55.664,-25.879
1630096415.661,-64.941,-61.523,-50.293,-412.598
1630096415.665,-76.660,-46.875,-18.555,-134.766
1630096415.669,-65.918,-55.176,-17.578,296.875
1630096415.673,-57.129,-63.477,-47.852,137.695
1630096415.677,-38.086,-34.668,-35.156,-324.707
1630096415.680,-32.227,-32.715,-8.301,-256.348
1630096415.684,-41.504,-50.293,-26.855,192.871
1630096415.688,-25.879,-36.133,-45.410,228.516
1630096415.692,-23.438,-27.832,-38.086,-173.828
1630096415.692,-21.973,-46.875,-22.461,-352.539
1630096415.696,-46.387,-58.105,-14.648,72.266
1630096415.700,-63.477,-57.617,-33.203,278.809
1630096415.704,-60.059,-42.969,-67.871,-79.102
1630096415.708,-69.824,-37.109,-58.105,-413.574
1630096415.712,-61.523,-46.387,-22.461,-42.480
1630096415.716,-37.109,-45.410,-24.414,318.359
1630096415.720,9.277,-6.836,-3.906,126.953
1630096415.723,-26.367,-25.391,-30.762,-348.633
1630096415.727,-34.668,-53.223,-44.434,-206.055
1630096415.731,-21.484,-58.105,-31.738,255.859
1630096415.735,-38.086,-62.500,-55.664,133.789
1630096415.740,-54.199,-48.340,-67.871,-349.121
1630096415.744,-58.594,-45.410,-36.133,-301.758
1630096415.748,-23.438,-39.062,-16.113,212.402
1630096415.752,-26.855,-34.180,-33.203,256.836
1630096415.756,-55.176,-45.898,-69.336,-190.918
1630096415.760,-53.711,-54.199,-50.293,-369.629
1630096415.764,-19.531,-46.387,-11.230,97.656
1630096415.768,-45.410,-47.363,-30.762,310.547
1630096415.771,-70.312,-50.293,-74.707,-77.637
1630096415.775,-51.758,-47.363,-69.824,-421.387
1630096415.779,-35.645,-56.641,-37.598,-75.684
1630096415.783,-29.785,-53.711,-31.738,303.711
1630096415.783,-29.297,-48.340,-51.270,68.848
1630096415.787,-51.758,-43.945,-59.570,-391.602
1630096415.791,-50.781,-41.016,-30.273,-194.336
1630096415.795,-0.488,-33.691,-21.973,274.414
1630096415.799,-20.996,-37.598,-46.387,170.898
1630096415.803,-66.406,-34.180,-65.918,-304.199
1630096415.807,-57.617,-34.668,-43.457,-332.031
1630096415.811,-35.156,-51.270,-15.625,151.367
1630096415.814,-31.250,-49.805,-32.715,284.668
1630096415.818,-35.156,-32.715,-60.059,-160.645
1630096415.822,-24.414,-39.551,-38.574,-416.992
1630096415.826,-17.578,-45.898,-6.348,47.852
1630096415.829,13.184,-37.109,-15.137,332.520
1630096415.833,13.184,-40.527,-53.223,9.277
1630096415.837,-30.273,-41.504,-52.734,-389.648
1630096415.841,-56.152,-39.062,-17.090,-107.910
1630096415.845,-42.480,-29.785,-26.367,286.621
1630096415.849,-9.277,-6.348,-29.785,161.621
1630096415.853,-14.648,-28.320,-44.922,-326.172
1630096415.857,-35.156,-55.176,-35.156,-253.418
1630096415.860,-41.504,-39.551,-27.344,247.559
1630096415.864,-17.090,-12.695,-28.320,227.539
1630096415.868,-22.949,-20.508,-28.320,-237.793
1630096415.872,-36.621,-48.340,-22.461,-358.887
1630096415.887,-15.625,-44.434,-18.066,125.488
1630096415.891,-29.297,-51.758,-40.527,265.625
1630096415.895,-50.781,-56.152,-61.523,-138.672
1630096415.899,-50.293,-43.457,-39.062,-401.367
1630096415.903,-25.391,-31.250,-4.883,8.789
1630096415.907,-16.113,-20.020,-5.859,342.285
1630096415.911,-17.578,-26.855,-50.293,6.836
1630096415.915,-19.043,-40.527,-63.477,-415.039
1630096415.918,-22.949,-39.062,-14.648,-97.656
1630096415.922,-22.949,-39.062,-11.719,319.824
1630096415.926,-24.902,-35.156,-41.504,125.488
1630096415.930,-37.109,-32.227,-50.293,-335.938
1630096415.932,-28.809,-33.203,-20.996,-240.234
1630096415.936,-10.254,-29.785,-20.020,237.793
1630096415.940,-18.066,-30.273,-52.246,203.613
1630096415.944,-23.926,-34.668,-78.125,-248.047
1630096415.948,-28.320,-20.996,-49.805,-378.906
1630096415.952,-33.203,-8.301,-12.695,127.930
1630096415.956,-4.395,-18.555,-15.625,335.938
1630096415.960,-23.438,-36.133,-42.480,-108.887
1630096415.963,-25.879,-31.250,-21.973,-436.523
1630096415.967,0.977,-24.414,5.371,-38.086
1630096415.971,-38.086,-36.133,-19.531,290.039
1630096415.975,-42.969,-44.434,-46.387,49.316
1630096415.978,-24.902,-47.852,-55.664,-366.699
1630096415.982,-3.906,-40.039,-21.484,-184.570
1630096415.986,3.906,-24.902,-23.926,266.602
1630096415.990,-7.812,-18.555,-53.711,173.828
1630096415.994,-17.090,-18.555,-49.316,-276.855
1630096415.998,-21.973,-21.484,-29.785,-267.090
1630096416.002,-16.113,-32.227,-25.879,170.410
1630096416.006,-8.301,-32.715,-27.344,216.797
1630096416.009,-31.738,-29.297,-41.504,-216.797
1630096416.013,-40.039,-35.645,-35.645,-412.598
1630096416.017,-24.414,-46.387,-13.184,28.320
1630096416.021,-37.109,-52.734,-29.297,283.203
1630096416.024,-15.137,-41.016,-61.035,-64.453
1630096416.028,-16.602,-35.156,-53.223,-429.199
1630096416.032,-53.711,-29.297,-25.879,-92.773
1630096416.036,-37.109,-23.438,-22.949,314.941
1630096416.040,-35.645,-26.367,-51.270,111.328
1630096416.044,-37.109,-34.668,-63.477,-350.098
1630096416.048,-12.207,-33.691,-33.203,-184.082
1630096416.052,7.812,-18.555,-21.973,286.133
1630096416.055,-3.906,-33.691,-45.410,184.082
1630096416.059,-64.453,-50.293,-69.336,-359.863
1630096416.063,-65.430,-38.086,-33.691,-379.395
1630096416.067,-37.598,-31.738,-20.508,171.875
1630096416.067,-53.711,-40.527,-42.480,246.582
1630096416.071,-60.059,-48.828,-48.340,-156.250
1630096416.075,-39.062,-62.012,-29.785,-325.195
1630096416.079,-16.113,-65.430,-3.906,81.543
1630096416.083,-10.254,-51.758,-21.484,318.359
1630096416.087,-19.531,-37.109,-57.617,-17.090
1630096416.091,-28.809,-24.414,-50.781,-424.316
1630096416.095,-33.203,-19.531,-10.742,-126.953
1630096416.098,-21.973,-27.344,-16.113,278.320
1630096416.102,-36.133,-34.668,-51.758,83.984
1630096416.106,-52.734,-32.715,-73.730,-385.254
1630096416.110,-14.160,-25.391,-35.645,-224.609
1630096416.114,-20.996,-32.227,-7.812,270.020
1630096416.118,-54.199,-39.551,-30.273,178.711
1630096416.122,-74.219,-47.363,-41.992,-286.133
1630096416.126,-79.102,-54.199,-12.695,-371.094
1630096416.130,-52.734,-52.734,1.465,111.328
1630096416.134,-58.594,-55.664,-8.301,305.664
1630096416.138,-66.406,-61.035,-28.320,-97.168
1630096416.142,-75.684,-65.918,-10.742,-410.156
1630096416.145,-69.824,-66.895,20.508,21.484
1630096416.149,-47.363,-62.500,2.930,360.840
1630096416.153,-64.941,-66.406,-23.438,25.391
1630096416.157,-67.383,-72.754,-12.695,-390.625
1630096416.158,-47.363,-71.289,13.672,-97.168
1630096416.162,-36.621,-76.660,-12.695,306.641
1630096416.166,-33.691,-74.707,-32.715,154.297
1630096416.170,-60.547,-64.941,-34.180,-310.059
1630096416.174,-62.500,-53.223,-7.812,-271.484
1630096416.178,-39.551,-38.086,1.465,229.492
1630096416.182,-41.016,-35.156,-21.973,294.922
1630096416.186,-52.734,-45.410,-50.781,-206.543
1630096416.189,-56.641,-51.270,-20.508,-380.371
1630096416.193,-32.227,-50.293,13.184,101.562
1630096416.197,-14.160,-42.480,-2.930,297.363
1630096416.201,-31.250,-54.688,-36.621,-56.641
1630096416.206,-23.926,-58.594,-36.133,-382.812
1630096416.210,-13.184,-44.434,-1.953,-28.320
1630096416.214,-21.973,-47.363,-10.254,318.359
1630096416.218,-52.246,-50.293,-42.969,58.594
1630096416.222,-67.871,-56.641,-47.852,-373.535
1630096416.226,-40.527,-49.805,-11.719,-122.070
1630096416.230,-38.086,-37.109,-16.113,323.242
1630096416.234,-31.738,-37.109,-42.969,166.016
1630096416.237,-23.438,-39.062,-49.805,-277.832
1630096416.241,-31.250,-36.133,-22.461,-251.465
1630096416.245,-19.531,-34.668,-5.371,189.453
1630096416.249,-8.301,-38.086,-20.996,246.582
1630096416.262,-11.719,-48.340,-56.152,-191.895
1630096416.266,-7.324,-48.828,-43.457,-382.324
1630096416.270,0.000,-36.133,-7.324,77.148
1630096416.274,-12.695,-33.691,-27.344,336.914
1630096416.278,-34.180,-31.738,-66.406,-9.766
1630096416.282,-23.926,-43.457,-62.988,-384.766
1630096416.286,-7.324,-43.457,-18.066,-48.828
1630096416.290,-14.648,-33.203,-0.977,284.668
1630096416.293,-28.809,-35.645,-28.320,63.477
1630096416.297,-39.551,-40.527,-44.434,-378.906
1630096416.301,-13.672,-46.387,-16.602,-199.707
1630096416.305,9.766,-48.340,-22.949,284.668
1630096416.307,9.766,-32.715,-47.363,178.711
1630096416.311,-19.531,-30.762,-56.152,-295.898
1630096416.315,-41.016,-43.945,-32.227,-331.543
1630096416.319,-19.531,-44.434,-24.414,104.980
1630096416.323,-27.344,-36.621,-47.363,238.281
1630096416.327,-51.758,-28.809,-62.988,-130.859
1630096416.331,-42.480,-29.785,-37.109,-367.676
1630096416.335,-47.852,-34.668,-12.207,36.133
1630096416.338,-55.176,-35.645,-38.086,287.598
1630096416.342,-50.293,-31.738,-65.918,-37.598
1630096416.346,-56.641,-33.691,-52.734,-437.500
1630096416.350,-19.531,-26.855,-7.812,-121.094
1630096416.352,-8.789,-30.273,-7.812,317.871
1630096416.356,-36.133,-51.270,-42.969,125.000
1630096416.360,-44.922,-50.293,-63.477,-381.348
1630096416.364,-6.836,-25.391,-38.574,-242.188
1630096416.368,-7.324,-18.066,-21.484,258.301
1630096416.372,-38.086,-30.762,-29.297,217.773
1630096416.376,-49.316,-43.457,-61.523,-247.070
1630096416.380,-40.527,-38.086,-57.129,-359.863
1630096416.383,-8.789,-16.113,-21.484,140.625
1630096416.387,-28.809,-23.926,-24.902,299.316
1630096416.391,-58.105,-41.504,-43.945,-136.719
1630096416.395,-46.875,-33.691,-29.297,-406.738
1630096416.397,-23.438,-23.438,-2.930,6.836
1630096416.401,-17.578,-26.367,-19.531,327.148
1630096416.405,-28.809,-37.598,-48.828,25.879
1630096416.409,-16.113,-41.992,-55.176,-399.414
1630096416.413,-9.766,-33.203,-26.855,-125.000
1630096416.417,-47.852,-41.992,-26.855,300.781
1630096416.421,-65.430,-52.246,-50.781,133.789
1630096416.425,-14.648,-16.113,-15.137,-279.297
1630096416.428,-9.277,-14.648,10.742,-195.312
1630096416.432,-26.367,-48.340,-24.414,237.305
1630096416.436,-21.973,-36.621,-58.105,232.422
1630096416.440,-38.086,-29.297,-82.520,-245.117
1630096416.443,-41.992,-35.645,-48.340,-388.672
1630096416.447,-52.734,-34.180,-10.254,73.730
1630096416.451,-57.129,-41.016,-34.180,284.668
1630096416.455,-60.547,-68.359,-81.543,-88.379
1630096416.459,-29.297,-57.129,-61.523,-418.945
1630096416.463,-18.066,-34.668,-19.043,-29.785
1630096416.467,-37.598,-34.668,-33.691,337.891
1630096416.471,-37.109,-33.203,-57.617,92.773
1630096416.474,-31.250,-42.480,-58.105,-403.809
1630096416.478,-29.297,-42.480,-25.879,-220.703
1630096416.482,-35.156,-37.598,-20.996,232.910
1630096416.486,-34.180,-43.457,-41.992,117.188
1630096416.489,-35.645,-45.898,-58.594,-346.680
1630096416.493,-41.504,-45.410,-38.086,-346.680
1630096416.497,-28.809,-50.781,-26.855,123.535
1630096416.501,-29.297,-50.293,-51.270,214.844
1630096416.505,-59.570,-46.387,-73.242,-212.891
1630096416.509,-52.734,-54.199,-38.574,-390.625
1630096416.513,-20.020,-48.340,-8.301,71.289
1630096416.517,-16.113,-35.645,-26.855,262.695
1630096416.520,-37.598,-44.434,-53.223,-97.168
1630096416.524,-31.738,-57.129,-58.594,-438.965
1630096416.528,-39.551,-50.781,-24.414,-84.473
1630096416.532,-47.852,-36.133,-16.602,311.523
1630096416.533,-36.621,-31.738,-46.875,84.961
1630096416.537,-41.504,-37.109,-61.035,-392.578
1630096416.541,-19.043,-34.180,-26.367,-243.652
1630096416.545,-19.531,-32.715,-15.137,260.742
1630096416.549,-27.344,-36.621,-44.434,214.355
1630096416.553,-34.668,-40.039,-63.477,-265.137
1630096416.557,-43.945,-35.156,-21.973,-319.824
1630096416.561,5.859,-38.574,5.371,201.172
1630096416.564,37.109,-41.992,-22.461,350.586
1630096416.568,-40.527,-21.484,-52.246,-166.992
1630096416.572,-98.145,-24.902,-41.016,-451.660
1630096416.576,-60.547,-38.086,-14.160,-0.488
1630096416.579,-53.223,-40.039,-33.691,244.141
1630096416.583,-77.637,-33.203,-55.664,-87.402
1630096416.587,-96.191,-25.391,-51.758,-470.215
1630096416.591,-67.383,-20.996,-23.926,-167.969
1630096416.595,-41.016,-12.695,-25.879,248.535
1630096416.599,-62.012,-28.809,-44.922,83.008
1630096416.603,-85.449,-36.133,-70.312,-398.438
1630096416.607,-99.121,-30.273,-49.805,-323.242
1630096416.610,-84.961,-28.320,-24.414,170.898
1630096416.614,-65.430,-18.555,-41.504,160.156
1630096416.618,-86.426,-22.461,-63.477,-321.777
1630096416.622,-76.660,-29.785,-37.109,-395.020
1630096416.637,-49.805,-27.832,-21.973,111.328
1630096416.641,-65.918,-30.273,-43.945,254.395
1630096416.645,-56.641,-41.504,-64.453,-181.641
1630096416.649,-43.457,-36.133,-46.387,-436.035
1630096416.653,-34.180,-29.785,-21.973,-11.230
1630096416.657,-35.156,-33.691,-29.297,319.824
1630096416.661,-55.664,-26.367,-61.523,43.945
1630096416.665,-56.641,-30.273,-80.566,-412.598
1630096416.668,-44.922,-29.785,-38.086,-179.688
1630096416.672,-52.246,-15.625,-13.184,268.555
1630096416.676,-65.918,-18.066,-40.527,117.188
1630096416.680,-62.500,-23.926,-49.316,-358.887
1630096416.683,-41.992,-30.762,-19.531,-270.996
1630096416.687,-14.160,-34.180,-17.578,234.375
1630096416.691,-7.812,-36.621,-41.992,270.508
1630096416.695,-52.734,-49.316,-65.430,-213.379
1630096416.699,-44.434,-45.898,-36.133,-364.258
1630096416.703,-10.742,-23.438,-15.137,125.977
1630096416.707,-18.066,-21.484,-39.551,314.941
1630096416.711,-38.086,-25.391,-58.105,-77.637
1630096416.714,-26.367,-10.254,-34.180,-368.164
1630096416.718,-12.207,-20.508,-6.348,-7.324
1630096416.722,-9.277,-40.527,-13.184,306.152
1630096416.726,-33.691,-35.156,-36.133,67.871
1630096416.727,-34.668,-26.855,-47.852,-384.766
1630096416.731,-6.348,-26.855,-14.160,-168.945
1630096416.735,-12.695,-29.297,-6.836,301.270
1630096416.739,-33.203,-38.574,-33.203,214.355
1630096416.743,-20.508,-43.945,-51.758,-257.324
1630096416.747,-15.625,-40.527,-28.809,-269.531
1630096416.751,-25.391,-42.969,-18.555,187.500
1630096416.755,-30.273,-36.621,-30.273,246.094
1630096416.758,-29.785,-35.645,-50.781,-161.621
1630096416.762,-20.996,-27.344,-32.715,-335.449
1630096416.766,-38.086,-23.926,-20.020,83.984
1630096416.770,-45.898,-29.297,-43.457,295.410
1630096416.773,-41.504,-37.598,-55.176,-5.371
1630096416.777,-33.691,-46.875,-41.016,-362.793
1630096416.781,-23.926,-33.203,-4.395,-73.242
1630096416.785,-30.762,-32.227,-6.836,304.688
1630096416.789,-40.527,-56.641,-44.922,125.000
1630096416.793,-46.875,-62.012,-63.477,-317.383
1630096416.797,-50.293,-57.129,-33.691,-190.430
1630096416.801,-20.996,-34.668,-9.277,255.859
1630096416.804,-24.902,-23.438,-27.832,190.430
1630096416.808,-60.547,-38.086,-70.312,-297.363
1630096416.812,-37.109,-32.227,-37.109,-321.777
1630096416.816,-4.883,-13.672,7.812,203.125
1630096416.817,-6.348,-20.020,-27.344,286.133
1630096416.821,-19.531,-41.016,-69.824,-174.805
1630096416.825,-39.551,-44.922,-51.758,-397.461
1630096416.829,-35.645,-36.621,-24.414,68.848
1630096416.833,-31.250,-40.039,-38.086,304.199
1630096416.837,-58.105,-51.758,-59.570,-31.250
1630096416.841,-55.664,-50.293,-50.781,-376.953
1630096416.845,-23.438,-21.484,-0.977,-89.844
1630096416.848,-28.809,-16.602,-15.137,239.746
1630096416.852,-36.133,-31.738,-64.453,59.570
1630096416.856,-36.133,-35.156,-67.871,-343.262
1630096416.860,-41.016,-37.598,-25.391,-219.238
1630096416.865,-29.785,-41.992,-21.484,200.684
1630096416.869,-16.602,-44.922,-59.082,177.734
1630096416.873,-29.785,-44.434,-71.289,-199.707
1630096416.877,-14.648,-42.969,-30.273,-282.227
1630096416.881,-17.578,-47.363,-12.695,128.906
1630096416.885,-36.133,-55.176,-34.668,232.910
1630096416.889,-21.484,-19.531,-35.645,-83.496
1630096416.893,-17.090,-12.207,-15.625,-310.547
1630096416.896,-22.949,-34.668,-8.789,-5.859
1630096416.900,-27.344,-25.391,-28.320,246.094
1630096416.904,-49.805,-26.855,-53.711,4.883
1630096416.908,-41.992,-36.133,-52.246,-363.770
1630096416.922,-50.293,-38.086,-29.297,-149.414
1630096416.926,-45.898,-27.832,-32.715,237.305
1630096416.930,-31.250,-27.832,-52.246,125.488
1630096416.934,-33.691,-30.273,-55.176,-252.930
1630096416.938,-45.410,-38.574,-21.973,-196.777
1630096416.942,-45.410,-48.340,-17.578,197.266
1630096416.946,-13.184,-40.039,-40.039,199.219
1630096416.950,-37.109,-37.109,-60.059,-210.938
1630096416.953,-37.598,-33.691,-36.133,-294.434
1630096416.957,-16.602,-44.922,-11.230,102.539
1630096416.961,-58.105,-51.270,-29.785,215.820
1630096416.965,-71.289,-39.551,-70.801,-105.957
1630096416.955,-53.711,-37.598,-56.641,-349.121
1630096416.959,-26.367,-38.086,-8.789,-36.621
1630096416.963,-31.250,-34.180,-15.137,208.496
1630096416.967,-40.039,-36.133,-37.109,-15.625
1630096416.971,-46.387,-34.668,-42.969,-345.703
1630096416.975,-55.176,-29.785,-15.137,-161.133
1630096416.979,-44.434,-31.250,-6.348,192.871
1630096416.983,-41.016,-35.156,-39.551,57.129
1630096416.986,-50.293,-37.598,-60.547,-339.355
1630096416.990,-30.273,-37.598,-28.320,-301.270
1630096416.994,-34.668,-33.691,-15.137,94.238
1630096416.998,-51.270,-27.344,-29.785,121.582
1630096417.012,-46.875,-25.391,-57.617,-241.211
1630096417.016,-46.387,-28.320,-48.340,-401.855
1630096417.020,-36.621,-32.227,-15.137,-35.156
1630096417.024,-39.062,-39.062,-21.973,142.578
1630096417.028,-47.363,-36.621,-49.805,-161.621
1630096417.032,-44.434,-27.344,-32.227,-432.129
1630096417.036,-38.574,-35.156,0.000,-177.734
1630096417.040,-43.945,-48.828,-20.508,60.547
1630096417.043,-37.598,-24.902,-35.645,-92.773
1630096417.047,5.371,21.973,-3.906,-381.348
1630096417.051,-12.695,-13.184,1.953,-303.711
1630096417.055,-26.855,-40.527,-13.184,35.156
1630096417.057,-51.758,-24.902,-44.434,-57.617
1630096417.061,-76.172,-23.438,-75.195,-514.160
1630096417.065,-52.734,-27.344,-40.039,-525.391
1630096417.069,-43.457,-24.414,-18.066,-119.629
1630096417.073,-40.527,-22.461,-44.922,-69.824
1630096417.077,-40.039,-32.715,-76.660,-432.129
1630096417.081,-51.270,-35.645,-66.895,-674.316
1630096417.085,-22.461,-20.508,-33.691,-303.711
1630096417.088,-11.719,-16.113,-37.598,-26.855
1630096417.092,-31.250,-21.973,-70.801,-328.125
1630096417.096,-28.809,-25.391,-79.102,-663.574
1630096417.100,-22.949,-21.484,-39.551,-328.613
1630096417.102,-0.977,-11.719,-27.832,145.020
1630096417.106,4.883,-22.461,-68.359,-10.254
1630096417.110,3.906,-33.203,-83.496,-459.961
1630096417.114,13.672,-27.344,-36.133,-293.457
1630096417.118,-1.465,-25.879,-17.578,215.820
1630096417.122,-18.066,-21.973,-49.805,239.746
1630096417.126,-37.109,-27.344,-83.008,-253.418
1630096417.130,-21.484,-31.738,-40.527,-336.426
1630096417.133,-5.371,-23.926,-9.277,210.449
1630096417.137,1.953,-21.484,-37.109,335.938
1630096417.141,40.039,-17.578,-65.918,-64.453
1630096417.145,2.441,-19.043,-49.316,-302.734
1630096417.150,-29.785,-25.879,-15.137,138.184
1630096417.154,-9.766,-30.762,-29.297,473.633
1630096417.158,-28.320,-36.133,-68.359,171.387
1630096417.162,-45.898,-37.598,-73.730,-319.824
1630096417.166,-23.438,-33.203,-27.832,-40.039
1630096417.170,11.230,-27.832,-19.043,500.488
1630096417.174,-14.160,-28.320,-48.828,367.188
1630096417.178,-51.270,-46.387,-73.242,-240.723
1630096417.181,-15.137,-41.016,-33.203,-195.801
1630096417.185,11.719,-30.762,-11.230,393.555
1630096417.189,-22.461,-43.457,-41.992,404.785
1630096417.193,-47.852,-40.039,-66.406,-124.023
1630096417.192,-41.016,-33.691,-35.156,-287.109
1630096417.196,-24.414,-33.203,-8.789,301.758
1630096417.200,-25.879,-35.645,-31.250,568.848
1630096417.204,-29.785,-38.574,-61.035,127.930
1630096417.208,-20.020,-37.598,-49.316,-290.527
1630096417.212,-0.488,-26.367,-1.953,153.809
1630096417.216,5.859,-23.926,-8.789,602.539
1630096417.220,-20.020,-33.691,-48.828,271.484
1630096417.223,-43.457,-40.527,-52.246,-296.387
1630096417.227,14.648,-25.391,-6.348,-57.617
1630096417.231,17.578,-22.949,-3.906,500.488
1630096417.235,-17.090,-34.668,-41.016,384.766
1630096417.239,-1.465,-36.133,-66.895,-208.008
1630096417.243,-9.277,-31.250,-23.926,-227.051
1630096417.247,-14.160,-30.273,0.977,382.324
1630096417.251,-14.160,-24.902,-26.367,491.699
1630096417.255,-40.039,-25.879,-65.430,-100.098
1630096417.259,-36.133,-28.809,-38.086,-369.629
1630096417.263,-28.809,-29.785,-3.418,235.352
1630096417.267,-39.062,-41.992,-30.273,521.973
1630096417.270,-32.227,-47.852,-63.477,78.125
1630096417.274,-32.227,-42.969,-59.082,-400.879
1630096417.278,-30.273,-41.016,-18.555,-12.207
1630096417.282,-20.996,-42.480,-21.484,484.863
1630096417.283,-36.133,-39.551,-48.340,227.539
1630096417.287,-51.270,-41.016,-53.711,-352.051
1630096417.291,-40.527,-41.016,-19.043,-157.227
1630096417.295,-33.691,-38.086,-5.859,479.004
1630096417.299,-39.551,-42.969,-34.180,375.488
1630096417.303,-32.715,-47.363,-59.570,-243.164
1630096417.307,-45.898,-61.035,-31.738,-250.488
1630096417.311,-49.316,-57.129,-1.953,363.281
1630096417.314,-35.156,-39.062,-24.902,477.051
1630096417.318,-51.758,-32.227,-63.477,-21.973
1630096417.322,-30.762,-30.762,-42.969,-291.992
1630096417.326,-17.090,-30.273,-6.836,228.027
1630096417.330,-12.207,-25.391,-28.809,572.754
1630096417.334,-24.414,-35.645,-62.012,218.262
1630096417.338,-42.969,-44.434,-58.105,-286.621
1630096417.342,-10.742,-43.457,-15.625,0.977
1630096417.346,-0.977,-46.875,-19.531,432.617
1630096417.350,-15.625,-45.410,-45.898,202.637
1630096417.354,-25.879,-47.363,-52.734,-334.961
1630096417.358,-13.672,-50.781,-12.207,-286.621
1630096417.361,-17.578,-42.480,-3.906,186.523
1630096417.365,-36.133,-37.598,-45.898,151.367
1630096417.369,-35.645,-39.551,-68.848,-384.277
1630096417.373,-25.391,-33.691,-32.715,-506.348
1630096417.387,0.977,-24.902,-3.906,36.621
1630096417.391,-9.277,-29.785,-24.414,198.242
1630096417.395,-32.227,-35.645,-56.641,-210.449
1630096417.399,-21.484,-40.527,-47.363,-498.535
1630096417.403,-10.742,-35.156,-17.090,-145.020
1630096417.407,-23.926,-45.898,-40.039,146.973
1630096417.411,-41.016,-66.406,-77.637,-132.324
1630096417.415,-9.766,-45.410,-59.082,-527.832
1630096417.418,-11.230,-31.250,-18.555,-288.086
1630096417.422,-28.809,-31.738,-21.484,143.066
1630096417.426,-20.508,-34.668,-43.457,0.000
1630096417.430,-2.930,-36.133,-56.152,-419.922
1630096417.432,-18.555,-36.621,-24.414,-357.422
1630096417.436,-32.227,-32.715,-16.113,83.984
1630096417.440,-33.691,-31.250,-42.969,124.023
1630096417.444,-39.062,-31.738,-62.988,-300.781
1630096417.448,-18.066,-31.738,-37.598,-433.105
1630096417.452,-28.809,-39.062,-5.371,33.203
1630096417.456,-26.855,-45.410,-24.414,188.965
1630096417.460,-35.156,-41.016,-51.758,-171.875
1630096417.463,-65.918,-60.059,-65.918,-470.703
1630096417.467,-53.223,-59.570,-40.039,-201.172
1630096417.471,-23.926,-34.180,-18.555,139.648
1630096417.475,-30.762,-34.668,-48.828,-56.641
1630096417.477,-25.879,-33.691,-59.570,-403.809
1630096417.481,-23.438,-34.180,-32.227,-262.207
1630096417.485,-12.207,-41.504,-21.973,101.074
1630096417.489,-1.953,-36.133,-51.758,95.215
1630096417.493,-43.945,-53.223,-97.168,-337.891
1630096417.497,-26.855,-44.922,-52.246,-375.000
1630096417.501,-16.602,-31.738,-14.160,56.152
1630096417.505,-30.762,-31.738,-33.203,117.188
1630096417.508,-26.367,-23.438,-55.176,-231.445
1630096417.512,-22.949,-29.297,-39.551,-408.691
1630096417.516,-28.320,-26.367,-9.766,-70.801
1630096417.520,-20.020,-23.438,-17.090,145.020
1630096417.523,-2.930,-28.809,-42.969,-89.844
1630096417.527,-16.602,-32.227,-42.480,-390.625
1630096417.531,-18.555,-29.785,-10.254,-227.539
1630096417.535,3.906,-29.785,-11.230,87.891
1630096417.539,-4.883,-34.668,-41.992,-50.293
1630096417.543,-28.809,-33.691,-53.223,-346.680
1630096417.547,-16.602,-31.250,-27.344,-210.938
1630096417.551,-18.555,-44.922,-31.250,54.688
1630096417.554,-12.695,-40.039,-49.805,8.301
1630096417.558,14.648,-20.996,-59.082,-285.645
1630096417.562,7.324,-21.973,-33.691,-296.875
1630096417.566,4.883,-30.762,-20.996,42.969
1630096417.567,-0.488,-35.156,-33.203,95.215
1630096417.571,2.441,-32.227,-48.828,-163.574
1630096417.575,20.508,-27.832,-36.133,-286.133
1630096417.579,-3.418,-23.438,-19.531,-50.781
1630096417.583,-10.254,-21.973,-31.250,141.113
1630096417.587,13.184,-16.602,-41.504,-26.367
1630096417.591,-25.391,-19.531,-44.434,-274.902
1630096417.595,-38.574,-44.922,-27.344,-158.691
1630096417.598,-13.184,-38.086,-21.484,97.168
1630096417.602,-17.578,-31.250,-45.410,-16.602
1630096417.606,-10.254,-39.551,-50.781,-229.492
1630096417.610,3.906,-39.062,-19.043,-138.184
1630096417.614,-12.207,-32.715,-24.414,102.539
1630096417.618,1.953,-36.621,-48.828,96.680
1630096417.622,2.441,-46.387,-56.152,-145.020
1630096417.626,-28.320,-49.805,-28.809,-162.598
1630096417.630,-25.391,-39.551,-8.301,79.590
1630096417.634,-20.508,-30.762,-23.438,210.449
1630096417.638,-23.926,-42.480,-56.641,-20.020
1630096417.642,-8.789,-46.875,-49.316,-229.004
1630096417.645,5.859,-39.551,-20.996,-42.480
1630096417.649,9.277,-40.527,-27.832,146.973
1630096417.653,-4.883,-38.086,-47.852,16.602
1630096417.657,23.926,-41.016,-53.223,-119.629
1630096417.657,25.391,-50.293,-20.020,-16.113
1630096417.661,-54.199,-45.410,-11.230,101.074
1630096417.665,-76.660,-45.410,-39.062,-3.906
1630096417.669,-54.199,-44.434,-54.688,-144.043
1630096417.673,-51.758,-34.180,-28.809,-96.680
1630096417.677,-87.891,-43.457,-15.137,73.242
1630096417.681,-90.332,-47.852,-53.711,28.320
1630096417.685,-75.195,-41.504,-65.430,-173.828
1630096417.688,-92.773,-38.086,-19.531,-189.941
1630096417.692,-115.723,-42.480,-2.441,-35.156
1630096417.696,-132.324,-59.082,-21.484,22.949
1630096417.700,-125.977,-64.941,-37.109,-95.703
1630096417.704,-112.793,-61.523,-26.855,-174.316
1630096417.708,-105.469,-59.570,4.395,-107.422
1630096417.712,-112.793,-59.570,-1.465,6.348
1630096417.716,-97.656,-53.223,-27.832,-49.316
1630096417.720,-81.543,-53.711,-36.621,-130.371
1630096417.724,-80.078,-45.410,-8.301,-44.922
1630096417.728,-67.383,-37.598,-10.742,78.613
1630096417.732,-52.734,-42.969,-30.762,11.719
1630096417.735,-45.898,-42.480,-36.133,-37.598
1630096417.739,-61.523,-52.246,-18.555,-51.270
1630096417.743,-82.520,-53.223,-14.648,-1.465
1630096417.747,-83.008,-35.645,-27.344,46.387
1630096417.762,-75.195,-41.992,-42.480,-37.598
1630096417.766,-41.016,-46.875,-38.574,-43.457
1630096417.770,-50.781,-42.480,-20.508,17.090
1630096417.774,-49.805,-37.598,-22.461,85.938
1630096417.778,-35.156,-39.551,-38.086,13.672
1630096417.782,-24.414,-51.270,-30.762,6.836
1630096417.786,-35.156,-50.293,-14.160,-7.812
1630096417.790,-49.805,-40.527,-22.461,-16.602
1630096417.793,-34.180,-34.668,-40.039,-18.555
1630096417.797,-33.691,-24.414,-51.758,15.625
1630096417.801,-42.480,-20.996,-32.227,-14.160
1630096417.805,-36.621,-26.855,-18.555,-14.648
1630096417.807,-45.410,-24.414,-28.320,16.602
1630096417.811,-41.992,-23.438,-38.086,43.945
1630096417.815,-32.715,-36.133,-27.832,6.348
1630096417.819,-34.180,-39.551,-25.879,-56.152
1630096417.823,-43.945,-40.527,-48.340,-30.762
1630096417.827,-38.574,-43.457,-59.570,28.320
1630096417.831,-14.648,-37.598,-51.270,96.191
1630096417.835,-30.273,-39.062,-39.062,-73.242
1630096417.838,-32.227,-38.574,-32.715,-130.859
1630096417.842,-4.883,-39.551,-35.645,-48.828
1630096417.846,-20.996,-37.598,-33.203,124.023
1630096417.850,-45.410,-41.016,-23.926,-40.039
1630096417.852,-41.016,-44.922,-22.949,-215.820
1630096417.856,-11.230,-37.109,-33.691,-125.000
1630096417.860,23.926,-24.902,-33.691,200.195
1630096417.864,-17.090,-18.555,-27.344,159.668
1630096417.868,-38.086,-27.832,-29.297,-195.801
1630096417.872,-20.020,-40.039,-37.598,-190.918
1630096417.876,-16.602,-38.086,-48.828,166.016
1630096417.880,-19.531,-32.715,-44.922,215.332
1630096417.883,-41.504,-28.320,-31.738,-142.578
1630096417.887,-52.246,-32.227,-35.156,-172.852
1630096417.891,-32.227,-35.645,-42.969,111.816
1630096417.895,-22.949,-29.785,-37.598,361.328
1630096417.899,-56.152,-32.715,-29.785,4.883
1630096417.903,-46.387,-39.062,-33.691,-230.957
1630096417.907,11.230,-36.133,-40.039,-95.215
1630096417.911,-22.461,-34.668,-37.109,267.578
1630096417.915,-73.242,-37.109,-34.180,77.148
1630096417.919,-75.195,-36.621,-35.645,-231.934
1630096417.923,-70.312,-35.645,-45.898,-126.465
1630096417.927,-17.578,-21.484,-37.598,230.469
1630096417.930,-10.254,-23.926,-17.090,165.039
1630096417.934,-51.758,-36.621,-22.949,-236.816
1630096417.938,-41.504,-36.133,-37.109,-248.047
1630096417.942,0.977,-30.762,-56.152,59.570
1630096417.942,11.719,-25.879,-56.152,221.191
1630096417.946,-34.180,-37.598,-40.039,-154.297
1630096417.950,-64.941,-45.410,-33.691,-342.773
1630096417.954,-55.176,-44.434,-36.621,-104.492
1630096417.958,-14.648,-51.758,-47.363,174.805
1630096417.962,-33.203,-50.781,-34.180,-121.582
1630096417.966,-71.289,-51.270,-22.461,-379.395
1630096417.970,-15.625,-47.852,-12.207,-248.047
1630096417.973,12.207,-36.621,-16.602,174.316
1630096417.977,-31.738,-38.086,-29.785,29.785
1630096417.981,-22.461,-41.016,-28.320,-419.922
1630096417.985,-16.602,-33.691,-29.785,-438.965
1630096417.989,1.465,-35.156,-34.180,52.246
1630096417.993,11.719,-50.781,-32.715,129.883
1630096417.997,-34.180,-50.781,-27.344,-389.648
1630096418.001,-49.805,-47.363,-38.574,-514.648
1630096418.005,-12.207,-46.387,-36.133,-66.406
1630096418.009,-12.207,-40.527,-25.879,270.508
1630096418.013,-17.578,-31.738,-21.484,-267.578
1630096418.017,15.625,-29.297,-23.438,-574.707
1630096418.020,-9.766,-33.203,-32.715,-250.488
1630096418.024,-18.555,-30.273,-29.297,291.504
1630096418.028,-28.809,-37.598,-38.086,-84.961
1630096418.032,-16.113,-35.156,-40.039,-563.477
1630096418.033,8.301,-32.715,-33.203,-390.625
1630096418.037,9.277,-35.156,-28.320,249.023
1630096418.041,-26.367,-32.715,-30.762,146.484
1630096418.045,-52.246,-40.039,-42.969,-466.797
1630096418.049,-14.160,-36.621,-50.293,-471.191
1630096418.053,2.441,-30.273,-36.133,173.828
1630096418.057,7.812,-17.578,-19.531,364.746
1630096418.061,-25.391,-27.344,-27.832,-327.637
1630096418.064,-18.066,-47.363,-38.086,-525.391
1630096418.068,25.879,-45.410,-39.062,-0.977
1630096418.072,15.625,-40.527,-45.898,407.227
1630096418.076,-47.852,-46.875,-53.711,-174.805
1630096418.079,-69.824,-46.387,-48.828,-559.082
1630096418.083,-25.879,-33.203,-35.156,-215.820
1630096418.087,8.301,-26.367,-33.203,439.941
1630096418.091,-20.508,-32.227,-43.457,81.055
1630096418.095,-36.621,-34.180,-44.922,-505.371
1630096418.099,-22.949,-29.785,-38.574,-296.387
1630096418.103,7.812,-31.738,-31.738,382.324
1630096418.107,-6.348,-39.551,-43.945,238.281
1630096418.110,-63.477,-35.645,-49.805,-435.547
1630096418.114,-48.828,-33.203,-45.898,-479.980
1630096418.118,-15.625,-39.062,-38.574,149.902
1630096418.122,-31.250,-38.574,-49.316,402.832
1630096418.137,-57.129,-37.109,-51.758,-271.484
1630096418.141,-45.898,-35.645,-44.434,-516.113
1630096418.145,-1.953,-35.645,-35.645,-20.996
1630096418.149,-12.695,-33.691,-31.250,522.949
1630096418.153,-51.758,-41.016,-44.434,-51.270
1630096418.157,-21.484,-30.273,-36.133,-536.621
1630096418.161,-8.789,-26.855,-34.668,-232.422
1630096418.165,-30.273,-39.551,-49.805,453.125
1630096418.168,-46.387,-38.086,-51.270,130.371
1630096418.172,-12.695,-19.531,-25.391,-489.258
1630096418.176,-32.227,-26.855,-37.109,-373.047
1630096418.180,-32.227,-26.367,-49.805,362.793
1630096418.183,-23.926,-22.949,-54.688,351.562
1630096418.187,-60.547,-32.227,-53.223,-409.180
1630096418.191,-41.504,-36.133,-49.805,-522.949
1630096418.195,1.465,-36.621,-44.922,163.574
1630096418.199,-22.461,-36.621,-42.969,501.465
1630096418.203,-68.848,-35.156,-48.340,-243.164
1630096418.207,-47.852,-32.715,-51.758,-599.121
1630096418.211,-3.418,-33.691,-38.574,-104.004
1630096418.214,-0.977,-20.020,-20.996,583.984
1630096418.218,-45.898,-13.672,-28.809,-10.742
1630096418.222,-70.312,-28.320,-40.039,-683.105
1630096418.226,-53.711,-30.273,-31.250,-363.770
1630096418.227,-30.762,-21.973,-30.273,479.004
1630096418.231,-62.012,-31.738,-50.781,177.246
1630096418.235,-74.707,-41.504,-51.270,-628.418
1630096418.239,-36.621,-33.203,-34.668,-509.766
1630096418.243,8.789,-19.043,-11.719,380.371
1630096418.247,-41.504,-24.414,-34.180,448.730
1630096418.251,-88.379,-32.227,-59.082,-495.117
1630096418.255,-42.480,-28.809,-44.434,-660.645
1630096418.258,9.277,-10.742,-6.348,166.992
1630096418.262,-36.133,-18.555,-25.391,613.281
1630096418.266,-77.148,-31.250,-54.688,-260.254
1630096418.270,-47.852,-29.297,-39.551,-692.871
1630096418.274,-29.297,-26.367,-29.785,-136.230
1630096418.278,-34.180,-30.273,-34.668,594.238
1630096418.282,-56.641,-39.551,-47.852,27.832
1630096418.286,-64.941,-34.668,-46.875,-651.855
1630096418.290,-57.617,-34.668,-39.551,-375.000
1630096418.294,-9.277,-38.574,-34.180,507.812
1630096418.298,-33.203,-39.062,-43.457,293.457
1630096418.302,-88.867,-41.504,-41.504,-566.406
1630096418.305,-63.965,-41.016,-36.621,-540.039
1630096418.309,-26.367,-40.527,-34.180,296.387
1630096418.313,-50.781,-39.551,-44.434,495.117
1630096418.317,-87.402,-46.875,-55.664,-388.672
1630096418.317,-75.195,-41.992,-46.387,-614.258
1630096418.321,-30.273,-36.133,-28.320,99.121
1630096418.325,-45.898,-43.945,-31.250,634.766
1630096418.329,-82.031,-47.852,-42.480,-105.469
1630096418.333,-51.758,-37.109,-41.016,-625.488
1630096418.337,-33.203,-30.762,-25.391,-174.316
1630096418.341,-33.203,-31.250,-20.020,618.164
1630096418.345,-89.355,-45.898,-44.922,121.582
1630096418.348,-108.398,-51.270,-42.480,-646.973
1630096418.352,-56.641,-38.574,-29.297,-440.430
1630096418.356,-21.973,-34.668,-19.043,465.332
1630096418.360,-52.246,-41.504,-32.227,341.309
1630096418.364,-88.867,-45.898,-37.598,-555.664
1630096418.368,-66.406,-38.086,-25.879,-561.523
1630096418.372,-36.133,-35.156,-16.602,271.973
1630096418.376,-37.109,-38.574,-29.785,488.770
1630096418.380,-68.848,-39.062,-36.133,-402.344
1630096418.384,-82.031,-33.691,-26.367,-697.266
1630096418.388,-61.035,-46.387,-27.344,-43.457
1630096418.392,-55.664,-54.688,-43.457,565.918
1630096418.395,-48.828,-49.316,-42.480,-159.668
1630096418.399,-48.340,-42.969,-32.715,-717.773
1630096418.403,-64.453,-28.809,-18.555,-338.379
1630096418.407,-34.668,-21.973,-16.602,493.164
1630096418.407,-70.312,-33.203,-43.457,74.707
1630096418.411,-100.586,-42.480,-46.387,-756.836
1630096418.415,-46.387,-34.668,-33.203,-577.148
1630096418.419,-11.719,-24.902,-16.113,390.625
1630096418.423,-49.805,-32.715,-26.855,340.332
1630096418.427,-110.840,-47.852,-35.156,-606.445
1630096418.431,-119.141,-77.637,-55.664,-713.867
1630096418.435,-37.598,-60.059,-41.016,98.145
1630096418.438,-49.805,-29.297,-27.832,510.742
1630096418.442,-79.590,-40.039,-46.875,-396.484
1630096418.446,-60.059,-44.434,-41.016,-808.594
1630096418.450,-52.734,-36.133,-10.742,-161.621
1630096418.454,-36.133,-25.879,-13.184,597.168
1630096418.458,-64.453,-30.762,-41.504,-120.117
1630096418.462,-69.336,-36.621,-34.668,-814.453
1630096418.466,-15.625,-22.461,-15.625,-428.711
1630096418.470,20.508,-19.531,-10.254,481.445
1630096418.474,-25.879,-36.621,-36.621,161.621
1630096418.478,-73.242,-36.621,-36.133,-740.234
1630096418.482,-51.270,-27.832,-17.578,-631.836
1630096418.485,-5.371,-21.484,-7.812,305.664
1630096418.489,-34.180,-29.297,-28.809,345.703
1630096418.493,-82.031,-40.527,-44.922,-594.238
1630096418.497,-50.293,-28.809,-28.320,-685.547
1630096418.512,-8.301,-26.855,-14.648,104.492
1630096418.516,-33.691,-46.387,-32.227,496.582
1630096418.520,-73.242,-46.875,-47.363,-368.652
1630096418.524,-40.527,-39.062,-35.156,-764.160
1630096418.528,-19.531,-33.691,-21.973,-235.840
1630096418.532,-26.855,-25.879,-17.090,489.746
1630096418.536,-78.613,-30.762,-38.574,-88.867
1630096418.540,-98.145,-28.320,-44.434,-804.199
1630096418.543,-33.203,-21.484,-32.715,-492.188
1630096418.547,4.883,-18.066,-24.414,427.734
1630096418.551,-61.035,-25.391,-48.828,166.992
1630096418.555,-65.430,-24.414,-51.270,-691.406
1630096418.557,-50.781,-31.250,-43.457,-624.512
1630096418.561,-32.715,-34.180,-33.203,238.770
1630096418.565,-44.434,-36.621,-45.898,397.461
1630096418.569,-92.285,-41.016,-55.176,-505.371
1630096418.573,-74.219,-42.480,-50.293,-723.145
1630096418.577,-3.418,-32.227,-35.156,-3.418
1630096418.581,-36.621,-23.926,-29.785,579.102
1630096418.585,-93.750,-32.715,-48.828,-197.266
1630096418.588,-83.496,-47.852,-60.059,-783.691
1630096418.592,-42.969,-40.039,-41.504,-331.543
1630096418.596,-12.695,-17.578,-25.391,518.066
1630096418.600,-62.012,-21.973,-40.527,53.711
1630096418.602,-81.055,-29.785,-44.434,-671.387
1630096418.606,-47.852,-30.762,-33.203,-416.504
1630096418.610,-23.926,-17.578,-16.602,461.914
1630096418.614,-53.711,-22.949,-41.016,295.410
1630096418.618,-77.637,-39.062,-58.105,-606.445
1630096418.622,-50.781,-27.344,-34.668,-599.121
1630096418.626,-12.695,-15.137,-10.742,255.371
1630096418.630,-43.945,-23.438,-28.809,488.281
1630096418.633,-100.586,-57.617,-69.336,-440.918
1630096418.637,-51.758,-43.945,-50.293,-719.727
1630096418.641,-11.719,-22.949,-15.625,-46.875
1630096418.645,-11.719,-25.391,-25.879,544.434
1630096418.648,-69.336,-28.809,-42.969,-123.047
1630096418.652,-52.246,-28.320,-42.969,-654.297
1630096418.656,-22.949,-29.785,-28.809,-288.574
1630096418.660,-32.715,-29.785,-21.973,501.465
1630096418.664,-56.641,-31.738,-49.316,138.184
1630096418.668,-83.496,-35.156,-50.293,-600.586
1630096418.672,-56.641,-30.273,-35.645,-454.102
1630096418.676,-19.531,-33.203,-33.691,350.586
1630096418.679,-27.344,-34.668,-44.922,325.684
1630096418.683,-69.336,-35.645,-42.480,-493.652
1630096418.687,-63.477,-38.574,-32.715,-572.754
1630096418.691,-34.668,-34.180,-23.926,170.898
1630096418.692,-36.621,-30.762,-31.738,505.371
1630096418.696,-64.453,-34.668,-46.875,-278.320
1630096418.700,-73.242,-37.598,-40.527,-619.629
1630096418.704,-39.551,-32.715,-23.438,-49.805
1630096418.708,-22.461,-26.367,-28.809,600.586
1630096418.712,-47.852,-27.832,-42.969,1.953
1630096418.716,-58.105,-33.203,-37.109,-589.355
1630096418.720,-29.785,-50.293,-35.156,-287.109
1630096418.723,17.578,-47.852,-26.855,534.668
1630096418.727,-27.344,-45.898,-32.715,287.109
1630096418.731,-64.941,-37.598,-41.504,-517.578
1630096418.735,-49.805,-25.879,-31.250,-429.688
1630096418.740,-18.555,-27.344,-20.996,417.480
1630096418.744,-13.184,-25.879,-40.527,457.520
1630096418.748,-51.758,-34.668,-57.129,-380.859
1630096418.752,-57.129,-40.039,-45.898,-531.738
1630096418.756,1.465,-28.320,-18.066,189.453
1630096418.760,23.926,-26.367,-23.926,655.273
1630096418.764,-52.246,-38.574,-48.340,-128.906
1630096418.768,-56.641,-41.016,-43.457,-555.176
1630096418.771,-6.836,-28.320,-22.461,-61.035
1630096418.775,2.930,-22.461,-28.809,620.117
1630096418.779,-40.527,-30.762,-49.316,102.539
1630096418.783,-51.758,-33.203,-46.875,-533.691
1630096418.783,-15.625,-31.250,-34.180,-261.230
1630096418.787,7.324,-27.832,-23.926,537.598
1630096418.791,-24.414,-29.785,-42.480,331.055
1630096418.795,-40.527,-40.039,-47.852,-432.617
1630096418.799,-39.551,-44.434,-41.016,-413.574
1630096418.803,-39.062,-37.109,-31.738,339.355
1630096418.807,-50.293,-54.688,-56.152,468.750
1630096418.811,-74.219,-66.895,-76.172,-333.984
1630096418.814,-54.688,-41.504,-53.711,-506.348
1630096418.818,-10.742,-29.785,-17.090,127.930
1630096418.822,-14.648,-30.273,-18.555,590.820
1630096418.826,-35.645,-30.273,-40.039,-78.613
1630096418.829,-27.344,-35.645,-36.133,-493.652
1630096418.833,-26.855,-33.691,-30.273,-104.004
1630096418.837,-7.324,-27.832,-40.527,514.160
1630096418.841,-29.297,-32.227,-46.875,124.023
1630096418.845,-42.969,-31.738,-41.504,-433.594
1630096418.849,-8.789,-33.691,-40.039,-225.586
1630096418.853,10.254,-36.133,-37.109,459.473
1630096418.857,-29.297,-36.133,-46.875,284.668
1630096418.860,-74.707,-44.434,-48.828,-398.926
1630096418.864,-52.734,-44.434,-38.086,-371.094
1630096418.868,-12.695,-37.598,-24.902,257.324
1630096418.872,-37.109,-41.504,-31.738,447.754
1630096418.887,-66.895,-48.828,-45.898,-210.938
1630096418.891,-78.613,-46.875,-40.527,-435.547
1630096418.895,-48.828,-49.316,-25.879,38.574
1630096418.899,-18.066,-42.969,-22.461,513.184
1630096418.903,-67.871,-45.410,-36.621,1.465
1630096418.907,-88.379,-58.594,-45.898,-436.523
1630096418.911,-49.805,-42.480,-41.016,-167.969
1630096418.915,-14.648,-29.297,-30.762,407.715
1630096418.918,-43.457,-33.203,-37.598,163.574
1630096418.922,-72.754,-43.945,-47.363,-354.004
1630096418.926,-50.293,-42.969,-37.598,-282.227
1630096418.930,-20.996,-29.297,-31.738,293.457
1630096418.932,-41.992,-35.645,-41.016,282.715
1630096418.936,-79.590,-44.434,-42.480,-312.500
1630096418.940,-37.598,-40.039,-39.551,-352.539
1630096418.944,-12.207,-32.715,-31.738,165.527
1630096418.948,-34.668,-33.691,-35.645,419.434
1630096418.952,-57.129,-43.945,-40.039,-135.742
1630096418.956,-89.355,-45.898,-42.480,-409.180
1630096418.960,-34.668,-41.992,-38.086,-45.898
1630096418.963,-24.902,-36.621,-34.180,405.762
1630096418.967,-65.918,-38.574,-40.039,11.230
1630096418.971,-56.152,-40.527,-42.480,-428.711
1630096418.975,-38.574,-38.086,-37.109,-242.188
1630096418.977,-13.672,-34.668,-36.133,341.797
1630096418.981,-26.855,-33.203,-42.480,136.719
1630096418.985,-71.289,-37.109,-41.504,-375.977
1630096418.989,-44.434,-33.691,-47.363,-294.434
1630096418.993,3.418,-36.621,-45.898,224.121
1630096418.997,-21.973,-36.133,-39.062,281.738
1630096419.001,-49.316,-33.203,-40.039,-264.648
1630096419.005,-25.879,-33.691,-41.504,-374.512
1630096419.008,-38.086,-41.992,-44.922,65.918
1630096419.012,-42.969,-37.109,-42.480,334.961
1630096419.016,-55.176,-24.902,-39.551,-160.645
1630096419.020,-68.848,-23.926,-44.434,-440.430
1630096419.024,-38.574,-29.297,-40.527,-151.367
1630096419.028,-22.461,-33.203,-32.715,315.918
1630096419.032,-52.734,-38.086,-37.109,-8.789
1630096419.036,-50.781,-40.039,-40.527,-427.246
1630096419.040,-47.363,-37.598,-34.668,-267.578
1630096419.044,-8.301,-29.297,-25.879,288.086
1630096419.048,-27.344,-28.809,-38.086,159.180
1630096419.052,-88.379,-47.852,-47.852,-398.926
1630096419.055,-62.988,-48.340,-50.781,-391.113
1630096419.059,-14.648,-28.320,-38.086,141.602
1630096419.063,-28.809,-29.297,-28.809,265.625
1630096419.067,-63.965,-35.645,-37.598,-269.043
1630096419.067,-48.828,-38.574,-50.781,-440.918
1630096419.071,-8.301,-36.133,-40.039,-15.625
1630096419.075,-22.461,-32.715,-34.180,339.355
1630096419.079,-63.965,-38.086,-41.992,-96.680
1630096419.083,-45.410,-44.434,-43.945,-435.059
1630096419.087,-19.043,-36.133,-32.227,-173.828
1630096419.091,-42.969,-36.133,-25.391,362.793
1630096419.095,-95.703,-74.219,-59.082,31.738
1630096419.098,-82.520,-67.871,-57.129,-444.824
1630096419.102,-33.691,-37.109,-30.762,-282.715
1630096419.106,-13.672,-36.621,-22.949,256.348
1630096419.110,-45.898,-39.062,-26.855,168.457
1630096419.115,-57.129,-37.598,-27.832,-344.238
1630096419.119,-37.109,-37.109,-26.855,-337.891
1630096419.123,-38.574,-41.992,-20.508,138.672
1630096419.127,-59.082,-49.805,-19.531,285.645
1630096419.131,-63.965,-49.805,-24.902,-210.449
1630096419.135,-41.504,-39.551,-27.832,-371.094
1630096419.139,-13.672,-41.016,-43.945,-43.945
1630096419.143,-36.133,-43.945,-47.363,287.109
1630096419.146,-83.496,-41.016,-35.156,-109.375
1630096419.150,-79.102,-45.898,-37.109,-458.984
1630096419.154,-37.598,-45.898,-43.457,-224.609
1630096419.158,-28.809,-41.016,-41.016,290.039
1630096419.157,-48.828,-43.945,-39.551,51.270
1630096419.161,-62.988,-40.527,-43.457,-388.672
1630096419.165,-47.363,-38.574,-44.434,-297.363
1630096419.169,-14.648,-40.039,-33.203,238.770
1630096419.173,-57.617,-44.434,-33.203,224.121
1630096419.177,-72.266,-43.945,-34.180,-311.523
1630096419.181,-69.824,-51.758,-42.969,-367.188
1630096419.185,-44.434,-47.852,-34.180,101.074
1630096419.188,-41.992,-36.133,-25.391,312.012
1630096419.192,-82.520,-36.621,-31.738,-182.617
1630096419.196,-25.879,-32.227,-35.645,-392.578
1630096419.200,-33.203,-26.855,-32.715,-63.477
1630096419.208,-65.918,-33.691,-24.902,367.676
1630096419.212,-67.383,-42.480,-20.996,34.180
1630096419.216,-60.547,-42.480,-26.367,-346.191
1630096419.220,-38.574,-37.598,-25.391,-200.684
1630096419.224,-16.602,-32.227,-20.508,295.410
1630096419.228,-23.438,-41.992,-33.203,129.883
1630096419.232,-62.500,-47.852,-37.109,-337.891
1630096419.236,-50.293,-39.551,-32.227,-315.430
1630096419.239,-13.672,-39.062,-30.762,167.969
1630096419.243,-43.457,-46.387,-37.109,217.773
1630096419.247,-73.242,-47.363,-37.598,-275.879
1630096419.251,-49.805,-42.969,-32.715,-356.445
1630096419.262,-2.441,-43.457,-29.785,52.734
1630096419.266,-11.230,-41.016,-36.133,302.734
1630096419.270,-59.570,-39.551,-40.527,-162.598
1630096419.274,-32.227,-34.180,-28.320,-382.812
1630096419.278,-3.906,-29.297,-27.832,-129.883
1630096419.282,-51.270,-50.293,-47.852,262.695
1630096419.286,-89.355,-58.594,-61.523,-37.598
1630096419.290,-70.801,-39.551,-45.898,-428.711
1630096419.293,-42.969,-34.668,-39.551,-285.645
1630096419.297,-18.066,-31.738,-38.574,209.473
1630096419.301,-36.621,-30.273,-33.691,92.285
1630096419.305,-56.641,-33.691,-36.621,-337.891
1630096419.307,-30.762,-31.738,-44.434,-314.453
1630096419.311,-12.207,-30.273,-41.016,68.359
1630096419.315,-24.414,-34.180,-33.203,164.551
1630096419.319,-47.363,-37.109,-38.086,-277.344
1630096419.323,-41.016,-39.062,-38.086,-413.574
1630096419.327,-35.156,-35.156,-29.785,-44.922
1630096419.331,-21.973,-30.273,-34.668,250.977
1630096419.335,-44.434,-28.809,-40.039,-155.762
1630096419.338,-78.613,-51.758,-51.270,-414.062
1630096419.342,-54.199,-58.594,-53.223,-177.734
1630096419.346,-23.438,-37.598,-41.016,251.465
1630096419.350,-36.133,-35.156,-39.062,8.789
1630096419.353,-46.387,-40.527,-37.598,-331.543
1630096419.357,-36.621,-38.574,-37.109,-254.395
1630096419.361,7.812,-31.250,-30.762,191.406
1630096419.365,-5.859,-31.250,-36.133,162.109
1630096419.369,-62.988,-46.875,-56.152,-314.453
1630096419.373,-56.641,-38.086,-45.898,-310.059
1630096419.377,-19.043,-27.344,-32.715,110.840
1630096419.381,-35.156,-36.621,-36.621,215.332
1630096419.384,-63.477,-50.781,-53.223,-201.172
1630096419.388,-54.199,-38.086,-48.828,-315.430
1630096419.392,-32.715,-26.367,-35.156,-52.734
1630096419.396,-21.973,-29.785,-31.738,260.742
1630096419.397,-53.223,-37.109,-35.156,-62.012
1630096419.401,-41.016,-34.668,-38.086,-311.523
1630096419.405,-22.461,-28.809,-36.133,-146.484
1630096419.409,-21.484,-31.738,-26.855,262.695
1630096419.413,-37.598,-35.156,-27.344,101.074
1630096419.417,-61.523,-37.109,-32.227,-264.160
1630096419.421,-47.363,-36.133,-36.621,-206.543
1630096419.425,-17.578,-41.992,-40.527,170.898
1630096419.428,-27.832,-41.504,-41.992,146.973
1630096419.432,-51.270,-32.227,-36.133,-265.625
1630096419.436,-42.969,-29.785,-40.039,-291.504
1630096419.440,-8.789,-25.879,-33.203,94.238
1630096419.443,-29.785,-33.203,-27.344,236.328
1630096419.447,-39.551,-41.016,-32.715,-206.543
1630096419.451,-32.715,-41.016,-33.691,-347.656
1630096419.455,-46.387,-48.828,-41.016,-81.055
1630096419.459,-28.320,-41.016,-38.574,257.812
1630096419.463,-36.133,-27.344,-25.391,-34.668
1630096419.467,-46.387,-37.598,-34.668,-378.906
1630096419.471,-43.457,-59.570,-53.223,-291.992
1630096419.474,-34.180,-47.363,-40.039,171.387
1630096419.478,-56.152,-33.691,-34.668,64.453
1630096419.482,-54.199,-37.598,-36.621,-347.168
1630096419.486,-36.621,-41.016,-33.691,-313.477
1630096419.489,-17.090,-41.504,-31.250,125.488
1630096419.493,-20.508,-44.434,-31.738,160.645
1630096419.497,-69.824,-48.340,-31.250,-275.391
1630096419.501,-78.613,-42.969,-31.250,-330.078
1630096419.505,-31.250,-43.945,-30.273,20.996
1630096419.509,-28.809,-39.551,-33.691,241.699
1630096419.513,-71.777,-47.852,-41.992,-183.594
1630096419.517,-80.566,-57.617,-52.734,-397.949
1630096419.520,-39.062,-42.480,-43.945,-141.602
1630096419.524,-20.020,-37.109,-32.227,232.910
1630096419.528,-48.828,-40.527,-35.645,-38.574
1630096419.532,-48.828,-39.062,-39.062,-390.137
1630096419.532,-37.598,-37.109,-38.086,-286.621
1630096419.536,-28.320,-38.574,-29.785,190.430
1630096419.540,-26.855,-45.898,-29.297,97.656
1630096419.544,-62.988,-40.039,-33.691,-318.359
1630096419.548,-76.172,-34.180,-42.969,-317.871
1630096419.552,-24.414,-32.227,-37.109,120.117
1630096419.556,-14.648,-18.555,-20.020,250.977
1630096419.560,-51.270,-20.996,-19.531,-220.703
1630096419.563,-67.871,-40.527,-41.504,-375.000
1630096419.567,-31.738,-41.992,-43.457,-16.113
1630096419.571,-19.043,-36.621,-34.180,276.367
1630096419.575,-61.035,-39.062,-34.180,-100.098
1630096419.579,-35.645,-35.645,-41.016,-338.379
1630096419.583,-2.441,-33.203,-41.016,-140.137
1630096419.587,-26.367,-34.180,-42.480,250.000
1630096419.591,-63.965,-33.691,-49.316,-3.418
1630096419.595,-76.172,-40.039,-42.480,-381.348
1630096419.599,-50.293,-46.875,-36.133,-249.512
1630096419.603,-4.883,-41.016,-44.922,200.195
1630096419.607,-23.926,-33.203,-52.734,114.746
1630096419.610,-51.758,-31.738,-43.945,-310.547
1630096419.614,-36.133,-22.461,-38.574,-299.316
1630096419.618,-4.395,-23.926,-40.527,102.051
1630096419.622,-27.344,-32.227,-46.875,220.703
1630096419.637,-68.359,-34.180,-41.992,-217.285
1630096419.641,-49.316,-37.598,-41.504,-376.465
1630096419.645,-18.555,-40.527,-41.016,-72.754
1630096419.649,-10.254,-33.691,-40.039,267.090
1630096419.653,-47.852,-35.645,-46.875,-76.172
1630096419.657,-42.480,-30.273,-34.668,-339.844
1630096419.661,-37.109,-32.715,-34.668,-193.848
1630096419.665,-35.156,-39.062,-39.551,217.285
1630096419.668,-49.805,-36.621,-35.645,40.039
1630096419.672,-42.480,-35.156,-33.203,-336.426
1630096419.676,-40.527,-34.668,-41.016,-268.555
1630096419.680,-20.020,-43.945,-40.527,176.758
1630096419.683,-13.672,-40.527,-44.922,175.293
1630096419.687,-50.293,-32.227,-46.875,-255.371
1630096419.691,-32.715,-33.203,-36.133,-307.129
1630096419.695,-11.719,-32.227,-34.180,9.766
1630096419.699,-34.180,-34.180,-40.039,202.637
1630096419.703,-60.547,-39.551,-39.551,-203.613
1630096419.707,-55.176,-40.527,-38.574,-404.297
1630096419.711,-15.137,-35.156,-40.039,-107.422
1630096419.714,-14.648,-28.320,-32.715,253.418
1630096419.718,-53.223,-38.574,-32.715,-84.961
1630096419.722,-47.852,-44.922,-42.480,-410.645
1630096419.726,-18.555,-41.992,-49.805,-240.723
1630096419.727,-41.504,-41.016,-44.922,252.930
1630096419.731,-63.477,-36.621,-44.434,71.777
1630096419.735,-57.129,-37.598,-48.340,-354.980
1630096419.739,-41.992,-37.598,-42.480,-275.879
1630096419.743,9.766,-18.555,-23.926,233.887
1630096419.747,-22.949,-20.020,-23.926,257.812
1630096419.751,-68.848,-40.039,-39.062,-277.832
1630096419.755,-36.621,-37.598,-39.551,-353.516
1630096419.758,-33.203,-21.973,-22.949,67.871
1630096419.762,-43.945,-23.926,-27.832,286.133
1630096419.766,-56.152,-29.785,-32.227,-141.602
1630096419.770,-39.062,-28.809,-34.668,-344.238
1630096419.773,-28.809,-36.621,-39.062,-87.402
1630096419.777,-30.273,-42.480,-39.062,304.688
1630096419.781,-60.059,-40.527,-42.969,29.297
1630096419.785,-72.754,-41.504,-40.527,-283.203
1630096419.789,-43.457,-44.922,-42.480,-151.855
1630096419.793,-0.488,-41.504,-39.062,372.559
1630096419.797,-27.344,-41.504,-40.527,377.441
1630096419.801,-38.086,-32.227,-36.621,-2.441
1630096419.804,-21.973,-21.973,-31.250,-7.812
1630096419.808,-35.645,-32.227,-34.668,453.125
1630096419.812,-38.574,-38.086,-33.691,543.945
1630096419.816,-46.875,-41.016,-36.133,24.414
1630096419.817,-49.316,-45.410,-35.645,-131.348
1630096419.821,-20.020,-49.805,-29.297,224.609
1630096419.825,-13.184,-51.270,-35.645,494.141
1630096419.829,-40.527,-43.945,-38.574,41.504
1630096419.833,-45.410,-40.039,-45.410,-283.203
1630096419.837,-54.688,-39.551,-45.410,-53.711
1630096419.841,-44.922,-35.156,-34.180,394.043
1630096419.845,-57.617,-38.086,-30.762,82.031
1630096419.848,-63.965,-47.852,-34.180,-331.055
1630096419.852,-58.105,-55.664,-36.133,-242.676
1630096419.856,-32.227,-49.805,-28.809,270.996
1630096419.860,-57.129,-37.598,-34.668,213.379
1630096419.864,-75.195,-32.227,-43.457,-314.453
1630096419.868,-42.969,-34.180,-37.598,-339.355
1630096419.872,-12.695,-34.668,-26.855,168.457
1630096419.876,-50.293,-32.227,-30.273,303.223
1630096419.880,-69.824,-34.180,-36.133,-242.676
1630096419.884,-41.016,-36.133,-40.039,-414.551
1630096419.888,-29.785,-34.668,-25.391,-54.688
1630096419.892,-20.996,-34.180,-14.648,311.035
1630096419.895,-56.152,-44.434,-26.855,-122.559
1630096419.899,-50.293,-42.969,-32.227,-432.617
1630096419.903,-27.832,-44.922,-33.691,-219.727
1630096419.907,-5.371,-47.852,-32.715,218.262
1630096419.908,-44.434,-44.434,-36.621,-1.465
1630096419.912,-88.379,-43.945,-35.156,-452.148
1630096419.916,-44.922,-38.086,-28.320,-371.094
1630096419.920,-19.043,-36.133,-25.879,175.781
1630096419.924,-57.617,-40.527,-35.645,118.164
1630096419.928,-56.641,-41.504,-34.180,-398.926
1630096419.932,-34.180,-40.527,-26.367,-410.156
1630096419.936,-29.297,-37.598,-17.578,20.508
1630096419.939,-37.109,-38.574,-26.367,193.848
1630096419.943,-55.664,-41.504,-36.621,-271.973
1630096419.947,-62.988,-39.062,-38.574,-471.680
1630096419.951,-34.180,-35.645,-37.109,-182.617
1630096419.955,-19.043,-36.621,-39.551,201.660
1630096419.959,-50.293,-43.945,-43.457,-156.250
1630096419.963,-55.176,-44.922,-38.086,-472.168
1630096419.967,-38.086,-38.574,-30.762,-267.578
1630096419.971,-14.160,-35.645,-31.250,202.637
1630096419.975,-27.344,-35.156,-28.809,54.199
1630096419.979,-54.688,-38.086,-28.809,-385.254
1630096419.983,-40.039,-45.410,-38.086,-353.516
1630096419.986,-20.020,-42.480,-35.645,135.254
1630096419.990,-18.555,-38.086,-35.156,158.691
1630096419.994,-59.082,-37.109,-34.180,-319.336
1630096419.998,-52.246,-33.203,-35.156,-390.625
1630096420.012,-17.578,-32.227,-35.156,6.348
1630096420.016,-30.762,-30.273,-34.180,283.691
1630096420.020,-62.988,-38.574,-42.969,-179.688
1630096420.024,-53.223,-41.016,-41.992,-419.922
1630096420.028,-12.207,-33.203,-35.156,-120.117
1630096420.032,15.137,-8.789,-6.836,346.191
1630096420.036,-36.133,-18.066,-18.555,15.137
1630096420.040,-78.125,-41.016,-47.363,-413.574
1630096420.043,-49.805,-33.691,-42.969,-283.203
1630096420.047,-21.484,-30.273,-31.250,187.012
1630096420.051,-34.180,-39.062,-35.645,78.613
1630096420.055,-20.996,-42.480,-38.086,-345.215
1630096420.055,-20.996,-42.480,-38.086,-345.215
1630096420.057,-27.344,-37.109,-37.598,-308.105
1630096420.061,-21.484,-32.715,-31.738,141.602
1630096420.065,-23.438,-32.227,-34.668,236.328
1630096420.069,-65.918,-38.574,-42.969,-220.703
1630096420.073,-48.828,-44.434,-47.363,-336.426
1630096420.077,-5.859,-37.598,-41.016,-13.184
1630096420.081,-19.043,-36.133,-38.086,263.184
1630096420.085,-59.082,-44.434,-42.480,-153.809
1630096420.088,-57.617,-36.133,-29.785,-362.793
1630096420.092,-28.809,-30.762,-26.855,-105.469
1630096420.096,-22.461,-43.945,-38.574,241.699
1630096420.100,-43.457,-41.992,-38.086,-6.836
1630096420.102,-18.555,-25.391,-27.832,-323.730
1630096420.106,-31.250,-31.738,-29.785,-228.516
1630096420.110,-31.738,-39.551,-30.273,180.664
1630096420.114,-20.020,-36.133,-31.738,157.715
1630096420.118,-35.156,-22.461,-17.090,-233.887
1630096420.122,-38.086,-24.902,-21.484,-265.137
1630096420.126,-14.648,-36.621,-36.621,105.957
1630096420.130,-26.367,-32.715,-28.320,222.656
1630096420.133,-18.555,-14.648,-9.277,-180.664
1630096420.137,-41.992,-28.809,-30.273,-355.469
1630096420.141,-53.223,-38.086,-42.480,-80.566
1630096420.145,-33.203,-32.227,-33.691,262.207
1630096420.150,-47.852,-29.785,-33.691,-43.945
1630096420.154,-40.527,-32.227,-38.574,-320.801
1630096420.158,-27.344,-38.086,-38.086,-166.016
1630096420.162,-10.254,-25.391,-26.367,226.562
1630096420.166,-46.387,-30.273,-27.832,60.547
1630096420.170,-82.520,-39.062,-34.668,-269.043
1630096420.174,-62.988,-40.527,-43.945,-212.891
1630096420.178,-23.926,-30.273,-33.691,215.332
1630096420.181,-33.691,-28.320,-28.809,202.637
1630096420.185,-42.480,-39.551,-35.156,-254.395
1630096420.189,-39.062,-36.621,-41.016,-300.293
1630096420.193,-22.461,-29.297,-38.086,91.797
1630096420.192,-12.207,-28.320,-28.809,296.875
1630096420.196,-41.016,-32.227,-35.156,-113.770
1630096420.200,-41.504,-33.691,-38.086,-325.684
1630096420.204,-20.020,-29.785,-33.203,-53.223
1630096420.208,-17.090,-35.156,-39.062,284.668
1630096420.212,-35.645,-38.574,-39.062,-15.137
1630096420.216,-50.781,-38.574,-37.598,-315.918
1630096420.220,-1.465,-15.137,-11.230,-155.762
1630096420.223,5.859,-11.230,-3.906,297.852
1630096420.227,-29.785,-37.598,-30.273,104.492
1630096420.231,-46.387,-46.387,-30.762,-295.898
1630096420.235,-55.176,-50.293,-30.762,-241.699
1630096420.239,-26.367,-45.410,-33.203,145.020
1630096420.243,-32.227,-44.434,-31.250,163.574
1630096420.247,-52.734,-45.898,-32.227,-219.727
1630096420.251,-26.367,-39.062,-33.203,-279.785
1630096420.255,-4.395,-32.715,-30.273,42.969
1630096420.259,-27.344,-40.039,-32.715,246.094
1630096420.263,-45.410,-21.484,-16.602,-93.262
1630096420.267,-30.762,-4.883,1.953,-277.344
1630096420.270,-47.363,-41.992,-29.297,-142.578
1630096420.274,-46.387,-46.875,-37.598,214.844
1630096420.278,-60.059,-43.457,-29.785,-9.766
1630096420.282,-73.730,-47.852,-35.645,-322.754
1630096420.283,-55.664,-48.340,-42.480,-204.590
1630096420.287,-37.598,-40.527,-40.527,212.402
1630096420.291,-32.715,-35.156,-34.180,90.332
1630096420.295,-34.668,-38.086,-35.645,-263.184
1630096420.299,-34.180,-44.922,-50.293,-246.094
1630096420.303,-48.340,-47.363,-44.434,112.305
1630096420.307,-38.086,-21.484,-25.391,254.395
1630096420.311,-44.922,-25.391,-28.320,-105.469
1630096420.314,-60.547,-51.758,-52.246,-245.117
1630096420.318,-34.180,-44.922,-46.875,87.891
1630096420.322,-34.668,-33.691,-37.598,389.160
1630096420.326,-55.664,-36.133,-39.062,17.090
1630096420.329,-23.926,-33.691,-36.133,-232.422
1630096420.333,-1.465,-29.785,-37.109,-45.898
1630096420.337,-42.480,-30.762,-35.156,332.031
1630096420.341,-68.848,-34.180,-38.086,126.953
1630096420.345,-61.523,-34.668,-36.621,-190.430
1630096420.349,-48.828,-32.227,-29.297,-102.539
1630096420.353,-32.227,-36.133,-41.016,266.602
1630096420.357,-47.363,-43.457,-47.363,179.688
1630096420.360,-34.180,-37.598,-39.062,-171.387
1630096420.364,-8.789,-18.066,-23.926,-153.320
1630096420.368,-25.879,-26.367,-24.902,159.180
1630096420.372,-37.109,-38.574,-42.480,254.395
1630096420.388,-40.039,-33.203,-40.527,-116.699
1630096420.392,-37.109,-27.832,-37.109,-264.160
1630096420.396,-24.414,-31.250,-38.086,-23.438
1630096420.400,-38.086,-36.621,-33.203,254.395
1630096420.404,-64.941,-43.945,-40.039,-58.594
1630096420.408,-38.574,-23.926,-19.531,-269.043
1630096420.412,-20.020,-26.855,-24.902,-135.254
1630096420.416,-23.926,-43.945,-42.480,206.055
1630096420.419,-46.875,-40.039,-34.180,20.020
1630096420.423,-71.289,-33.691,-24.414,-288.086
1630096420.427,-70.801,-43.945,-39.062,-266.113
1630096420.431,-40.527,-49.316,-48.828,74.219
1630096420.432,-61.035,-47.852,-41.992,83.984
1630096420.436,-80.078,-50.293,-29.785,-300.293
1630096420.440,-59.082,-46.387,-33.691,-335.938
1630096420.444,-35.156,-49.316,-38.086,10.742
1630096420.448,-39.062,-43.945,-28.809,164.551
1630096420.452,-41.992,-36.133,-29.785,-180.176
1630096420.456,-62.988,-46.387,-49.316,-363.281
1630096420.460,-57.129,-49.316,-48.340,-172.363
1630096420.463,-28.320,-31.738,-24.902,194.824
1630096420.467,-14.648,-33.203,-28.809,-67.383
1630096420.471,-60.547,-45.410,-41.992,-405.273
1630096420.475,-60.547,-43.457,-42.969,-274.414
1630096420.477,-13.672,-38.086,-37.109,167.480
1630096420.481,-37.109,-36.621,-30.273,36.621
1630096420.485,-3.906,-36.621,-41.992,-293.457
1630096420.489,26.855,-31.738,-36.133,-217.285
1630096420.493,-17.090,-22.949,0.977,80.078
1630096420.497,-69.824,-29.297,-9.766,68.359
1630096420.501,-84.961,-42.480,-36.133,-315.430
1630096420.505,-62.500,-39.551,-33.691,-414.551
1630096420.508,-9.766,-7.324,-2.441,-33.691
1630096420.512,-44.922,-19.531,-11.719,139.648
1630096420.516,-138.672,-48.828,-36.133,-299.316
1630096420.520,-142.578,-52.246,-39.551,-483.887
1630096420.523,-102.051,-47.852,-36.621,-229.980
1630096420.527,-81.055,-39.551,-33.203,136.719
1630096420.531,-104.980,-41.504,-41.016,-122.070
1630096420.535,-110.840,-39.551,-33.203,-410.156
1630096420.539,-75.195,-33.691,-35.645,-294.434
1630096420.543,-36.133,-28.809,-36.133,123.535
1630096420.547,-75.195,-35.645,-33.691,19.043
1630096420.551,-81.543,-21.973,-16.602,-340.332
1630096420.554,-62.012,-16.602,-12.207,-318.848
1630096420.558,-64.941,-35.645,-31.250,44.922
1630096420.562,-67.871,-34.180,-35.645,128.418
1630096420.566,-50.781,-20.996,-24.414,-264.648
1630096420.567,-54.688,-27.344,-36.133,-364.746
1630096420.571,-43.457,-37.598,-45.410,-57.129
1630096420.575,-42.969,-40.039,-41.504,181.641
1630096420.579,-69.824,-38.086,-36.621,-155.762
1630096420.583,-78.613,-39.062,-41.504,-410.645
1630096420.587,-63.477,-42.480,-42.480,-208.984
1630096420.591,-52.734,-41.992,-32.227,195.801
1630096420.595,-45.898,-19.531,-6.836,-1.465
1630096420.598,-73.730,-28.809,-18.066,-341.309
1630096420.602,-76.172,-51.270,-44.434,-283.203
1630096420.606,-35.156,-41.992,-31.250,163.574
1630096420.610,-54.199,-40.527,-27.344,102.539
1630096420.615,-70.801,-55.176,-41.504,-305.176
1630096420.619,-35.156,-56.641,-46.875,-298.828
1630096420.623,-26.855,-36.621,-25.879,88.379
1630096420.627,-26.855,-31.738,-23.926,203.613
1630096420.631,-59.570,-46.875,-31.250,-217.285
1630096420.635,-79.102,-52.246,-32.715,-329.590
1630096420.639,-17.090,-28.809,-20.020,-11.230
1630096420.643,-1.465,-17.578,-18.066,252.441
1630096420.646,-58.105,-39.551,-36.133,-106.934
1630096420.650,-50.293,-35.645,-37.109,-327.637
1630096420.654,-27.344,-33.691,-36.133,-172.852
1630096420.658,-7.812,-44.434,-35.645,198.730
1630096420.657,-37.598,-47.363,-41.016,24.414
1630096420.661,-84.473,-52.734,-46.875,-326.660
1630096420.665,-61.523,-48.828,-43.945,-270.508
1630096420.669,-34.668,-41.016,-39.062,140.625
1630096420.673,-59.082,-47.363,-39.062,148.926
1630096420.677,-64.941,-46.387,-37.598,-258.301
1630096420.681,-19.531,-14.648,-14.648,-273.926
1630096420.685,17.578,-7.812,-2.441,73.242
1630096420.688,12.207,-36.621,-32.227,175.781
1630096420.692,-61.035,-43.457,-44.434,-180.176
1630096420.696,-98.633,-44.922,-49.316,-329.590
1630096420.700,-61.523,-42.969,-45.898,-99.121
1630096420.704,-23.926,-37.598,-41.504,235.840
1630096420.708,-39.551,-43.945,-41.992,-48.828
1630096420.712,-68.848,-44.434,-39.062,-334.961
1630096420.716,-62.012,-38.574,-38.574,-213.379
1630096420.720,-42.969,-39.062,-32.715,187.500
1630096420.724,-55.176,-31.250,-24.414,84.961
1630096420.728,-39.062,-31.250,-33.691,-261.719
1630096420.732,-41.504,-40.527,-43.457,-242.188
1630096420.735,-33.691,-38.574,-39.551,93.750
1630096420.739,-7.812,-17.090,-20.508,162.109
1630096420.743,-36.133,-22.461,-9.766,-201.172
1630096420.747,-57.617,-46.387,-32.715,-315.430
1630096420.762,-33.203,-48.340,-30.273,6.836
1630096420.766,-44.434,-54.199,-21.973,210.449
1630096420.770,-69.824,-47.852,-22.949,-145.020
1630096420.774,-42.969,-43.945,-28.809,-308.594
1630096420.778,-25.879,-38.086,-27.832,-93.750
1630096420.782,-5.859,4.883,5.371,279.297
1630096420.786,-12.207,-5.371,-1.953,9.766
1630096420.790,-46.387,-44.922,-39.062,-348.633
1630096420.793,-48.340,-40.527,-37.598,-228.516
1630096420.797,-46.387,-38.086,-26.367,217.285
1630096420.801,-68.848,-42.969,-39.551,111.328
1630096420.805,-73.730,-42.480,-47.363,-292.969
1630096420.807,-44.922,-41.016,-36.621,-283.203
1630096420.811,-11.230,-40.039,-30.273,104.492
1630096420.815,-54.688,-41.504,-38.086,176.758
1630096420.819,-88.379,-45.410,-39.551,-220.703
1630096420.823,-63.477,-45.898,-35.645,-281.250
1630096420.827,-39.551,-34.180,-31.250,32.227
1630096420.831,-38.574,-29.785,-31.250,244.629
1630096420.835,-60.059,-35.645,-29.785,-107.422
1630096420.838,-36.133,-18.555,-17.578,-276.855
1630096420.842,-11.230,-23.438,-22.461,-86.426
1630096420.846,-6.836,-43.945,-41.504,204.590
1630096420.850,-29.785,-44.922,-40.527,-16.602
1630096420.853,-77.148,-48.828,-32.227,-284.668
1630096420.857,-70.801,-42.480,-41.016,-201.172
1630096420.861,-30.762,-40.039,-37.109,182.129
1630096420.865,-42.480,-37.598,-25.391,149.414
1630096420.869,-34.668,-21.484,-8.789,-194.824
1630096420.873,-3.906,-24.414,-17.578,-233.887
1630096420.877,-29.785,-40.527,-40.527,91.797
1630096420.881,-50.293,-41.504,-26.855,220.215
1630096420.884,-14.648,-17.578,-4.395,-145.996
1630096420.888,-48.340,-24.902,-30.273,-312.500
1630096420.892,-44.434,-42.480,-37.598,-65.430
1630096420.896,-25.391,-37.598,-25.879,229.980
1630096420.898,-51.758,-35.645,-27.344,-71.777
1630096420.902,-53.711,-38.086,-28.809,-281.250
1630096420.906,-29.297,-41.992,-31.250,-146.484
1630096420.910,-1.465,-28.320,-18.555,226.074
1630096420.914,-36.133,-24.902,-18.555,59.570
1630096420.918,-58.105,-28.320,-24.902,-278.809
1630096420.922,-41.504,-31.738,-39.062,-229.492
1630096420.926,0.488,-17.578,-21.484,151.367
1630096420.929,-16.602,-6.348,-6.836,145.508
1630096420.933,-67.871,-34.668,-38.086,-261.230
1630096420.937,-53.711,-35.645,-48.828,-312.012
1630096420.941,-14.648,-25.391,-41.504,37.109
1630096420.942,-30.762,-26.367,-42.969,199.219
1630096420.946,-66.895,-32.227,-43.945,-163.086
1630096420.950,-56.641,-32.227,-39.062,-314.453
1630096420.954,-22.461,-25.879,-36.133,-53.223
1630096420.958,-19.043,-29.785,-39.551,250.000
1630096420.962,-50.293,-41.504,-43.457,-17.578
1630096420.966,-58.105,-40.527,-46.387,-289.551
1630096420.970,14.160,-1.465,-7.812,-129.395
1630096420.973,21.973,3.906,-1.465,266.113
1630096420.977,-55.176,-33.691,-42.480,51.270
1630096420.981,-74.707,-40.039,-46.875,-304.688
1630096420.985,-36.621,-33.691,-47.363,-236.328
1630096420.989,-4.883,-31.738,-46.387,129.883
1630096420.993,-34.668,-39.062,-41.992,131.836
1630096420.997,-74.707,-41.016,-35.645,-233.398
1630096421.001,-56.641,-40.527,-30.273,-259.766
1630096421.005,-22.461,-41.016,-34.180,63.477
1630096421.009,-30.273,-43.457,-39.551,239.746
1630096421.013,-54.199,-35.156,-19.043,-95.215
1630096421.017,-26.367,-26.855,-10.254,-274.902
1630096421.020,-8.301,-36.621,-27.832,-109.863
1630096421.024,-47.363,-36.133,-23.438,247.070
1630096421.028,-60.547,-26.855,-11.230,11.230
1630096421.032,-52.246,-32.227,-23.926,-291.504
1630096421.032,-32.227,-37.598,-38.574,-211.914
1630096421.036,-37.109,-39.062,-34.180,156.250
1630096421.040,-52.734,-41.016,-30.273,98.145
1630096421.044,-80.078,-41.504,-26.855,-234.375
1630096421.048,-77.148,-40.527,-32.715,-241.699
1630096421.052,-31.250,-35.645,-26.855,152.832
1630096421.056,2.441,-12.695,5.859,250.977
1630096421.060,-21.973,-20.996,-4.883,-169.434
1630096421.063,-41.992,-46.875,-37.109,-296.875
1630096421.067,-15.137,-47.363,-37.109,-0.977
1630096421.071,-21.973,-43.945,-33.691,212.402
1630096421.075,-76.660,-45.410,-28.809,-119.629
1630096421.080,-97.656,-49.316,-35.645,-289.551
1630096421.084,-47.852,-39.062,-38.574,-91.309
1630096421.088,-14.648,-26.367,-33.203,258.789
1630096421.092,-68.359,-41.992,-40.527,4.395
1630096421.096,-77.637,-50.293,-43.457,-297.852
1630096421.100,-39.062,-41.504,-35.156,-172.363
1630096421.104,-19.531,-34.668,-34.668,208.496
1630096421.108,-55.664,-39.551,-44.434,121.582
1630096421.111,-66.406,-42.480,-46.875,-240.723
1630096421.115,-25.879,-23.438,-37.598,-207.520
1630096421.119,-35.645,-25.879,-37.598,132.324
1630096421.123,-54.199,-35.645,-45.898,187.012
1630096421.137,-52.734,-35.645,-46.875,-181.641
1630096421.141,-58.594,-42.480,-44.922,-298.828
1630096421.145,-38.086,-38.086,-35.156,-42.969
1630096421.149,-22.461,-33.691,-39.551,251.465
1630096421.153,-43.457,-33.203,-50.293,-38.574
1630096421.157,-4.395,6.348,-6.348,-193.359
1630096421.161,24.414,15.625,7.324,-43.945
1630096421.165,14.648,-32.715,-34.180,219.238
1630096421.168,-26.367,-44.922,-47.363,32.227
1630096421.172,-77.637,-41.992,-41.992,-280.273
1630096421.176,-61.035,-47.363,-42.969,-213.379
1630096421.180,-43.457,-46.875,-47.852,132.812
1630096421.193,-64.453,-49.316,-49.316,129.883
1630096421.197,-66.406,-46.875,-48.828,-204.102
1630096421.201,-54.199,-43.457,-46.387,-238.281
1630096421.205,-50.781,-46.875,-39.551,95.703
1630096421.209,-28.809,-44.434,-36.621,238.281
1630096421.213,-69.336,-34.668,-34.180,-118.652
1630096421.217,-72.266,-34.180,-41.992,-255.859
1630096421.221,-27.832,-45.410,-50.293,-27.832
1630096421.224,-24.902,-20.996,-19.531,267.578
1630096421.228,-23.438,-3.418,-2.441,9.766
1630096421.232,-56.641,-40.527,-38.086,-291.016
1630096421.236,-59.570,-44.434,-44.434,-156.738
1630096421.227,-23.926,-33.203,-37.109,207.520
1630096421.231,-41.504,-39.062,-39.062,59.082
1630096421.235,-55.664,-49.805,-42.969,-258.789
1630096421.239,-57.129,-44.434,-38.574,-211.914
1630096421.243,-43.945,-22.949,-14.648,173.340
1630096421.247,-51.270,-37.109,-22.949,177.246
1630096421.251,-60.059,-57.129,-45.410,-228.027
1630096421.255,-61.035,-48.340,-37.598,-266.602
1630096421.258,-10.742,-15.625,-12.207,83.008
1630096421.262,-1.465,-27.832,-27.832,256.348
1630096421.266,-80.078,-48.828,-51.758,-91.797
1630096421.270,-78.125,-40.527,-47.363,-267.578
1630096421.272,-32.715,-32.227,-33.691,-76.660
1630096421.276,-27.344,-39.551,-45.410,208.984
1630096421.280,-56.641,-42.969,-43.945,-24.414
1630096421.284,-62.012,-39.551,-36.133,-292.969
1630096421.288,-34.180,-39.062,-44.922,-176.758
1630096421.292,-17.578,-38.574,-37.598,214.355
1630096421.296,-48.340,-46.875,-36.621,97.656
1630096421.300,-48.340,-28.809,-20.996,-219.238
1630096421.303,-38.574,-19.043,-12.695,-194.824
1630096421.307,-24.902,-39.062,-35.156,133.789
1630096421.311,-30.762,-42.480,-44.434,181.152
1630096421.315,-63.477,-47.852,-39.062,-193.848
1630096421.322,-54.688,-45.410,-34.180,-261.230
1630096421.326,-10.254,-43.457,-38.574,35.645
1630096421.330,-6.348,-44.434,-34.668,243.164
1630096421.334,-18.555,-7.812,1.465,-28.809
1630096421.338,-26.367,-18.066,-17.578,-238.770
1630096421.342,-43.945,-55.664,-58.105,-116.211
1630096421.346,-26.367,-45.898,-45.898,203.613
1630096421.350,-23.438,-13.672,-8.789,44.922
1630096421.353,-65.430,-34.180,-27.344,-268.066
1630096421.357,-51.758,-54.199,-47.852,-225.098
1630096421.361,-24.902,-41.992,-41.016,149.902
1630096421.365,-42.480,-40.527,-43.945,119.629
1630096421.364,-62.012,-49.805,-45.898,-214.355
1630096421.368,-44.434,-52.734,-50.293,-249.512
1630096421.372,-19.531,-43.945,-45.898,70.801
1630096421.376,-29.297,-43.945,-39.551,166.992
1630096421.380,-49.805,-48.340,-37.598,-129.883
1630096421.384,-58.594,-53.711,-42.969,-204.590
1630096421.388,-19.043,-27.344,-23.926,25.879
1630096421.392,16.602,-0.977,2.441,287.598
1630096421.395,-40.039,-35.156,-28.809,-44.922
1630096421.399,-62.500,-48.828,-41.504,-293.457
1630096421.403,-49.805,-40.527,-41.992,-123.535
1630096421.407,-40.527,-44.434,-44.434,208.496
1630096421.407,-40.527,-53.711,-45.410,40.039
1630096421.411,-63.477,-51.270,-39.551,-220.703
1630096421.415,-69.336,-48.340,-39.551,-176.758
1630096421.419,-37.109,-43.457,-41.504,145.020
1630096421.423,-59.570,-42.969,-38.574,119.629
1630096421.427,-89.355,-45.410,-37.109,-191.895
1630096421.431,-16.113,-7.812,-6.348,-152.832
1630096421.435,36.133,7.812,5.859,141.602
1630096421.438,-35.645,-29.785,-29.785,187.012
1630096421.442,-75.684,-43.945,-37.598,-158.203
1630096421.446,-52.246,-44.434,-33.203,-225.586
1630096421.450,-7.324,-45.898,-34.668,15.137
1630096421.454,-9.277,-36.133,-34.668,218.750
1630096421.458,-74.707,-30.762,-37.109,-71.777
1630096421.462,-83.496,-39.062,-45.410,-264.648
1630096421.466,-43.945,-39.551,-53.223,-130.859
1630096421.470,-28.320,-44.434,-44.434,193.359
1630096421.474,-18.066,-35.156,-22.949,114.746
1630096421.478,-25.879,-25.391,-33.691,-208.984
1630096421.482,-36.133,-32.715,-66.895,-280.273
1630096421.485,-9.766,-28.320,-65.918,-22.461
1630096421.489,-7.812,-29.297,-45.898,30.273
1630096421.493,-29.785,-33.203,-50.781,-236.328
1630096421.497,-25.879,-33.691,-69.824,-313.477
1630096421.512,17.090,-21.973,-62.500,-48.828
1630096421.516,33.691,-10.742,-44.922,118.652
1630096421.520,-5.859,-28.809,-56.152,-152.344
1630096421.524,-21.484,-38.086,-67.871,-273.438
1630096421.528,2.930,-22.461,-62.012,-144.531
1630096421.532,49.316,3.418,-22.461,162.109
1630096421.536,40.527,-11.230,-25.391,-3.418
1630096421.540,-18.066,-33.691,-56.152,-276.855
1630096421.543,-18.066,-25.879,-60.059,-208.008
1630096421.547,4.883,-23.438,-56.641,59.570
1630096421.551,-9.277,-32.227,-49.805,-23.926
1630096421.555,-23.438,-38.086,-49.316,-246.582
1630096421.557,0.000,-33.691,-46.875,-205.078
1630096421.561,17.090,-35.645,-41.992,54.688
1630096421.565,-10.254,-39.062,-44.922,68.848
1630096421.569,-21.484,-34.180,-44.434,-176.758
1630096421.573,-21.973,-27.344,-41.016,-201.660
1630096421.577,-20.996,-26.367,-41.504,-10.254
1630096421.581,-26.367,-33.691,-45.410,109.375
1630096421.585,-21.973,-40.527,-43.945,-149.902
1630096421.588,-2.930,-17.578,-26.855,-205.566
1630096421.592,11.719,-9.277,-27.832,-66.406
1630096421.596,7.812,-34.180,-46.875,85.449
1630096421.600,-24.902,-42.480,-37.598,-60.547
1630096421.602,-35.645,-46.387,-38.574,-208.984
1630096421.606,-6.836,-40.039,-48.340,-175.781
1630096421.610,-2.441,-37.109,-48.828,44.434
1630096421.614,-33.691,-36.133,-34.668,46.387
1630096421.618,-13.672,-12.207,-3.418,-99.121
1630096421.622,28.320,-23.926,-18.555,-125.977
1630096421.626,10.254,-46.387,-51.758,1.465
1630096421.630,-31.738,-37.109,-39.062,59.570
1630096421.633,-31.738,-21.973,-16.113,-124.512
1630096421.637,-32.227,-29.297,-31.250,-198.242
1630096421.641,-13.672,-38.574,-42.969,-60.059
1630096421.645,-3.418,-36.621,-30.762,127.441
1630096421.648,-37.598,-38.086,-26.855,-59.570
1630096421.652,-17.578,-40.039,-40.039,-205.566
1630096421.656,8.789,-32.227,-45.898,-132.324
1630096421.660,-18.555,-23.926,-35.156,102.051
1630096421.664,-32.227,-27.832,-29.785,-5.859
1630096421.668,-25.391,-35.645,-37.109,-192.383
1630096421.672,-43.457,-46.387,-50.781,-170.410
1630096421.676,-8.301,-20.996,-20.508,107.910
1630096421.679,4.883,0.977,15.625,116.699
1630096421.683,-52.734,-33.203,-22.461,-187.988
1630096421.687,-58.594,-41.992,-46.875,-260.742
1630096421.691,-16.113,-34.180,-41.992,-16.602
1630096421.692,-21.484,-35.156,-38.086,133.301
1630096421.696,-47.363,-49.805,-39.551,-107.422
1630096421.700,-37.109,-49.805,-49.805,-236.328
1630096421.704,-16.602,-31.250,-40.039,-22.461
1630096421.708,-22.949,-43.945,-35.156,187.988
1630096421.712,-43.945,-55.176,-36.621,-39.062
1630096421.716,-41.992,-42.480,-40.527,-233.398
1630096421.720,-23.438,-15.625,-18.555,-160.645
1630096421.723,-14.160,-25.879,-21.484,85.938
1630096421.727,-70.312,-42.969,-35.156,-1.953
1630096421.731,-88.867,-34.668,-38.086,-233.887
1630096421.735,-49.805,-29.785,-35.156,-247.559
1630096421.740,-25.391,-32.227,-37.598,32.715
1630096421.744,-42.969,-40.039,-41.504,67.871
1630096421.748,-68.848,-41.016,-41.504,-208.008
1630096421.752,-45.410,-39.551,-49.316,-250.488
1630096421.756,-22.461,-42.480,-43.457,-11.719
1630096421.760,-50.293,-42.480,-34.668,134.766
1630096421.764,-59.082,-30.762,-20.020,-110.840
1630096421.768,-38.574,-24.902,-16.113,-208.984
1630096421.771,-33.691,-40.039,-45.898,-111.328
1630096421.775,-40.039,-40.039,-41.992,104.492
1630096421.779,-60.059,-33.691,-25.879,-46.387
1630096421.783,-49.805,-36.621,-29.785,-245.605
1630096421.783,-23.926,-44.922,-43.945,-149.414
1630096421.787,-14.160,-42.969,-41.504,153.809
1630096421.791,-15.137,-29.297,-15.625,66.406
1630096421.795,-43.457,-35.156,-28.809,-196.289
1630096421.799,-40.527,-38.574,-45.898,-208.008
1630096421.803,-21.484,-31.738,-37.598,52.246
1630096421.807,-4.395,-7.812,-6.836,123.535
1630096421.811,-45.410,-10.742,-10.742,-151.855
1630096421.814,-66.406,-36.133,-44.434,-242.188
1630096421.818,-35.156,-40.039,-46.875,-39.551
1630096421.822,-32.715,-41.992,-37.109,146.973
1630096421.826,-14.648,-41.504,-33.203,-86.914
1630096421.829,-33.203,-42.480,-40.527,-267.090
1630096421.833,-48.828,-40.527,-44.434,-118.164
1630096421.837,-30.762,-38.574,-37.109,158.691
1630096421.841,-40.527,-37.598,-27.832,13.672
1630096421.845,-55.176,-40.527,-44.434,-200.684
1630096421.849,-22.461,-30.273,-38.574,-138.672
1630096421.853,13.184,-11.230,-6.836,189.453
1630096421.857,-34.180,-39.062,-29.785,104.492
1630096421.860,-47.852,-49.316,-40.039,-214.355
1630096421.864,-51.270,-39.062,-36.133,-213.867
1630096421.868,-43.457,-40.039,-43.457,70.312
1630096421.872,-42.969,-38.574,-36.621,150.879
1630096421.887,-60.059,-40.039,-31.738,-122.559
1630096421.891,-34.180,-33.691,-39.062,-200.684
1630096421.895,-12.695,-33.691,-39.062,-2.441
1630096421.899,-13.184,-39.062,-39.062,193.848
1630096421.903,-30.273,-37.598,-41.504,-42.480
1630096421.907,-24.414,-8.789,-17.090,-171.875
1630096421.911,6.836,-16.113,-20.996,-53.711
1630096421.915,21.484,-42.480,-44.434,156.738
1630096421.918,-53.223,-40.527,-42.480,18.555
1630096421.922,-72.266,-26.855,-31.250,-186.523
1630096421.926,-43.457,-40.527,-45.410,-180.176
1630096421.930,-13.672,-45.410,-54.199,81.055
1630096421.932,-35.156,-41.016,-46.387,86.426
1630096421.936,-55.176,-44.434,-42.969,-154.297
1630096421.940,-21.484,-45.898,-50.781,-176.270
1630096421.944,4.395,-47.852,-57.129,52.246
1630096421.948,-10.742,-46.387,-52.734,137.207
1630096421.952,-23.438,-43.945,-44.434,-129.395
1630096421.956,2.930,-44.922,-57.617,-200.195
1630096421.960,61.523,-46.875,-61.035,-6.348
1630096421.963,41.992,-34.668,-5.859,218.262
1630096421.967,-76.660,-37.109,5.371,-23.926
1630096421.971,-113.281,-48.828,-34.180,-242.188
1630096421.975,-88.867,-49.316,-37.109,-183.105
1630096421.977,-71.289,-36.133,-15.625,113.770
1630096421.981,-111.328,-47.363,-15.625,3.418
1630096421.985,-145.508,-69.336,-32.227,-283.203
1630096421.989,-110.840,-56.641,-30.273,-240.723
1630096421.993,-100.586,-50.781,-12.207,62.500
1630096421.997,-114.746,-59.570,-7.812,58.594
1630096422.001,-141.113,-66.406,-8.301,-232.422
1630096422.005,-147.461,-59.082,-20.020,-267.090
1630096422.008,-92.285,-48.340,-27.344,10.254
1630096422.012,-111.816,-51.270,-35.645,115.723
1630096422.016,-145.508,-55.664,-36.621,-209.961
1630096422.020,-113.770,-52.734,-25.879,-316.406
1630096422.025,-94.238,-48.340,-14.160,-88.379
1630096422.029,-94.727,-56.641,-15.625,177.246
1630096422.033,-85.938,-55.664,-21.484,-44.434
1630096422.037,-71.777,-42.969,-21.973,-248.535
1630096422.041,-62.500,-50.293,-20.508,-147.461
1630096422.045,-57.129,-50.293,-21.484,162.109
1630096422.049,-64.453,-44.434,-22.949,82.520
1630096422.053,-67.383,-54.688,-22.949,-193.359
1630096422.056,-62.500,-50.293,-23.926,-172.852
1630096422.060,-16.113,-37.109,-24.414,141.602
1630096422.064,-24.902,-46.387,-29.785,174.805
1630096422.068,-84.961,-56.641,-30.762,-167.480
1630096422.067,-65.430,-52.734,-35.156,-223.633
1630096422.071,-35.645,-46.387,-37.109,57.129
1630096422.075,-12.207,-38.086,-20.996,261.230
1630096422.079,-23.438,-39.062,-14.160,-62.500
1630096422.083,-43.457,-42.969,-27.832,-254.883
1630096422.087,-35.156,-40.039,-35.156,-83.496
1630096422.091,-31.250,-45.410,-29.785,225.098
1630096422.095,-23.438,-38.086,-12.207,22.949
1630096422.098,-54.199,-34.668,-15.625,-234.863
1630096422.102,-33.203,-42.969,-33.691,-171.875
1630096422.106,21.484,-36.621,-32.227,211.914
1630096422.110,-45.898,-43.457,-37.598,111.816
1630096422.114,-77.148,-41.992,-41.504,-221.191
1630096422.118,-45.410,-31.250,-41.504,-184.082
1630096422.122,-26.855,-39.551,-36.133,134.277
1630096422.126,-30.273,-40.039,-32.227,195.312
1630096422.130,-46.387,-40.527,-38.086,-188.477
1630096422.134,-16.602,-42.480,-40.039,-244.141
1630096422.138,-6.836,-32.715,-28.809,52.246
1630096422.142,-32.227,-30.762,-27.832,271.973
1630096422.145,-47.852,-43.945,-36.133,-84.961
1630096422.149,-75.684,-46.387,-34.668,-295.410
1630096422.153,-36.133,-35.645,-34.180,-88.379
1630096422.157,-7.324,-38.574,-36.133,284.180
1630096422.157,-33.203,-39.551,-36.621,65.430
1630096422.161,-39.551,-37.109,-34.668,-257.812
1630096422.165,-2.441,-37.109,-36.133,-163.574
1630096422.169,18.555,-33.691,-32.715,269.531
1630096422.173,-36.133,-33.691,-36.621,191.895
1630096422.177,-52.246,-39.062,-34.180,-189.941
1630096422.181,-50.293,-43.457,-34.180,-181.152
1630096422.185,-29.785,-35.645,-23.438,148.926
1630096422.188,-20.508,-37.109,-15.625,251.953
1630096422.192,-58.594,-46.875,-34.668,-145.508
1630096422.196,-45.898,-42.969,-43.945,-254.395
1630096422.200,-23.438,-42.480,-31.250,16.113
1630096422.204,-27.832,-44.434,-24.414,295.898
1630096422.208,-35.156,-42.480,-28.320,11.719
1630096422.212,-54.199,-41.992,-31.738,-248.535
1630096422.216,-25.879,-41.504,-30.762,-98.633
1630096422.220,17.578,-33.691,-30.273,312.012
1630096422.224,-37.598,-34.180,-25.391,131.348
1630096422.228,-88.379,-41.992,-20.996,-249.512
1630096422.232,-63.477,-36.133,-31.250,-228.027
1630096422.235,-11.719,-27.344,-29.297,179.199
1630096422.239,-38.086,-43.457,-32.227,184.082
1630096422.243,-81.055,-46.875,-33.203,-228.516
1630096422.247,-46.387,-31.250,-23.926,-277.832
1630096422.262,-37.598,-30.273,-33.203,63.965
1630096422.266,-46.875,-36.133,-39.062,253.906
1630096422.270,-62.012,-38.086,-38.574,-150.391
1630096422.274,-57.617,-34.180,-49.805,-316.895
1630096422.278,-26.367,-30.762,-46.875,-57.129
1630096422.282,-60.547,-48.828,-48.828,267.090
1630096422.286,-87.402,-53.711,-47.852,-23.926
1630096422.290,-76.660,-43.457,-30.273,-309.082
1630096422.293,-44.434,-36.621,-25.391,-136.719
1630096422.297,-3.906,-31.250,-20.508,272.461
1630096422.301,-50.293,-43.457,-32.715,69.336
1630096422.305,-58.594,-42.480,-38.574,-280.273
1630096422.307,-39.062,-35.156,-41.504,-244.141
1630096422.311,-21.973,-30.762,-35.156,146.484
1630096422.315,-22.461,-29.297,-34.668,178.223
1630096422.319,-38.574,-29.785,-37.598,-216.309
1630096422.323,-32.715,-39.551,-41.992,-246.582
1630096422.327,-37.109,-40.039,-49.316,14.648
1630096422.331,-10.254,-31.250,-37.109,219.238
1630096422.335,-28.320,-38.086,-32.227,-136.230
1630096422.338,-71.289,-53.223,-54.688,-345.215
1630096422.342,-47.363,-46.875,-60.059,-125.977
1630096422.346,-13.672,-31.250,-40.527,248.047
1630096422.350,-52.734,-40.527,-33.691,17.578
1630096422.352,-49.316,-41.992,-33.691,-295.410
1630096422.356,-35.645,-39.062,-41.016,-197.266
1630096422.360,-16.113,-37.598,-27.832,227.051
1630096422.364,0.000,-30.762,-24.902,123.535
1630096422.368,-50.293,-42.480,-42.480,-288.574
1630096422.372,-43.945,-50.293,-32.715,-271.484
1630096422.376,-18.066,-40.527,-16.113,145.508
1630096422.380,-32.227,-38.086,-20.508,226.562
1630096422.383,-71.289,-60.547,-46.387,-243.164
1630096422.387,-60.547,-52.246,-50.781,-352.051
1630096422.391,-9.277,-25.879,-33.203,8.301
1630096422.395,-1.953,-28.320,-38.086,246.094
1630096422.398,-20.020,-31.738,-43.945,-95.215
1630096422.402,-41.016,-34.180,-42.480,-285.645
1630096422.406,-24.902,-40.527,-37.598,-129.883
1630096422.410,-15.625,-40.527,-31.250,239.746
1630096422.414,-39.551,-36.621,-32.715,11.719
1630096422.418,-33.203,-39.551,-31.738,-320.801
1630096422.422,-11.230,-40.527,-36.133,-206.055
1630096422.426,6.348,-43.945,-36.133,200.195
1630096422.429,-52.246,-51.270,-40.039,124.023
1630096422.433,-83.496,-42.969,-35.156,-257.812
1630096422.437,-46.875,-34.668,-35.645,-248.535
1630096422.441,-31.250,-48.828,-41.992,92.773
1630096422.442,-32.227,-47.363,-34.668,213.867
1630096422.446,-33.691,-36.621,-32.227,-177.246
1630096422.450,-35.156,-39.062,-40.039,-311.035
1630096422.454,-22.949,-35.645,-34.668,16.602
1630096422.458,-21.973,-34.668,-36.621,319.824
1630096422.462,-53.223,-37.598,-37.109,-38.086
1630096422.466,-40.527,-35.156,-34.668,-299.805
1630096422.470,-25.879,-41.504,-34.668,-128.906
1630096422.473,-17.578,-39.062,-32.715,281.250
1630096422.477,-41.016,-37.109,-33.691,80.566
1630096422.481,-43.457,-41.504,-31.738,-272.949
1630096422.485,-20.508,-34.180,-28.809,-219.727
1630096422.490,-16.602,-33.203,-25.879,198.730
1630096422.494,-37.598,-32.227,-38.574,201.172
1630096422.498,-30.762,-29.785,-52.246,-249.512
1630096422.502,-17.090,-30.762,-51.758,-308.594
1630096422.506,-20.996,-24.902,-41.504,91.797
1630096422.510,-31.250,-23.438,-42.480,271.973
1630096422.514,-55.176,-31.738,-49.805,-155.762
1630096422.518,-59.570,-33.203,-51.758,-316.895
1630096422.521,-29.297,-28.809,-44.922,-44.922
1630096422.525,-7.324,-23.926,-41.504,289.551
1630096422.529,-33.691,-29.785,-48.340,-18.066
1630096422.533,-46.387,-31.738,-44.434,-290.527
1630096422.532,-23.438,-33.203,-38.574,-162.109
1630096422.536,-5.371,-36.133,-34.180,222.656
1630096422.540,-31.250,-32.715,-30.762,102.539
1630096422.544,-64.941,-30.762,-30.273,-250.000
1630096422.548,-40.039,-32.227,-31.738,-225.098
1630096422.552,-4.883,-29.785,-21.973,173.340
1630096422.556,-49.316,-26.367,-30.762,195.801
1630096422.560,-63.477,-30.762,-42.969,-222.168
1630096422.563,-29.785,-37.109,-40.527,-301.758
1630096422.567,-10.742,-34.180,-29.785,63.477
1630096422.571,-36.621,-24.902,-36.133,288.086
1630096422.575,-64.453,-30.273,-39.551,-88.379
1630096422.579,-36.621,-34.180,-40.527,-286.621
1630096422.583,-20.020,-30.273,-38.086,-74.707
1630096422.587,-17.090,-31.250,-34.180,286.133
1630096422.591,-9.277,-36.133,-42.969,24.414
1630096422.595,-27.832,-43.457,-37.109,-293.945
1630096422.599,-64.453,-31.738,-23.926,-192.383
1630096422.603,-65.918,-20.020,-33.203,185.547
1630096422.607,-63.965,-34.668,-44.434,62.988
1630096422.610,-57.129,-38.086,-38.086,-288.086
1630096422.614,-63.477,-42.969,-47.363,-275.879
1630096422.618,-61.523,-49.805,-42.480,115.234
1630096422.622,-69.824,-42.969,-36.133,172.852
1630096422.637,-90.820,-41.992,-47.852,-225.098
1630096422.641,-67.383,-43.457,-51.270,-319.336
1630096422.645,-26.367,-40.527,-40.527,-0.488
1630096422.649,-41.992,-39.062,-31.250,305.664
1630096422.653,-91.309,-45.898,-39.062,-83.984
1630096422.657,-109.375,-68.848,-60.547,-343.750
1630096422.661,-41.016,-57.617,-54.688,-124.512
1630096422.665,4.883,-30.762,-34.180,250.977
1630096422.668,-51.758,-31.738,-38.574,32.227
1630096422.672,-83.496,-37.109,-39.062,-280.762
1630096422.676,-45.898,-36.133,-34.668,-174.316
1630096422.680,1.465,-28.809,-27.344,229.004
1630096422.697,-41.992,-31.250,-33.691,106.445
1630096422.701,-80.078,-39.551,-37.598,-289.062
1630096422.705,-58.105,-31.250,-35.156,-274.414
1630096422.709,-8.789,-27.832,-36.621,126.953
1630096422.713,-30.273,-27.832,-39.551,237.305
1630096422.717,-73.242,-27.344,-39.062,-168.945
1630096422.721,-36.621,-27.832,-42.480,-273.438
1630096422.725,0.977,-24.414,-31.250,0.488
1630096422.728,-10.254,-39.062,-41.016,242.188
1630096422.732,-77.637,-48.828,-56.152,-118.652
1630096422.736,-73.730,-36.621,-37.598,-327.637
1630096422.740,-19.531,-29.297,-34.668,-117.188
1630096422.728,-7.324,-26.855,-41.016,280.762
1630096422.732,-54.199,-31.738,-41.992,50.781
1630096422.736,-63.477,-28.809,-37.109,-292.969
1630096422.740,-34.668,-26.855,-33.691,-190.430
1630096422.744,2.930,-36.621,-28.809,210.938
1630096422.748,-23.438,-40.039,-32.227,185.059
1630096422.752,-74.219,-44.922,-41.504,-247.559
1630096422.756,-63.965,-43.945,-42.480,-320.801
1630096422.759,-41.504,-37.598,-29.785,96.680
1630096422.763,-56.641,-42.480,-35.156,279.785
1630096422.767,-74.219,-46.387,-42.969,-165.527
1630096422.771,-54.688,-49.316,-32.227,-320.312
1630096422.773,-10.742,-43.457,-33.691,-31.250
1630096422.777,-13.184,-35.645,-42.969,282.715
1630096422.781,-55.664,-46.387,-44.434,-58.105
1630096422.785,-47.363,-41.016,-38.574,-319.336
1630096422.789,-21.973,-33.203,-32.227,-151.367
1630096422.793,-5.859,-33.691,-27.832,257.324
1630096422.797,-50.293,-35.645,-39.551,71.289
1630096422.801,-70.801,-42.969,-41.992,-309.570
1630096422.804,-31.250,-38.086,-39.551,-227.051
1630096422.808,-4.883,-32.227,-36.133,185.059
1630096422.812,-21.973,-38.086,-39.551,164.551
1630096422.816,-43.945,-41.504,-44.434,-282.715
1630096422.817,-44.434,-34.180,-46.387,-325.684
1630096422.821,-17.578,-30.273,-39.551,41.016
1630096422.825,-6.348,-34.668,-40.039,252.930
1630096422.829,-41.504,-34.180,-42.969,-125.488
1630096422.833,-43.945,-35.156,-45.410,-311.523
1630096422.837,-20.020,-29.785,-38.086,-76.660
1630096422.841,-24.414,-24.902,-39.551,272.461
1630096422.845,-71.777,-41.016,-50.781,-29.785
1630096422.848,-53.223,-41.016,-41.992,-328.125
1630096422.852,-2.930,-29.297,-34.668,-171.387
1630096422.856,-11.230,-26.855,-34.180,222.656
1630096422.860,-35.156,-31.250,-38.574,99.121
1630096422.864,-10.254,-33.203,-32.227,-268.555
1630096422.868,21.973,-24.414,-27.832,-227.539
1630096422.872,-5.371,-23.438,-28.809,162.109
1630096422.876,-47.852,-31.250,-34.668,192.871
1630096422.880,-49.316,-32.715,-35.645,-195.801
1630096422.884,-41.504,-32.715,-28.320,-272.949
1630096422.888,-21.484,-29.297,-26.855,14.160
1630096422.892,-38.574,-28.809,-29.297,260.254
1630096422.895,-65.918,-31.250,-31.250,-132.812
1630096422.899,-12.695,-24.414,-37.109,-348.633
1630096422.903,18.066,-24.902,-34.668,-99.609
1630096422.907,-40.039,-28.809,-31.250,246.582
1630096422.907,-77.637,-33.691,-40.527,-44.434
1630096422.911,-59.570,-32.715,-40.527,-365.234
1630096422.915,-23.926,-26.367,-24.902,-225.098
1630096422.919,-2.930,-24.414,-20.996,208.008
1630096422.923,-43.457,-24.414,-33.203,91.797
1630096422.927,-50.293,-24.902,-31.738,-282.715
1630096422.931,-52.734,-38.574,-39.551,-270.508
1630096422.935,-30.762,-40.527,-35.156,74.707
1630096422.938,-13.184,-28.320,-29.297,190.430
1630096422.942,-39.062,-28.320,-29.785,-213.867
1630096422.946,-44.922,-35.156,-36.133,-352.539
1630096422.950,-12.695,-31.738,-34.180,-46.875
1630096422.956,-11.719,-29.297,-33.691,273.438
1630096422.960,-48.340,-34.180,-41.016,-82.520
1630096422.964,-40.039,-37.598,-40.527,-361.816
1630096422.968,-19.043,-37.598,-31.250,-148.438
1630096422.972,-32.227,-31.250,-27.832,261.719
1630096422.976,-47.852,-30.762,-33.691,30.273
1630096422.980,-58.105,-28.320,-38.086,-332.031
1630096422.984,-45.898,-28.809,-33.203,-272.461
1630096422.987,-18.555,-35.645,-30.762,150.879
1630096422.991,-44.922,-28.809,-43.457,115.723
1630096422.995,-69.336,-28.809,-36.621,-271.484
1630096422.999,-53.711,-41.504,-31.250,-291.016
1630096423.012,-21.484,-30.762,-22.949,87.402
1630096423.016,-35.645,-29.297,-26.367,254.395
1630096423.020,-80.078,-41.016,-34.668,-179.199
1630096423.024,-53.711,-33.203,-33.691,-313.477
1630096423.028,-12.695,-25.391,-32.227,-27.344
1630096423.032,-4.395,-34.180,-24.414,280.762
1630096423.036,-33.691,-31.738,-26.855,-17.578
1630096423.040,-65.430,-36.621,-40.039,-342.773
1630096423.043,-32.715,-38.574,-43.945,-231.934
1630096423.047,-4.883,-28.320,-30.762,245.605
1630096423.051,-49.316,-30.273,-29.785,82.520
1630096423.055,-41.992,-35.156,-30.273,-325.195
1630096423.058,-24.902,-33.691,-27.832,-253.906
1630096423.062,-21.973,-25.879,-23.926,222.656
1630096423.066,-70.312,-37.109,-35.156,222.656
1630096423.070,-80.566,-44.922,-39.062,-299.805
1630096423.074,-37.598,-30.762,-42.969,-332.031
1630096423.078,-32.227,-30.762,-30.762,65.918
1630096423.082,-45.898,-30.762,-29.785,260.254
1630096423.086,-50.781,-22.949,-41.016,-161.133
1630096423.089,-65.918,-32.227,-48.340,-381.348
1630096423.093,-54.688,-36.621,-41.992,-99.609
1630096423.097,1.953,-31.738,-36.621,285.156
1630096423.101,-20.996,-35.156,-39.062,-7.812
1630096423.102,-47.852,-34.180,-39.551,-339.355
1630096423.106,-31.738,-30.273,-41.504,-215.332
1630096423.110,-17.578,-32.227,-35.645,250.488
1630096423.114,-35.156,-35.645,-36.621,103.516
1630096423.118,-68.848,-38.086,-50.781,-328.125
1630096423.122,-40.527,-38.086,-42.480,-302.734
1630096423.126,-3.906,-29.297,-27.832,194.336
1630096423.130,-20.508,-23.438,-43.457,264.648
1630096423.133,-59.570,-29.785,-44.922,-238.770
1630096423.137,-16.113,-26.855,-37.109,-326.660
1630096423.141,10.254,-22.949,-26.855,41.992
1630096423.145,-44.434,-27.344,-21.484,273.926
1630096423.147,-71.289,-40.527,-20.508,-158.691
1630096423.151,-78.125,-41.016,-29.785,-410.645
1630096423.155,-50.781,-34.668,-28.809,-137.207
1630096423.159,-15.625,-41.992,-20.020,278.809
1630096423.163,-52.734,-43.945,-26.367,-37.598
1630096423.167,-68.848,-38.086,-18.066,-364.746
1630096423.171,-52.246,-32.227,-26.855,-224.609
1630096423.175,-21.973,-24.414,-17.090,216.309
1630096423.178,-42.480,-29.785,-12.695,115.723
1630096423.182,-61.523,-45.898,-34.180,-330.078
1630096423.186,-21.973,-41.992,-34.180,-350.586
1630096423.190,-26.855,-37.598,-15.625,119.629
1630096423.194,-54.688,-43.457,-23.438,229.004
1630096423.198,-64.941,-44.922,-37.109,-268.066
1630096423.202,-58.594,-40.527,-33.203,-360.840
1630096423.206,-43.457,-47.852,-31.738,-5.859
1630096423.210,-24.414,-43.457,-36.621,295.410
1630096423.214,-42.969,-29.785,-35.645,-85.449
1630096423.218,-66.895,-32.227,-33.691,-379.883
1630096423.222,-26.855,-33.203,-38.574,-183.594
1630096423.225,-16.113,-29.297,-33.203,257.812
1630096423.229,-66.406,-30.762,-36.621,12.695
1630096423.233,-75.684,-31.738,-33.203,-401.367
1630096423.237,-36.621,-33.691,-29.297,-276.855
1630096423.239,2.441,-31.250,-24.902,263.672
1630096423.243,-37.109,-27.832,-29.297,178.711
1630096423.247,-63.965,-29.297,-34.668,-317.871
1630096423.251,-14.160,-28.809,-32.715,-291.992
1630096423.255,-12.695,-31.738,-27.832,135.254
1630096423.259,-34.180,-28.320,-39.062,286.621
1630096423.263,-37.109,-30.762,-38.574,-146.484
1630096423.267,-38.086,-32.715,-24.414,-305.176
1630096423.270,-13.184,-32.227,-22.949,-26.367
1630096423.274,-27.832,-37.109,-23.438,329.590
1630096423.278,-63.965,-39.062,-28.320,-36.133
1630096423.282,-53.711,-41.504,-26.855,-346.191
1630096423.283,-3.418,-34.668,-24.902,-151.855
1630096423.287,16.113,-23.438,-28.809,277.344
1630096423.291,-43.945,-25.879,-30.273,108.398
1630096423.295,-75.195,-29.297,-32.715,-291.016
1630096423.299,-34.668,-35.156,-40.039,-238.281
1630096423.303,-3.418,-33.691,-29.785,277.344
1630096423.307,-16.113,-12.695,-5.371,271.973
1630096423.311,-30.273,-18.066,-6.836,-225.586
1630096423.314,-32.715,-38.086,-41.016,-306.641
1630096423.318,-16.602,-29.785,-35.156,91.797
1630096423.322,-4.395,-22.949,-29.297,329.102
1630096423.326,-48.828,-37.109,-42.969,-153.320
1630096423.329,-41.016,-44.434,-40.039,-337.402
1630096423.333,-26.367,-39.062,-32.715,-27.344
1630096423.337,-23.438,-32.227,-34.180,308.594
1630096423.341,-23.926,-31.738,-38.086,-13.672
1630096423.345,-38.086,-36.621,-35.645,-328.125
1630096423.349,9.766,-28.809,-25.879,-154.297
1630096423.353,-4.395,-24.902,-29.297,312.988
1630096423.357,-47.852,-34.668,-38.086,131.348
1630096423.360,-43.457,-33.203,-27.344,-300.293
1630096423.364,-30.273,-19.043,-14.648,-245.117
1630096423.368,-12.207,-20.508,-10.254,219.727
1630096423.372,-7.812,-33.203,-31.738,268.555
1630096423.387,-48.340,-36.621,-37.109,-238.770
1630096423.391,-31.250,-37.598,-23.926,-353.027
1630096423.395,24.414,-36.621,-13.672,75.195
1630096423.399,-9.766,-38.574,-20.020,332.031
1630096423.403,-46.387,-41.992,-34.180,-132.812
1630096423.407,-11.230,-15.625,-13.184,-319.824
1630096423.411,15.625,-19.043,-15.625,-47.363
1630096423.415,-14.648,-36.133,-33.691,316.895
1630096423.418,-54.688,-33.203,-39.062,-9.766
1630096423.422,-26.855,-36.621,-31.250,-354.004
1630096423.426,-18.555,-40.039,-31.250,-199.707
1630096423.430,-26.855,-35.645,-32.715,263.672
1630096423.432,-42.969,-31.738,-31.738,152.832
1630096423.436,-49.316,-39.062,-31.250,-267.090
1630096423.440,-27.344,-40.527,-30.273,-249.512
1630096423.444,-8.301,-36.133,-25.391,168.457
1630096423.448,-11.719,-29.785,-27.832,267.090
1630096423.452,-39.551,-29.297,-22.461,-170.410
1630096423.456,-42.480,-35.156,-28.809,-298.340
1630096423.460,-20.996,-38.086,-28.809,44.922
1630096423.463,-2.930,-25.879,-20.508,334.961
1630096423.467,-31.738,-21.973,-28.320,-80.566
1630096423.471,-61.035,-31.738,-39.062,-343.262
1630096423.475,-45.410,-32.227,-31.250,-117.676
1630096423.477,-32.715,-36.133,-23.926,329.590
1630096423.481,-59.570,-38.574,-31.738,46.875
1630096423.485,-40.039,-35.645,-31.738,-333.496
1630096423.489,-21.484,-38.086,-34.180,-190.918
1630096423.493,-18.066,-32.227,-27.832,286.621
1630096423.497,-26.855,-32.715,-34.180,224.609
1630096423.501,-61.035,-42.480,-43.457,-280.273
1630096423.505,-39.062,-41.504,-40.527,-310.059
1630096423.508,-0.488,-39.062,-31.250,142.090
1630096423.512,-30.273,-43.945,-36.133,251.953
1630096423.516,-58.594,-48.828,-38.086,-199.707
1630096423.520,-47.852,-50.781,-30.273,-294.434
1630096423.523,1.465,-42.480,-21.973,2.441
1630096423.527,-5.859,-36.133,-22.461,323.730
1630096423.531,-52.246,-44.922,-24.902,-20.508
1630096423.535,-35.645,-45.410,-25.391,-330.566
1630096423.539,-35.156,-47.852,-23.926,-100.098
1630096423.543,-3.906,-49.316,-22.461,370.117
1630096423.547,-44.434,-52.734,-36.621,117.188
1630096423.551,-69.336,-56.152,-30.273,-310.547
1630096423.554,-2.930,-47.852,-13.672,-218.262
1630096423.558,5.371,-47.852,-11.719,260.742
1630096423.562,-28.320,-46.875,-27.344,224.121
1630096423.566,-68.848,-37.598,-32.227,-244.629
1630096423.567,-67.383,-32.227,-39.551,-309.082
1630096423.571,9.277,-31.250,-33.691,105.957
1630096423.575,2.930,-25.391,-35.156,345.703
1630096423.579,-40.039,-24.414,-39.551,-93.750
1630096423.583,-32.715,-26.367,-44.434,-311.035
1630096423.587,-22.949,-25.879,-45.410,-46.875
1630096423.591,-22.461,-27.832,-39.551,339.355
1630096423.595,-44.922,-34.668,-37.109,5.859
1630096423.598,-51.270,-35.156,-41.504,-308.594
1630096423.602,-24.902,-34.668,-47.363,-181.152
1630096423.606,0.488,-33.691,-34.180,258.789
1630096423.610,-44.922,-32.715,-33.691,124.512
1630096423.614,-55.664,-32.715,-33.203,-279.785
1630096423.618,-33.203,-33.691,-32.227,-232.422
1630096423.622,-19.531,-31.738,-30.762,196.289
1630096423.626,-38.086,-31.738,-37.109,217.285
1630096423.630,-51.270,-38.086,-34.180,-234.863
1630096423.634,-40.527,-41.992,-37.109,-287.109
1630096423.638,-18.066,-30.273,-36.133,62.988
1630096423.642,-10.742,-16.602,-29.785,264.160
1630096423.645,-66.895,-34.668,-45.898,-147.949
1630096423.649,-66.895,-40.527,-53.223,-366.211
1630096423.653,-25.879,-30.762,-40.039,-87.402
1630096423.657,-36.133,-33.203,-26.855,298.340
1630096423.658,-54.199,-41.992,-34.180,-7.324
1630096423.662,-48.340,-42.969,-34.180,-323.730
1630096423.666,-32.715,-35.645,-26.367,-175.781
1630096423.670,-19.043,-32.715,-21.484,251.953
1630096423.674,-49.805,-41.992,-29.297,123.047
1630096423.678,-60.547,-41.992,-32.227,-287.598
1630096423.682,-43.945,-26.855,-29.785,-250.000
1630096423.686,-29.785,-35.645,-28.320,156.738
1630096423.689,-43.945,-45.898,-36.133,178.711
1630096423.693,-69.824,-47.852,-40.527,-271.484
1630096423.697,-47.852,-46.875,-38.574,-347.168
1630096423.701,-23.438,-39.062,-30.762,-37.109
1630096423.704,-21.484,-36.621,-32.715,255.371
1630096423.708,-37.109,-44.434,-36.133,-94.238
1630096423.712,-38.574,-46.387,-35.645,-358.398
1630096423.716,-24.902,-39.551,-23.438,-94.238
1630096423.720,-35.156,-42.480,-19.531,287.598
1630096423.724,-49.316,-29.785,-20.020,30.273
1630096423.728,-41.992,-7.812,-2.441,-285.645
1630096423.732,-18.066,-32.715,-24.414,-219.238
1630096423.735,7.324,-44.922,-32.715,207.520
1630096423.739,-52.246,-46.875,-33.691,135.742
1630096423.743,-69.824,-48.828,-37.598,-293.457
1630096423.747,-6.836,-39.551,-40.039,-279.297
1630096423.762,-5.859,-31.738,-33.203,113.770
1630096423.766,-25.879,-35.156,-24.414,277.832
1630096423.770,-58.105,-47.363,-31.250,-159.180
1630096423.774,-75.684,-50.781,-33.691,-342.285
1630096423.778,-30.273,-42.480,-20.020,-48.340
1630096423.782,-15.137,-23.438,-6.348,298.340
1630096423.786,-79.102,-34.668,-20.508,-76.172
1630096423.790,-62.988,-55.176,-37.109,-366.211
1630096423.793,-18.555,-45.898,-28.809,-158.203
1630096423.797,-25.391,-26.367,-16.602,251.465
1630096423.801,-69.824,-40.039,-41.016,21.973
1630096423.805,-75.195,-51.270,-46.875,-323.242
1630096423.807,-32.227,-44.922,-36.133,-223.145
1630096423.811,-25.391,-38.574,-29.785,186.523
1630096423.815,-62.988,-39.062,-37.598,158.691
1630096423.819,-75.195,-44.434,-39.062,-261.230
1630096423.823,-35.645,-36.621,-32.227,-276.855
1630096423.827,-5.371,-26.367,-25.391,95.703
1630096423.831,-26.367,-28.320,-36.133,254.395
1630096423.835,-60.059,-41.504,-39.551,-166.992
1630096423.838,-55.664,-25.391,-26.367,-298.340
1630096423.842,-7.812,-19.531,-17.578,5.371
1630096423.846,0.977,-36.621,-26.367,298.340
1630096423.850,-64.941,-35.645,-36.621,-43.457
1630096423.852,-71.777,-34.180,-32.715,-342.773
1630096423.856,-36.133,-39.551,-28.809,-188.477
1630096423.860,-11.719,-35.156,-33.203,258.301
1630096423.864,-45.898,-45.410,-41.504,84.473
1630096423.868,-55.664,-48.340,-31.250,-295.898
1630096423.872,-28.809,-34.180,-33.691,-224.609
1630096423.876,-17.090,-35.645,-39.551,162.598
1630096423.880,-44.922,-46.875,-37.109,170.898
1630096423.883,-47.363,-36.621,-24.414,-222.656
1630096423.887,-17.578,-31.738,-30.273,-286.621
1630096423.891,2.441,-39.551,-38.086,42.969
1630096423.895,-33.691,-45.410,-39.062,265.137
1630096423.900,-56.152,-45.898,-37.598,-125.000
1630096423.904,-26.855,-36.621,-33.691,-316.895
1630096423.908,-24.902,-37.109,-32.227,-73.730
1630096423.912,-25.879,-40.039,-30.762,303.223
1630096423.916,-47.852,-38.086,-39.551,19.043
1630096423.920,-60.059,-32.227,-37.109,-294.434
1630096423.924,-39.551,-34.668,-35.156,-192.383
1630096423.928,4.883,-23.438,-13.184,241.211
1630096423.931,-14.160,-18.066,0.977,172.852
1630096423.935,-44.922,-37.109,-29.297,-282.227
1630096423.939,-22.461,-32.715,-34.668,-289.062
1630096423.943,-8.789,-27.832,-18.066,146.484
1630096423.942,-31.250,-32.715,-26.855,230.469
1630096423.946,-53.711,-40.527,-35.156,-190.430
1630096423.950,-29.297,-41.992,-34.668,-289.062
1630096423.954,-2.441,-26.855,-23.438,48.340
1630096423.958,-9.277,-26.855,-26.855,293.945
1630096423.962,-44.922,-36.621,-39.062,-98.145
1630096423.966,-47.363,-36.621,-33.691,-304.199
1630096423.970,12.207,0.488,2.441,-72.266
1630096423.973,22.461,3.906,2.441,312.500
1630096423.977,-50.781,-35.156,-37.598,15.625
1630096423.981,-73.242,-38.086,-46.387,-344.238
1630096423.985,-51.758,-38.086,-42.969,-219.727
1630096423.989,-10.742,-36.133,-39.551,200.684
1630096423.993,-17.578,-40.039,-47.852,103.027
1630096423.997,-64.453,-43.457,-47.852,-271.973
1630096424.001,-54.688,-38.086,-44.922,-266.602
1630096424.005,-27.832,-33.203,-42.480,124.512
1630096424.009,-54.688,-36.133,-40.039,285.645
1630096424.013,-78.613,-35.645,-39.062,-186.523
1630096424.017,-55.176,-28.809,-33.203,-348.633
1630096424.020,-39.551,-36.621,-31.738,-28.320
1630096424.024,-32.715,-39.062,-31.738,275.391
1630096424.028,-69.824,-34.668,-29.785,-81.543
1630096424.032,-72.266,-30.762,-28.809,-347.656
1630096424.032,-25.879,-38.086,-28.320,-141.602
1630096424.036,-38.574,-43.457,-20.508,261.230
1630096424.040,-60.059,-38.574,-25.391,62.012
1630096424.044,-72.754,-34.668,-29.785,-297.852
1630096424.048,-69.824,-46.387,-29.297,-231.934
1630096424.052,-30.273,-34.668,-23.926,216.309
1630096424.056,-17.578,10.254,-11.719,192.871
1630096424.060,-63.477,-1.953,-14.160,-275.879
1630096424.063,-84.473,-41.504,-35.645,-322.266
1630096424.067,-39.551,-39.062,-35.645,67.383
1630096424.071,-36.133,-30.273,-41.992,231.445
1630096424.075,-64.941,-30.273,-47.363,-201.172
1630096424.083,-54.688,-42.480,-45.410,-351.562
1630096424.087,-50.293,-41.016,-39.062,-44.922
1630096424.091,-48.828,-37.109,-41.504,299.316
1630096424.095,-67.871,-42.969,-50.781,-34.180
1630096424.099,-56.641,-43.945,-52.246,-320.312
1630096424.103,-26.855,-34.180,-42.969,-151.367
1630096424.107,-14.648,-33.203,-33.203,270.996
1630096424.111,-57.129,-42.480,-51.270,98.633
1630096424.114,-61.523,-46.875,-55.176,-302.246
1630096424.118,-24.902,-28.320,-36.621,-232.422
1630096424.122,-15.625,-22.461,-31.250,224.609
1630096424.126,-44.922,-36.621,-50.781,208.008
1630096424.139,-58.594,-41.504,-49.805,-225.586
1630096424.143,-54.688,-38.574,-43.457,-260.254
1630096424.147,-31.738,-37.109,-44.434,102.051
1630096424.151,-29.297,-40.039,-46.387,273.438
1630096424.155,-55.176,-42.480,-49.316,-143.066
1630096424.159,-19.531,-12.695,-16.602,-278.809
1630096424.163,5.859,10.742,2.930,-14.648
1630096424.167,-4.883,-21.973,-29.297,293.457
1630096424.170,-24.414,-42.480,-43.945,-32.227
1630096424.174,-62.988,-44.434,-39.551,-330.078
1630096424.178,-48.340,-50.293,-41.992,-161.133
1630096424.182,-13.672,-45.898,-34.668,249.023
1630096424.183,-41.016,-47.363,-31.250,126.953
1630096424.187,-33.691,-52.246,-34.180,-242.676
1630096424.191,-28.809,-51.758,-42.480,-220.703
1630096424.195,-46.387,-57.617,-32.715,134.277
1630096424.199,-39.551,-52.246,-23.926,205.566
1630096424.203,-17.090,-43.457,-25.879,-164.551
1630096424.207,-26.367,-48.340,-35.645,-270.996
1630096424.211,-41.016,-52.246,-33.691,62.988
1630096424.214,-15.625,-30.273,-13.672,321.289
1630096424.218,-30.273,-23.438,-2.930,-65.430
1630096424.222,-63.477,-52.246,-30.273,-323.242
1630096424.226,-39.062,-50.293,-31.738,-96.680
1630096424.227,-7.324,-36.621,-23.926,279.297
1630096424.231,-47.363,-41.504,-29.297,1.953
1630096424.235,-62.500,-47.852,-33.691,-329.102
1630096424.239,-14.648,-39.551,-29.785,-197.266
1630096424.243,27.344,-19.531,0.977,273.438
1630096424.247,-10.742,-35.645,-19.043,179.688
1630096424.251,-62.500,-56.152,-49.805,-291.504
1630096424.255,-60.547,-47.363,-35.645,-312.988
1630096424.258,5.371,-12.695,0.000,151.855
1630096424.262,7.812,-18.555,-15.137,258.789
1630096424.266,-55.176,-45.410,-37.109,-233.887
1630096424.270,-44.434,-47.363,-30.273,-360.840
1630096424.273,-7.324,-46.875,-23.926,-19.531
1630096424.277,0.977,-41.016,-28.320,271.973
1630096424.281,-56.152,-43.945,-38.574,-78.125
1630096424.285,-79.102,-49.805,-36.133,-349.121
1630096424.289,-45.898,-44.434,-19.531,-117.676
1630096424.293,-21.484,-42.969,-13.184,323.242
1630096424.297,-65.430,-50.293,-35.156,39.062
1630096424.301,-54.199,-35.645,-19.043,-299.805
1630096424.304,-10.254,-22.949,-2.930,-203.613
1630096424.308,-28.320,-43.457,-28.809,184.570
1630096424.312,-36.133,-47.852,-37.598,154.297
1630096424.316,-24.414,-32.715,-16.602,-233.398
1630096424.317,-43.457,-41.992,-26.367,-270.508
1630096424.321,-43.457,-51.270,-36.621,79.590
1630096424.325,-33.203,-47.852,-35.645,252.441
1630096424.329,-53.711,-38.086,-28.809,-156.738
1630096424.333,-51.758,-43.457,-33.691,-338.867
1630096424.337,-17.090,-47.852,-43.457,-65.918
1630096424.341,-11.719,-39.551,-41.504,273.926
1630096424.345,2.930,-13.672,-7.324,-42.480
1630096424.348,-21.484,-26.367,-14.160,-339.355
1630096424.352,-55.176,-57.129,-42.969,-226.562
1630096424.356,-36.133,-50.781,-42.480,206.055
1630096424.360,-62.988,-47.363,-51.270,47.363
1630096424.367,-76.660,-47.852,-51.758,-352.539
1630096424.371,-56.641,-45.410,-47.852,-276.855
1630096424.375,-22.949,-41.504,-34.180,198.730
1630096424.379,-53.711,-41.016,-34.668,202.637
1630096424.383,-72.754,-50.293,-46.387,-300.781
1630096424.387,-64.453,-55.664,-48.828,-326.172
1630096424.391,-34.180,-39.062,-31.738,84.961
1630096424.395,-7.324,-24.902,-23.926,276.855
1630096424.398,-60.059,-49.805,-43.457,-164.062
1630096424.402,-51.758,-50.781,-40.039,-350.586
1630096424.406,-12.207,-41.504,-37.109,-69.336
1630096424.410,-17.578,-40.527,-47.363,276.855
1630096424.407,-56.641,-47.363,-52.734,-50.293
1630096424.411,-70.801,-48.828,-44.434,-333.984
1630096424.415,-37.598,-37.598,-45.898,-188.477
1630096424.419,-7.812,-39.062,-47.852,203.613
1630096424.423,-29.785,-41.016,-49.805,90.332
1630096424.427,-38.086,-38.574,-49.316,-322.266
1630096424.431,1.953,-9.277,-16.602,-250.488
1630096424.435,45.410,0.000,7.324,217.285
1630096424.438,-28.320,-39.062,-34.180,219.727
1630096424.442,-84.473,-46.387,-47.852,-270.020
1630096424.446,-55.176,-43.945,-46.875,-337.402
1630096424.450,-10.254,-41.504,-50.781,12.207
1630096424.455,-33.203,-46.387,-54.688,240.723
1630096424.459,-70.801,-44.434,-54.199,-132.812
1630096424.463,-47.363,-41.016,-49.805,-337.891
1630096424.467,-19.043,-43.457,-50.781,-121.094
1630096424.471,-26.855,-41.504,-46.875,269.531
1630096424.475,-37.109,-41.016,-48.340,16.113
1630096424.479,-42.480,-34.668,-46.387,-342.285
1630096424.483,-68.848,-40.039,-46.875,-246.582
1630096424.486,-24.414,-44.922,-45.898,210.449
1630096424.490,-33.203,-36.133,-32.715,156.738
1630096424.494,-56.152,-37.109,-31.738,-285.645
1630096424.498,-29.785,-41.016,-46.875,-313.965
1630096424.512,-12.695,-34.180,-37.598,114.258
1630096424.516,-37.598,-40.039,-42.969,243.652
1630096424.520,-65.918,-45.898,-51.270,-215.332
1630096424.524,-65.430,-49.805,-52.246,-331.543
1630096424.528,-30.762,-46.387,-46.875,-8.301
1630096424.532,-4.883,-27.344,-26.855,330.566
1630096424.536,-29.297,-37.109,-41.016,-39.551
1630096424.540,-38.574,-52.246,-52.246,-348.633
1630096424.543,-35.156,-35.645,-41.504,-138.184
1630096424.547,-42.969,-30.762,-41.992,285.156
1630096424.551,-70.312,-44.434,-48.828,45.898
1630096424.555,-58.594,-41.992,-50.781,-306.641
1630096424.557,-20.508,-36.621,-44.922,-199.219
1630096424.561,-6.348,-30.273,-33.203,246.582
1630096424.565,-32.227,-30.762,-41.992,187.500
1630096424.569,-46.387,-34.180,-42.480,-244.629
1630096424.573,-45.898,-32.715,-37.598,-254.395
1630096424.577,-11.719,-35.645,-33.691,129.395
1630096424.581,-6.348,-39.062,-38.086,272.461
1630096424.585,-34.668,-42.969,-48.340,-169.922
1630096424.588,-16.113,-33.203,-43.457,-312.988
1630096424.592,-34.180,-22.461,-24.902,-17.090
1630096424.596,-28.809,-32.715,-30.273,277.832
1630096424.600,-46.387,-40.527,-41.016,-58.594
1630096424.604,-56.152,-39.062,-35.645,-330.566
1630096424.608,-32.715,-33.691,-33.203,-149.414
1630096424.612,-22.949,-33.203,-40.039,272.949
1630096424.616,-24.902,-37.109,-48.828,104.004
1630096424.620,-25.879,-17.578,-14.648,-230.469
1630096424.624,-15.625,-18.066,-12.207,-166.016
1630096424.628,-14.160,-43.945,-35.156,222.168
1630096424.632,-25.391,-37.598,-31.250,179.688
1630096424.635,-7.812,-6.836,-9.277,-215.332
1630096424.639,-40.527,-20.996,-28.809,-284.180
1630096424.643,-29.297,-36.621,-37.598,52.246
1630096424.647,-12.207,-35.156,-34.180,276.367
1630096424.647,-46.875,-40.039,-38.086,-118.164
1630096424.651,-70.312,-43.457,-41.992,-324.707
1630096424.655,-35.156,-43.945,-40.039,-77.637
1630096424.659,-12.207,-39.062,-35.156,298.828
1630096424.663,-49.805,-36.133,-36.621,-5.371
1630096424.667,-45.410,-39.062,-29.785,-284.180
1630096424.671,-23.438,-44.434,-33.691,-165.527
1630096424.675,-3.906,-32.715,-22.461,233.398
1630096424.678,-32.227,-24.902,-17.578,131.836
1630096424.682,-90.820,-35.645,-40.039,-284.180
1630096424.686,-52.246,-34.180,-42.480,-262.695
1630096424.690,-6.348,-24.902,-29.297,172.363
1630096424.692,-37.598,-32.227,-41.504,191.406
1630096424.696,-64.941,-37.109,-45.410,-245.117
1630096424.700,-50.781,-34.668,-37.598,-266.602
1630096424.704,-4.395,-24.414,-26.855,102.051
1630096424.708,-6.348,-30.273,-34.180,264.160
1630096424.712,-45.410,-37.109,-43.945,-119.629
1630096424.716,-59.082,-32.715,-42.480,-313.477
1630096424.720,-24.414,-20.996,-19.531,-79.590
1630096424.723,7.324,-23.926,-21.973,325.195
1630096424.727,-48.828,-36.133,-40.527,7.812
1630096424.731,-69.824,-34.180,-36.621,-362.793
1630096424.735,-28.809,-29.297,-34.180,-199.707
1630096424.739,-17.090,-35.645,-33.691,243.652
1630096424.743,-38.574,-45.898,-41.504,129.395
1630096424.747,-57.617,-44.922,-44.434,-254.395
1630096424.751,-33.203,-43.945,-38.574,-240.723
1630096424.755,11.230,-38.086,-30.273,157.715
1630096424.759,-41.016,-33.691,-37.598,242.676
1630096424.763,-63.477,-31.738,-35.156,-175.781
1630096424.767,-40.039,-32.715,-30.273,-284.668
1630096424.770,-15.137,-36.621,-27.344,-0.977
1630096424.774,-13.184,-38.574,-32.715,258.789
1630096424.778,-52.246,-40.039,-47.363,-73.242
1630096424.782,-36.133,-38.086,-44.922,-301.758
1630096424.783,5.859,-37.598,-37.598,-131.348
1630096424.787,-24.414,-32.715,-29.785,279.297
1630096424.791,-47.852,-27.344,-28.320,63.477
1630096424.795,-40.527,-32.715,-34.180,-298.828
1630096424.799,-24.414,-31.250,-34.668,-233.398
1630096424.803,1.465,-25.391,-28.320,226.074
1630096424.807,-12.207,-19.043,-28.320,202.148
1630096424.811,-50.293,-21.973,-31.250,-253.418
1630096424.814,-50.781,-33.691,-43.945,-289.551
1630096424.818,-7.812,-31.738,-46.875,97.656
1630096424.822,-9.277,-25.879,-46.875,240.234
1630096424.826,-37.598,-23.438,-47.363,-197.754
1630096424.831,-39.551,-26.855,-49.805,-338.379
1630096424.835,-9.277,-28.320,-36.621,-9.766
1630096424.839,-10.254,-28.320,-34.180,301.270
1630096424.843,-67.383,-41.016,-45.898,-66.895
1630096424.847,-68.848,-50.293,-44.922,-351.074
1630096424.851,-31.250,-34.668,-31.250,-133.301
1630096424.855,-8.301,-20.020,-25.879,314.941
1630096424.859,-32.715,-28.809,-40.527,74.707
1630096424.862,-45.410,-32.227,-45.410,-320.312
1630096424.866,-37.109,-33.203,-46.875,-238.770
1630096424.870,-19.531,-34.180,-37.109,215.332
1630096424.874,-18.066,-38.574,-38.574,181.152
1630096424.887,-47.363,-42.480,-43.457,-256.836
1630096424.891,-68.359,-36.133,-38.086,-279.785
1630096424.895,-46.387,-37.598,-29.297,100.586
1630096424.899,-35.156,-41.016,-38.086,285.645
1630096424.903,-62.012,-41.016,-46.387,-168.457
1630096424.907,-36.621,-24.902,-24.414,-305.664
1630096424.911,-2.441,-22.461,-13.184,9.277
1630096424.915,-38.086,-41.992,-31.738,291.016
1630096424.918,-68.848,-44.922,-41.992,-50.781
1630096424.922,-51.270,-49.316,-47.363,-326.660
1630096424.926,-25.879,-52.246,-47.363,-179.199
1630096424.930,-19.531,-42.480,-40.039,237.793
1630096424.932,-56.641,-41.992,-41.016,95.703
