timestamps,TP9,AF7,AF8,TP10
1630087894.079,419.922,-53.223,-37.598,14.160
1630087894.083,-897.461,-40.039,-21.484,248.535
1630087894.087,-272.461,-65.918,12.207,13.672
1630087894.091,-1000.000,-73.730,8.789,-256.348
1630087894.095,-342.285,-39.551,-5.859,-141.113
1630087894.099,-990.234,-24.902,-4.883,218.262
1630087894.103,373.047,-35.645,-21.484,118.164
1630087894.106,-1000.000,-50.781,-3.418,-251.953
1630087894.110,-823.242,-48.828,23.926,-232.910
1630087894.114,778.809,-28.320,-11.230,119.629
1630087894.118,913.574,-37.109,-25.879,163.086
1630087894.122,-782.715,-57.617,-7.812,-187.988
1630087894.138,-1000.000,-52.246,-5.371,-298.340
1630087894.142,620.605,-34.668,-29.297,49.805
1630087894.146,-929.688,-36.133,-17.578,267.090
1630087894.150,-530.762,-45.410,-23.438,-40.039
1630087894.154,-1000.000,-51.270,-30.273,-291.504
1630087894.158,326.172,-40.039,-9.277,-78.613
1630087894.162,-895.508,-41.992,-24.902,209.473
1630087894.165,-199.707,-48.340,-13.672,4.883
1630087894.169,-1000.000,-28.320,-5.859,-289.551
1630087894.173,-426.270,-32.715,-33.691,-184.082
1630087894.177,973.633,-41.504,-31.250,121.094
1630087894.181,480.469,-41.016,-11.719,47.363
1630087894.181,-1000.000,-32.227,-29.297,-237.305
1630087894.185,-859.375,-36.133,-31.250,-244.629
1630087894.189,764.160,-31.738,-39.551,84.473
1630087894.193,945.801,-35.156,-30.273,186.523
1630087894.197,-745.605,-55.664,-20.508,-138.184
1630087894.201,-1000.000,-50.781,-35.156,-287.109
1630087894.205,596.191,-37.109,-36.621,-3.418
1630087894.208,-955.566,-40.039,-36.621,207.520
1630087894.212,-549.316,-29.785,-38.086,-62.012
1630087894.216,-1000.000,-28.320,-33.203,-274.414
1630087894.220,130.371,-38.086,-46.875,-85.938
1630087894.224,-894.531,-45.410,-52.246,207.031
1630087894.226,0.488,-59.570,-33.203,18.066
1630087894.230,-1000.000,-69.824,-26.855,-325.195
1630087894.234,-596.680,-35.645,-61.035,-211.426
1630087894.238,896.484,-15.137,-53.711,166.016
1630087894.242,767.578,-40.527,-24.902,149.414
1630087894.246,-875.000,-52.734,-21.973,-218.262
1630087894.250,-967.773,-51.270,-41.016,-285.645
1630087894.253,709.473,-39.062,-49.805,59.082
1630087894.257,-986.816,-31.250,-18.066,214.355
1630087894.261,-648.926,-45.410,-21.484,-96.191
1630087894.265,-1000.000,-49.316,-42.480,-293.945
1630087894.269,454.590,-44.434,-36.133,-57.129
1630087894.272,-893.555,-34.180,-34.180,217.285
1630087894.276,-306.152,-30.273,-49.805,15.137
1630087894.280,-1000.000,-29.785,-44.922,-286.133
1630087894.284,-185.059,-33.203,-33.203,-134.766
1630087894.288,-936.523,-32.715,-36.133,178.711
1630087894.292,286.133,-33.691,-32.715,53.711
1630087894.296,-1000.000,-38.086,-40.039,-232.910
1630087894.299,-716.309,-33.203,-38.574,-177.246
1630087894.303,855.957,-34.180,-36.621,136.719
1630087894.307,819.824,-50.781,-30.762,116.699
1630087894.311,-847.168,-72.266,-49.805,-199.219
1630087894.315,-995.605,-46.875,-59.570,-256.836
1630087894.317,678.223,-32.227,-39.551,40.527
1630087894.321,-972.656,-41.992,-40.039,188.477
1630087894.325,-589.355,-52.734,-51.758,-89.355
1630087894.329,-1000.000,-39.062,-48.828,-291.992
1630087894.333,259.766,-27.832,-44.922,-94.727
1630087894.337,-885.742,-32.715,-38.086,187.988
1630087894.341,-110.352,-27.832,-23.926,-4.883
1630087894.344,-1000.000,-27.832,-18.555,-298.828
1630087894.348,-447.754,-37.598,-47.852,-187.988
1630087894.352,969.238,-36.133,-48.340,150.391
1630087894.356,458.496,-25.879,-40.527,85.938
1630087894.360,-1000.000,-31.738,-52.246,-233.398
1630087894.365,-836.426,-40.527,-59.082,-233.398
1630087894.369,772.949,-38.086,-32.227,90.820
1630087894.373,954.102,-31.738,-28.809,183.105
1630087894.377,-742.188,-39.551,-44.922,-148.926
1630087894.381,-1000.000,-32.715,-33.691,-289.062
1630087894.385,646.484,-18.066,-49.316,54.688
1630087894.389,-990.723,-29.785,-69.336,247.070
1630087894.392,-606.445,-27.344,-46.387,-105.957
1630087894.396,-1000.000,-22.461,-20.508,-337.402
1630087894.400,136.230,-10.254,-45.410,-114.746
1630087894.404,-901.855,-18.555,-32.227,181.152
1630087894.408,-57.129,-26.367,-11.230,7.324
1630087894.406,-1000.000,-24.902,-38.086,-287.109
1630087894.410,-438.965,-30.273,-25.879,-201.660
1630087894.414,978.516,-28.809,-40.039,152.832
1630087894.418,724.121,-34.668,-40.039,139.648
1630087894.422,-884.766,-31.738,-20.020,-208.984
1630087894.426,-936.035,-32.227,-11.230,-283.691
1630087894.430,758.301,-18.555,-0.488,90.820
1630087894.433,945.801,-20.996,-31.738,226.074
1630087894.437,-733.398,-60.547,-46.387,-127.930
1630087894.441,-1000.000,-62.500,-25.879,-308.105
1630087894.445,515.625,-11.719,-22.949,-26.367
1630087894.449,-935.547,-11.719,-18.066,203.613
1630087894.453,-477.539,-32.227,-34.668,-55.176
1630087894.457,-1000.000,-16.113,-28.320,-332.031
1630087894.461,-52.246,-20.508,-21.973,-152.832
1630087894.465,-913.086,-27.344,-36.133,175.781
1630087894.469,213.379,-46.875,-20.508,18.066
1630087894.473,-1000.000,-62.988,-32.227,-300.781
1630087894.477,-658.203,-46.875,-72.754,-225.586
1630087894.480,883.301,-28.320,-92.773,120.117
1630087894.484,799.316,-23.926,-80.566,118.164
1630087894.488,-854.004,-48.340,-96.680,-264.648
1630087894.492,-1000.000,-45.898,-72.754,-365.234
1630087894.496,679.199,2.930,-51.758,7.324
1630087894.511,-990.234,21.973,-53.711,178.223
1630087894.515,-675.781,-12.207,-45.898,-141.113
1630087894.519,-1000.000,-30.762,-62.012,-322.754
1630087894.523,479.492,-12.207,-77.637,-57.617
1630087894.527,-875.000,-20.996,-72.266,209.473
1630087894.531,-182.129,-12.695,-43.945,14.160
1630087894.535,-1000.000,-7.324,-29.297,-274.902
1630087894.538,-331.543,-3.418,-41.992,-173.828
1630087894.542,-986.328,2.441,-65.430,148.438
1630087894.546,341.309,-14.648,-62.012,53.711
1630087894.550,-1000.000,-20.508,-38.574,-256.348
1630087894.554,-805.176,-18.555,-52.734,-217.773
1630087894.557,788.086,-34.180,-54.199,109.375
1630087894.561,923.340,-33.203,-56.641,154.297
1630087894.565,-785.156,-31.738,-45.898,-158.203
1630087894.569,-1000.000,-27.832,-21.973,-266.602
1630087894.573,697.266,-9.277,-43.945,33.203
1630087894.577,-985.352,-11.719,-48.828,190.430
1630087894.581,-594.727,-33.691,-32.715,-104.004
1630087894.584,-1000.000,-26.855,-50.781,-302.246
1630087894.588,214.844,-34.180,-64.453,-103.027
1630087894.592,-912.598,-38.086,-54.199,168.457
1630087894.596,-174.805,-26.855,-30.762,-21.973
1630087894.600,-1000.000,-21.973,-36.133,-301.270
1630087894.602,-460.938,-24.902,-58.105,-166.992
1630087894.606,962.402,-21.484,-68.359,193.359
1630087894.610,612.793,-7.324,-43.945,136.719
1630087894.614,-961.914,-28.809,-5.859,-211.914
1630087894.618,-871.582,-55.664,-30.273,-241.211
1630087894.622,786.621,-39.551,-56.641,125.488
1630087894.626,928.223,-28.809,-50.293,193.848
1630087894.629,-751.953,-40.527,-66.406,-155.273
1630087894.633,-1000.000,-41.992,-54.199,-274.902
1630087894.637,547.852,-26.367,-51.270,-32.715
1630087894.641,-921.875,-32.227,-31.738,155.273
1630087894.645,-469.238,-57.617,-11.719,-72.266
1630087894.649,-1000.000,-39.551,-28.320,-312.500
1630087894.653,109.375,-18.066,-57.129,-119.629
1630087894.657,-895.996,-29.785,-48.828,185.547
1630087894.661,-2.441,-28.809,-32.715,1.953
1630087894.665,-1000.000,-33.203,-45.410,-263.672
1630087894.669,-473.145,-42.969,-43.457,-182.129
1630087894.673,979.492,-35.156,-48.340,151.855
1630087894.676,571.777,-74.707,-73.242,82.520
1630087894.680,-989.746,-70.801,-71.289,-281.738
1630087894.684,-907.715,-23.438,-45.898,-282.227
1630087894.688,737.305,-15.137,-42.480,59.570
1630087894.692,972.656,-22.949,-38.574,187.988
1630087894.693,-695.312,-31.738,-34.180,-131.348
1630087894.697,-1000.000,-40.527,-41.016,-306.641
1630087894.701,468.262,-49.805,-61.035,-32.227
1630087894.705,-916.016,-39.062,-46.875,214.844
1630087894.709,-410.156,-40.039,-27.344,-74.219
1630087894.713,-1000.000,-50.293,-35.645,-344.727
1630087894.717,-106.445,-39.062,-41.992,-160.645
1630087894.720,-924.316,0.977,-44.434,187.012
1630087894.724,407.227,-0.488,-54.199,85.938
1630087894.728,-1000.000,-45.898,-66.895,-299.805
1630087894.732,-887.695,-66.895,-72.266,-318.359
1630087894.736,760.254,-36.621,-68.848,90.332
1630087894.738,855.469,-20.020,-39.551,152.832
1630087894.742,-853.027,-39.062,-31.738,-240.234
1630087894.746,-1000.000,-39.062,-75.684,-315.918
1630087894.750,681.152,-29.785,-68.848,23.926
1630087894.754,-981.445,-52.246,-31.738,190.430
1630087894.758,-619.141,-61.035,-27.344,-104.492
1630087894.762,-1000.000,-40.039,-26.855,-327.637
1630087894.765,330.078,-23.438,-36.621,-109.375
1630087894.769,-891.602,-27.832,-40.039,172.363
1630087894.773,-226.074,-36.133,-33.203,-20.508
1630087894.777,-1000.000,-30.762,-43.945,-298.340
1630087894.781,-269.043,-32.715,-53.711,-198.730
1630087894.785,-964.355,-34.180,-43.457,118.164
1630087894.789,527.832,-53.711,-43.457,75.195
1630087894.793,-982.910,-52.734,-50.293,-256.348
1630087894.797,-838.379,-33.203,-37.109,-270.996
1630087894.801,793.945,-37.109,-41.016,62.500
1630087894.805,946.289,-31.738,-40.039,148.926
1630087894.809,-729.004,-41.992,-39.062,-182.617
1630087894.812,-1000.000,-56.641,-50.293,-330.566
1630087894.816,582.031,-59.570,-64.453,-13.672
1630087894.820,-958.984,-41.504,-42.969,191.895
1630087894.824,-594.238,-39.062,-11.719,-112.793
1630087894.828,-1000.000,-44.434,-26.367,-290.039
1630087894.828,275.391,-26.855,-44.434,-69.824
1630087894.832,-867.676,-11.719,-33.203,199.707
1630087894.836,28.809,-24.902,-9.766,17.090
1630087894.840,-1000.000,-44.434,-28.320,-302.734
1630087894.844,-556.152,-33.203,-43.457,-201.172
1630087894.848,939.453,-42.480,-47.363,134.277
1630087894.852,514.648,-60.547,-63.477,85.938
1630087894.855,-1000.000,-63.477,-35.156,-227.051
1630087894.859,-899.414,-54.199,-34.180,-253.418
1630087894.863,738.770,-25.391,-42.480,85.449
1630087894.867,945.801,-20.996,-24.414,144.043
1630087894.871,-757.324,-31.250,-27.832,-209.961
1630087894.886,-1000.000,-25.391,-38.574,-298.828
1630087894.890,578.125,-16.602,-47.363,-1.953
1630087894.894,-916.504,-27.344,-41.992,189.941
1630087894.898,-480.469,-39.062,-27.344,-73.242
1630087894.902,-1000.000,-29.297,-42.480,-300.293
1630087894.906,204.590,-19.043,-41.504,-112.305
1630087894.910,-870.117,-18.066,-18.555,190.430
1630087894.913,87.402,-28.809,-30.273,47.363
1630087894.917,-1000.000,-43.945,-56.152,-279.297
1630087894.921,-709.473,-56.152,-68.359,-244.629
1630087894.925,849.609,-39.062,-47.363,100.586
1630087894.929,733.398,-26.855,-28.320,87.891
1630087894.931,-911.621,-46.875,-31.250,-233.398
1630087894.935,-964.844,-44.434,-34.668,-275.391
1630087894.939,698.242,-21.484,-32.227,20.508
1630087894.943,-989.258,0.977,-35.156,183.105
1630087894.947,-661.133,-12.207,-41.504,-125.977
1630087894.951,-1000.000,-29.297,-34.668,-309.082
1630087894.955,462.891,-26.367,-34.180,-51.270
1630087894.958,-874.512,-32.715,-29.297,205.078
1630087894.962,-214.844,-62.012,-45.898,-27.832
1630087894.966,-1000.000,-61.523,-50.781,-315.918
1630087894.970,-253.906,-36.133,-32.715,-164.062
1630087894.974,-954.590,-31.738,-35.156,176.758
1630087894.976,346.680,-41.016,-29.297,76.172
1630087894.980,-1000.000,-55.176,-33.203,-231.934
1630087894.984,-797.363,-44.434,-38.086,-214.844
1630087894.988,801.758,-45.898,-36.621,125.488
1630087894.992,894.043,-62.500,-46.875,161.621
1630087894.996,-791.016,-61.523,-33.203,-172.363
1630087895.000,-1000.000,-53.711,-23.926,-282.227
1630087895.003,638.184,-42.969,-49.805,-0.977
1630087895.007,-973.633,-58.105,-66.406,151.367
1630087895.011,-621.582,-46.875,-30.273,-116.211
1630087895.015,-1000.000,-35.645,-12.695,-312.500
1630087895.019,331.543,-32.227,-43.457,-92.773
1630087895.022,-862.305,-34.180,-48.828,205.078
1630087895.026,-29.785,-30.273,-32.715,31.250
1630087895.030,-1000.000,-40.039,-26.367,-282.227
1630087895.034,-431.641,-49.805,-24.902,-198.242
1630087895.038,989.746,-27.344,-43.945,177.246
1630087895.042,647.461,-13.672,-37.109,127.441
1630087895.046,-919.434,-28.809,-31.250,-233.887
1630087895.049,-960.938,-69.336,-61.035,-301.758
1630087895.053,718.262,-53.711,-75.195,43.457
1630087895.057,953.125,-20.020,-40.527,160.156
1630087895.061,-744.141,-29.297,-20.508,-178.711
1630087895.065,-1000.000,-44.434,-24.902,-322.266
1630087895.066,541.504,-38.574,-39.062,-20.508
1630087895.070,-931.152,-21.973,-38.086,204.590
1630087895.074,-469.727,-29.785,-22.949,-53.711
1630087895.078,-1000.000,-55.664,-30.762,-299.805
1630087895.082,7.812,-37.109,-46.875,-129.395
1630087895.086,-914.062,-24.414,-26.367,176.758
1630087895.090,47.363,-46.387,-19.531,22.461
1630087895.093,-1000.000,-45.898,-41.992,-296.875
1630087895.097,-493.164,-25.391,-42.480,-225.586
1630087895.101,958.984,-24.902,-47.852,143.066
1630087895.105,651.855,-49.805,-34.668,130.859
1630087895.109,-927.246,-51.758,-16.602,-231.445
1630087895.113,-961.914,-36.621,-34.668,-304.688
1630087895.117,704.590,-29.785,-51.758,25.391
1630087895.121,985.352,-20.996,-16.602,155.762
1630087895.125,-705.566,-40.039,-6.348,-179.688
1630087895.129,-1000.000,-58.105,-20.020,-359.375
1630087895.133,531.250,-51.758,-23.926,-43.457
1630087895.137,-937.500,-56.641,-33.203,193.848
1630087895.140,-453.613,-62.500,-44.434,-100.586
1630087895.144,-1000.000,-55.176,-28.809,-378.418
1630087895.148,-172.852,-61.523,-16.113,-213.379
1630087895.152,-955.566,-47.852,-32.715,166.992
1630087895.156,223.145,-41.504,-28.809,48.828
1630087895.157,-1000.000,-48.340,-21.973,-291.992
1630087895.161,-753.418,-41.992,-34.668,-255.371
1630087895.165,814.941,-36.621,-39.062,112.793
1630087895.169,860.352,-39.551,-20.996,143.555
1630087895.173,-826.660,-45.410,-24.902,-220.703
1630087895.177,-1000.000,-51.270,-56.152,-301.758
1630087895.181,687.988,-84.961,-59.570,-1.465
1630087895.184,996.582,-67.383,-29.785,144.043
1630087895.188,-667.969,-37.109,-11.230,-123.535
1630087895.192,-1000.000,-52.246,-24.414,-291.992
1630087895.196,404.785,-61.523,-26.855,-82.520
1630087895.200,-906.738,-44.922,-21.973,169.434
1630087895.203,-302.734,-39.062,-21.973,-26.855
1630087895.207,-1000.000,-56.152,-17.090,-290.527
1630087895.211,-316.895,-54.199,-27.832,-170.410
1630087895.215,-978.516,-33.203,-41.992,170.410
1630087895.219,494.141,-22.461,-26.855,97.168
1630087895.223,-1000.000,-25.879,-23.926,-245.117
1630087895.227,-875.000,-37.109,-44.922,-260.254
1630087895.230,766.113,-30.762,-48.340,86.426
1630087895.234,912.109,-28.809,-32.715,148.926
1630087895.238,-800.781,-55.664,-28.809,-228.027
1630087895.242,-1000.000,-46.387,-20.020,-319.824
1630087895.246,685.059,-38.086,-36.133,67.383
1630087895.261,-979.980,-62.012,-42.969,239.746
1630087895.265,-621.582,-70.312,-26.367,-104.980
1630087895.269,-1000.000,-60.059,-15.625,-319.824
1630087895.273,329.102,-36.133,-30.273,-71.289
1630087895.277,-877.441,-20.020,-36.133,241.699
1630087895.281,-45.898,-23.438,-25.879,39.551
1630087895.285,-1000.000,-36.133,-33.691,-278.320
1630087895.288,-611.816,-37.109,-38.086,-223.145
1630087895.292,899.902,-41.504,-34.668,126.465
1630087895.296,580.566,-51.270,-19.531,96.680
1630087895.300,-1000.000,-38.574,-18.555,-222.168
1630087895.304,-898.926,-42.969,-31.250,-246.582
1630087895.306,742.676,-45.410,-29.297,76.660
1630087895.310,968.262,-20.508,-16.602,187.500
1630087895.314,-721.680,-19.043,-27.344,-135.254
1630087895.318,-1000.000,-41.016,-39.551,-286.621
1630087895.322,560.059,-37.598,-45.898,-12.695
1630087895.326,-932.617,-23.438,-51.758,219.727
1630087895.330,-512.695,-45.410,-35.156,-41.504
1630087895.333,-1000.000,-58.594,-32.227,-284.668
1630087895.337,169.434,-33.691,-33.691,-89.355
1630087895.341,-885.254,-37.109,-33.691,214.355
1630087895.345,-6.348,-52.734,-38.086,41.016
1630087895.349,-1000.000,-55.176,-31.250,-270.508
1630087895.351,-554.688,-51.270,-36.133,-183.594
1630087895.355,920.410,-43.945,-39.062,179.688
1630087895.359,737.305,-39.062,-34.668,167.969
1630087895.363,-878.906,-51.758,-30.273,-196.289
1630087895.367,-869.629,-73.242,-56.641,-236.816
1630087895.371,739.746,-65.918,-63.477,112.305
1630087895.375,988.281,-50.781,-43.457,245.117
1630087895.378,-630.859,-38.086,-40.527,-79.102
1630087895.382,-1000.000,-47.363,-52.246,-288.086
1630087895.386,362.305,-51.758,-40.527,-58.105
1630087895.390,-900.391,-37.598,-29.785,208.496
1630087895.394,-311.523,-34.668,-41.504,2.930
1630087895.397,-1000.000,-40.039,-50.293,-269.043
1630087895.401,-147.949,-41.504,-51.270,-128.418
1630087895.405,-932.129,-30.273,-48.340,187.988
1630087895.409,273.926,-16.113,-45.898,74.707
1630087895.413,-1000.000,-35.156,-31.250,-233.887
1630087895.417,-676.758,-48.828,-30.762,-179.199
1630087895.421,873.535,-32.715,-59.082,166.016
1630087895.424,840.820,-20.996,-31.250,155.273
1630087895.428,-818.848,-36.621,-11.230,-207.031
1630087895.432,-1000.000,-49.805,-34.668,-275.391
1630087895.436,680.176,-26.855,-54.688,72.754
1630087895.440,-987.305,-20.020,-38.574,214.355
1630087895.441,-621.094,-39.062,-32.715,-114.258
1630087895.445,-1000.000,-39.551,-59.570,-323.242
1630087895.449,295.410,-26.855,-61.523,-107.422
1630087895.453,-903.320,-8.301,-62.500,190.430
1630087895.457,-245.605,-16.602,-64.453,-25.391
1630087895.461,-1000.000,-35.156,-63.477,-305.664
1630087895.465,-320.312,-25.879,-76.172,-183.105
1630087895.468,-987.793,-20.020,-88.867,143.555
1630087895.472,460.938,-9.766,-70.801,52.734
1630087895.476,-1000.000,-4.395,-54.688,-313.965
1630087895.480,-886.230,-14.160,-66.895,-323.242
1630087895.484,749.512,-10.742,-78.613,76.172
1630087895.489,940.430,-8.301,-76.172,165.527
1630087895.493,-756.348,-20.508,-66.406,-189.941
1630087895.497,-1000.000,-32.715,-62.012,-325.684
1630087895.501,588.867,-33.203,-69.336,-18.555
1630087895.505,-965.332,-32.227,-74.707,175.781
1630087895.509,-534.668,-31.250,-64.453,-104.492
1630087895.513,-1000.000,-42.969,-62.012,-327.148
1630087895.516,-23.926,-46.875,-78.613,-150.391
1630087895.520,-925.781,-27.344,-70.801,187.500
1630087895.524,62.988,-26.367,-51.270,23.438
1630087895.528,-1000.000,-26.367,-68.359,-303.223
1630087895.532,-498.535,-17.090,-66.406,-222.168
1630087895.531,962.891,-15.137,-50.781,148.438
1630087895.535,662.598,-17.090,-45.898,108.398
1630087895.539,-936.523,-24.902,-46.875,-237.793
1630087895.543,-916.016,-25.391,-44.922,-256.836
1630087895.547,747.070,-31.250,-49.805,76.172
1630087895.551,979.004,-32.227,-50.293,182.617
1630087895.555,-688.477,-19.043,-34.668,-133.789
1630087895.558,-1000.000,-29.785,-40.527,-317.871
1630087895.562,500.000,-49.316,-52.246,-43.457
1630087895.566,-928.711,-34.668,-41.016,224.609
1630087895.570,-467.773,-34.668,-31.738,-46.875
1630087895.574,-1000.000,-45.410,-44.922,-322.754
1630087895.578,-24.902,-28.320,-55.664,-159.180
1630087895.582,-912.598,-18.066,-46.387,180.176
1630087895.586,189.453,-38.574,-39.551,52.734
1630087895.590,-1000.000,-42.480,-47.852,-275.879
1630087895.594,-668.945,-28.809,-44.922,-229.492
1630087895.598,872.559,-18.066,-36.133,146.973
1630087895.602,770.508,-20.020,-47.852,160.645
1630087895.605,-869.629,-42.969,-40.039,-225.098
1630087895.609,-991.211,-62.012,-28.809,-310.547
1630087895.613,690.918,-45.410,-49.316,23.438
1630087895.617,990.723,-28.320,-39.062,173.340
1630087895.621,-662.109,-30.762,-25.879,-143.066
1630087895.636,-1000.000,-41.992,-46.387,-333.984
1630087895.640,292.480,-50.293,-49.316,-91.797
1630087895.644,972.656,-27.344,-33.691,162.109
1630087895.648,-269.043,-13.672,-40.527,-21.973
1630087895.652,-1000.000,-28.809,-53.223,-293.945
1630087895.656,-182.129,-30.762,-62.500,-160.156
1630087895.660,-923.828,-33.203,-60.059,178.223
1630087895.663,335.449,-40.039,-39.551,59.570
1630087895.667,-1000.000,-45.410,-39.062,-271.484
1630087895.671,-839.844,-52.246,-63.477,-250.488
1630087895.675,768.066,-25.879,-49.316,111.328
1630087895.679,914.551,-19.043,-17.578,170.410
1630087895.681,-784.668,-44.434,-23.438,-182.617
1630087895.685,-1000.000,-40.039,-38.574,-284.668
1630087895.689,638.184,-26.367,-41.504,22.461
1630087895.693,-966.309,-37.109,-21.973,194.336
1630087895.697,-602.051,-45.410,-42.480,-100.098
1630087895.701,-1000.000,-46.875,-63.477,-296.387
1630087895.705,390.137,-29.297,-53.711,-76.660
1630087895.708,-896.973,-15.137,-56.152,204.590
1630087895.712,-171.875,-36.133,-49.805,-16.602
1630087895.716,-1000.000,-37.598,-34.668,-330.566
1630087895.720,-421.387,-28.320,-42.969,-201.172
1630087895.724,984.863,-35.645,-46.387,159.180
1630087895.726,522.461,-41.016,-45.410,88.867
1630087895.730,-998.535,-35.645,-46.387,-250.000
1630087895.734,-906.738,-32.715,-34.668,-264.160
1630087895.738,745.117,-27.344,-38.086,96.191
1630087895.742,923.340,-44.922,-58.105,158.691
1630087895.746,-752.441,-50.293,-43.945,-188.477
1630087895.750,-1000.000,-47.852,-30.762,-322.754
1630087895.753,480.957,-44.434,-51.270,-47.363
1630087895.757,-913.086,-37.109,-56.641,186.035
1630087895.761,-421.387,-28.809,-37.598,-62.500
1630087895.765,-1000.000,-34.668,-36.133,-316.895
1630087895.769,-4.883,-33.691,-44.922,-144.043
1630087895.772,-911.621,-26.855,-52.246,178.711
1630087895.776,106.445,-34.668,-41.504,37.598
1630087895.780,-1000.000,-37.598,-35.156,-278.320
1630087895.784,-693.359,-53.711,-54.199,-232.910
1630087895.788,838.867,-43.945,-44.922,120.117
1630087895.792,826.660,-27.832,-15.137,124.023
1630087895.796,-839.844,-47.363,-25.391,-227.051
1630087895.799,-1000.000,-69.336,-67.871,-305.664
1630087895.803,679.688,-56.641,-66.406,46.387
1630087895.807,996.094,-23.438,-30.273,199.707
1630087895.811,-678.711,-36.133,-31.738,-132.324
1630087895.815,-1000.000,-47.852,-42.480,-302.246
1630087895.817,457.031,-41.504,-30.762,-39.551
1630087895.821,-933.105,-28.320,-31.250,205.566
1630087895.825,-440.918,-19.531,-43.945,-44.922
1630087895.829,-1000.000,-25.391,-51.270,-292.969
1630087895.833,-175.293,-26.367,-58.594,-142.578
1630087895.837,-949.707,-22.949,-47.363,174.316
1630087895.841,321.289,-34.180,-40.039,66.406
1630087895.844,-1000.000,-67.871,-68.848,-281.250
1630087895.848,-783.691,-65.430,-69.336,-254.395
1630087895.852,821.777,-49.805,-45.898,126.465
1630087895.856,820.801,-47.363,-33.691,145.020
1630087895.860,-857.910,-39.062,-35.645,-219.727
1630087895.863,-1000.000,-30.762,-36.621,-311.523
1630087895.867,660.156,-22.461,-38.574,31.738
1630087895.871,-958.496,-27.832,-31.738,227.539
1630087895.875,-574.707,-32.715,-18.066,-78.613
1630087895.879,-1000.000,-25.879,-38.086,-298.828
1630087895.883,305.176,-32.715,-50.293,-73.730
1630087895.887,-893.555,-37.598,-48.340,216.309
1630087895.890,-201.172,-35.645,-43.945,8.301
1630087895.894,-1000.000,-45.898,-41.504,-296.875
1630087895.898,-337.402,-45.410,-42.480,-181.152
1630087895.902,-982.422,-16.602,-41.992,174.805
1630087895.906,432.129,-7.812,-33.691,89.355
1630087895.906,-1000.000,-19.531,-35.156,-260.742
1630087895.910,-822.754,-27.344,-42.969,-249.023
1630087895.914,790.039,-31.250,-46.387,132.324
1630087895.918,940.430,-20.020,-41.016,198.242
1630087895.922,-748.535,-30.762,-31.738,-180.664
1630087895.926,-1000.000,-40.039,-37.109,-305.664
1630087895.930,622.559,-45.898,-65.430,23.438
1630087895.933,-968.750,-45.898,-58.105,204.590
1630087895.937,-554.688,-43.457,-39.062,-90.332
1630087895.941,-1000.000,-42.480,-47.852,-326.172
1630087895.945,64.941,-32.227,-58.105,-115.234
1630087895.949,-887.207,-15.625,-46.387,209.961
1630087895.957,93.750,-5.859,-32.227,47.363
1630087895.961,-1000.000,-22.949,-41.992,-307.617
1630087895.965,-576.660,-30.273,-50.293,-249.512
1630087895.969,932.617,-31.250,-55.176,137.695
1630087895.973,574.219,-40.527,-47.852,99.609
1630087895.977,-991.699,-41.016,-44.434,-233.398
1630087895.981,-919.434,-32.227,-55.176,-235.840
1630087895.984,734.375,-45.898,-52.734,86.914
1630087895.988,943.848,-64.941,-49.805,177.734
1630087895.992,-750.977,-43.457,-42.480,-155.762
1630087895.996,-1000.000,-5.859,-21.484,-291.504
1630087896.000,541.016,0.977,-37.109,3.906
1630087896.011,-913.574,-21.973,-41.504,230.469
1630087896.015,-469.238,-44.434,-30.762,-41.504
1630087896.019,-1000.000,-43.457,-40.039,-296.875
1630087896.023,188.965,-27.344,-38.574,-82.520
1630087896.027,-875.977,-20.508,-29.297,220.703
1630087896.031,34.668,-51.758,-58.594,32.227
1630087896.035,-1000.000,-72.754,-70.801,-291.504
1630087896.038,-635.254,-50.293,-40.527,-222.168
1630087896.042,875.488,-34.668,-38.086,140.137
1630087896.046,766.602,-36.133,-31.250,136.719
1630087896.050,-875.000,-39.551,-20.020,-211.426
1630087896.054,-975.098,-41.992,-29.785,-273.926
1630087896.057,705.566,-40.039,-41.504,78.613
1630087896.061,-995.605,-27.832,-36.133,214.355
1630087896.065,-662.109,-27.344,-39.551,-113.770
1630087896.069,-1000.000,-19.043,-50.781,-278.320
1630087896.073,444.824,-22.461,-47.852,-15.137
1630087896.077,-895.996,-27.344,-34.180,233.887
1630087896.081,-288.574,-25.879,-34.668,1.465
1630087896.084,-1000.000,-64.941,-25.391,-269.043
1630087896.088,-333.008,-61.035,-40.527,-157.227
1630087896.092,-985.352,-20.508,-54.199,157.227
1630087896.096,395.996,-24.902,-42.480,90.332
1630087896.100,-1000.000,-31.250,-29.297,-242.188
1630087896.101,-774.902,-6.836,-32.227,-233.887
1630087896.105,820.312,-14.648,-42.969,137.207
1630087896.109,883.789,-65.918,-18.555,186.523
1630087896.113,-793.457,-62.500,-44.434,-135.254
1630087896.117,-1000.000,-79.590,-57.617,-264.160
1630087896.121,639.648,-37.598,-28.320,32.227
1630087896.125,-969.727,23.438,-25.391,218.750
1630087896.128,-630.371,-11.230,-27.344,-90.820
1630087896.132,-1000.000,-55.664,-41.504,-312.988
1630087896.136,404.297,-38.086,-56.152,-54.688
1630087896.140,-872.559,-25.879,-35.156,247.559
1630087896.144,-151.855,-34.180,-23.926,32.227
1630087896.147,-1000.000,-46.387,-45.410,-302.734
1630087896.151,-383.789,-49.805,-52.734,-171.875
1630087896.155,998.047,-40.527,-50.293,192.383
1630087896.159,474.609,-43.945,-28.320,108.887
1630087896.163,-1000.000,-45.898,-20.020,-236.328
1630087896.167,-826.172,-33.691,-33.203,-226.074
1630087896.171,808.594,-35.156,-56.152,145.508
1630087896.174,847.168,-110.352,-86.914,154.785
1630087896.178,-836.426,-67.383,-46.875,-192.383
1630087896.182,-1000.000,25.391,-12.207,-263.184
1630087896.186,632.812,12.207,-28.320,19.531
1630087896.190,-952.148,3.906,-30.273,249.512
1630087896.193,-501.953,-15.137,-22.461,-30.762
1630087896.197,-1000.000,-17.578,-14.160,-282.715
1630087896.201,-12.207,-16.602,-16.602,-111.816
1630087896.205,-914.551,-36.621,-40.039,179.199
1630087896.209,93.262,-43.945,-36.133,25.879
1630087896.213,-1000.000,-55.176,-23.926,-289.551
1630087896.217,-486.816,-27.344,-36.133,-194.824
1630087896.220,973.145,-17.578,-65.430,144.043
1630087896.224,667.969,-46.387,-42.969,112.793
1630087896.228,-924.805,-20.996,-33.691,-220.215
1630087896.232,-941.406,21.973,-45.410,-252.441
1630087896.236,728.027,4.395,-41.992,92.773
1630087896.238,978.516,-8.789,-26.367,193.359
1630087896.242,-707.520,-7.324,-8.789,-138.672
1630087896.246,-1000.000,-41.016,-20.508,-276.855
1630087896.250,519.531,-47.852,-43.457,-1.465
1630087896.254,-920.898,9.766,-30.273,226.074
1630087896.258,-368.164,9.766,-26.855,-17.578
1630087896.262,-1000.000,-16.113,-42.480,-276.855
1630087896.265,-306.641,-29.297,-41.992,-167.480
1630087896.269,-992.188,-52.734,-25.879,151.855
1630087896.273,252.441,-73.730,-35.645,80.566
1630087896.277,-1000.000,-18.555,-60.547,-241.211
1630087896.281,-615.234,22.461,-28.320,-215.820
1630087896.282,904.785,-48.340,-32.715,147.461
1630087896.286,835.449,-3.906,-60.059,150.879
1630087896.290,-813.965,47.852,-10.742,-202.148
1630087896.294,-1000.000,31.250,9.766,-270.996
1630087896.298,684.082,-4.395,-25.879,46.875
1630087896.302,-997.559,-57.129,-32.227,195.801
1630087896.306,-647.461,-139.160,-35.156,-93.262
1630087896.309,-1000.000,-99.609,-64.941,-308.105
1630087896.313,333.496,70.801,-73.730,-82.031
1630087896.317,-885.742,107.910,-25.391,219.727
1630087896.321,-165.039,59.082,16.113,-0.977
1630087896.325,-1000.000,30.762,12.695,-293.945
1630087896.328,-332.520,12.695,-7.324,-166.992
1630087896.332,-979.980,28.809,-23.926,187.012
1630087896.336,360.840,12.207,-20.020,89.355
1630087896.340,-1000.000,-32.227,-9.277,-257.812
1630087896.344,-773.926,14.648,-23.926,-248.047
1630087896.348,830.078,-2.441,-50.781,151.367
1630087896.352,834.473,-107.910,-94.238,210.449
1630087896.355,-858.398,38.574,-104.004,-205.566
1630087896.359,-965.820,219.727,13.672,-294.922
1630087896.363,718.262,206.055,85.449,73.730
1630087896.367,-983.887,160.156,36.133,192.871
1630087896.371,-614.258,92.773,-4.883,-161.621
1630087896.386,-1000.000,82.031,-3.906,-354.004
1630087896.390,306.152,135.742,-12.695,-103.516
1630087896.394,-846.680,156.250,-11.719,199.707
1630087896.398,56.152,174.805,-4.395,19.043
1630087896.402,-1000.000,182.129,-17.090,-275.391
1630087896.406,-275.879,161.133,-37.598,-142.090
1630087896.410,-937.500,154.297,-64.453,195.312
1630087896.413,588.867,219.727,-7.324,106.934
1630087896.417,-939.941,214.844,17.090,-243.164
1630087896.421,-895.020,152.832,-14.160,-271.484
1630087896.425,761.719,111.816,-39.551,82.520
1630087896.429,969.238,93.262,-49.805,175.293
1630087896.431,-732.422,158.691,1.953,-124.023
1630087896.435,-1000.000,227.539,18.066,-233.887
1630087896.439,640.625,190.918,14.648,59.082
1630087896.443,-955.566,145.508,15.137,241.211
1630087896.447,-525.879,118.164,23.926,-48.828
1630087896.451,-1000.000,99.121,18.066,-253.906
1630087896.455,51.270,77.148,-55.176,-34.180
1630087896.458,-886.719,87.402,-43.457,282.715
1630087896.462,185.547,36.133,13.672,85.938
1630087896.466,-1000.000,-8.789,7.324,-262.207
1630087896.470,-447.754,182.617,59.082,-139.648
1630087896.474,-999.023,213.867,80.566,227.539
1630087896.476,745.605,111.816,24.902,176.758
1630087896.480,-860.840,69.336,18.555,-193.848
1630087896.484,-974.121,49.316,30.762,-263.184
1630087896.488,729.004,58.105,2.930,122.070
1630087896.492,958.496,-21.484,-26.855,244.141
1630087896.496,-721.191,-89.355,-70.312,-43.457
1630087896.500,-1000.000,47.852,-60.059,-198.242
1630087896.503,453.613,117.676,17.578,-37.109
1630087896.507,-879.395,39.551,30.273,189.453
1630087896.511,-317.871,38.574,35.156,-30.762
1630087896.515,-1000.000,48.828,35.645,-285.156
1630087896.519,59.082,11.230,26.855,-93.750
1630087896.522,-870.605,28.809,14.648,256.836
1630087896.526,251.465,14.160,-7.324,113.281
1630087896.530,-1000.000,-39.062,-86.426,-221.191
1630087896.534,-600.586,38.574,-79.102,-115.234
1630087896.538,916.016,36.133,47.852,237.793
1630087896.542,864.258,103.027,91.797,190.918
1630087896.546,-784.180,94.238,66.895,-177.246
1630087896.549,-1000.000,-11.230,45.898,-264.160
1630087896.553,667.969,32.715,28.809,73.242
1630087896.557,-964.355,85.449,24.902,259.277
1630087896.561,-579.102,84.473,21.973,-56.152
1630087896.565,-1000.000,-23.926,-27.832,-284.180
1630087896.566,242.188,-99.121,-100.098,-2.930
1630087896.570,-853.027,83.984,-8.789,298.340
1630087896.574,123.535,142.578,103.516,87.402
1630087896.578,-1000.000,102.539,69.824,-206.055
1630087896.582,-384.766,55.664,36.133,-113.281
1630087896.586,-968.750,14.160,37.109,250.488
1630087896.590,656.738,19.043,40.039,213.379
1630087896.593,-921.387,70.312,33.691,-175.781
1630087896.597,-897.461,111.328,44.434,-202.637
1630087896.601,786.133,37.109,10.742,172.852
1630087896.605,905.762,-11.230,-11.719,216.309
1630087896.609,-792.480,-28.809,-34.180,-146.973
1630087896.613,-1000.000,-56.152,-47.363,-259.277
1630087896.617,605.957,82.031,12.207,52.734
1630087896.621,-910.156,236.328,94.238,288.574
1630087896.625,-474.609,138.672,74.707,-8.789
1630087896.629,-1000.000,-45.898,17.090,-282.227
1630087896.633,292.480,32.715,14.160,-41.016
1630087896.637,-863.770,158.691,41.504,285.645
1630087896.640,-48.828,97.168,21.973,72.754
1630087896.644,-1000.000,50.293,0.977,-240.234
1630087896.648,-461.914,36.621,-6.348,-139.648
1630087896.652,956.543,22.949,-22.461,201.172
1630087896.656,768.555,58.105,17.090,160.645
1630087896.657,-853.516,90.820,41.992,-182.129
1630087896.661,-934.570,54.688,28.809,-202.637
1630087896.665,751.465,-8.789,21.973,145.996
1630087896.669,991.211,36.133,18.555,238.281
1630087896.673,-712.402,64.941,6.348,-115.723
1630087896.677,-1000.000,46.387,21.484,-239.746
1630087896.681,647.461,28.809,32.715,85.449
1630087896.684,-957.520,-12.207,5.371,247.559
1630087896.688,-524.902,-10.254,-3.418,-60.547
1630087896.692,-1000.000,-23.438,-5.859,-293.457
1630087896.696,20.508,-35.645,-12.207,-98.633
1630087896.700,-897.949,-38.574,-14.648,226.074
1630087896.703,269.531,-52.246,-10.742,73.242
1630087896.707,-1000.000,-84.473,-16.113,-254.883
1630087896.711,-740.234,-117.676,-45.898,-197.754
1630087896.715,842.773,-123.047,-63.965,138.184
1630087896.719,794.922,-81.543,-25.391,116.699
1630087896.723,-848.145,7.812,46.875,-162.598
1630087896.727,-1000.000,12.207,44.434,-231.445
1630087896.730,654.297,-78.125,-38.086,24.414
1630087896.734,999.512,-93.262,-49.316,143.555
1630087896.738,-687.012,-73.730,-11.230,-164.062
1630087896.742,-1000.000,-77.637,0.488,-309.082
1630087896.746,445.312,-129.883,-41.016,-58.105
1630087896.761,-874.023,-125.488,-54.199,200.195
1630087896.765,-206.543,-24.414,-27.832,-3.906
1630087896.769,-1000.000,-39.551,-1.953,-299.805
1630087896.773,-200.684,-58.105,6.348,-177.734
1630087896.777,-939.453,-78.125,0.488,167.480
1630087896.781,569.336,-109.375,6.348,125.488
1630087896.785,-928.711,-49.316,-13.672,-214.355
1630087896.788,-939.941,-84.961,-49.316,-259.277
1630087896.792,735.840,-71.289,-40.527,111.328
1630087896.796,920.410,-4.395,-17.578,193.848
1630087896.800,-794.434,-33.203,-43.457,-153.809
1630087896.804,-1000.000,-52.734,-35.156,-267.578
1630087896.806,639.648,-56.641,-1.953,18.066
1630087896.810,-955.078,-54.688,-2.441,206.055
1630087896.814,-541.016,-68.359,-16.113,-64.941
1630087896.818,-1000.000,-76.660,-24.414,-282.715
1630087896.822,148.438,-62.988,-36.133,-86.426
1630087896.826,-889.648,-56.641,-31.738,208.008
1630087896.830,5.371,-64.453,-21.484,41.992
1630087896.833,-1000.000,-74.707,-34.668,-283.203
1630087896.837,-470.215,-62.500,-43.945,-192.383
1630087896.841,978.516,-46.875,-40.527,184.570
1630087896.845,556.641,-55.176,-26.367,104.492
1630087896.849,-980.469,-68.848,-20.020,-246.094
1630087896.852,-919.922,-80.566,-30.273,-277.344
1630087896.856,731.445,-70.312,-33.691,61.035
1630087896.860,952.637,-76.660,-19.531,166.016
1630087896.864,-750.488,-88.867,-14.160,-158.203
1630087896.868,-1000.000,-95.703,-24.902,-295.410
1630087896.872,592.285,-107.422,-36.133,4.883
1630087896.876,-946.777,-122.070,-40.527,221.191
1630087896.879,-554.199,-140.137,-56.641,-44.922
1630087896.883,-1000.000,-170.410,-51.270,-265.625
1630087896.887,203.125,-173.828,-20.020,-57.129
1630087896.891,-865.234,-170.898,-17.090,267.090
1630087896.895,222.656,-166.992,-5.859,137.207
1630087896.899,-1000.000,-161.133,8.301,-168.945
1630087896.903,-603.027,-168.457,2.930,-123.047
1630087896.907,922.852,-180.664,-12.207,206.055
1630087896.911,741.699,-203.125,-21.973,202.637
1630087896.915,-895.508,-198.242,-9.277,-118.652
1630087896.919,-904.297,-177.734,-11.719,-157.715
1630087896.923,777.344,-171.875,-36.621,201.172
1630087896.926,955.078,-190.430,-28.320,277.832
1630087896.930,-719.238,-200.195,-11.719,-64.941
1630087896.934,-1000.000,-193.359,-31.738,-165.039
1630087896.938,521.973,-203.613,-52.734,98.145
1630087896.942,-923.828,-216.309,-34.180,302.734
1630087896.941,-436.035,-212.891,-3.906,49.805
1630087896.945,-1000.000,-200.684,4.883,-205.566
1630087896.949,-62.988,-186.035,-0.488,-29.297
1630087896.953,-912.598,-178.223,8.301,314.941
1630087896.957,316.895,-189.453,7.812,180.664
1630087896.961,-1000.000,-200.195,-30.762,-153.809
1630087896.965,-758.301,-197.266,-51.758,-142.578
1630087896.968,826.660,-182.129,1.953,195.801
1630087896.972,864.258,-173.340,20.020,239.746
1630087896.976,-826.172,-213.379,-67.871,-106.934
1630087896.980,-982.910,-192.871,-94.727,-200.195
1630087896.984,719.238,-144.043,11.719,125.488
1630087896.989,998.535,-144.531,53.223,260.254
1630087896.993,-661.621,-165.527,23.438,-89.355
1630087896.997,-1000.000,-185.059,-1.953,-287.598
1630087897.001,398.926,-171.875,-23.926,-16.602
1630087897.005,-870.605,-164.062,-37.109,266.113
1630087897.009,-161.133,-149.414,-25.391,38.086
1630087897.013,-1000.000,-153.320,-26.855,-261.230
1630087897.016,-214.844,-162.598,-41.992,-133.301
1630087897.020,-948.242,-157.227,-41.992,222.656
1630087897.024,457.520,-146.973,-37.109,114.258
1630087897.028,-1000.000,-142.090,-53.711,-229.004
1630087897.032,-820.801,-138.184,-62.012,-201.172
1630087897.031,803.711,-120.605,-26.367,136.719
1630087897.035,914.062,-111.328,9.766,166.992
1630087897.039,-772.461,-127.930,2.441,-207.520
1630087897.043,-1000.000,-154.297,-28.320,-323.242
1630087897.047,609.863,-133.301,-34.180,40.039
1630087897.051,-925.293,-95.215,-20.020,275.391
1630087897.055,-500.000,-114.746,-38.574,-81.055
1630087897.058,-1000.000,-126.465,-39.062,-365.234
1630087897.062,245.117,-102.539,-25.391,-75.684
1630087897.066,-884.277,-86.914,-26.855,315.430
1630087897.070,-93.262,-96.191,-29.297,46.875
1630087897.074,-1000.000,-99.609,-32.715,-347.168
1630087897.078,-438.965,-98.633,-46.387,-190.918
1630087897.082,971.680,-87.402,-29.785,257.812
1630087897.086,607.910,-82.520,-12.695,170.410
1630087897.090,-959.473,-113.281,-31.738,-283.691
1630087897.094,-891.113,-106.445,-34.668,-309.082
1630087897.098,758.301,-64.453,-42.480,134.277
1630087897.102,966.309,-71.289,-38.086,217.285
1630087897.105,-698.730,-82.520,-20.508,-224.121
1630087897.109,-1000.000,-87.891,-37.598,-399.414
1630087897.113,478.027,-99.121,-66.895,-46.875
1630087897.117,-906.738,-91.309,-33.203,214.355
1630087897.121,-402.344,-105.469,-5.371,-134.277
1630087897.136,-1000.000,-105.469,-33.691,-447.266
1630087897.140,-3.418,-93.262,-59.082,-224.121
1630087897.144,-894.043,-84.473,-59.570,175.781
1630087897.148,406.738,-68.359,-24.414,-25.879
1630087897.152,-1000.000,-83.008,-20.508,-457.520
1630087897.156,-553.711,-86.426,-31.738,-371.582
1630087897.160,968.262,-83.008,-37.598,93.262
1630087897.163,824.707,-95.215,-52.734,31.738
1630087897.167,-831.543,-83.496,-41.016,-427.246
1630087897.171,-868.164,-79.590,-24.414,-481.445
1630087897.175,763.672,-82.031,-33.203,-54.199
1630087897.179,-910.156,-65.918,-36.621,67.871
1630087897.182,-487.793,-66.406,-37.109,-379.883
1630087897.186,-989.746,-73.730,-40.039,-633.301
1630087897.190,561.523,-81.055,-49.805,-313.477
1630087897.194,-787.109,-79.102,-62.988,-20.508
1630087897.198,346.680,-67.871,-32.715,-315.918
1630087897.202,-831.055,-73.730,-20.508,-655.762
1630087897.206,286.133,-71.289,-36.621,-452.148
1630087897.209,-779.785,-72.754,-38.086,-49.805
1630087897.213,700.684,-91.309,-34.668,-204.102
1630087897.217,-781.250,-86.914,-28.320,-579.102
1630087897.221,-442.383,-64.941,-28.809,-527.832
1630087897.225,-963.867,-57.617,-30.762,-62.988
1630087897.226,958.496,-62.012,-26.367,-4.395
1630087897.230,-641.602,-76.660,-19.531,-430.176
1630087897.234,-847.656,-67.383,-23.926,-546.387
1630087897.238,762.207,-56.152,-47.852,-135.254
1630087897.242,-845.215,-60.547,-31.738,68.848
1630087897.246,-126.465,-58.594,-14.648,-274.414
1630087897.250,-973.145,-62.988,-25.879,-528.320
1630087897.253,480.957,-65.430,-38.574,-264.160
1630087897.257,-773.438,-76.660,-47.363,57.617
1630087897.261,175.781,-62.988,-22.461,-203.125
1630087897.265,-983.398,-68.359,-17.090,-548.340
1630087897.269,120.117,-76.660,-36.133,-380.371
1630087897.272,-817.871,-61.523,-33.203,56.152
1630087897.276,706.055,-43.945,-28.809,-53.223
1630087897.280,-815.918,-42.969,-37.109,-477.539
1630087897.284,-761.230,-42.969,-44.922,-476.562
1630087897.288,893.555,-57.617,-60.547,-33.203
1630087897.292,943.359,-59.570,-62.500,30.762
1630087897.296,-706.543,-45.410,-57.617,-389.160
1630087897.299,-1000.000,-59.570,-94.727,-553.223
1630087897.303,597.656,-49.805,-104.492,-187.012
1630087897.307,-899.902,-26.367,-81.055,75.195
1630087897.311,-461.914,-37.109,-82.031,-258.301
1630087897.315,-1000.000,-49.316,-94.238,-523.438
1630087897.317,301.270,-36.133,-97.168,-257.324
1630087897.321,-844.238,-23.438,-93.750,122.070
1630087897.325,23.438,-42.480,-88.379,-105.469
1630087897.329,-1000.000,-76.660,-95.703,-467.773
1630087897.333,-476.074,-50.781,-105.469,-349.609
1630087897.337,993.164,-4.883,-112.305,95.215
1630087897.341,597.168,-19.043,-109.375,35.645
1630087897.344,-983.887,-54.688,-103.516,-412.598
1630087897.348,-895.996,-41.016,-97.656,-422.852
1630087897.352,763.672,-22.461,-89.844,53.711
1630087897.356,955.566,-50.781,-85.938,170.898
1630087897.360,-736.328,-64.453,-90.332,-269.043
1630087897.365,-1000.000,-35.156,-92.773,-427.734
1630087897.369,588.867,-21.484,-93.750,-44.922
1630087897.373,-958.008,-36.133,-95.215,221.680
1630087897.377,-572.266,-50.293,-90.332,-125.488
1630087897.381,-1000.000,-43.457,-87.402,-388.672
1630087897.385,231.934,-29.297,-92.773,-84.473
1630087897.389,-902.344,-33.691,-99.609,345.703
1630087897.392,-180.664,-54.688,-95.703,73.730
1630087897.396,-1000.000,-46.875,-88.867,-332.520
1630087897.400,-736.816,-37.598,-83.496,-221.680
1630087897.404,811.523,-41.016,-80.078,265.137
1630087897.408,670.410,-48.828,-82.031,274.902
1630087897.406,-970.215,-53.223,-82.520,-179.688
1630087897.410,-996.582,-49.316,-87.402,-243.164
1630087897.414,666.016,-56.152,-91.309,221.191
1630087897.418,940.430,-62.500,-76.172,410.645
1630087897.422,-713.379,-77.148,-70.312,-1.465
1630087897.426,-1000.000,-75.684,-75.195,-214.844
1630087897.430,344.727,-40.527,-78.125,141.113
1630087897.433,965.332,-32.715,-67.383,509.766
1630087897.437,-552.246,-46.875,-56.641,170.410
1630087897.441,-1000.000,-52.246,-70.801,-208.496
1630087897.445,-538.574,-52.734,-79.102,-42.969
1630087897.449,806.152,-55.176,-75.195,422.363
1630087897.453,-186.523,-56.152,-76.660,229.004
1630087897.457,-1000.000,-52.246,-83.008,-247.559
1630087897.461,-844.238,-55.176,-84.961,-202.637
1630087897.465,687.988,-48.828,-79.590,336.914
1630087897.469,482.910,-50.781,-77.148,352.051
1630087897.473,-1000.000,-72.266,-79.590,-208.496
1630087897.477,-1000.000,-54.199,-72.266,-296.387
1630087897.480,564.453,-22.949,-72.754,205.566
1630087897.484,909.668,-36.133,-75.684,434.082
1630087897.488,-716.309,-66.895,-90.332,-62.988
1630087897.492,-1000.000,-59.570,-86.426,-348.145
1630087897.496,121.582,-31.250,-67.383,72.754
1630087897.511,922.852,-29.785,-58.105,533.203
1630087897.515,-539.062,-49.316,-52.734,161.133
1630087897.519,-1000.000,-56.641,-63.477,-235.840
1630087897.523,-564.453,-38.574,-60.059,-9.766
1630087897.527,790.039,-33.203,-56.152,523.438
1630087897.531,-181.152,-86.426,-102.051,331.055
1630087897.535,-1000.000,-76.660,-92.773,-188.477
1630087897.538,-869.141,-32.715,-56.152,-136.230
1630087897.542,669.434,-20.996,-54.688,466.797
1630087897.546,625.000,-21.484,-48.340,570.801
1630087897.550,-998.047,-44.922,-47.852,-26.367
1630087897.554,-1000.000,-43.945,-51.758,-204.590
1630087897.557,524.902,-27.344,-52.734,326.660
1630087897.561,936.523,-37.109,-47.363,668.945
1630087897.565,-659.180,-46.875,-42.969,134.277
1630087897.569,-1000.000,-41.992,-47.363,-222.168
1630087897.573,-88.379,-36.133,-51.758,161.621
1630087897.577,906.738,-27.832,-42.969,737.793
1630087897.581,-451.660,-41.992,-34.668,391.602
1630087897.584,-1000.000,-52.246,-33.691,-166.992
1630087897.588,-686.035,-53.223,-47.363,-12.695
1630087897.592,794.434,-43.457,-45.898,645.996
1630087897.596,152.344,-54.199,-24.414,559.082
1630087897.600,-1000.000,-67.871,-38.574,-123.047
1630087897.602,-909.180,-53.711,-52.734,-159.180
1630087897.606,669.434,-36.133,-50.293,457.520
1630087897.610,795.410,-20.020,-39.062,638.184
1630087897.614,-907.715,-46.387,-34.668,185.547
1630087897.618,-1000.000,-74.707,-54.199,85.938
1630087897.622,582.031,-34.668,-37.598,606.445
1630087897.626,973.633,-9.766,-16.113,944.336
1630087897.629,-620.117,-39.062,-29.785,408.203
1630087897.633,-1000.000,-62.500,-46.875,-23.926
1630087897.637,-51.758,-41.016,-28.320,257.812
1630087897.641,990.234,-19.531,-15.625,765.137
1630087897.645,-334.473,-45.410,-26.367,445.312
1630087897.647,-1000.000,-54.688,-21.484,-104.980
1630087897.651,-675.293,-29.785,-16.602,-3.906
1630087897.655,854.980,-20.996,-20.508,543.457
1630087897.659,435.547,-41.016,-33.203,451.172
1630087897.663,-1000.000,-54.199,-35.645,-137.695
1630087897.667,-942.383,-37.109,-29.785,-195.312
1630087897.671,670.410,-24.414,-25.879,358.887
1630087897.674,937.500,-51.758,-29.785,538.574
1630087897.678,-765.625,-58.594,-42.480,-72.754
1630087897.682,-1000.000,-32.227,-41.992,-355.469
1630087897.686,540.039,-15.625,-25.391,103.027
1630087897.690,989.746,-16.113,-17.090,495.605
1630087897.691,-599.609,-35.156,-28.320,17.578
1630087897.695,-1000.000,-46.387,-30.762,-406.738
1630087897.699,-101.562,-40.527,-23.926,-129.395
1630087897.703,-956.543,-31.738,-22.949,449.219
1630087897.707,-127.930,-45.898,-26.367,199.219
1630087897.711,-1000.000,-46.387,-30.762,-365.234
1630087897.715,-763.184,-44.922,-42.969,-291.016
1630087897.718,810.547,-64.941,-67.871,278.320
1630087897.722,654.785,-56.641,-56.152,283.203
1630087897.726,-998.535,-43.945,-29.785,-284.668
1630087897.730,-979.492,-41.992,-25.879,-388.184
1630087897.734,669.434,-35.156,-25.879,164.551
1630087897.738,977.051,-30.762,-26.855,421.875
1630087897.742,-699.219,-42.969,-25.391,-134.277
1630087897.746,-1000.000,-69.824,-26.855,-471.191
1630087897.750,453.125,-38.574,-22.949,-63.477
1630087897.754,-974.121,-19.043,-8.301,428.223
1630087897.758,-521.973,-42.480,-14.160,16.602
1630087897.762,-1000.000,-77.637,-40.039,-486.816
1630087897.765,-257.812,-62.988,-34.668,-267.090
1630087897.769,-963.867,-17.578,-10.742,363.281
1630087897.773,118.164,-40.527,-14.648,196.777
1630087897.777,-1000.000,-80.566,-42.480,-415.527
1630087897.781,-860.840,-60.547,-40.039,-427.734
1630087897.782,736.328,-23.438,-18.555,225.098
1630087897.786,839.844,-30.273,-22.949,352.539
1630087897.790,-889.648,-59.082,-31.738,-299.316
1630087897.794,-1000.000,-68.848,-32.227,-495.605
1630087897.798,670.410,-43.945,-31.738,60.059
1630087897.802,989.746,-44.434,-35.156,439.453
1630087897.806,-651.855,-91.309,-60.547,-145.508
1630087897.809,-1000.000,-74.219,-53.711,-592.285
1630087897.813,301.270,-35.156,-23.926,-174.316
1630087897.817,-938.477,-35.156,-26.855,432.129
1630087897.821,-402.344,-60.059,-42.480,33.203
1630087897.825,-1000.000,-66.895,-44.434,-551.270
1630087897.830,-455.078,-36.133,-38.086,-335.449
1630087897.834,988.770,-28.320,-25.391,364.746
1630087897.838,385.742,-51.270,-15.625,257.812
1630087897.842,-1000.000,-63.477,-21.973,-447.754
1630087897.846,-925.781,-62.988,-22.461,-511.230
1630087897.850,693.359,-57.617,-32.715,242.188
1630087897.854,931.641,-47.363,-36.133,475.098
1630087897.857,-787.109,-50.781,-24.414,-275.879
1630087897.861,-1000.000,-55.176,-32.715,-598.145
1630087897.865,610.352,-54.199,-50.781,-35.156
1630087897.869,988.770,-45.898,-43.457,477.051
1630087897.873,-628.906,-67.871,-29.785,-88.379
1630087897.886,-1000.000,-89.844,-36.133,-612.305
1630087897.890,94.238,-55.664,-43.945,-235.352
1630087897.894,-912.109,-21.973,-42.969,506.836
1630087897.898,-191.895,-30.762,-38.086,206.543
1630087897.902,-1000.000,-57.129,-46.387,-541.992
1630087897.906,-702.637,-102.539,-90.332,-491.211
1630087897.910,867.676,-93.750,-68.359,309.082
1630087897.913,594.238,-44.922,-21.973,358.398
1630087897.917,-1000.000,-54.688,-35.645,-410.156
1630087897.921,-969.727,-57.617,-35.645,-560.547
1630087897.925,672.363,-31.250,-21.973,192.871
1630087897.929,959.961,-27.344,-20.508,543.457
1630087897.931,-723.633,-59.570,-45.410,-227.539
1630087897.935,-1000.000,-61.035,-51.758,-693.359
1630087897.939,479.492,-26.367,-38.574,-125.977
1630087897.943,-999.512,-29.785,-36.621,555.176
1630087897.947,-556.152,-48.340,-30.273,13.184
1630087897.951,-1000.000,-40.527,-27.832,-682.617
1630087897.955,-284.180,-32.715,-25.879,-400.879
1630087897.958,992.188,-16.602,-8.789,479.492
1630087897.962,-97.168,-42.969,-29.785,241.699
1630087897.966,-1000.000,-79.590,-57.617,-621.582
1630087897.970,-814.941,-57.617,-35.645,-593.750
1630087897.974,756.348,-46.875,-22.949,320.801
1630087897.976,715.820,-61.035,-47.363,481.934
1630087897.980,-978.027,-62.500,-56.152,-425.781
1630087897.984,-989.746,-42.480,-37.109,-711.914
1630087897.988,669.922,-10.742,-21.973,79.590
1630087897.992,978.027,-27.832,-38.086,558.105
1630087897.996,-678.711,-65.430,-53.711,-186.035
1630087898.000,-1000.000,-71.289,-44.434,-717.773
1630087898.003,362.305,-46.875,-31.738,-218.262
1630087898.007,-948.730,-29.785,-31.250,518.066
1630087898.011,-443.848,-60.059,-30.762,60.547
1630087898.015,-1000.000,-70.312,-43.457,-715.820
1630087898.019,-443.848,-40.039,-44.922,-526.367
1630087898.021,986.816,-39.062,-39.062,417.969
1630087898.025,262.695,-39.551,-48.828,350.586
1630087898.029,-1000.000,-38.574,-54.199,-531.738
1630087898.033,-907.715,-37.109,-37.109,-645.020
1630087898.037,693.848,-14.648,-19.531,221.191
1630087898.041,900.391,-10.254,-22.461,500.977
1630087898.045,-832.031,-43.457,-51.758,-326.172
1630087898.048,-1000.000,-72.266,-63.477,-742.188
1630087898.052,638.184,-49.316,-32.715,-62.012
1630087898.056,989.746,-20.020,-11.719,560.059
1630087898.060,-645.996,-44.434,-36.133,-120.117
1630087898.064,-1000.000,-58.594,-54.199,-748.535
1630087898.067,238.770,-40.527,-40.039,-298.828
1630087898.071,-922.363,-26.367,-26.855,546.875
1630087898.075,-335.938,-48.340,-34.668,156.250
1630087898.079,-1000.000,-71.289,-69.336,-649.902
1630087898.083,-604.980,-65.430,-67.871,-518.555
1630087898.087,921.875,-39.551,-31.738,392.578
1630087898.091,481.934,-28.809,-33.203,393.066
1630087898.094,-1000.000,-60.547,-55.176,-505.371
1630087898.098,-952.637,-45.898,-47.363,-667.969
1630087898.102,668.457,-7.812,-23.438,170.898
1630087898.106,958.008,-17.090,-22.949,546.875
1630087898.110,-757.324,-43.945,-38.574,-247.559
1630087898.113,-1000.000,-51.758,-45.410,-701.172
1630087898.117,585.938,-33.203,-27.344,-52.246
1630087898.121,999.512,-20.020,-19.043,630.371
1630087898.125,-587.891,-34.668,-36.621,29.785
1630087898.129,-1000.000,-48.340,-41.992,-673.340
1630087898.133,-49.805,-31.738,-34.668,-341.309
1630087898.137,-943.359,-22.461,-39.551,539.062
1630087898.140,-166.016,-49.805,-48.340,255.371
1630087898.144,-1000.000,-51.758,-49.805,-600.586
1630087898.148,-737.793,-38.574,-42.969,-544.434
1630087898.152,836.426,-12.207,-20.020,377.930
1630087898.156,682.617,-15.137,-20.996,472.168
1630087898.157,-984.375,-47.852,-48.340,-405.762
1630087898.161,-986.328,-49.316,-52.734,-665.527
1630087898.165,666.504,-27.344,-34.668,99.609
1630087898.169,985.840,-27.344,-29.785,582.520
1630087898.173,-694.336,-50.781,-51.270,-196.777
1630087898.177,-1000.000,-54.688,-59.570,-721.191
1630087898.181,473.145,-50.293,-55.176,-155.762
1630087898.184,-974.121,-32.227,-41.504,599.609
1630087898.188,-511.230,-36.621,-45.410,79.102
1630087898.192,-1000.000,-47.852,-70.312,-704.102
1630087898.196,-332.031,-25.879,-56.641,-445.312
1630087898.200,-982.910,-4.883,-21.973,493.652
1630087898.203,135.742,-21.973,-36.621,344.727
1630087898.207,-1000.000,-61.035,-41.504,-559.082
1630087898.211,-850.098,-43.457,-24.902,-613.770
1630087898.215,746.094,-17.578,-20.020,299.316
1630087898.219,853.516,-29.297,-26.367,537.109
1630087898.223,-875.000,-46.875,-39.551,-346.191
1630087898.227,-1000.000,-54.688,-58.594,-725.098
1630087898.230,660.156,-26.855,-52.734,14.648
1630087898.234,990.234,-7.812,-31.250,604.004
1630087898.238,-649.902,-56.641,-43.945,-97.656
1630087898.242,-1000.000,-75.195,-58.105,-718.262
1630087898.246,291.016,-36.621,-50.781,-241.211
1630087898.261,-937.500,-26.855,-33.203,595.215
1630087898.265,-399.902,-46.875,-44.922,153.809
1630087898.269,-1000.000,-54.688,-53.711,-670.898
1630087898.273,-473.633,-29.297,-26.855,-471.191
1630087898.277,984.863,-9.766,-29.297,423.828
1630087898.281,411.621,-58.594,-74.219,351.074
1630087898.285,-1000.000,-73.730,-68.359,-488.770
1630087898.288,-934.082,-43.945,-36.133,-623.047
1630087898.292,690.430,-22.949,-33.203,219.727
1630087898.296,929.688,-37.109,-35.645,524.902
1630087898.300,-794.922,-53.711,-33.691,-291.992
1630087898.304,-1000.000,-35.645,-37.598,-697.754
1630087898.306,622.070,-24.414,-41.016,-30.762
1630087898.310,996.582,-18.555,-30.273,630.371
1630087898.314,-623.047,-20.508,-25.879,-34.668
1630087898.318,-1000.000,-30.762,-35.645,-728.516
1630087898.322,174.316,-19.531,-36.621,-240.723
1630087898.326,-885.742,3.418,-29.785,585.938
1630087898.330,-226.562,-19.531,-41.992,219.238
1630087898.333,-1000.000,-47.363,-41.504,-596.191
1630087898.337,-687.500,-40.039,-43.457,-541.016
1630087898.341,879.883,-19.043,-40.527,377.441
1630087898.345,613.281,-19.531,-31.738,447.266
1630087898.349,-1000.000,-51.270,-40.039,-468.262
1630087898.351,-973.633,-35.156,-43.945,-686.523
1630087898.355,666.992,-4.395,-38.574,166.992
1630087898.359,980.469,-18.555,-37.598,596.680
1630087898.363,-715.820,-58.594,-43.945,-216.309
1630087898.367,-1000.000,-83.984,-68.848,-752.930
1630087898.371,533.691,-26.367,-63.965,-135.254
1630087898.375,-990.234,-0.488,-35.156,608.887
1630087898.378,-554.688,-46.875,-45.898,32.227
1630087898.382,-1000.000,-66.406,-54.199,-715.820
1630087898.386,-192.871,-37.598,-44.922,-416.992
1630087898.390,-962.891,-12.207,-39.062,500.977
1630087898.394,-41.016,-24.902,-35.645,300.781
1630087898.397,-1000.000,-45.898,-41.992,-582.031
1630087898.401,-776.367,-44.922,-40.039,-610.352
1630087898.405,812.988,-21.484,-33.203,311.035
1630087898.409,726.074,-25.879,-41.016,463.379
1630087898.413,-962.891,-55.176,-45.898,-435.547
1630087898.417,-993.164,-53.223,-43.945,-710.449
1630087898.421,669.434,-26.367,-41.992,90.332
1630087898.424,984.863,-42.480,-61.523,577.637
1630087898.428,-679.199,-69.824,-66.895,-208.496
1630087898.432,-1000.000,-62.012,-40.039,-760.254
1630087898.436,407.715,-46.387,-32.227,-235.840
1630087898.440,-955.566,-31.738,-48.828,528.809
1630087898.441,-469.238,-45.898,-57.129,48.340
1630087898.445,-1000.000,-58.105,-53.711,-726.074
1630087898.449,-402.344,-36.621,-47.852,-478.027
1630087898.453,999.023,-19.043,-35.645,465.332
1630087898.457,209.473,-43.457,-33.203,317.871
1630087898.461,-1000.000,-58.105,-42.480,-578.613
1630087898.465,-879.883,-52.734,-55.664,-645.020
1630087898.468,714.355,-49.805,-69.336,217.773
1630087898.472,772.949,-38.574,-53.223,439.941
1630087898.476,-895.020,-56.641,-53.223,-371.094
1630087898.480,-1000.000,-66.406,-59.570,-738.770
1630087898.484,641.602,-37.598,-40.039,-52.246
1630087898.488,989.746,-24.902,-23.926,572.266
1630087898.492,-643.066,-30.762,-38.086,-99.121
1630087898.496,-1000.000,-35.645,-41.992,-745.117
1630087898.500,211.914,-36.621,-39.062,-317.871
1630087898.504,-921.875,-19.531,-48.340,549.805
1630087898.508,-321.777,-24.414,-40.527,176.758
1630087898.512,-1000.000,-63.477,-57.129,-683.105
1630087898.515,-582.520,-61.523,-52.734,-575.195
1630087898.519,937.012,-27.344,-30.273,381.836
1630087898.523,466.797,-30.762,-41.504,390.137
1630087898.527,-1000.000,-57.129,-65.918,-506.836
1630087898.531,-947.754,-58.594,-56.641,-669.434
1630087898.533,680.176,-18.066,-21.484,193.359
1630087898.537,932.617,-15.137,-38.574,545.898
1630087898.541,-785.156,-57.617,-64.941,-313.965
1630087898.545,-1000.000,-51.270,-56.152,-731.934
1630087898.549,595.215,-25.391,-46.875,-19.043
1630087898.553,989.258,-33.203,-45.410,638.672
1630087898.557,-606.445,-90.820,-76.660,-40.527
1630087898.560,-1000.000,-83.008,-76.172,-769.043
1630087898.564,-28.320,-33.203,-55.664,-398.438
1630087898.568,-943.359,-10.742,-30.273,524.414
1630087898.572,-185.547,-28.320,-25.879,254.395
1630087898.576,-1000.000,-53.223,-50.293,-613.770
1630087898.578,-724.121,-44.434,-34.668,-554.199
1630087898.582,841.797,-20.996,-23.926,371.582
1630087898.586,505.371,-24.902,-49.316,409.180
1630087898.590,-1000.000,-54.688,-55.176,-468.750
1630087898.594,-958.008,-51.270,-52.246,-681.152
1630087898.598,659.180,-22.949,-55.176,128.906
1630087898.602,965.820,-37.109,-50.293,557.129
1630087898.605,-717.773,-63.477,-53.223,-244.141
1630087898.609,-1000.000,-65.430,-49.316,-764.160
1630087898.613,461.426,-46.387,-34.180,-169.922
1630087898.617,-985.352,-24.902,-28.809,588.867
1630087898.621,-541.992,-43.457,-43.457,48.828
1630087898.636,-1000.000,-63.965,-48.340,-693.359
1630087898.640,-243.652,-34.180,-40.039,-408.203
1630087898.644,-963.867,-13.672,-34.668,527.832
1630087898.648,-17.090,-22.949,-42.480,340.820
1630087898.652,-1000.000,-44.434,-54.688,-546.875
1630087898.656,-635.742,-45.410,-44.922,-465.332
1630087898.660,831.543,-29.785,-31.250,393.066
1630087898.663,725.586,-43.457,-39.062,520.508
1630087898.667,-934.570,-63.477,-45.898,-354.980
1630087898.671,-1000.000,-52.734,-41.992,-699.707
1630087898.675,662.109,-25.879,-37.598,64.453
1630087898.679,985.352,-27.832,-38.574,634.277
1630087898.681,-655.762,-55.176,-46.387,-80.078
1630087898.685,-1000.000,-61.035,-46.875,-697.754
1630087898.689,304.688,-39.551,-46.387,-209.473
1630087898.693,-963.867,-27.832,-31.738,638.184
1630087898.697,-448.242,-35.645,-35.645,176.758
1630087898.701,-1000.000,-41.016,-66.895,-605.957
1630087898.705,-497.070,-57.617,-59.570,-397.461
1630087898.708,954.102,-36.133,-36.621,546.875
1630087898.712,204.102,-38.086,-57.129,440.430
1630087898.716,-1000.000,-58.594,-62.500,-481.934
1630087898.720,-901.367,-47.852,-42.480,-579.102
1630087898.724,684.082,-24.414,-34.180,322.754
1630087898.726,899.414,-29.785,-44.434,643.555
1630087898.730,-836.914,-51.758,-50.781,-223.145
1630087898.734,-1000.000,-54.199,-40.527,-644.531
1630087898.738,645.020,-31.738,-38.574,94.238
1630087898.742,980.469,-33.691,-50.293,712.891
1630087898.746,-630.859,-41.016,-57.617,7.324
1630087898.750,-1000.000,-44.922,-43.457,-636.230
1630087898.753,103.027,-44.434,-45.898,-238.281
1630087898.757,-950.684,-41.016,-54.688,635.742
1630087898.761,-323.242,-54.199,-47.852,271.973
1630087898.765,-1000.000,-64.453,-59.570,-598.633
1630087898.769,-634.277,-37.109,-50.781,-475.586
1630087898.775,898.438,-14.160,-16.113,492.188
1630087898.779,432.617,-31.738,-21.973,493.652
1630087898.783,-1000.000,-53.711,-52.246,-458.984
1630087898.787,-946.777,-54.688,-58.594,-636.719
1630087898.791,664.062,-32.227,-36.133,301.270
1630087898.795,945.801,-29.297,-25.391,687.012
1630087898.799,-755.371,-55.664,-39.062,-208.496
1630087898.802,-1000.000,-70.312,-68.848,-731.445
1630087898.806,525.879,-48.828,-57.617,-91.797
1630087898.810,993.164,-21.973,-36.621,687.988
1630087898.814,-591.797,-36.133,-42.480,73.730
1630087898.818,-1000.000,-46.875,-46.875,-676.758
1630087898.817,-110.840,-25.879,-30.762,-324.219
1630087898.821,-968.262,-7.812,-10.742,604.980
1630087898.825,-208.008,-34.180,-34.668,239.258
1630087898.829,-1000.000,-58.105,-50.781,-617.676
1630087898.833,-750.488,-41.016,-48.828,-531.250
1630087898.837,816.406,-11.230,-38.574,411.621
1630087898.841,626.465,-23.438,-48.828,541.504
1630087898.844,-1000.000,-70.801,-78.125,-420.898
1630087898.848,-975.586,-64.941,-59.082,-699.219
1630087898.852,666.016,-15.625,-35.645,170.410
1630087898.856,971.191,-21.484,-40.527,675.293
1630087898.860,-701.660,-52.734,-50.293,-160.156
1630087898.863,-1000.000,-54.688,-46.875,-738.281
1630087898.867,441.406,-29.785,-32.715,-120.117
1630087898.871,-989.746,-26.367,-36.133,708.008
1630087898.875,-541.016,-67.871,-52.734,120.605
1630087898.879,-1000.000,-54.199,-56.152,-681.641
1630087898.883,-309.082,-17.578,-41.504,-373.535
1630087898.887,-998.535,-26.367,-46.387,608.887
1630087898.890,-14.648,-59.082,-62.500,395.996
1630087898.894,-1000.000,-59.570,-62.988,-561.035
1630087898.898,-859.863,-38.086,-48.340,-595.703
1630087898.902,717.285,-24.414,-34.668,367.676
1630087898.906,787.109,-33.691,-39.551,590.820
1630087898.906,-935.547,-55.664,-47.363,-353.516
1630087898.910,-1000.000,-49.805,-54.199,-743.164
1630087898.914,653.809,-27.832,-57.617,52.734
1630087898.918,982.910,-35.645,-55.664,693.359
1630087898.922,-647.461,-57.129,-60.547,-121.094
1630087898.926,-1000.000,-60.547,-67.871,-789.551
1630087898.930,237.793,-61.523,-83.496,-290.527
1630087898.933,-956.543,-22.461,-64.453,591.309
1630087898.937,-407.715,-10.254,-41.992,176.270
1630087898.941,-1000.000,-35.156,-48.828,-677.246
1630087898.945,-568.359,-43.457,-51.270,-531.250
1630087898.949,927.734,-24.414,-31.738,476.562
1630087898.953,289.062,-22.949,-31.250,448.242
1630087898.957,-1000.000,-38.574,-63.477,-511.230
1630087898.961,-918.457,-35.645,-64.941,-665.527
1630087898.965,682.129,-8.789,-36.621,300.781
1630087898.969,892.090,-19.043,-35.156,658.691
1630087898.973,-834.961,-64.453,-61.523,-306.152
1630087898.977,-1000.000,-68.848,-60.059,-762.207
1630087898.980,606.445,-15.625,-34.180,-24.902
1630087898.984,982.422,10.254,-36.133,690.430
1630087898.988,-627.930,-54.199,-82.031,-41.504
1630087898.992,-1000.000,-64.453,-84.473,-776.367
1630087898.996,66.895,-6.348,-39.062,-323.730
1630087899.011,-944.336,9.766,-21.484,642.090
1630087899.015,-289.062,-43.945,-48.340,254.883
1630087899.019,-1000.000,-59.570,-67.871,-680.176
1630087899.023,-650.391,-23.438,-44.434,-541.016
1630087899.027,894.043,-28.320,-34.668,486.328
1630087899.031,520.508,-65.918,-71.289,511.719
1630087899.035,-1000.000,-67.383,-69.824,-464.355
1630087899.038,-961.426,-46.875,-42.969,-683.105
1630087899.042,664.062,-27.832,-29.297,230.957
1630087899.046,962.402,-34.668,-51.270,659.668
1630087899.050,-737.305,-55.664,-54.199,-234.375
1630087899.054,-1000.000,-60.059,-45.410,-744.141
1630087899.057,532.715,-24.902,-39.062,-70.312
1630087899.061,992.188,-18.066,-31.250,710.449
1630087899.065,-582.520,-41.992,-47.363,63.965
1630087899.069,-1000.000,-35.645,-46.875,-715.820
1630087899.073,-185.059,-40.039,-44.434,-391.602
1630087899.077,-977.051,-29.297,-47.363,591.309
1630087899.081,-129.883,-35.645,-41.992,339.844
1630087899.084,-1000.000,-59.570,-39.062,-616.699
1630087899.088,-801.758,-69.824,-57.129,-623.535
1630087899.092,771.484,-42.480,-41.992,378.418
1630087899.096,710.938,-17.090,-27.344,575.195
1630087899.100,-979.492,-48.828,-52.734,-381.348
1630087899.101,-988.281,-54.199,-54.688,-686.523
1630087899.105,667.480,-15.625,-37.109,154.297
1630087899.109,986.328,0.488,-41.992,724.121
1630087899.113,-672.363,-30.762,-56.641,-127.930
1630087899.117,-1000.000,-78.613,-62.988,-798.340
1630087899.121,396.973,-49.316,-44.434,-134.277
1630087899.125,-973.633,-17.090,-24.902,746.094
1630087899.128,-496.094,-53.223,-52.246,145.996
1630087899.132,-1000.000,-104.980,-98.145,-781.250
1630087899.136,-444.336,-63.965,-62.988,-538.086
1630087899.140,966.797,-3.418,-31.738,535.156
1630087899.144,117.676,-20.508,-41.016,413.574
1630087899.147,-1000.000,-51.270,-43.457,-583.008
1630087899.151,-881.348,-48.828,-45.410,-655.762
1630087899.155,710.938,-31.250,-45.898,342.773
1630087899.159,802.734,-28.320,-52.734,607.422
1630087899.163,-919.922,-43.457,-56.641,-368.164
1630087899.167,-1000.000,-44.922,-44.434,-776.855
1630087899.171,642.090,-16.602,-22.949,42.480
1630087899.174,980.469,-41.504,-51.270,685.059
1630087899.178,-642.578,-76.660,-68.848,-124.512
1630087899.182,-1000.000,-52.734,-36.133,-792.480
1630087899.186,186.035,-31.738,-34.668,-292.480
1630087899.190,-966.309,-47.363,-56.641,623.047
1630087899.194,-398.438,-48.828,-44.434,207.520
1630087899.198,-1000.000,-30.273,-28.809,-673.828
1630087899.202,-623.535,-37.598,-35.645,-539.551
1630087899.206,894.531,-42.480,-35.156,467.773
1630087899.210,335.938,-50.781,-32.227,456.543
1630087899.214,-1000.000,-55.176,-34.180,-502.930
1630087899.218,-934.082,-47.363,-47.363,-677.734
1630087899.221,666.016,-86.426,-100.586,167.480
1630087899.225,911.133,-60.059,-60.547,558.105
1630087899.229,-811.523,-26.855,-36.621,-291.016
1630087899.233,-1000.000,-34.668,-44.922,-761.719
1630087899.237,585.449,-18.555,-10.742,-32.715
1630087899.239,988.770,-13.184,-12.695,722.168
1630087899.243,-608.887,-34.668,-32.715,12.207
1630087899.247,-1000.000,-75.195,-58.105,-797.363
1630087899.251,-12.695,-56.152,-51.270,-394.531
1630087899.255,-944.336,-6.348,-25.879,645.996
1630087899.259,-207.031,-20.020,-33.203,333.984
1630087899.263,-1000.000,-94.238,-85.938,-675.293
1630087899.266,-729.004,-88.867,-78.125,-653.320
1630087899.270,843.262,-5.859,-4.395,439.941
1630087899.274,599.609,-12.207,-12.207,562.500
1630087899.278,-1000.000,-49.316,-42.480,-467.773
1630087899.282,-972.656,-39.062,-50.293,-740.723
1630087899.282,665.039,-12.695,-15.625,175.293
1630087899.286,969.727,-12.695,1.953,689.453
1630087899.290,-710.449,-51.270,-35.645,-198.242
1630087899.294,-1000.000,-50.781,-49.805,-778.320
1630087899.298,474.609,-6.836,-20.996,-125.977
1630087899.302,993.652,-5.371,-23.438,729.980
1630087899.306,-580.566,-115.723,-125.488,9.766
1630087899.309,-1000.000,-128.906,-133.301,-854.004
1630087899.313,-227.051,-27.344,-22.461,-439.453
1630087899.317,-974.121,0.977,11.230,614.746
1630087899.321,-42.969,-28.320,-20.508,399.902
1630087899.325,-1000.000,-37.598,-36.133,-579.590
1630087899.328,-832.520,-18.555,-28.320,-620.605
1630087899.332,748.047,0.488,-12.207,391.602
1630087899.336,770.508,-5.371,-17.090,613.770
1630087899.340,-945.801,-35.645,-35.645,-385.742
1630087899.344,-1000.000,-34.180,-46.875,-759.277
1630087899.348,669.434,-13.184,-53.223,110.352
1630087899.352,986.816,-8.301,-31.738,749.512
1630087899.355,-658.691,-38.086,-28.809,-111.328
1630087899.359,-1000.000,-51.270,-40.039,-795.410
1630087899.363,333.008,-69.336,-68.848,-245.117
1630087899.367,-961.914,-68.848,-73.730,655.762
1630087899.371,-455.566,-32.227,-48.340,170.898
1630087899.386,-1000.000,-41.992,-50.781,-708.008
1630087899.390,-491.699,-52.246,-29.297,-478.516
1630087899.394,965.820,-10.254,-14.648,600.586
1630087899.398,274.902,-10.254,-29.297,508.301
1630087899.402,-1000.000,-61.035,-60.547,-539.062
1630087899.406,-913.574,-89.355,-90.332,-691.406
1630087899.410,687.012,-38.574,-57.129,335.449
1630087899.413,900.391,-1.953,-19.043,694.336
1630087899.417,-831.055,-39.062,-33.203,-283.203
1630087899.421,-1000.000,-51.758,-40.039,-727.539
1630087899.425,629.883,-17.090,-31.250,64.453
1630087899.429,982.910,-8.301,-22.461,779.785
1630087899.431,-631.348,-48.828,-39.551,-5.371
1630087899.435,-1000.000,-50.293,-56.152,-741.211
1630087899.439,118.164,-20.508,-32.227,-272.949
1630087899.443,-954.102,-17.090,-20.508,695.801
1630087899.447,-339.844,-52.246,-40.039,281.738
1630087899.451,-1000.000,-63.965,-56.641,-676.758
1630087899.455,-636.230,-38.086,-50.293,-535.645
1630087899.458,898.438,-13.672,-24.414,511.719
1630087899.462,440.918,-40.527,-50.293,520.020
1630087899.466,-1000.000,-62.500,-76.172,-504.395
1630087899.470,-948.730,-34.180,-49.316,-708.984
1630087899.474,666.016,-10.254,-16.113,263.184
1630087899.477,938.965,-20.020,-9.277,718.750
1630087899.481,-771.973,-47.852,-41.016,-231.445
1630087899.485,-1000.000,-43.945,-50.293,-789.062
1630087899.489,560.059,-18.066,-29.297,-36.621
1630087899.493,986.816,-37.109,-51.758,751.465
1630087899.497,-597.168,-43.945,-57.129,49.805
1630087899.501,-1000.000,-30.762,-37.598,-716.309
1630087899.504,-127.930,-35.645,-55.176,-340.820
1630087899.508,-961.914,-43.945,-79.590,619.141
1630087899.512,-145.508,-29.785,-38.574,337.891
1630087899.516,-1000.000,-40.527,-22.461,-627.930
1630087899.520,-760.254,-27.832,-32.227,-604.004
1630087899.523,818.848,5.371,-10.254,467.773
1630087899.527,642.090,-16.113,-18.066,609.863
1630087899.531,-1000.000,-45.410,-48.828,-441.406
1630087899.535,-977.539,-47.852,-50.293,-755.371
1630087899.539,665.527,-30.762,-29.297,175.781
1630087899.543,977.539,-18.066,-28.809,732.910
1630087899.547,-686.035,-42.969,-36.621,-161.133
1630087899.550,-1000.000,-75.195,-62.500,-825.684
1630087899.554,409.180,-55.664,-77.148,-198.730
1630087899.558,-979.980,6.836,-51.270,766.602
1630087899.562,-519.043,-19.043,-53.711,148.438
1630087899.566,-1000.000,-41.016,-48.828,-737.305
1630087899.566,-353.027,-25.879,-20.020,-428.223
1630087899.570,998.535,-6.836,-0.977,637.695
1630087899.574,53.223,-22.949,-26.367,449.219
1630087899.578,-1000.000,-59.082,-58.105,-576.660
1630087899.582,-845.703,-41.016,-43.945,-613.770
1630087899.586,740.234,-2.930,-21.484,439.453
1630087899.590,811.523,-19.531,-34.668,687.988
1630087899.593,-914.062,-112.793,-105.957,-408.691
1630087899.597,-1000.000,-99.609,-99.609,-803.223
1630087899.601,664.062,-15.137,-20.020,145.020
1630087899.605,983.887,-17.578,-12.207,810.547
1630087899.609,-646.484,-47.852,-46.387,-45.898
1630087899.613,-1000.000,-57.129,-45.898,-769.043
1630087899.617,251.465,-35.645,-14.648,-221.680
1630087899.621,-956.543,-22.461,-12.207,748.047
1630087899.625,-418.457,-41.992,-41.016,236.816
1630087899.629,-1000.000,-55.664,-39.062,-706.055
1630087899.633,-526.367,-31.738,-17.578,-475.586
1630087899.637,951.172,-27.832,-31.250,592.285
1630087899.640,304.688,-52.734,-60.059,498.047
1630087899.644,-1000.000,-49.805,-44.434,-526.855
1630087899.648,-923.828,-40.527,-34.668,-658.691
1630087899.652,686.523,-20.996,-31.738,350.586
1630087899.656,882.324,-16.113,-34.180,708.984
1630087899.656,-842.773,-43.457,-38.574,-299.316
1630087899.660,-1000.000,-49.316,-36.621,-790.039
1630087899.664,600.098,-29.785,-41.992,6.348
1630087899.668,974.121,-17.578,-36.621,777.832
1630087899.672,-613.281,-42.480,-44.434,10.254
1630087899.676,-1000.000,-52.246,-53.223,-771.973
1630087899.680,-82.520,-81.543,-84.473,-395.508
1630087899.683,998.535,-62.012,-60.059,623.047
1630087899.687,-303.711,-43.457,-36.133,289.551
1630087899.691,-1000.000,-54.688,-54.199,-728.516
1630087899.695,-708.984,-22.461,-48.828,-617.188
1630087899.699,843.262,-2.441,-18.066,487.305
1630087899.708,485.352,-22.461,-20.508,548.340
1630087899.712,-1000.000,-51.270,-71.289,-513.184
1630087899.716,-955.078,-52.734,-66.406,-771.973
1630087899.720,662.598,-12.695,-14.160,224.121
1630087899.724,946.777,-2.930,-16.113,716.309
1630087899.728,-745.117,-44.922,-62.012,-256.836
1630087899.732,-1000.000,-49.805,-63.965,-832.031
1630087899.735,495.605,-10.254,-24.902,-87.891
1630087899.739,984.863,-9.766,-14.160,751.953
1630087899.743,-590.332,-67.871,-52.734,26.855
1630087899.747,-1000.000,-62.500,-64.941,-797.852
1630087899.751,-221.680,-23.438,-34.668,-406.738
1630087899.761,-996.582,-8.301,-18.555,662.598
1630087899.765,-145.020,-22.461,-36.621,385.254
1630087899.769,-1000.000,-49.316,-47.363,-627.930
1630087899.773,-774.414,-38.086,-27.344,-592.773
1630087899.777,800.293,-13.184,-14.160,494.629
1630087899.781,650.879,-81.543,-89.355,613.281
1630087899.785,-1000.000,-137.207,-123.535,-501.465
1630087899.788,-978.516,-62.012,-46.387,-785.645
1630087899.792,666.504,-4.395,-6.348,183.594
1630087899.796,977.051,-10.742,-22.461,773.926
1630087899.800,-682.129,-36.621,-41.504,-147.461
1630087899.804,-1000.000,-40.527,-46.875,-794.434
1630087899.806,383.301,-23.438,-32.715,-151.855
1630087899.810,-966.309,-13.672,-8.301,798.340
1630087899.814,-484.863,-38.086,-32.715,218.750
1630087899.818,-1000.000,-58.594,-51.758,-712.891
1630087899.822,-428.223,-36.133,-25.879,-456.055
1630087899.826,979.980,-4.395,-3.418,643.066
1630087899.830,147.949,-24.414,-30.273,487.793
1630087899.833,-1000.000,-45.898,-53.223,-575.684
1630087899.837,-896.484,-75.195,-75.195,-702.148
1630087899.841,694.336,-60.547,-59.570,319.824
1630087899.845,847.168,-20.996,-27.832,685.059
1630087899.849,-891.113,-45.898,-53.223,-327.637
1630087899.852,-1000.000,-47.852,-50.781,-772.461
1630087899.856,655.273,-17.578,-17.090,110.352
1630087899.860,987.793,-4.883,-10.742,846.191
1630087899.864,-645.020,-43.457,-38.086,-5.371
1630087899.868,-1000.000,-77.148,-69.824,-791.504
1630087899.872,242.676,-40.527,-45.410,-250.977
1630087899.876,-933.105,-10.254,-18.555,775.879
1630087899.879,-363.281,-43.945,-49.316,283.203
1630087899.883,-1000.000,-92.285,-89.355,-742.676
1630087899.887,-572.754,-53.223,-56.641,-541.504
1630087899.891,939.941,-12.207,-12.695,610.840
1630087899.895,444.824,-38.574,-28.809,571.289
1630087899.896,-1000.000,-61.035,-58.594,-510.742
1630087899.900,-938.965,-41.016,-46.875,-673.828
1630087899.904,681.152,-14.160,-17.578,359.375
1630087899.908,946.289,-19.531,-29.297,775.391
1630087899.912,-774.414,-40.039,-51.270,-236.328
1630087899.916,-1000.000,-37.109,-41.016,-759.277
1630087899.920,611.816,-18.555,-21.973,42.969
1630087899.923,983.398,-41.504,-46.875,795.898
1630087899.927,-620.117,-61.035,-62.012,11.719
1630087899.931,-1000.000,-51.270,-49.316,-791.504
1630087899.935,23.926,-22.949,-36.133,-343.262
1630087899.939,-941.895,1.953,-13.672,732.910
1630087899.942,-240.234,-29.297,-30.762,364.258
1630087899.946,-1000.000,-48.340,-51.270,-660.645
1630087899.950,-733.887,-46.387,-51.270,-589.355
1630087899.954,833.496,-45.410,-56.152,485.352
1630087899.958,554.199,-41.016,-63.477,557.617
1630087899.962,-1000.000,-44.922,-58.594,-495.117
1630087899.966,-964.355,-45.898,-63.965,-749.023
1630087899.969,661.621,-47.363,-80.078,171.387
1630087899.973,969.727,-26.367,-50.781,722.656
1630087899.977,-706.055,-43.945,-51.270,-204.590
1630087899.981,-1000.000,-63.965,-62.500,-835.938
1630087899.985,453.125,-33.203,-35.156,-127.930
1630087899.988,993.652,-13.672,-33.691,762.695
1630087899.992,-571.777,-45.898,-62.500,92.285
1630087899.996,-1000.000,-58.594,-71.777,-800.293
1630087900.000,-292.969,-32.227,-49.316,-445.801
1630087900.004,-995.117,-4.395,-27.832,666.992
1630087900.008,-23.926,-15.625,-38.574,430.176
1630087900.012,-1000.000,-82.031,-88.867,-664.062
1630087900.015,-836.426,-95.215,-105.469,-737.793
1630087900.019,747.070,-24.414,-33.691,406.738
1630087900.023,736.328,-26.855,-32.227,667.969
1630087900.027,-969.238,-63.965,-61.523,-425.293
1630087900.031,-992.676,-49.316,-49.805,-799.316
1630087900.031,668.457,-20.508,-24.902,128.906
1630087900.035,987.793,-30.762,-20.996,777.832
1630087900.039,-665.039,-59.570,-44.434,-121.094
1630087900.043,-1000.000,-49.805,-42.969,-832.520
1630087900.047,368.164,-13.184,-25.879,-185.547
1630087900.051,-957.520,-7.324,-20.508,806.641
1630087900.055,-463.379,-78.613,-81.543,173.340
1630087900.058,-1000.000,-83.984,-94.238,-797.852
1630087900.062,-453.613,-33.691,-41.504,-494.141
1630087900.066,977.051,-22.949,-23.438,614.746
1630087900.070,203.613,-32.227,-41.016,489.258
1630087900.074,-1000.000,-43.457,-52.734,-555.664
1630087900.078,-898.438,-41.992,-39.551,-666.016
1630087900.082,693.848,-25.391,-14.160,379.883
1630087900.086,889.648,-28.320,-26.855,717.285
1630087900.090,-848.145,-55.176,-50.293,-314.453
1630087900.094,-1000.000,-53.711,-44.434,-784.668
1630087900.098,647.949,-25.879,-33.203,48.340
1630087900.102,981.934,-26.855,-20.508,783.203
1630087900.105,-632.812,-53.223,-30.273,-41.016
1630087900.109,-1000.000,-52.734,-39.551,-820.801
1630087900.113,133.301,-24.902,-31.738,-300.781
1630087900.117,-952.637,2.441,-17.578,741.211
1630087900.121,-344.727,-21.484,-44.922,276.367
1630087900.136,-1000.000,-50.781,-64.453,-714.355
1630087900.140,-668.945,-52.246,-50.293,-589.844
1630087900.144,874.512,-20.020,-19.043,507.324
1630087900.148,431.152,-19.043,-30.273,540.527
1630087900.152,-1000.000,-53.223,-59.082,-537.598
1630087900.156,-951.660,-81.055,-75.195,-787.109
1630087900.160,671.875,-44.434,-45.410,227.539
1630087900.163,895.996,-16.602,-27.344,705.078
1630087900.167,-803.711,-47.852,-54.199,-308.105
1630087900.171,-1000.000,-47.363,-50.781,-858.398
1630087900.175,505.371,-24.414,-21.973,-89.844
1630087900.179,974.609,-15.625,-18.555,738.281
1630087900.181,-600.586,-43.457,-45.898,9.766
1630087900.185,-1000.000,-65.918,-58.594,-830.566
1630087900.189,-228.027,-43.457,-35.156,-442.871
1630087900.193,974.609,-9.277,-11.719,629.883
1630087900.197,-233.398,-30.273,-43.945,335.938
1630087900.201,-1000.000,-53.711,-56.641,-693.359
1630087900.205,-792.480,-32.715,-38.574,-654.785
1630087900.208,763.184,-2.930,-21.484,436.035
1630087900.212,542.969,-34.180,-46.875,554.688
1630087900.216,-1000.000,-68.359,-75.684,-506.836
1630087900.220,-959.961,-52.734,-48.340,-808.594
1630087900.224,662.109,-20.508,-13.672,152.344
1630087900.226,961.914,-15.625,-18.066,735.352
1630087900.230,-707.031,-52.246,-45.898,-216.309
1630087900.234,-1000.000,-58.594,-46.875,-854.980
1630087900.238,414.062,-30.762,-35.645,-155.273
1630087900.242,-999.512,-62.500,-73.242,728.027
1630087900.246,-545.898,-83.008,-84.961,73.730
1630087900.250,-1000.000,-61.035,-55.176,-789.062
1630087900.253,-384.766,-58.594,-46.387,-485.840
1630087900.257,972.656,-53.711,-54.199,570.801
1630087900.261,-0.977,-40.527,-50.781,393.555
1630087900.265,-1000.000,-54.688,-64.941,-629.395
1630087900.269,-851.562,-41.504,-42.969,-654.297
1630087900.272,723.633,-7.812,-6.836,415.527
1630087900.276,798.340,-19.043,-24.902,656.738
1630087900.280,-927.734,-50.781,-48.340,-386.719
1630087900.284,-1000.000,-55.664,-49.316,-774.902
1630087900.288,659.668,-25.879,-26.855,126.953
1630087900.292,984.863,-3.418,-23.438,807.617
1630087900.296,-648.438,-31.738,-45.410,-42.480
1630087900.299,-1000.000,-66.895,-65.430,-773.438
1630087900.303,263.184,-53.223,-57.617,-242.676
1630087900.307,-958.496,-11.719,-31.250,768.555
1630087900.311,-426.270,-36.133,-45.898,254.395
1630087900.315,-1000.000,-61.523,-55.176,-723.633
1630087900.317,-522.949,-38.574,-32.227,-502.930
1630087900.321,950.684,-20.020,-18.555,596.191
1630087900.325,280.273,-33.203,-40.039,513.672
1630087900.329,-1000.000,-61.035,-52.734,-540.039
1630087900.333,-915.527,-51.270,-39.551,-680.664
1630087900.337,674.805,-4.883,-17.090,360.352
1630087900.341,931.641,-7.812,-23.438,766.602
1630087900.344,-794.922,-69.336,-70.312,-283.691
1630087900.348,-1000.000,-68.359,-59.570,-801.270
1630087900.352,615.723,-20.020,-25.391,39.551
1630087900.356,984.375,-12.207,-25.391,829.590
1630087900.360,-629.883,-47.852,-50.293,34.668
1630087900.363,-1000.000,-53.711,-50.293,-771.973
1630087900.367,79.102,-32.227,-28.320,-294.434
1630087900.371,-921.387,-21.973,-19.043,772.461
1630087900.375,-219.727,-42.969,-48.828,374.512
1630087900.379,-1000.000,-62.012,-64.453,-652.832
1630087900.383,-668.945,-26.367,-32.715,-533.203
1630087900.387,892.090,-16.113,-33.691,540.527
1630087900.390,557.129,-46.387,-54.688,568.359
1630087900.394,-1000.000,-51.270,-50.293,-477.051
1630087900.398,-965.332,-39.062,-47.852,-700.195
1630087900.402,667.969,-13.672,-28.320,290.039
1630087900.406,963.379,-20.508,-33.691,768.066
1630087900.407,-726.562,-48.340,-49.316,-188.965
1630087900.411,-1000.000,-70.801,-56.152,-768.066
1630087900.415,505.371,-62.988,-71.777,-75.684
1630087900.419,993.652,-24.414,-45.410,801.270
1630087900.423,-570.312,-34.180,-41.992,116.211
1630087900.427,-1000.000,-50.293,-62.012,-756.836
1630087900.431,-268.555,-93.262,-94.727,-461.426
1630087900.434,996.094,-60.059,-56.152,624.512
1630087900.438,-106.445,-25.879,-40.527,396.973
1630087900.442,-1000.000,-46.875,-65.918,-660.156
1630087900.446,-798.828,-33.691,-44.922,-652.832
1630087900.450,775.879,-4.883,-18.066,448.730
1630087900.453,695.801,-14.160,-25.879,624.023
1630087900.457,-987.793,-50.781,-46.875,-449.707
1630087900.461,-986.328,-63.965,-44.922,-791.504
1630087900.465,669.922,-45.410,-32.715,154.785
1630087900.469,975.098,-16.602,-27.344,777.832
1630087900.473,-678.223,-51.270,-52.246,-149.902
1630087900.477,-1000.000,-80.566,-80.078,-854.004
1630087900.480,367.188,-33.203,-47.363,-217.285
1630087900.484,-980.957,-13.672,-20.996,733.887
1630087900.488,-509.277,-43.945,-30.273,137.695
1630087900.492,-1000.000,-51.270,-35.156,-783.203
1630087900.496,-401.855,-30.762,-28.320,-496.582
1630087900.511,987.305,-3.906,-15.137,617.676
1630087900.515,120.605,-27.832,-41.016,457.520
1630087900.519,-1000.000,-64.453,-63.965,-617.676
1630087900.523,-877.441,-41.504,-38.574,-677.246
1630087900.527,714.844,-20.508,-17.090,389.160
1630087900.531,829.102,-74.219,-75.684,634.277
1630087900.535,-898.926,-75.195,-80.078,-378.906
1630087900.538,-1000.000,-35.156,-44.922,-790.527
1630087900.542,645.508,-23.926,-43.457,52.734
1630087900.546,985.352,-41.016,-67.383,741.211
1630087900.550,-637.207,-46.875,-75.684,-82.031
1630087900.554,-1000.000,-38.574,-73.242,-810.059
1630087900.556,194.336,-17.578,-60.059,-283.691
1630087900.560,-960.449,4.883,-53.223,729.980
1630087900.564,-394.531,-20.020,-84.961,238.770
1630087900.568,-1000.000,-38.086,-96.680,-734.863
1630087900.572,-615.723,-24.414,-81.055,-541.504
1630087900.576,900.391,1.953,-65.918,571.777
1630087900.580,323.730,-10.254,-78.125,556.641
1630087900.583,-1000.000,-46.875,-97.656,-516.113
1630087900.587,-932.129,-50.781,-101.562,-707.520
1630087900.591,670.898,-2.930,-77.148,346.191
1630087900.595,895.020,23.438,-68.848,791.016
1630087900.599,-811.523,-16.602,-92.773,-198.730
1630087900.601,-1000.000,-52.246,-97.656,-741.211
1630087900.605,530.762,-24.414,-67.871,23.926
1630087900.609,976.074,-0.977,-44.922,843.750
1630087900.613,-605.469,-28.320,-67.383,83.496
1630087900.617,-1000.000,-53.711,-99.609,-741.211
1630087900.621,-126.465,-25.391,-77.637,-271.484
1630087900.625,946.289,3.418,-49.805,762.207
1630087900.628,-375.977,-37.109,-70.312,361.328
1630087900.632,-1000.000,-84.961,-101.074,-644.043
1630087900.636,-754.883,-44.434,-75.195,-535.645
1630087900.640,782.715,-1.465,-40.527,527.344
1630087900.644,427.734,-14.160,-50.293,600.586
1630087900.650,-1000.000,-44.922,-68.848,-433.594
1630087900.654,-945.312,-42.480,-57.617,-693.848
1630087900.658,662.109,-3.418,-37.109,251.465
1630087900.662,931.152,-4.395,-47.852,744.629
1630087900.666,-752.441,-42.969,-68.848,-182.617
1630087900.670,-1000.000,-33.691,-57.129,-728.027
1630087900.674,451.660,-3.906,-33.203,-49.805
1630087900.677,983.398,-14.160,-36.621,760.742
1630087900.681,-583.496,-58.594,-61.523,97.656
1630087900.685,-1000.000,-68.359,-57.129,-721.191
1630087900.689,-306.152,-33.691,-38.086,-396.484
1630087900.693,988.770,1.953,-25.879,644.531
1630087900.691,-73.242,-15.625,-52.734,416.016
1630087900.695,-1000.000,-48.340,-62.012,-595.703
1630087900.699,-815.430,-42.480,-48.828,-609.863
1630087900.703,759.277,-16.113,-33.691,437.012
1630087900.707,743.652,-19.531,-30.762,658.691
1630087900.711,-962.402,-45.898,-50.781,-344.238
1630087900.715,-994.141,-51.270,-56.641,-717.773
1630087900.718,669.434,-45.898,-61.035,122.070
1630087900.722,986.816,-35.156,-55.176,733.398
1630087900.726,-670.898,-50.293,-51.758,-102.051
1630087900.730,-1000.000,-60.547,-54.688,-746.094
1630087900.734,388.184,-29.297,-37.598,-160.645
1630087900.738,-958.008,-8.301,-18.066,725.586
1630087900.742,-474.121,-35.645,-36.133,176.758
1630087900.746,-1000.000,-52.246,-49.316,-680.664
1630087900.750,-391.113,-32.227,-38.086,-422.852
1630087900.754,-997.559,-11.719,-44.434,604.004
1630087900.758,186.523,-16.113,-48.340,463.379
1630087900.762,-1000.000,-56.152,-60.059,-541.992
1630087900.765,-873.535,-49.316,-62.500,-602.539
1630087900.769,729.980,5.371,-29.785,409.180
1630087900.773,850.098,-9.277,-29.785,661.621
1630087900.777,-881.348,-58.105,-60.059,-298.828
1630087900.781,-1000.000,-55.664,-58.105,-673.828
1630087900.782,659.180,-29.785,-29.297,115.723
1630087900.786,987.305,-32.715,-27.344,752.441
1630087900.790,-644.531,-48.340,-49.316,-41.016
1630087900.794,-1000.000,-46.875,-56.152,-706.055
1630087900.798,249.512,-27.344,-40.527,-198.242
1630087900.802,-939.941,-12.207,-33.691,711.426
1630087900.806,-380.371,-73.730,-86.426,223.145
1630087900.809,-1000.000,-89.844,-90.332,-673.828
1630087900.813,-581.055,-42.969,-38.574,-475.586
1630087900.817,936.523,-16.113,-22.949,560.547
1630087900.821,467.773,-24.902,-34.180,537.109
1630087900.825,-1000.000,-49.805,-44.434,-461.914
1630087900.829,-947.266,-44.434,-44.434,-624.023
1630087900.833,675.781,-26.367,-35.156,328.125
1630087900.837,950.195,-36.133,-42.969,676.758
1630087900.841,-777.344,-65.918,-52.734,-263.672
1630087900.845,-1000.000,-59.570,-51.270,-709.961
1630087900.849,625.488,-26.367,-34.668,25.391
1630087900.853,-994.141,-29.785,-26.855,759.277
1630087900.856,-608.887,-68.359,-53.711,23.438
1630087900.860,-1000.000,-70.312,-48.340,-732.422
1630087900.864,124.512,-51.270,-35.156,-322.266
1630087900.868,-877.441,-38.086,-26.855,651.367
1630087900.872,-102.539,-49.805,-35.156,298.340
1630087900.887,-1000.000,-67.871,-47.363,-624.023
1630087900.891,-554.688,-55.176,-32.227,-494.141
1630087900.895,967.773,-33.203,-14.648,555.176
1630087900.899,701.172,-40.527,-31.250,619.141
1630087900.903,-937.012,-67.871,-53.223,-416.016
1630087900.907,-994.141,-88.867,-73.242,-686.035
1630087900.911,676.758,-53.223,-44.434,266.113
1630087900.914,988.281,-23.438,-16.602,778.320
1630087900.918,-702.148,-53.711,-38.574,-166.016
1630087900.922,-1000.000,-61.035,-47.363,-742.676
1630087900.926,526.367,-32.715,-29.297,-48.828
1630087900.930,-979.004,-18.555,-13.184,837.891
1630087900.931,-541.504,-45.898,-31.250,153.320
1630087900.935,-1000.000,-61.035,-43.457,-720.703
1630087900.939,-157.715,-34.180,-27.832,-352.051
1630087900.943,-947.754,-11.230,-10.254,725.098
1630087900.947,-51.758,-40.039,-27.832,441.895
1630087900.951,-1000.000,-61.523,-42.969,-597.168
1630087900.955,-825.684,-56.641,-39.551,-596.680
1630087900.958,767.090,-30.762,-16.602,502.930
1630087900.962,652.344,-41.016,-41.504,656.250
1630087900.966,-1000.000,-62.988,-67.383,-439.941
1630087900.970,-978.027,-47.852,-44.922,-749.023
1630087900.974,668.457,-22.949,-18.555,211.914
1630087900.976,967.285,-11.230,-22.461,843.262
1630087900.980,-682.129,-31.738,-42.480,-137.207
1630087900.984,-1000.000,-33.691,-36.621,-804.199
1630087900.988,348.145,-12.207,-19.043,-147.949
1630087900.992,-996.582,-15.625,-20.508,829.102
1630087900.996,-520.508,-38.574,-46.875,195.312
1630087901.000,-1000.000,-49.316,-57.129,-785.156
1630087901.003,-491.211,-32.227,-38.086,-505.859
1630087901.007,922.852,-26.367,-28.809,661.133
1630087901.011,1.465,-44.434,-44.922,490.234
1630087901.015,-1000.000,-54.199,-56.641,-642.090
1630087901.019,-888.672,-37.109,-44.922,-711.914
1630087901.022,682.129,-7.324,-23.926,434.570
1630087901.026,742.676,-14.648,-38.086,745.605
1630087901.030,-958.984,-50.781,-57.129,-406.250
1630087901.034,-1000.000,-49.805,-48.340,-863.281
1630087901.038,602.539,-15.137,-25.879,108.887
1630087901.042,980.469,-0.977,-28.809,893.066
1630087901.046,-631.348,-37.598,-49.316,-58.594
1630087901.049,-1000.000,-68.359,-61.523,-894.043
1630087901.053,115.234,-39.551,-41.016,-331.055
1630087901.057,994.141,-10.742,-11.719,806.641
1630087901.061,-437.500,-40.039,-42.480,293.457
1630087901.065,-1000.000,-69.336,-63.477,-798.828
1630087901.066,-656.738,-50.293,-41.016,-621.582
1630087901.070,861.328,-13.184,-14.648,633.789
1630087901.074,252.441,-33.203,-27.832,618.164
1630087901.078,-1000.000,-61.523,-56.152,-577.637
1630087901.082,-926.270,-55.176,-49.316,-803.223
1630087901.086,666.016,-21.484,-16.113,349.609
1630087901.090,865.234,-22.461,-29.785,850.586
1630087901.093,-847.656,-85.938,-78.125,-394.531
1630087901.097,-1000.000,-81.055,-68.359,-993.164
1630087901.101,529.785,-31.738,-25.391,-50.293
1630087901.105,977.539,-11.719,-18.066,884.277
1630087901.109,-607.910,-36.133,-46.875,-6.836
1630087901.115,-1000.000,-50.293,-53.223,-965.820
1630087901.119,-99.609,-31.738,-31.250,-451.172
1630087901.123,970.215,-20.508,-22.461,796.387
1630087901.127,-351.074,-45.898,-55.176,336.426
1630087901.131,-1000.000,-62.500,-64.941,-901.855
1630087901.135,-738.770,-34.668,-34.668,-781.738
1630087901.139,800.293,-13.672,-24.414,629.395
1630087901.142,358.887,-44.922,-59.570,691.406
1630087901.146,-1000.000,-61.035,-65.430,-671.387
1630087901.150,-934.082,-43.457,-51.758,-963.379
1630087901.154,657.227,-8.301,-16.602,279.297
1630087901.158,932.129,-8.789,-12.695,918.457
1630087901.157,-750.000,-45.898,-55.176,-303.711
1630087901.161,-1000.000,-50.781,-71.777,-1000.000
1630087901.165,441.895,-16.602,-37.598,-156.738
1630087901.169,974.121,0.977,-14.160,887.695
1630087901.173,-586.426,-37.109,-39.062,83.984
1630087901.177,-1000.000,-57.617,-48.340,-964.844
1630087901.181,-372.070,-80.566,-73.242,-595.703
1630087901.184,944.336,-61.035,-68.359,732.910
1630087901.188,-155.762,-35.156,-47.852,471.680
1630087901.192,-1000.000,-57.129,-54.688,-815.430
1630087901.196,-837.402,-35.645,-41.992,-822.754
1630087901.200,723.145,9.766,-7.812,547.363
1630087901.203,662.598,-7.324,-26.367,792.480
1630087901.207,-1000.000,-44.434,-66.895,-548.340
1630087901.211,-982.910,-41.504,-62.012,-965.820
1630087901.215,661.621,-4.395,-23.926,165.527
1630087901.219,967.285,2.930,-23.926,922.363
1630087901.223,-672.363,-47.852,-66.895,-184.082
1630087901.227,-1000.000,-62.012,-76.172,-1000.000
1630087901.230,297.363,-15.625,-36.621,-279.297
1630087901.234,991.699,5.859,-6.836,856.934
1630087901.238,-522.461,-53.223,-62.500,158.691
1630087901.242,-1000.000,-69.824,-87.402,-961.426
1630087901.246,-540.039,-31.738,-42.480,-633.301
1630087901.261,911.621,-3.418,-16.113,725.098
1630087901.265,59.082,-28.320,-49.316,558.105
1630087901.269,-1000.000,-68.359,-69.336,-758.789
1630087901.273,-895.508,-35.156,-46.387,-866.699
1630087901.277,681.641,7.812,-14.160,467.773
1630087901.281,775.879,-42.969,-50.781,815.918
1630087901.285,-941.895,-76.660,-73.730,-498.047
1630087901.288,-1000.000,-32.715,-47.363,-985.352
1630087901.292,607.910,11.719,-18.066,44.922
1630087901.296,977.539,7.324,-21.973,912.598
1630087901.300,-625.488,-37.598,-49.316,-70.801
1630087901.304,-1000.000,-52.734,-63.965,-993.164
1630087901.310,70.312,-26.367,-53.223,-404.785
1630087901.314,984.863,-4.883,-32.715,819.824
1630087901.318,-431.641,-36.133,-49.805,268.066
1630087901.322,-1000.000,-60.547,-47.852,-921.387
1630087901.326,-670.898,-42.480,-19.043,-747.070
1630087901.330,845.703,-9.277,4.395,657.227
1630087901.334,214.355,-28.320,-21.973,607.910
1630087901.337,-1000.000,-75.195,-50.781,-788.574
1630087901.341,-920.410,-83.984,-66.406,-1000.000
1630087901.345,665.527,-43.945,-23.926,252.441
1630087901.349,857.422,-35.645,1.953,833.008
1630087901.353,-850.586,-77.637,-35.645,-488.770
1630087901.352,-1000.000,-72.266,-38.574,-1000.000
1630087901.356,506.836,-23.926,-8.301,-195.801
1630087901.360,975.586,-17.578,6.348,862.793
1630087901.364,-603.027,-70.312,-32.227,-102.539
1630087901.368,-1000.000,-85.449,-45.898,-1000.000
1630087901.372,-166.992,-57.129,-12.207,-593.750
1630087901.376,958.984,-36.621,17.090,765.137
1630087901.379,-329.102,-55.176,-15.137,319.336
1630087901.383,-1000.000,-104.004,-78.125,-1000.000
1630087901.387,-764.648,-96.191,-75.195,-914.062
1630087901.391,785.645,-20.020,3.418,582.031
1630087901.395,481.934,-27.832,-7.324,731.934
1630087901.397,-1000.000,-74.219,-44.922,-694.336
1630087901.401,-946.777,-71.777,-31.250,-1000.000
1630087901.405,666.504,-26.855,1.465,229.004
1630087901.409,822.754,-29.297,-6.348,826.172
1630087901.413,-781.738,-75.195,-43.945,-365.723
1630087901.417,-1000.000,-73.242,-43.945,-1000.000
1630087901.421,395.996,-34.668,-5.371,-223.145
1630087901.424,970.703,-48.828,-21.484,872.559
1630087901.428,-588.379,-98.633,-78.125,11.719
1630087901.432,-1000.000,-69.336,-54.199,-1000.000
1630087901.436,-422.363,-30.762,-18.066,-634.766
1630087901.440,915.527,-3.906,-1.465,751.465
1630087901.441,-174.805,-30.273,-36.133,473.145
1630087901.445,-1000.000,-74.707,-61.523,-870.117
1630087901.449,-855.469,-58.594,-36.133,-903.809
1630087901.453,696.289,-15.137,2.930,531.738
1630087901.457,614.746,-29.297,-27.832,797.852
1630087901.461,-1000.000,-52.734,-53.711,-595.215
1630087901.465,-991.699,-41.016,-34.180,-1000.000
1630087901.468,637.695,-62.012,-58.105,79.590
1630087901.472,950.195,-65.918,-68.848,903.809
1630087901.476,-682.617,-59.570,-55.664,-249.023
1630087901.480,-1000.000,-58.594,-42.480,-1000.000
1630087901.484,231.934,-24.414,-18.066,-362.793
1630087901.488,965.820,-12.695,-9.766,851.074
1630087901.492,-539.062,-52.734,-40.039,142.578
1630087901.496,-1000.000,-64.941,-59.570,-1000.000
1630087901.500,-577.148,-39.062,-37.109,-725.098
1630087901.504,874.023,-7.324,3.418,715.332
1630087901.508,-4.883,-24.414,-18.555,545.898
1630087901.512,-1000.000,-80.566,-68.359,-864.258
1630087901.515,-894.043,-76.172,-62.500,-999.023
1630087901.519,669.434,-9.277,-9.766,429.688
1630087901.523,752.441,-11.230,-23.926,858.398
1630087901.527,-951.172,-56.641,-63.477,-529.785
1630087901.531,-1000.000,-54.199,-58.594,-1000.000
1630087901.532,572.266,-3.418,-5.371,-9.277
1630087901.536,972.168,-7.324,-4.395,917.969
1630087901.540,-622.559,-58.594,-68.359,-183.594
1630087901.544,-1000.000,-56.641,-61.035,-1000.000
1630087901.548,-4.883,-30.762,-22.949,-479.980
1630087901.552,940.430,-7.324,-14.160,815.430
1630087901.556,-464.844,-86.914,-90.332,191.895
1630087901.559,-1000.000,-108.398,-93.262,-1000.000
1630087901.563,-704.102,-43.945,-32.227,-835.449
1630087901.567,804.199,-9.766,-3.906,651.855
1630087901.571,187.012,-25.879,-37.598,655.762
1630087901.575,-1000.000,-64.453,-61.035,-797.852
1630087901.579,-916.504,-49.805,-45.898,-1000.000
1630087901.583,667.480,-14.648,-16.113,337.402
1630087901.587,836.426,-31.738,-25.879,890.137
1630087901.591,-862.793,-68.848,-57.129,-491.699
1630087901.595,-1000.000,-56.641,-43.945,-1000.000
1630087901.599,474.121,-49.316,-36.621,-187.988
1630087901.603,973.633,-62.500,-55.176,881.348
1630087901.606,-597.656,-71.777,-53.223,-64.453
1630087901.610,-1000.000,-82.031,-55.176,-1000.000
1630087901.614,-251.465,-56.641,-51.758,-617.676
1630087901.618,939.941,-12.695,-16.113,780.762
1630087901.622,-300.293,-30.762,-39.551,356.934
1630087901.636,-1000.000,-72.266,-60.547,-994.629
1630087901.640,-790.527,-58.105,-38.574,-922.363
1630087901.644,758.789,-2.930,-4.883,603.516
1630087901.648,513.184,-15.137,-22.461,752.930
1630087901.652,-1000.000,-69.336,-58.594,-715.820
1630087901.656,-956.055,-128.906,-121.094,-1000.000
1630087901.660,665.527,-102.539,-100.098,137.695
1630087901.663,941.895,-25.391,-27.832,927.246
1630087901.667,-723.633,-41.992,-55.176,-350.586
1630087901.671,-1000.000,-41.992,-49.805,-1000.000
1630087901.675,391.602,0.000,-3.418,-225.586
1630087901.679,985.840,7.812,7.812,901.367
1630087901.682,-563.965,-37.109,-35.645,74.707
1630087901.686,-1000.000,-62.500,-62.012,-1000.000
1630087901.690,-416.992,-45.410,-38.574,-673.828
1630087901.694,947.754,-2.930,12.207,769.043
1630087901.698,-80.078,-19.043,-19.043,495.605
1630087901.702,-1000.000,-54.199,-58.594,-893.555
1630087901.706,-860.840,-40.039,-33.691,-912.598
1630087901.709,706.543,2.930,13.672,584.961
1630087901.713,703.125,-50.781,-50.293,811.523
1630087901.717,-997.559,-115.723,-121.094,-681.152
1630087901.721,-995.117,-54.688,-63.965,-1000.000
1630087901.725,653.320,3.906,-6.348,161.621
1630087901.726,975.586,2.930,-18.066,965.820
1630087901.730,-653.809,-49.316,-55.664,-232.422
1630087901.734,-1000.000,-46.875,-36.133,-1000.000
1630087901.738,247.070,-13.184,-11.719,-317.871
1630087901.742,-992.676,-30.273,-23.926,878.906
1630087901.746,-479.004,-41.504,-46.387,212.891
1630087901.750,-1000.000,-40.039,-55.176,-1000.000
1630087901.753,-592.285,-34.180,-37.109,-731.934
1630087901.757,885.254,-22.949,-19.531,737.305
1630087901.761,80.078,-36.133,-43.457,590.820
1630087901.765,-1000.000,-51.270,-58.594,-810.547
1630087901.769,-906.738,-41.992,-43.457,-945.801
1630087901.771,662.598,-10.254,-10.254,478.516
1630087901.775,822.754,0.977,-2.930,913.574
1630087901.779,-899.902,-37.109,-43.945,-523.926
1630087901.783,-1000.000,-40.039,-51.270,-1000.000
1630087901.787,570.801,2.441,-3.418,12.207
1630087901.791,980.957,18.066,8.301,960.449
1630087901.795,-617.188,-25.879,-38.574,-108.887
1630087901.798,-1000.000,-68.359,-71.289,-1000.000
1630087901.802,7.812,-32.715,-38.086,-503.906
1630087901.806,-994.629,21.973,10.254,847.168
1630087901.810,-390.625,-29.785,-32.227,312.988
1630087901.814,-1000.000,-59.570,-55.664,-976.562
1630087901.821,-512.695,-21.484,-23.926,-620.117
1630087901.825,906.738,21.484,9.766,768.066
1630087901.829,315.918,-0.488,-21.484,682.617
1630087901.833,-1000.000,-76.172,-74.707,-751.953
1630087901.837,-940.918,-60.547,-57.129,-1000.000
1630087901.841,661.621,15.137,10.742,392.090
1630087901.845,913.086,-8.789,-13.672,952.637
1630087901.848,-785.645,-91.797,-83.008,-448.730
1630087901.852,-1000.000,-67.383,-62.012,-1000.000
1630087901.856,487.305,-10.254,-10.254,-94.727
1630087901.860,990.723,-6.348,-0.488,939.453
1630087901.864,-594.238,-37.109,-44.434,42.480
1630087901.863,-1000.000,-53.223,-54.199,-982.422
1630087901.867,-166.504,-30.273,-24.414,-473.633
1630087901.871,-945.801,3.906,4.395,831.543
1630087901.875,-34.668,-26.367,-34.668,492.676
1630087901.879,-1000.000,-57.129,-66.406,-793.457
1630087901.883,-749.512,-25.391,-43.457,-704.102
1630087901.887,829.102,-12.695,-18.555,705.566
1630087901.890,832.031,-61.035,-60.059,838.867
1630087901.894,-883.789,-70.312,-69.824,-526.367
1630087901.898,-1000.000,-57.617,-42.480,-878.418
1630087901.902,676.270,-19.043,-16.113,365.723
1630087901.906,988.770,1.953,-16.113,-1000.000
1630087901.906,-666.016,-36.133,-51.270,-209.473
1630087901.910,-1000.000,-57.617,-56.641,-1000.000
1630087901.914,400.391,-33.203,-14.648,-193.848
1630087901.918,-986.328,-1.465,0.488,919.922
1630087901.922,-517.578,-35.645,-44.922,157.715
1630087901.926,-1000.000,-57.129,-62.988,-996.582
1630087901.930,-458.008,-64.941,-80.078,-653.809
1630087901.933,959.473,-30.762,-39.062,774.414
1630087901.937,62.012,-33.691,-31.250,582.520
1630087901.941,-1000.000,-76.660,-68.848,-811.035
1630087901.945,-884.766,-55.664,-56.641,-870.605
1630087901.949,697.266,3.906,-3.418,601.562
1630087901.953,800.293,-11.719,-19.043,895.020
1630087901.957,-937.500,-67.383,-64.453,-516.602
1630087901.961,-1000.000,-71.777,-67.383,-981.934
1630087901.965,644.043,-24.414,-21.484,186.523
1630087901.969,882.812,-5.371,-17.090,921.387
1630087901.973,-670.410,-57.129,-67.871,-171.875
1630087901.977,-1000.000,-72.266,-69.824,-1000.000
1630087901.980,192.871,-20.020,-26.855,-348.633
1630087901.984,-991.211,14.648,-1.465,881.836
1630087901.988,-463.379,-41.992,-51.758,234.863
1630087901.992,-1000.000,-63.965,-70.801,-1000.000
1630087901.996,-643.555,-22.949,-28.320,-725.098
1630087902.012,861.816,4.395,11.230,743.164
1630087902.016,157.715,-34.668,-32.715,641.113
1630087902.020,-1000.000,-69.336,-62.988,-780.273
1630087902.024,-914.551,-46.875,-34.668,-939.453
1630087902.028,664.062,-16.113,5.371,480.957
1630087902.032,845.215,-42.969,-31.250,927.246
1630087902.036,-870.117,-70.312,-84.473,-489.258
1630087902.039,-1000.000,-48.828,-54.688,-1000.000
1630087902.043,533.203,-17.578,-1.465,-15.625
1630087902.047,976.074,-7.324,-2.441,945.801
1630087902.051,-605.469,-47.852,-51.758,-96.680
1630087902.055,-1000.000,-67.871,-54.688,-1000.000
1630087902.058,-129.395,-29.785,-27.832,-527.344
1630087902.062,954.590,5.859,-9.277,824.707
1630087902.066,-364.258,-35.156,-41.992,331.055
1630087902.070,-1000.000,-72.754,-55.664,-1000.000
1630087902.074,-757.324,-66.895,-43.945,-874.023
1630087902.078,775.879,-20.508,-13.184,656.738
1630087902.082,331.055,-18.555,-23.438,732.422
1630087902.085,-1000.000,-69.824,-49.805,-759.277
1630087902.089,-931.152,-85.449,-55.664,-1000.000
1630087902.093,662.598,-35.645,-28.320,279.785
1630087902.097,903.809,-7.812,-4.395,953.125
1630087902.101,-775.879,-52.734,-46.387,-399.902
1630087902.101,-1000.000,-61.523,-50.781,-1000.000
1630087902.105,414.062,-17.578,-7.324,-196.777
1630087902.109,970.215,11.719,3.906,910.645
1630087902.113,-589.844,-40.039,-51.758,27.344
1630087902.117,-1000.000,-100.586,-95.703,-1000.000
1630087902.121,-367.188,-45.898,-37.598,-689.453
1630087902.125,918.945,12.207,14.648,772.949
1630087902.128,-237.793,-43.945,-40.039,439.941
1630087902.132,-1000.000,-120.605,-110.352,-971.191
1630087902.136,-834.473,-73.242,-67.871,-969.727
1630087902.140,714.355,5.371,13.184,588.867
1630087902.144,588.379,-15.137,-20.996,822.266
1630087902.147,-1000.000,-55.176,-64.453,-697.266
1630087902.151,-972.656,-47.363,-47.852,-1000.000
1630087902.155,660.645,-1.953,5.859,208.496
1630087902.159,944.336,-4.883,3.906,961.426
1630087902.163,-694.824,-46.875,-49.316,-316.406
1630087902.167,-1000.000,-60.059,-48.828,-1000.000
1630087902.171,278.320,-26.367,-1.465,-329.102
1630087902.174,961.914,-16.602,-11.230,872.070
1630087902.178,-561.035,-89.355,-91.309,63.965
1630087902.182,-1000.000,-68.848,-72.754,-1000.000
1630087902.186,-542.480,-11.719,-22.949,-735.352
1630087902.190,883.301,13.184,12.207,744.141
1630087902.192,-63.477,-25.391,-26.367,542.969
1630087902.196,-1000.000,-62.012,-61.523,-909.180
1630087902.200,-886.230,-40.039,-36.621,-1000.000
1630087902.204,670.410,-1.953,1.953,496.094
1630087902.208,747.070,-9.766,-14.160,874.512
1630087902.212,-958.496,-50.781,-43.457,-598.145
1630087902.216,-1000.000,-53.711,-41.504,-1000.000
1630087902.219,581.055,-65.430,-48.828,-4.883
1630087902.223,975.586,-45.898,-30.273,936.523
1630087902.227,-626.465,-46.875,-50.293,-175.781
1630087902.231,-1000.000,-57.129,-63.965,-1000.000
1630087902.235,52.246,-31.738,-27.832,-469.727
1630087902.239,959.961,-0.977,-0.977,835.938
1630087902.243,-464.844,-29.297,-33.691,233.398
1630087902.247,-1000.000,-56.641,-56.152,-1000.000
1630087902.251,-674.316,-39.062,-44.434,-835.938
1630087902.255,841.797,-1.465,-4.883,697.266
1630087902.259,220.215,-15.137,-17.578,664.551
1630087902.263,-1000.000,-75.195,-76.660,-829.102
1630087902.266,-920.898,-76.660,-78.613,-1000.000
1630087902.270,665.527,-3.906,-7.324,377.441
1630087902.274,857.422,7.812,-13.672,938.965
1630087902.278,-849.609,-44.434,-60.059,-478.516
1630087902.282,-1000.000,-48.340,-49.316,-1000.000
1630087902.283,504.883,0.000,-3.418,-85.938
1630087902.287,975.586,10.254,2.930,935.059
1630087902.291,-602.051,-37.598,-55.176,-80.078
1630087902.295,-1000.000,-53.711,-61.035,-1000.000
1630087902.299,-173.828,-23.926,-10.742,-549.805
1630087902.303,949.219,8.789,9.766,812.012
1630087902.307,-343.750,-72.266,-92.285,305.176
1630087902.310,-1000.000,-108.398,-125.000,-1000.000
1630087902.314,-770.996,-38.086,-50.293,-917.969
1630087902.318,772.949,-8.301,0.000,627.930
1630087902.322,430.176,-23.438,-31.738,745.605
1630087902.326,-1000.000,-44.434,-71.289,-758.301
1630087902.329,-942.871,-35.645,-58.105,-1000.000
1630087902.333,658.203,-3.906,-20.996,257.812
1630087902.337,946.289,-0.977,-30.273,972.168
1630087902.341,-723.145,-44.434,-67.383,-351.074
1630087902.345,-1000.000,-49.316,-57.617,-1000.000
1630087902.349,407.715,-27.832,-37.598,-212.891
1630087902.353,967.285,-28.809,-39.551,902.832
1630087902.356,-587.402,-50.781,-54.688,27.344
1630087902.360,-1000.000,-67.383,-62.012,-1000.000
1630087902.364,-440.918,-66.895,-52.246,-726.074
1630087902.368,907.715,-32.715,-18.066,750.488
1630087902.372,-173.828,-35.156,-39.551,474.121
1630087902.387,-1000.000,-55.176,-64.453,-950.684
1630087902.391,-856.445,-46.387,-41.016,-960.938
1630087902.395,693.848,-15.625,3.418,573.242
1630087902.399,666.016,-12.207,-14.648,847.656
1630087902.403,-1000.000,-59.082,-67.871,-647.461
1630087902.407,-998.047,-99.121,-86.914,-1000.000
1630087902.411,642.090,-41.016,-34.668,106.934
1630087902.414,958.008,2.441,-20.508,952.637
1630087902.418,-668.945,-56.152,-78.613,-269.531
1630087902.422,-1000.000,-102.539,-101.562,-1000.000
1630087902.426,220.215,-37.598,-33.691,-411.133
1630087902.430,967.285,12.207,3.418,854.492
1630087902.431,-533.203,-35.645,-50.781,152.832
1630087902.435,-1000.000,-57.129,-69.824,-1000.000
1630087902.439,-591.797,-32.715,-37.598,-796.875
1630087902.443,873.047,-3.906,8.789,720.703
1630087902.447,33.203,-35.645,-27.832,580.078
1630087902.451,-1000.000,-66.895,-66.406,-886.230
1630087902.455,-901.367,-43.457,-40.039,-1000.000
1630087902.458,666.016,-5.859,1.953,469.727
1630087902.462,770.508,-43.945,-43.457,871.094
1630087902.466,-941.406,-88.379,-88.379,-612.793
1630087902.470,-1000.000,-46.875,-58.105,-1000.000
1630087902.474,578.613,-6.836,-21.973,31.250
1630087902.476,980.957,-29.297,-33.691,955.078
1630087902.480,-618.164,-69.824,-60.059,-164.551
1630087902.484,-1000.000,-55.664,-49.316,-1000.000
1630087902.488,25.879,-27.344,-25.391,-454.102
1630087902.492,989.258,-44.434,-29.297,843.750
1630087902.496,-401.855,-51.758,-41.504,288.086
1630087902.500,-1000.000,-49.316,-40.039,-1000.000
1630087902.503,-710.938,-44.922,-40.527,-833.008
1630087902.507,824.707,-33.691,-39.062,683.594
1630087902.511,319.336,-34.180,-41.504,705.078
1630087902.515,-1000.000,-47.363,-55.664,-777.832
1630087902.519,-931.152,-38.086,-43.945,-1000.000
1630087902.524,661.621,-5.859,-3.906,369.141
1630087902.528,903.809,-5.371,-20.020,949.219
1630087902.532,-793.457,-50.293,-57.617,-428.711
1630087902.536,-1000.000,-72.266,-60.059,-1000.000
1630087902.540,479.980,-25.879,-16.113,-144.531
1630087902.544,974.609,6.348,2.441,924.805
1630087902.548,-599.609,-38.574,-47.363,-17.578
1630087902.551,-1000.000,-71.289,-66.895,-1000.000
1630087902.555,-233.887,-46.387,-47.363,-618.164
1630087902.559,963.379,0.977,-6.348,795.898
1630087902.563,-270.020,-26.367,-43.457,384.766
1630087902.567,-1000.000,-61.035,-71.777,-974.609
1630087902.566,-806.152,-44.434,-32.715,-887.207
1630087902.570,747.559,-0.977,8.789,623.535
1630087902.574,560.059,-19.043,-17.578,783.691
1630087902.578,-1000.000,-62.500,-54.688,-695.312
1630087902.582,-961.914,-50.781,-50.293,-1000.000
1630087902.586,664.551,-3.906,-1.953,270.020
1630087902.590,958.984,2.441,-2.441,968.262
1630087902.593,-698.242,-94.727,-94.727,-363.281
1630087902.597,-1000.000,-106.445,-105.469,-1000.000
1630087902.601,375.488,-17.578,-18.555,-283.203
1630087902.605,982.422,9.277,7.324,891.113
1630087902.609,-564.453,-39.551,-35.645,91.797
1630087902.613,-1000.000,-64.941,-54.688,-1000.000
1630087902.617,-455.566,-37.598,-30.273,-688.965
1630087902.621,925.293,-4.883,2.441,768.555
1630087902.625,-92.773,-44.434,-31.250,518.066
1630087902.629,-1000.000,-78.125,-61.035,-903.320
1630087902.633,-875.000,-41.504,-35.645,-957.031
1630087902.637,683.105,-19.043,-13.672,553.711
1630087902.640,728.027,-42.480,-43.457,853.027
1630087902.644,-979.492,-51.270,-58.594,-611.816
1630087902.648,-1000.000,-47.363,-46.875,-1000.000
1630087902.652,633.301,-30.273,-16.113,89.844
1630087902.656,974.609,-13.184,-13.672,953.613
1630087902.657,-642.578,-48.340,-66.406,-235.840
1630087902.661,-1000.000,-74.219,-75.684,-1000.000
1630087902.665,171.875,-35.156,-19.531,-421.387
1630087902.669,986.816,-6.348,-5.371,853.516
1630087902.673,-480.957,-40.527,-47.852,212.891
1630087902.677,-1000.000,-54.688,-65.430,-1000.000
1630087902.681,-641.113,-61.523,-68.359,-820.312
1630087902.684,858.887,-30.273,-26.855,702.637
1630087902.688,135.742,-32.715,-39.062,619.629
1630087902.692,-1000.000,-74.219,-70.312,-867.188
1630087902.696,-911.621,-50.293,-43.945,-1000.000
1630087902.700,664.551,1.953,-7.324,460.449
1630087902.705,834.961,-4.883,-32.715,912.109
1630087902.709,-885.742,-59.082,-78.613,-528.320
1630087902.713,-1000.000,-63.965,-75.195,-1000.000
1630087902.717,550.781,-9.766,-19.531,-69.336
1630087902.721,977.539,3.418,-7.324,933.594
1630087902.725,-609.375,-46.875,-68.359,-115.234
1630087902.729,-1000.000,-62.012,-77.148,-1000.000
1630087902.732,-83.984,-28.320,-23.438,-550.781
1630087902.736,968.262,6.348,3.906,816.406
1630087902.740,-370.117,-46.387,-62.500,294.434
1630087902.744,-1000.000,-80.078,-86.426,-1000.000
1630087902.748,-738.281,-41.016,-44.922,-857.422
1630087902.762,804.688,-3.418,-11.719,669.922
1630087902.766,390.625,-19.531,-36.621,725.098
1630087902.770,-1000.000,-54.688,-64.941,-771.484
1630087902.774,-940.430,-49.316,-46.875,-1000.000
1630087902.778,665.527,-9.277,-7.324,359.863
1630087902.782,909.180,-49.805,-51.758,938.965
1630087902.786,-779.785,-125.000,-108.887,-471.680
1630087902.789,-1000.000,-79.590,-59.570,-1000.000
1630087902.793,457.520,-9.277,-7.324,-174.316
1630087902.797,971.680,1.953,-1.465,916.992
1630087902.801,-594.727,-39.551,-34.180,-2.441
1630087902.805,-1000.000,-46.875,-45.410,-1000.000
1630087902.806,-324.219,-18.066,-18.555,-625.000
1630087902.810,946.777,-0.977,9.766,793.457
1630087902.814,-219.238,-31.250,-30.762,441.895
1630087902.818,-1000.000,-60.059,-60.547,-951.172
1630087902.822,-827.637,-46.875,-39.062,-928.711
1630087902.826,726.562,0.000,-0.488,608.887
1630087902.830,613.281,-26.367,-27.832,818.359
1630087902.833,-1000.000,-79.590,-68.359,-669.434
1630087902.837,-972.656,-75.195,-70.312,-1000.000
1630087902.841,663.086,-43.945,-41.992,170.898
1630087902.845,961.426,-23.438,-17.090,966.309
1630087902.849,-679.199,-49.805,-48.828,-278.809
1630087902.852,-1000.000,-63.477,-58.105,-1000.000
1630087902.856,302.734,-45.410,-30.762,-321.289
1630087902.860,983.887,-11.719,-5.371,886.719
1630087902.864,-539.062,-41.016,-46.387,140.137
1630087902.868,-1000.000,-96.680,-97.656,-1000.000
1630087902.872,-531.738,-64.941,-52.246,-737.793
1630087902.876,909.180,-5.859,12.207,759.277
1630087902.879,19.043,-27.344,-27.832,565.918
1630087902.883,-1000.000,-107.910,-116.211,-904.785
1630087902.887,-893.066,-78.125,-90.332,-1000.000
1630087902.891,676.758,3.906,-7.324,520.508
1630087902.895,771.484,-10.254,-25.391,893.555
1630087902.897,-947.754,-58.594,-67.383,-578.125
1630087902.901,-1000.000,-58.594,-53.223,-1000.000
1630087902.905,613.770,-6.348,-0.977,90.820
1630087902.909,975.098,9.766,-1.953,964.844
1630087902.913,-632.324,-42.969,-58.594,-199.707
1630087902.917,-1000.000,-50.781,-65.430,-1000.000
1630087902.921,109.375,-14.648,-16.602,-439.453
1630087902.924,969.727,-28.809,-26.367,839.844
1630087902.928,-479.004,-74.707,-94.727,185.547
1630087902.932,-1000.000,-61.035,-86.914,-1000.000
1630087902.936,-663.086,-26.855,-50.293,-812.988
1630087902.940,851.074,3.906,-12.207,700.684
1630087902.941,212.891,-23.438,-42.969,654.785
1630087902.945,-1000.000,-50.293,-78.613,-816.895
1630087902.949,-919.922,-51.758,-65.430,-1000.000
1630087902.953,663.574,-30.273,-47.363,413.086
1630087902.957,865.723,-16.113,-54.688,928.711
1630087902.961,-842.285,-41.992,-62.500,-479.004
1630087902.965,-1000.000,-53.223,-59.082,-1000.000
1630087902.968,506.348,-47.363,-49.805,-111.328
1630087902.972,977.539,-22.949,-24.902,924.805
1630087902.976,-605.469,-44.434,-64.453,-67.871
1630087902.980,-1000.000,-63.965,-83.496,-1000.000
1630087902.984,-138.672,-29.297,-34.180,-540.039
1630087902.989,971.680,4.395,-5.371,823.730
1630087902.993,-327.148,-33.691,-54.199,352.051
1630087902.997,-1000.000,-68.848,-88.867,-998.535
1630087903.001,-763.672,-62.012,-71.777,-879.883
1630087903.005,787.598,-3.418,-4.883,661.133
1630087903.009,475.586,6.836,-17.578,769.043
1630087903.013,-1000.000,-60.547,-87.402,-727.051
1630087903.016,-951.172,-64.941,-82.520,-1000.000
1630087903.020,665.527,5.859,-3.418,278.320
1630087903.024,932.617,7.812,-7.324,963.379
1630087903.028,-738.770,-52.734,-63.477,-379.883
1630087903.032,-1000.000,-56.152,-58.105,-1000.000
1630087903.031,410.156,-2.441,-13.184,-215.332
1630087903.035,975.586,14.160,-0.488,913.086
1630087903.039,-580.566,-32.227,-51.758,53.711
1630087903.043,-1000.000,-55.664,-66.406,-1000.000
1630087903.047,-392.090,-29.297,-32.715,-660.645
1630087903.051,930.664,11.719,9.277,781.738
1630087903.055,-177.246,-61.035,-75.684,433.105
1630087903.058,-1000.000,-116.699,-131.836,-968.262
1630087903.062,-848.633,-50.781,-48.340,-960.449
1630087903.066,705.078,12.207,12.207,580.566
1630087903.070,669.434,-9.277,-22.461,842.773
1630087903.074,-1000.000,-48.828,-62.500,-654.785
1630087903.078,-988.281,-40.527,-40.527,-1000.000
1630087903.082,657.227,-23.926,4.883,185.547
1630087903.086,963.379,-16.602,-15.137,967.773
1630087903.090,-668.457,-37.109,-69.336,-272.461
1630087903.094,-1000.000,-42.480,-59.570,-1000.000
1630087903.098,256.836,-18.066,-25.391,-350.586
1630087903.102,980.469,2.441,-12.207,872.070
1630087903.105,-525.879,-24.902,-35.156,155.273
1630087903.109,-1000.000,-49.316,-46.387,-1000.000
1630087903.113,-572.266,-43.457,-42.480,-746.094
1630087903.117,889.648,0.000,-4.395,742.188
1630087903.121,40.039,-10.742,-36.133,591.797
1630087903.136,-1000.000,-53.711,-70.312,-865.234
1630087903.140,-898.926,-43.945,-37.109,-995.117
1630087903.144,667.969,-1.953,10.742,501.465
1630087903.148,803.223,0.000,-7.812,904.297
1630087903.152,-918.457,-43.945,-56.641,-553.223
1630087903.156,-1000.000,-76.660,-79.590,-1000.000
1630087903.160,583.496,-33.691,-36.621,5.371
1630087903.163,977.539,0.488,-8.789,954.590
1630087903.167,-621.094,-43.457,-60.547,-155.273
1630087903.171,-1000.000,-62.012,-65.430,-1000.000
1630087903.175,26.367,-20.508,-17.578,-463.867
1630087903.179,979.492,16.602,5.859,843.750
1630087903.181,-418.945,-30.273,-54.688,265.137
1630087903.185,-1000.000,-65.918,-78.125,-1000.000
1630087903.189,-693.848,-33.691,-41.504,-820.801
1630087903.193,834.473,8.301,1.953,694.336
1630087903.197,282.715,-18.555,-22.461,671.875
1630087903.201,-1000.000,-59.082,-58.594,-805.176
1630087903.205,-928.223,-45.410,-45.410,-1000.000
1630087903.208,666.016,1.953,-5.859,391.113
1630087903.212,876.465,-17.578,-28.809,929.199
1630087903.216,-825.195,-70.801,-70.801,-486.328
1630087903.220,-1000.000,-61.523,-48.828,-1000.000
1630087903.224,487.305,-18.555,-3.418,-133.789
1630087903.226,975.098,-4.395,0.488,923.828
1630087903.230,-601.074,-50.293,-55.176,-48.340
1630087903.234,-1000.000,-67.383,-58.594,-1000.000
1630087903.238,-218.750,-38.574,-27.344,-598.633
1630087903.242,969.727,-36.621,-40.039,802.246
1630087903.246,-270.020,-51.270,-65.430,390.625
1630087903.250,-1000.000,-58.594,-59.082,-980.957
1630087903.253,-795.898,-59.082,-43.457,-916.992
1630087903.257,758.789,-39.551,-36.621,615.234
1630087903.261,530.273,-28.320,-42.480,771.973
1630087903.265,-1000.000,-57.129,-53.711,-728.516
1630087903.269,-958.496,-50.293,-44.434,-1000.000
1630087903.272,666.992,-12.207,-3.906,244.141
1630087903.276,939.941,-12.207,-10.254,953.613
1630087903.280,-720.215,-51.758,-59.082,-377.930
1630087903.284,-1000.000,-61.035,-61.523,-1000.000
1630087903.288,373.047,-21.484,-23.438,-303.223
1630087903.292,981.445,0.977,-7.324,878.906
1630087903.296,-562.500,-39.551,-46.387,87.402
1630087903.299,-1000.000,-111.328,-94.238,-1000.000
1630087903.303,-486.328,-105.469,-82.031,-796.387
1630087903.307,904.785,4.395,0.488,720.703
1630087903.311,-103.027,-9.766,-29.785,503.418
1630087903.315,-1000.000,-57.617,-66.895,-939.941
1630087903.318,-872.070,-39.062,-34.180,-981.445
1630087903.322,685.547,0.000,17.090,543.457
1630087903.326,701.660,-20.996,-16.113,838.867
1630087903.330,-996.094,-71.777,-72.754,-664.062
1630087903.334,-1000.000,-72.266,-53.711,-1000.000
1630087903.338,633.301,-16.602,-1.465,99.121
1630087903.342,971.191,4.883,-2.930,947.754
1630087903.345,-646.484,-76.172,-79.102,-295.898
1630087903.349,-1000.000,-80.078,-71.289,-1000.000
1630087903.353,170.898,-30.273,-12.695,-446.289
1630087903.357,975.098,-8.789,-0.488,833.008
1630087903.361,-498.535,-37.109,-46.387,176.270
1630087903.363,-1000.000,-52.734,-55.176,-1000.000
1630087903.367,-623.047,-34.180,-26.855,-805.664
1630087903.371,866.211,0.977,10.742,710.449
1630087903.375,110.352,-23.438,-13.672,615.723
1630087903.379,-1000.000,-71.289,-49.316,-861.328
1630087903.383,-909.180,-39.062,-32.715,-1000.000
1630087903.387,663.086,-4.883,0.488,436.523
1630087903.390,834.473,-31.250,-29.785,911.621
1630087903.394,-889.648,-58.105,-66.406,-538.574
1630087903.398,-1000.000,-48.340,-54.688,-1000.000
1630087903.402,562.988,-10.254,-1.465,-39.551
1630087903.406,977.539,-0.488,5.859,940.430
1630087903.408,-611.328,-38.086,-59.570,-125.000
1630087903.412,-1000.000,-64.453,-81.055,-1000.000
1630087903.416,-60.547,-62.012,-56.152,-543.457
1630087903.420,972.656,-16.113,-10.254,816.895
1630087903.424,-378.418,-40.039,-41.504,302.246
1630087903.428,-1000.000,-81.055,-75.684,-1000.000
1630087903.432,-736.328,-97.168,-84.473,-889.648
1630087903.435,801.758,-53.223,-29.297,650.391
1630087903.439,345.703,-29.785,-13.184,716.797
1630087903.443,-1000.000,-74.707,-48.340,-775.391
1630087903.447,-933.105,-72.266,-42.969,-1000.000
1630087903.451,659.668,7.812,-6.348,371.094
1630087903.453,917.969,12.695,-20.020,960.938
1630087903.457,-770.996,-52.734,-60.059,-400.879
1630087903.461,-1000.000,-47.852,-44.434,-1000.000
1630087903.465,458.984,-14.160,-8.301,-123.047
1630087903.469,972.168,-0.488,-1.953,933.594
1630087903.473,-595.703,-64.941,-72.754,5.859
1630087903.477,-1000.000,-125.000,-112.305,-1000.000
1630087903.480,-309.570,-52.246,-17.090,-606.445
1630087903.484,951.172,8.301,31.250,806.641
1630087903.488,-222.656,-34.668,-31.250,437.500
1630087903.492,-1000.000,-59.082,-61.035,-945.801
1630087903.496,-820.312,-29.785,-38.086,-887.695
1630087903.511,735.840,11.719,7.812,640.137
1630087903.515,613.770,-9.277,-27.344,809.082
1630087903.519,-1000.000,-51.270,-73.242,-679.199
1630087903.523,-970.703,-34.668,-54.199,-1000.000
1630087903.527,668.945,3.418,-6.348,224.609
1630087903.531,954.102,-11.719,-34.180,949.707
1630087903.535,-686.035,-59.082,-86.914,-345.215
1630087903.538,-1000.000,-45.898,-63.477,-1000.000
1630087903.542,297.363,-11.719,-20.508,-375.000
1630087903.546,975.586,-11.719,-27.344,853.027
1630087903.550,-547.852,-31.250,-64.941,88.867
1630087903.554,-1000.000,-48.828,-69.824,-1000.000
1630087903.556,-527.344,-32.715,-48.828,-753.906
1630087903.560,896.484,-0.488,-16.113,732.910
1630087903.564,-49.805,-27.344,-35.645,520.508
1630087903.568,-1000.000,-57.617,-64.941,-924.805
1630087903.572,-883.301,-28.809,-45.898,-1000.000
1630087903.576,675.781,24.414,13.184,512.207
1630087903.580,757.324,7.812,-4.883,877.930
1630087903.583,-956.543,-43.945,-53.711,-606.445
1630087903.587,-1000.000,-67.383,-77.148,-1000.000
1630087903.591,607.910,-54.199,-57.129,27.832
1630087903.595,975.098,-14.648,-16.113,951.660
1630087903.599,-632.812,-48.828,-55.664,-196.289
1630087903.601,-1000.000,-64.941,-60.547,-1000.000
1630087903.605,99.121,-30.762,-16.602,-417.969
1630087903.609,980.469,0.977,12.695,857.422
1630087903.613,-456.543,-42.969,-44.922,236.816
1630087903.617,-1000.000,-94.238,-90.820,-1000.000
1630087903.621,-653.809,-41.016,-45.410,-771.484
1630087903.625,854.492,16.602,1.953,734.863
1630087903.628,176.270,-26.855,-37.109,632.324
1630087903.632,-1000.000,-89.355,-85.938,-854.980
1630087903.636,-915.527,-55.176,-55.176,-1000.000
1630087903.640,662.109,3.906,6.836,429.199
1630087903.644,859.863,-4.883,-16.113,933.594
1630087903.646,-851.074,-53.711,-67.383,-494.629
1630087903.650,-1000.000,-55.176,-51.270,-1000.000
1630087903.654,516.113,-23.438,-9.766,-72.266
1630087903.658,977.051,-8.789,-2.930,935.547
1630087903.662,-605.469,-48.340,-57.129,-86.914
1630087903.666,-1000.000,-67.383,-72.754,-1000.000
1630087903.670,-138.184,-40.039,-25.391,-536.133
1630087903.673,964.355,-27.832,-11.719,816.406
1630087903.677,-341.309,-65.918,-62.988,330.078
1630087903.681,-1000.000,-81.543,-69.824,-996.582
1630087903.685,-762.207,-61.523,-41.504,-878.906
1630087903.689,786.621,-20.020,-4.395,651.855
1630087903.691,458.496,-32.227,-33.691,750.977
1630087903.695,-1000.000,-66.895,-62.500,-744.629
1630087903.699,-948.730,-53.223,-37.598,-1000.000
1630087903.703,664.551,-36.133,-17.578,305.176
1630087903.707,930.664,-44.922,-28.809,950.684
1630087903.711,-739.746,-69.824,-53.711,-367.676
1630087903.715,-1000.000,-73.242,-58.594,-1000.000
1630087903.718,405.762,-62.988,-43.945,-254.883
1630087903.722,972.656,-22.949,-0.977,896.484
1630087903.726,-585.938,-43.945,-24.902,48.828
1630087903.730,-1000.000,-67.871,-48.340,-1000.000
1630087903.734,-381.836,-32.715,-28.320,-646.973
1630087903.738,937.012,-4.395,-4.395,787.598
1630087903.742,-169.922,-50.293,-40.039,459.473
1630087903.746,-1000.000,-80.078,-67.383,-934.082
1630087903.750,-850.098,-44.434,-38.086,-908.691
1630087903.754,706.055,-12.207,1.465,599.121
1630087903.758,677.246,-23.926,-18.066,835.938
1630087903.762,-1000.000,-85.938,-84.473,-649.414
1630087903.765,-991.211,-116.699,-96.191,-1000.000
1630087903.769,653.809,-45.898,-10.254,184.082
1630087903.773,966.309,-27.344,-1.953,971.680
1630087903.777,-665.039,-83.984,-64.453,-266.602
1630087903.781,-1000.000,-80.078,-57.129,-1000.000
1630087903.782,258.789,-23.926,1.465,-369.141
1630087903.786,977.539,5.859,21.973,870.117
1630087903.790,-531.738,-41.504,-49.316,145.996
1630087903.794,-1000.000,-68.848,-82.031,-1000.000
1630087903.798,-566.895,-23.438,-33.691,-726.074
1630087903.802,884.766,25.879,12.695,751.465
1630087903.806,1.953,-46.387,-63.477,546.387
1630087903.809,-1000.000,-86.914,-95.215,-896.484
1630087903.813,-894.043,-37.109,-38.086,-968.262
1630087903.817,666.504,-6.348,0.488,520.996
1630087903.821,790.527,-21.484,-31.250,907.227
1630087903.825,-928.223,-54.199,-73.730,-546.875
1630087903.828,-1000.000,-42.480,-56.152,-1000.000
1630087903.832,584.961,-1.953,-18.555,65.918
