timestamps,TP9,AF7,AF8,TP10
1630093743.628,-1000.000,-40.039,-40.039,-54.199
1630093743.632,-944.336,-45.898,-37.109,-50.293
1630093743.636,-1000.000,-45.898,-41.992,-49.316
1630093743.640,-155.273,-43.457,-48.828,-58.594
1630093743.644,-949.219,-40.039,-45.898,-59.082
1630093743.648,941.406,-48.828,-43.457,-49.316
1630093743.652,952.148,-41.016,-53.223,-47.852
1630093743.655,900.391,34.180,9.766,8.789
1630093743.659,-898.926,15.137,6.348,-2.441
1630093743.663,359.375,-48.828,-45.898,-52.734
1630093743.667,-1000.000,-39.551,-40.039,-39.062
1630093743.671,-1000.000,-39.551,-53.711,-55.176
1630093743.673,-968.262,-36.621,-52.734,-65.918
1630093743.677,-974.609,-43.457,-44.434,-65.918
1630093743.681,-1000.000,-9.277,-12.695,-14.160
1630093743.685,-977.051,8.789,-0.488,11.719
1630093743.689,321.777,-34.180,-52.246,-41.504
1630093743.693,-913.574,-48.828,-53.223,-53.711
1630093743.697,904.785,-2.930,4.395,12.207
1630093743.700,970.703,13.672,9.277,26.367
1630093743.704,965.332,-51.270,-66.406,-53.223
1630093743.708,906.738,-55.176,-66.406,-62.988
1630093743.712,-898.926,-30.273,-30.273,-26.367
1630093743.716,153.809,-34.668,-34.668,-22.461
1630093743.718,-1000.000,-53.711,-61.035,-54.199
1630093743.722,-979.980,-54.688,-62.012,-62.012
1630093743.726,-987.793,-53.711,-44.434,-38.574
1630093743.730,-952.148,-47.363,-46.387,-30.273
1630093743.734,-1000.000,-54.199,-68.359,-54.199
1630093743.738,-810.059,-49.805,-62.500,-56.641
1630093743.742,571.289,-0.977,1.953,1.465
1630093743.745,-938.477,-17.090,-5.371,1.465
1630093743.749,904.297,-48.828,-50.781,-39.551
1630093743.753,976.074,-41.504,-58.594,-48.828
1630093743.757,966.797,-43.457,-44.434,-53.711
1630093743.761,966.797,-41.504,-35.645,-40.039
1630093743.764,955.566,-40.039,-53.711,-36.621
1630093743.768,900.879,-9.277,-29.297,-14.648
1630093743.772,-895.508,21.484,20.020,32.227
1630093743.776,166.992,-33.203,-11.230,10.742
1630093743.780,-1000.000,-65.918,-46.875,-19.531
1630093743.784,-981.445,-30.273,-31.250,5.371
1630093743.788,-987.793,-23.438,-28.320,5.371
1630093743.791,-938.477,-51.270,-36.133,-13.184
1630093743.795,-1000.000,-50.293,-40.527,-4.395
1630093743.799,-604.980,-27.344,-36.133,10.254
1630093743.803,808.105,-26.367,-38.086,-0.488
1630093743.807,-978.027,-44.434,-42.480,-23.926
1630093743.823,911.133,-40.039,-36.133,-1.953
1630093743.827,993.164,-38.086,-43.945,-1.953
1630093743.831,899.902,-37.598,-57.617,-23.926
1630093743.835,-936.035,-38.574,-58.594,-25.879
1630093743.839,617.188,-40.039,-45.410,-13.672
1630093743.843,-797.363,-3.418,-6.348,21.484
1630093743.847,-1000.000,-15.137,-24.902,0.977
1630093743.850,-942.871,-55.664,-62.500,-51.758
1630093743.854,-1000.000,-34.180,-31.738,-24.902
1630093743.858,-1000.000,-13.672,-15.625,6.836
1630093743.862,-1000.000,-41.016,-49.805,-26.855
1630093743.866,-1000.000,-51.270,-62.012,-36.133
1630093743.868,-927.734,-46.875,-36.133,-14.160
1630093743.872,-1000.000,-50.781,-31.250,-5.859
1630093743.876,-472.656,-49.316,-46.387,-13.184
1630093743.880,926.270,-55.664,-58.105,-25.391
1630093743.884,995.117,-27.344,-14.648,7.324
1630093743.888,918.457,-15.137,0.977,20.020
1630093743.892,979.492,-51.270,-45.898,-25.391
1630093743.895,977.051,-62.988,-76.172,-55.664
1630093743.899,894.531,-20.996,-24.902,-12.207
1630093743.903,-904.785,18.066,33.691,36.621
1630093743.907,422.852,-39.062,-27.344,-19.043
1630093743.911,-963.867,-63.965,-60.059,-49.805
1630093743.913,-1000.000,-55.176,-46.387,-46.387
1630093743.917,-954.102,-55.176,-35.156,-41.504
1630093743.921,-1000.000,-54.199,-38.574,-34.668
1630093743.925,-1000.000,-47.363,-44.922,-41.504
1630093743.929,-1000.000,-44.922,-45.410,-49.805
1630093743.933,-956.055,-47.363,-21.484,-32.227
1630093743.937,-1000.000,-59.082,-22.949,-25.879
1630093743.940,-932.617,-53.223,-35.645,-23.438
1630093743.944,415.527,-15.625,-6.836,1.953
1630093743.948,-916.504,-28.320,-7.812,-20.508
1630093743.952,900.879,-57.617,-35.156,-40.039
1630093743.956,980.469,-40.527,-27.832,-21.484
1630093743.958,896.973,-28.809,-21.973,-19.531
1630093743.962,-896.973,-53.223,-41.504,-41.992
1630093743.966,315.430,-62.012,-41.016,-40.527
1630093743.970,-1000.000,-27.832,-8.789,-3.906
1630093743.974,-1000.000,-8.789,-6.836,4.395
1630093743.978,-962.891,-41.504,-45.410,-42.480
1630093743.982,-1000.000,-55.664,-39.062,-47.852
1630093743.985,-1000.000,-11.719,0.000,5.859
1630093743.989,-1000.000,0.000,0.000,12.207
1630093743.993,-1000.000,-57.617,-51.758,-46.875
1630093743.997,-951.660,-58.105,-39.062,-44.922
1630093744.001,-1000.000,-53.223,-24.902,-25.391
1630093744.004,-883.789,-60.547,-36.621,-23.926
1630093744.008,482.422,-62.500,-54.199,-37.598
1630093744.012,-925.781,-57.129,-41.504,-37.109
1630093744.016,901.855,-37.598,-10.254,-11.230
1630093744.020,975.586,-41.504,-16.602,-3.906
1630093744.024,973.145,-59.570,-49.316,-38.574
1630093744.028,896.973,-50.781,-32.227,-39.551
1630093744.031,-896.973,-5.371,26.367,27.832
1630093744.035,317.383,-25.879,-3.906,12.695
1630093744.039,-1000.000,-64.941,-54.688,-42.480
1630093744.043,-1000.000,-55.664,-50.293,-44.922
1630093744.047,-975.586,-54.199,-32.715,-33.691
1630093744.048,-937.988,-53.711,-32.227,-28.809
1630093744.052,-1000.000,-58.594,-45.410,-41.992
1630093744.056,-517.090,-30.273,-17.578,-19.531
1630093744.060,896.973,-14.648,15.625,1.465
1630093744.064,-996.094,-51.270,-19.043,-28.809
1630093744.068,927.246,-66.406,-51.758,-51.758
1630093744.072,909.180,-23.438,-21.484,-25.391
1630093744.075,-912.598,14.648,28.320,26.367
1630093744.079,481.934,-34.668,-10.254,-15.625
1630093744.083,-920.410,-56.641,-45.410,-53.223
1630093744.087,-1000.000,-52.734,-59.570,-60.059
1630093744.091,-950.195,-53.223,-54.199,-65.918
1630093744.095,-1000.000,-59.082,-44.434,-59.570
1630093744.099,-1000.000,-51.758,-48.340,-52.734
1630093744.103,-1000.000,-42.480,-53.711,-69.336
1630093744.107,-999.512,-47.852,-53.223,-78.125
1630093744.111,-940.430,-61.523,-44.434,-64.453
1630093744.115,-1000.000,-48.828,-35.645,-43.945
1630093744.119,-190.918,-1.953,-3.906,-5.371
1630093744.122,-955.566,-19.531,-25.391,-32.227
1630093744.126,945.801,-62.012,-53.223,-71.289
1630093744.130,941.406,-40.039,-25.879,-25.391
1630093744.134,972.168,-20.996,-17.578,-0.977
1630093744.138,966.309,-47.363,-52.734,-45.898
1630093744.153,965.820,-60.059,-59.082,-66.895
1630093744.157,966.797,-24.902,-8.789,-18.066
1630093744.161,964.355,-9.277,-2.441,0.000
1630093744.165,904.297,-42.480,-47.852,-46.387
1630093744.169,-897.949,-57.129,-64.941,-72.754
1630093744.173,161.621,-13.672,-9.277,-18.066
1630093744.177,-1000.000,16.113,25.879,23.438
1630093744.180,-980.957,-44.434,-48.828,-44.434
1630093744.184,-975.098,-53.711,-67.383,-62.012
1630093744.188,-1000.000,-42.969,-34.668,-43.457
1630093744.192,-1000.000,-45.898,-30.762,-31.250
1630093744.196,-936.523,-49.316,-52.246,-36.621
1630093744.187,-1000.000,-47.363,-59.570,-45.898
1630093744.191,-608.398,-29.297,-23.438,-27.344
1630093744.195,779.785,-31.738,-16.602,-19.531
1630093744.199,-976.562,-47.363,-51.758,-38.574
1630093744.203,912.598,-41.016,-61.523,-50.293
1630093744.207,974.609,-34.668,-48.340,-52.734
1630093744.211,977.051,-32.715,-32.715,-34.180
1630093744.214,932.617,-41.992,-49.805,-39.062
1630093744.218,839.355,-28.320,-50.781,-40.039
1630093744.222,-892.578,17.578,-5.859,4.395
1630093744.226,374.023,-16.113,-21.973,-18.066
1630093744.230,-993.164,-45.410,-53.223,-43.945
1630093744.243,-1000.000,-29.785,-48.340,-32.715
1630093744.247,-964.355,-35.645,-50.293,-49.805
1630093744.251,-984.863,-45.410,-35.645,-46.387
1630093744.255,-992.188,-52.246,-44.434,-40.527
1630093744.259,-1000.000,-7.324,-24.414,-13.672
1630093744.263,180.176,71.777,48.340,61.523
1630093744.267,-922.852,19.043,3.906,3.418
1630093744.270,915.039,-44.434,-51.758,-59.570
1630093744.274,969.238,-33.203,-42.969,-27.344
1630093744.278,898.438,-43.457,-56.152,-39.062
1630093744.282,-896.973,-53.223,-58.594,-65.918
1630093744.286,320.801,-46.387,-40.527,-55.664
1630093744.288,-1000.000,-50.293,-40.039,-46.387
1630093744.292,-1000.000,-51.270,-52.246,-54.199
1630093744.296,-965.332,-50.781,-56.152,-65.918
1630093744.300,-998.047,-44.922,-37.109,-48.340
1630093744.304,-962.891,-28.809,-22.461,-21.973
1630093744.308,-1000.000,-32.715,-38.086,-36.621
1630093744.312,-16.113,-44.434,-57.617,-57.129
1630093744.315,-934.570,-34.668,-37.109,-40.039
1630093744.319,929.688,17.090,20.996,16.113
1630093744.323,957.520,-6.836,-9.277,-9.277
1630093744.327,901.855,-49.316,-66.406,-65.918
1630093744.331,-895.508,-43.945,-47.852,-58.594
1630093744.333,284.180,-51.270,-33.691,-48.340
1630093744.337,-1000.000,-50.781,-41.504,-55.176
1630093744.341,-1000.000,-56.641,-67.383,-71.777
1630093744.345,-966.309,-23.438,-16.113,-25.879
1630093744.349,-1000.000,-5.371,25.391,8.789
1630093744.353,-944.824,-46.875,-25.391,-35.645
1630093744.357,-1000.000,-71.777,-56.641,-57.129
1630093744.360,-154.297,-25.391,-18.066,-21.484
1630093744.364,-950.684,21.484,38.574,24.902
1630093744.368,942.383,-43.457,-21.484,-23.926
1630093744.372,945.801,-62.500,-58.105,-53.711
1630093744.376,906.738,-51.270,-62.500,-58.105
1630093744.378,-895.020,-47.852,-48.828,-56.641
1630093744.382,221.191,-52.246,-38.574,-51.270
1630093744.386,-1000.000,-59.570,-47.852,-53.223
1630093744.390,-990.234,-52.246,-52.246,-60.059
1630093744.394,-970.215,-45.898,-37.109,-57.129
1630093744.398,-946.777,-54.199,-27.832,-50.293
1630093744.402,-1000.000,-48.828,-33.203,-45.898
1630093744.405,-208.496,-6.836,-5.859,-12.207
1630093744.409,-959.473,-24.902,-24.414,-39.062
1630093744.413,948.242,-60.547,-50.293,-74.707
1630093744.417,940.430,-29.785,-24.414,-34.668
1630093744.421,972.168,-13.184,-22.461,-16.113
1630093744.423,904.785,-44.434,-51.270,-57.617
1630093744.427,-896.973,-58.594,-45.410,-65.430
1630093744.431,173.828,-19.531,-5.371,-7.812
1630093744.435,-1000.000,-1.465,5.859,13.184
1630093744.439,-982.422,-45.898,-53.223,-46.387
1630093744.443,-974.121,-61.035,-63.965,-70.801
1630093744.447,-1000.000,-13.184,1.465,-0.488
1630093744.450,-1000.000,9.766,20.996,31.250
1630093744.454,-1000.000,-43.945,-53.711,-46.387
1630093744.458,-997.559,-47.852,-52.734,-55.176
1630093744.462,-943.359,-37.598,-29.297,-33.691
1630093744.466,-1000.000,-36.133,-38.574,-28.809
1630093744.470,-163.086,-43.457,-55.664,-39.551
1630093744.474,-949.707,-39.551,-54.199,-52.246
1630093744.478,942.383,-17.578,-21.973,-32.227
1630093744.482,943.359,-19.531,-24.902,-30.762
1630093744.486,982.422,-34.180,-55.176,-48.340
1630093744.490,899.902,-30.273,-55.664,-49.316
1630093744.494,-925.781,10.742,0.488,-3.906
1630093744.497,522.949,-3.906,0.488,0.488
1630093744.501,-864.746,-44.434,-46.387,-38.086
1630093744.505,-1000.000,-36.133,-55.664,-51.270
1630093744.509,-962.891,-34.180,-38.574,-42.969
1630093744.513,-949.219,-35.645,-27.832,-26.855
1630093744.513,-1000.000,-37.598,-43.457,-37.598
1630093744.517,-706.543,-27.832,-43.457,-34.668
1630093744.521,712.402,-22.949,-40.527,-37.109
1630093744.525,-958.008,-35.645,-35.645,-44.434
1630093744.529,919.434,-47.852,-44.434,-46.875
1630093744.533,916.992,-5.859,-18.066,-11.719
1630093744.537,-952.148,68.359,54.688,59.082
1630093744.540,702.148,10.742,17.090,15.137
1630093744.544,-715.332,-50.293,-37.109,-38.574
1630093744.548,-1000.000,-44.922,-44.922,-45.898
1630093744.552,-938.965,-44.434,-58.105,-60.059
1630093744.556,-1000.000,-49.316,-48.340,-58.105
1630093744.573,-1000.000,-51.270,-34.668,-39.551
1630093744.577,-939.453,-49.805,-40.527,-38.086
1630093744.581,-1000.000,-49.805,-55.176,-55.664
1630093744.585,-200.684,-46.387,-49.316,-59.082
1630093744.589,-958.008,-36.133,-31.738,-34.668
1630093744.593,947.266,-26.855,-31.250,-13.184
1630093744.597,938.965,-34.668,-53.711,-40.039
1630093744.600,976.074,-50.293,-63.477,-67.383
1630093744.604,953.613,-34.180,-37.598,-42.480
1630093744.608,956.543,29.297,27.344,37.109
1630093744.612,898.438,-9.766,-8.789,-3.418
1630093744.616,-897.949,-59.570,-64.941,-64.941
1630093744.618,340.820,-45.410,-39.062,-48.340
1630093744.622,-1000.000,-47.852,-35.645,-40.527
1630093744.626,-1000.000,-49.316,-44.922,-37.598
1630093744.630,-960.938,-58.594,-60.059,-62.988
1630093744.634,-1000.000,-19.043,-18.555,-32.715
1630093744.638,-1000.000,3.906,10.254,-0.977
1630093744.642,-935.059,-45.410,-40.527,-39.062
1630093744.645,-1000.000,-61.035,-73.242,-63.965
1630093744.649,-261.719,0.000,-8.789,-7.812
1630093744.653,-976.562,24.414,31.738,30.273
1630093744.657,956.543,-37.598,-36.133,-33.691
1630093744.661,935.547,-42.480,-61.523,-50.781
1630093744.663,974.121,-16.602,-37.598,-35.156
1630093744.667,966.309,-14.648,-14.648,-20.020
1630093744.671,976.562,-41.016,-38.086,-22.461
1630093744.675,924.316,-42.480,-57.129,-43.945
1630093744.679,990.234,-39.551,-60.547,-64.941
1630093744.683,905.273,-37.598,-41.992,-46.387
1630093744.687,-423.828,-42.480,-42.480,-36.133
1630093744.690,-1000.000,-38.086,-47.852,-37.598
1630093744.694,-937.500,0.977,-15.625,-11.719
1630093744.698,-1000.000,-26.855,-27.344,-39.551
1630093744.702,-951.172,-59.570,-47.852,-59.570
1630093744.706,-1000.000,-49.316,-43.457,-48.340
1630093744.709,-842.773,-47.363,-54.688,-61.523
1630093744.713,511.230,-44.922,-52.734,-62.500
1630093744.717,-933.594,-55.664,-46.387,-59.082
1630093744.721,908.203,-11.230,-11.230,-13.184
1630093744.725,960.938,31.738,20.508,24.414
1630093744.729,928.223,-27.344,-31.738,-36.621
1630093744.733,-936.523,-58.594,-52.734,-59.082
1630093744.736,-28.809,-9.766,0.000,10.254
1630093744.740,-1000.000,9.277,12.207,26.855
1630093744.744,-960.449,-47.852,-55.664,-51.758
1630093744.748,-987.305,-51.270,-49.316,-49.316
1630093744.752,-1000.000,-46.387,-39.062,-28.809
1630093744.753,-1000.000,-47.363,-54.199,-38.086
1630093744.757,-1000.000,-54.199,-64.941,-59.570
1630093744.761,-989.746,-46.875,-47.363,-56.152
1630093744.765,-956.055,-39.062,-34.180,-37.109
1630093744.769,-1000.000,-46.387,-43.945,-40.527
1630093744.773,-43.945,-47.363,-49.805,-55.664
1630093744.777,-927.246,-45.410,-48.340,-57.129
1630093744.780,927.734,29.297,40.039,35.645
1630093744.784,961.914,20.996,36.621,34.180
1630093744.788,926.270,-56.641,-57.129,-63.477
1630093744.792,992.676,-50.293,-56.641,-63.477
1630093744.796,896.973,-49.805,-34.668,-42.480
1630093744.798,-437.988,-53.223,-32.227,-33.691
1630093744.802,-1000.000,-62.500,-51.758,-53.711
1630093744.806,-938.965,-23.926,-24.902,-28.809
1630093744.810,-999.023,-0.488,14.160,-1.953
1630093744.814,-952.148,-54.199,-29.297,-41.992
1630093744.818,-1000.000,-73.242,-62.500,-60.059
1630093744.822,-89.355,-20.996,-20.508,-9.766
1630093744.825,-937.988,8.301,12.207,12.695
1630093744.829,934.082,-49.316,-37.109,-45.410
1630093744.833,961.426,-65.430,-55.176,-47.363
1630093744.837,899.902,-35.645,-39.551,-26.855
1630093744.841,-918.945,-27.344,-35.156,-38.574
1630093744.843,537.109,-53.711,-41.992,-53.223
1630093744.847,-882.812,-55.664,-38.086,-37.598
1630093744.851,-1000.000,-48.340,-45.898,-51.270
1630093744.855,-959.961,-46.875,-58.594,-64.941
1630093744.859,-947.754,-59.082,-49.805,-64.941
1630093744.863,-1000.000,-49.316,-34.668,-58.105
1630093744.867,-628.418,1.465,3.906,-6.836
1630093744.870,786.621,-20.508,-27.344,-35.645
1630093744.874,-973.633,-58.105,-62.500,-83.496
1630093744.878,909.668,-45.410,-41.992,-57.129
1630093744.882,979.980,-46.387,-45.410,-43.945
1630093744.886,966.309,-47.852,-53.711,-52.734
1630093744.889,966.309,-57.129,-55.176,-72.754
1630093744.893,977.539,-14.648,-3.906,-18.555
1630093744.897,915.039,35.645,40.039,45.410
1630093744.901,-984.375,-21.484,-26.367,-25.391
1630093744.905,813.477,-63.965,-68.359,-82.520
1630093744.909,-555.176,-18.555,-3.906,-21.973
1630093744.913,-1000.000,-2.930,11.719,10.254
1630093744.916,-937.988,-55.176,-53.223,-47.852
1630093744.920,-1000.000,-57.617,-65.918,-64.941
1630093744.924,-1000.000,-46.875,-39.062,-43.945
1630093744.928,-977.539,-46.875,-34.668,-27.344
1630093744.932,-980.469,-54.688,-54.199,-43.457
1630093744.936,-1000.000,-53.223,-58.594,-57.617
1630093744.940,131.348,-44.434,-43.457,-50.781
1630093744.944,-913.086,-44.922,-33.691,-35.645
1630093744.948,914.062,-52.246,-48.340,-43.945
1630093744.952,961.426,-48.340,-60.547,-61.523
1630093744.956,966.797,1.465,-3.906,-11.719
1630093744.960,968.262,-7.812,6.836,-2.441
1630093744.963,958.496,-60.547,-46.875,-43.945
1630093744.967,895.020,-37.109,-41.992,-33.203
1630093744.971,-895.020,-7.324,-21.973,-21.484
1630093744.975,173.340,-38.574,-28.320,-40.527
1630093744.979,-1000.000,-54.199,-35.645,-40.039
1630093744.993,-982.422,-44.434,-41.504,-34.180
1630093744.997,-982.910,-38.086,-45.898,-42.480
1630093745.001,-972.168,-39.062,-28.320,-29.785
1630093745.005,-1000.000,-51.270,-32.227,-23.926
1630093745.009,-1000.000,-16.113,-11.230,0.488
1630093745.013,288.574,69.824,61.523,69.336
1630093745.017,-907.715,14.160,18.066,6.836
1630093745.020,903.809,-59.082,-38.086,-56.641
1630093745.024,974.609,-43.457,-30.273,-30.762
1630093745.028,898.926,-40.527,-42.480,-38.086
1630093745.032,-895.508,-43.945,-46.387,-55.176
1630093745.036,274.902,-47.363,-30.273,-47.363
1630093745.038,-1000.000,-49.805,-32.227,-38.086
1630093745.042,-999.023,-48.340,-44.922,-43.457
1630093745.046,-971.680,-55.176,-51.758,-57.617
1630093745.050,-985.352,-54.688,-40.527,-53.223
1630093745.054,-981.934,-51.758,-37.598,-36.133
1630093745.058,-1000.000,-50.781,-44.434,-35.156
1630093745.062,145.020,-48.340,-61.035,-58.105
1630093745.065,-909.668,-46.875,-53.223,-55.664
1630093745.069,912.109,22.461,34.180,37.109
1630093745.073,970.215,13.184,17.578,22.949
1630093745.077,897.949,-53.223,-59.570,-56.641
1630093745.081,-897.461,-44.434,-40.039,-46.387
1630093745.083,327.148,-44.434,-29.297,-33.203
1630093745.087,-1000.000,-50.781,-39.062,-30.273
1630093745.091,-1000.000,-61.523,-60.059,-51.270
1630093745.095,-961.914,-23.926,-21.484,-26.367
1630093745.099,-1000.000,-2.930,15.137,2.441
1630093745.103,-936.035,-45.898,-34.180,-34.180
1630093745.107,-1000.000,-62.012,-65.430,-59.082
1630093745.110,-251.953,-14.648,-19.531,-16.602
1630093745.114,-973.145,9.766,17.578,18.555
1630093745.118,955.078,-50.293,-39.062,-33.691
1630093745.122,936.035,-58.105,-54.199,-54.688
1630093745.126,912.109,-37.598,-38.086,-41.992
1630093745.176,-896.484,-42.969,-28.809,-40.527
1630093745.180,172.852,-64.941,-40.527,-49.316
1630093745.184,-1000.000,-64.941,-46.875,-43.457
1630093745.188,-982.910,-59.082,-56.152,-50.293
1630093745.192,-973.145,-51.270,-48.340,-51.270
1630093745.196,-947.266,-52.734,-33.691,-46.387
1630093745.200,-1000.000,-48.828,-35.156,-35.645
1630093745.203,-187.988,-1.953,-6.836,7.324
1630093745.207,-955.078,-16.602,-27.832,-25.879
1630093745.211,945.312,-49.805,-46.387,-66.406
1630093745.215,941.406,-37.598,-35.156,-44.922
1630093745.219,981.445,-41.992,-50.781,-49.805
1630093745.176,897.461,-46.387,-59.570,-69.824
1630093745.180,-909.180,-52.734,-55.176,-74.219
1630093745.184,415.527,-11.230,-4.883,-17.090
1630093745.188,-952.148,35.156,32.715,22.949
1630093745.192,-1000.000,-21.973,-36.621,-47.852
1630093745.196,-955.566,-61.035,-63.965,-76.172
1630093745.200,-1000.000,-15.137,3.418,3.906
1630093745.203,-1000.000,2.930,25.879,26.855
1630093745.207,-1000.000,-65.430,-52.246,-60.547
1630093745.211,-1000.000,-67.871,-59.570,-66.895
1630093745.215,-937.500,-52.734,-33.203,-43.945
1630093745.219,-1000.000,-54.199,-37.109,-43.457
1630093745.218,-225.586,-54.199,-55.176,-54.199
1630093745.222,-964.355,-47.852,-60.547,-67.383
1630093745.226,950.684,-48.340,-39.551,-61.523
1630093745.230,938.477,-49.805,-34.668,-45.410
1630093745.234,976.074,-46.387,-47.852,-51.270
1630093745.238,951.660,-51.270,-62.500,-67.871
1630093745.242,928.223,22.949,21.973,7.324
1630093745.245,-933.594,23.438,35.156,18.066
1630093745.249,-39.062,-58.105,-53.711,-63.965
1630093745.253,-1000.000,-53.711,-61.035,-72.266
1630093745.257,-972.656,-53.711,-49.316,-70.801
1630093745.261,-924.316,-61.035,-38.574,-54.688
1630093745.263,-1000.000,-70.801,-57.129,-61.523
1630093745.267,-716.797,-30.273,-35.645,-32.715
1630093745.271,709.473,3.906,-2.930,-4.883
1630093745.275,-955.566,-49.316,-38.574,-48.828
1630093745.279,904.785,-63.477,-51.758,-49.316
1630093745.283,981.934,-45.898,-42.969,-39.062
1630093745.287,958.496,-45.410,-49.316,-51.758
1630093745.290,916.992,-54.199,-49.316,-58.105
1630093745.294,-916.992,-66.406,-58.105,-55.176
1630093745.298,60.059,-10.742,-13.184,3.418
1630093745.302,-1000.000,20.508,13.672,18.555
1630093745.306,-969.238,-49.316,-40.527,-48.828
1630093745.323,-981.934,-53.711,-36.621,-37.598
1630093745.327,-1000.000,-40.039,-40.527,-28.320
1630093745.331,-1000.000,-37.109,-62.012,-47.852
1630093745.335,-1000.000,-43.457,-58.105,-59.082
1630093745.339,-938.965,-39.062,-35.645,-43.457
1630093745.343,-1000.000,-22.461,-23.438,-28.320
1630093745.347,-208.984,-34.180,-42.969,-42.969
1630093745.350,-959.473,-53.223,-64.453,-62.500
1630093745.354,948.242,-37.598,-35.645,-40.527
1630093745.358,939.941,-4.883,0.977,-3.906
1630093745.362,972.656,-37.598,-40.527,-39.062
1630093745.366,966.309,-66.406,-75.195,-79.590
1630093745.368,966.309,-36.133,-26.367,-42.969
1630093745.372,966.309,-17.578,3.906,-2.930
1630093745.376,970.215,-43.457,-34.180,-37.598
1630093745.380,899.414,-59.570,-67.871,-68.359
1630093745.384,-895.020,-16.113,-14.648,-17.578
1630093745.388,256.836,5.371,25.879,22.949
1630093745.392,-1000.000,-44.922,-32.715,-28.320
1630093745.395,-996.094,-59.082,-71.777,-68.359
1630093745.399,-967.773,-2.930,-11.230,-11.719
1630093745.403,-1000.000,27.344,31.738,36.133
1630093745.407,-1000.000,-35.156,-44.922,-21.973
1630093745.411,-1000.000,-51.270,-68.848,-42.480
1630093745.414,-1000.000,-51.758,-61.523,-54.688
1630093745.418,-929.199,-41.016,-47.852,-22.949
1630093745.422,-1000.000,-45.410,-38.574,-3.418
1630093745.426,-565.430,-58.594,-46.387,-41.016
1630093745.430,855.957,-34.180,-39.062,-40.527
1630093745.434,-986.328,-38.086,-27.832,-44.434
1630093745.438,912.598,-67.383,-40.527,-61.035
1630093745.441,980.469,-62.500,-40.039,-51.758
1630093745.445,904.297,-20.020,-7.812,-28.320
1630093745.449,-895.996,-44.434,-20.508,-54.199
1630093745.453,178.223,-84.473,-39.551,-72.754
1630093745.457,-1000.000,-79.590,-41.016,-56.152
1630093745.458,-983.398,-82.520,-51.270,-62.012
1630093745.462,-973.145,-81.055,-47.363,-67.383
1630093745.466,-946.289,-91.797,-50.781,-68.359
1630093745.470,-1000.000,-48.828,-9.277,-14.648
1630093745.474,-197.266,-6.348,25.879,23.438
1630093745.478,-957.031,-57.129,-36.133,-46.875
1630093745.482,946.777,-80.566,-54.688,-75.684
1630093745.485,941.895,-14.648,7.812,-2.930
1630093745.489,968.262,32.227,40.039,44.434
1630093745.493,910.645,-46.387,-41.016,-46.387
1630093745.497,-904.297,-69.336,-48.340,-66.406
1630093745.501,112.793,-62.988,-30.762,-40.039
1630093745.503,-1000.000,-71.289,-45.898,-48.828
1630093745.507,-974.609,-68.359,-57.129,-64.941
1630093745.511,-979.980,-65.918,-47.363,-61.035
1630093745.515,-942.383,-62.988,-32.227,-39.062
1630093745.519,-1000.000,-64.453,-40.527,-38.086
1630093745.523,-231.934,-67.383,-54.688,-51.270
1630093745.527,-966.797,-64.453,-54.199,-62.988
1630093745.530,951.660,11.719,42.480,29.297
1630093745.534,942.871,1.953,34.180,38.086
1630093745.538,951.660,-77.637,-64.453,-56.641
1630093745.542,943.359,-65.430,-59.570,-62.012
1630093745.546,-967.773,-66.895,-40.039,-53.711
1630093745.549,-141.602,-68.848,-34.668,-36.621
1630093745.553,-1000.000,-81.055,-55.664,-47.852
1630093745.557,-951.172,-44.922,-29.785,-23.926
1630093745.561,-992.188,-11.230,13.184,9.766
1630093745.565,-943.359,-56.641,-22.949,-26.367
1630093745.569,-1000.000,-80.078,-55.176,-50.293
1630093745.573,-177.246,-23.926,-17.578,-7.324
1630093745.576,-952.637,8.301,18.066,20.020
1630093745.580,943.848,-58.594,-32.227,-41.992
1630093745.584,955.566,-62.012,-49.316,-50.781
1630093745.588,915.527,-54.688,-51.758,-41.992
1630093745.592,-971.191,-57.129,-55.176,-40.039
1630093745.596,777.344,-45.898,-43.945,-41.992
1630093745.600,-621.582,-43.457,-40.039,-52.734
1630093745.604,-1000.000,-23.438,-31.738,-41.992
1630093745.608,-936.523,-13.672,-36.621,-55.664
1630093745.612,-1000.000,-30.273,-39.551,-70.312
1630093745.616,-1000.000,-25.391,-28.320,-46.875
1630093745.620,-1000.000,22.461,10.742,-2.930
1630093745.623,-1000.000,3.418,-15.625,-40.527
1630093745.627,-999.512,-38.086,-45.410,-81.055
1630093745.631,-940.430,-25.879,-24.902,-51.270
1630093745.635,-1000.000,-22.949,-35.156,-53.223
1630093745.639,-193.359,-31.250,-54.199,-72.754
1630093745.639,-956.055,-34.668,-61.523,-80.078
1630093745.643,945.801,-17.578,-26.855,-45.898
1630093745.647,941.406,-13.184,-20.996,-30.273
1630093745.651,972.168,-29.785,-55.664,-61.035
1630093745.655,966.309,-41.016,-73.242,-86.426
1630093745.659,966.309,0.488,-16.113,-31.250
1630093745.663,977.539,81.543,68.359,66.406
1630093745.666,918.457,20.996,-2.441,0.977
1630093745.670,-995.117,-48.340,-78.125,-81.055
1630093745.674,858.398,-35.645,-54.688,-63.477
1630093745.678,-501.465,-43.945,-42.969,-57.129
1630093745.682,-1000.000,-49.805,-57.129,-65.430
1630093745.698,-936.523,-42.480,-66.895,-68.359
1630093745.702,-1000.000,-41.016,-48.828,-63.965
1630093745.706,-993.652,-45.898,-35.645,-51.270
1630093745.710,-949.219,-49.316,-45.898,-46.875
1630093745.714,-1000.000,-47.363,-56.641,-49.316
1630093745.718,-102.051,-14.648,-28.809,-21.484
1630093745.722,-937.012,-19.043,-20.508,-21.973
1630093745.725,934.570,-47.852,-49.316,-49.316
1630093745.729,959.961,-26.855,-47.363,-41.992
1630093745.733,901.367,9.766,-17.578,-15.137
1630093745.737,-921.387,-20.508,-29.785,-29.297
1630093745.741,525.879,-44.434,-46.875,-38.086
1630093745.743,-880.371,-41.992,-47.363,-31.250
1630093745.747,-1000.000,-46.875,-53.223,-47.363
1630093745.751,-939.453,-46.387,-38.086,-45.410
1630093745.755,-965.332,-51.270,-35.156,-38.574
1630093745.759,-1000.000,-4.395,-1.465,6.348
1630093745.763,-88.379,10.742,3.418,20.020
1630093745.767,-937.500,-38.086,-42.969,-33.691
1630093745.770,934.082,-52.734,-42.969,-44.434
1630093745.774,948.242,0.488,10.254,16.602
1630093745.778,908.691,46.387,38.086,50.293
1630093745.782,-896.484,-28.809,-42.969,-42.969
1630093745.786,175.781,-53.711,-47.852,-63.477
1630093745.791,-1000.000,-49.316,-37.598,-51.758
1630093745.795,-982.422,-55.664,-55.664,-60.059
1630093745.799,-974.121,-51.758,-60.547,-65.918
1630093745.803,-1000.000,-49.316,-44.922,-57.617
1630093745.807,-1000.000,-39.062,-35.156,-34.668
1630093745.811,-1000.000,-34.180,-38.086,-39.551
1630093745.815,-929.199,-41.016,-50.781,-50.293
1630093745.818,-1000.000,-37.109,-33.691,-39.551
1630093745.822,-509.766,6.836,18.066,-0.488
1630093745.826,892.578,-8.789,-11.719,-30.762
1630093745.830,-997.070,-58.594,-76.660,-98.145
1630093745.834,916.504,-4.395,-24.902,-34.668
1630093745.833,979.492,25.391,20.996,7.324
1630093745.837,970.703,-35.645,-26.855,-64.453
1630093745.841,945.801,-58.105,-48.828,-91.797
1630093745.845,940.430,-10.254,-7.812,-54.199
1630093745.849,-960.938,5.859,34.180,-34.180
1630093745.853,-121.094,-45.898,2.441,-81.055
1630093745.857,-1000.000,-67.871,-19.531,-104.492
1630093745.860,-952.148,-30.273,26.855,-66.895
1630093745.864,-993.164,-17.090,58.105,-39.062
1630093745.868,-1000.000,-78.613,1.465,-86.426
1630093745.872,-1000.000,-85.449,-17.090,-95.215
1630093745.876,-1000.000,-81.055,-24.902,-85.938
1630093745.879,-993.652,-91.797,-25.879,-84.961
1630093745.883,-949.219,-101.562,-22.949,-68.848
1630093745.887,-1000.000,-100.098,-32.227,-53.711
1630093745.891,-99.609,-75.195,-31.738,-32.715
1630093745.895,-935.547,-75.195,-30.273,-22.949
1630093745.899,934.082,-90.332,-31.738,-24.902
1630093745.903,949.707,-80.078,-31.250,-7.812
1630093745.906,964.355,-32.227,3.418,42.969
1630093745.910,916.504,-54.688,-18.066,16.602
1630093745.914,-921.387,-100.098,-50.293,-19.531
1630093745.918,84.961,-83.496,-40.527,4.395
1630093745.922,-1000.000,-82.520,-56.152,-5.859
1630093745.923,-974.609,-88.867,-62.012,-14.648
1630093745.927,-979.492,-92.285,-58.105,-16.602
1630093745.931,-1000.000,-52.734,-22.461,31.250
1630093745.935,-1000.000,-28.320,-6.836,56.641
1630093745.939,-958.496,-69.336,-61.523,-0.977
1630093745.943,-1000.000,-88.379,-73.242,-22.949
1630093745.947,-946.289,-38.574,-13.184,35.156
1630093745.950,387.695,8.301,28.809,91.797
1630093745.954,-915.039,-51.758,-44.922,14.160
1630093745.958,902.344,-78.613,-68.848,-24.414
1630093745.962,972.656,-68.359,-45.898,-2.930
1630093745.966,969.238,-70.312,-54.199,1.953
1630093745.968,953.125,-76.660,-65.918,-7.812
1630093745.972,926.270,-75.195,-71.777,-14.160
1630093745.976,-933.594,-70.801,-47.363,0.977
1630093745.980,-13.184,-70.312,-36.621,10.254
1630093745.984,-1000.000,-77.148,-54.199,-3.418
1630093745.988,-962.402,-69.824,-59.570,-4.395
1630093745.992,-986.328,-23.926,-7.324,40.527
1630093745.995,-1000.000,-40.039,-8.789,30.762
1630093745.999,-1000.000,-83.008,-60.059,-14.160
1630093746.003,-1000.000,-58.594,-56.641,-7.812
1630093746.007,-1000.000,-38.574,-29.785,16.602
1630093746.011,-937.988,-57.129,-36.133,4.883
1630093746.013,-1000.000,-66.895,-60.547,-19.043
1630093746.017,-215.820,-36.133,-47.363,-2.930
1630093746.021,-961.426,-22.949,-30.273,0.488
1630093746.025,949.219,-57.129,-39.551,-28.320
1630093746.029,941.895,-67.383,-44.922,-24.902
1630093746.033,961.426,-23.438,-15.137,18.555
1630093746.037,924.316,-9.277,-6.348,27.344
1630093746.040,-929.199,-59.570,-41.504,-24.414
1630093746.044,2.930,-63.965,-41.504,-24.414
1630093746.048,-1000.000,-45.410,-32.227,2.441
1630093746.052,-963.867,-47.852,-39.062,-3.906
1630093746.056,-986.816,-71.289,-46.875,-26.367
1630093746.061,-940.918,-73.730,-36.621,-20.020
1630093746.065,-1000.000,-52.734,-22.461,-5.859
1630093746.069,-231.934,-44.434,-36.133,-11.719
1630093746.073,-967.285,-59.082,-51.758,-33.691
1630093746.077,952.148,-58.594,-34.180,-29.785
1630093746.081,937.988,-51.270,-30.273,-13.184
1630093746.085,973.145,-51.270,-49.316,-26.367
1630093746.088,966.309,-59.082,-61.035,-48.828
1630093746.092,966.309,-44.434,-29.297,-28.809
1630093746.096,966.309,-15.137,-1.953,7.324
1630093746.100,966.309,-43.945,-40.039,-27.832
1630093746.104,966.309,-60.059,-66.895,-63.965
1630093746.119,966.309,-46.387,-41.504,-53.711
1630093746.123,966.309,-41.992,-28.320,-36.621
1630093746.127,966.309,-46.875,-37.598,-27.344
1630093746.131,966.797,-63.477,-63.477,-51.758
1630093746.135,903.320,-24.902,-16.113,-13.184
1630093746.139,-895.508,44.434,78.125,80.078
1630093746.143,186.523,-12.695,18.555,15.625
1630093746.146,-1000.000,-66.406,-56.641,-54.199
1630093746.150,-984.375,-35.156,-21.484,-15.137
1630093746.154,-973.145,-39.062,-3.906,-6.348
1630093746.158,-1000.000,-64.941,-34.668,-25.879
1630093746.162,-1000.000,-60.059,-50.781,-27.344
1630093746.163,-1000.000,-56.152,-56.152,-36.133
1630093746.167,-939.941,-56.152,-37.598,-29.785
1630093746.171,-1000.000,-57.129,-35.156,-21.484
1630093746.175,-759.766,-55.176,-47.363,-27.832
1630093746.179,652.832,-45.410,-54.688,-32.715
1630093746.183,-947.266,-39.062,-43.945,-34.180
1630093746.187,903.809,-48.828,-41.016,-34.668
1630093746.190,990.723,-50.293,-53.711,-35.156
1630093746.194,911.621,22.949,8.301,20.996
1630093746.198,-971.680,13.672,2.441,6.836
1630093746.202,757.324,-50.781,-52.734,-51.758
1630093746.206,-620.117,-45.410,-44.434,-40.039
1630093746.208,-1000.000,-46.387,-58.105,-47.852
1630093746.212,-946.289,-47.363,-59.082,-56.641
1630093746.216,-980.957,-64.941,-50.293,-49.316
1630093746.220,-998.047,-38.574,-27.832,-20.508
1630093746.224,-1000.000,-10.254,-23.926,-14.648
1630093746.228,229.492,-41.016,-59.570,-40.527
1630093746.232,-916.992,-49.805,-54.199,-38.574
1630093746.235,911.133,-1.953,-9.277,8.789
1630093746.239,969.727,32.715,15.625,44.922
1630093746.243,899.902,-27.832,-44.434,-24.414
1630093746.247,-895.508,-48.828,-49.805,-38.574
1630093746.251,268.066,-45.410,-32.227,-15.625
1630093746.253,-1000.000,-47.363,-45.410,-24.414
1630093746.257,-998.047,-51.758,-55.664,-25.391
1630093746.261,-980.469,-47.852,-46.387,-26.855
1630093746.265,-948.242,-41.992,-32.715,-30.762
1630093746.269,-1000.000,-46.875,-35.645,-26.855
1630093746.273,-748.535,-42.969,-52.246,-41.016
1630093746.277,664.551,-40.527,-58.105,-44.434
1630093746.280,-949.707,-5.371,5.859,12.695
1630093746.284,911.133,-18.555,-0.488,1.465
1630093746.288,949.707,-59.082,-56.152,-49.805
1630093746.292,958.008,-47.852,-46.387,-34.668
1630093746.296,989.746,-44.434,-29.785,-24.414
1630093746.298,-176.270,-62.988,-34.668,-31.250
1630093746.302,-1000.000,-76.172,-45.898,-35.156
1630093746.306,-621.094,-36.133,-17.578,-0.977
1630093746.310,945.801,1.953,25.391,40.527
1630093746.314,437.012,-47.852,-10.254,-7.324
1630093746.318,-1000.000,-75.684,-48.340,-42.969
1630093746.322,-862.305,-29.297,-14.160,0.000
1630093746.325,763.184,-2.441,15.137,22.461
1630093746.329,635.254,-52.734,-32.715,-31.250
1630093746.333,-898.926,-63.477,-50.293,-47.852
1630093746.337,-1000.000,-57.129,-55.664,-51.758
1630093746.341,-17.090,-54.199,-50.781,-45.410
1630093746.346,-863.281,-54.688,-38.574,-43.945
1630093746.350,-113.281,-57.129,-42.480,-51.270
1630093746.354,-1000.000,-33.203,-32.227,-36.133
1630093746.358,-226.562,-36.621,-41.504,-41.504
1630093746.362,-833.496,-61.035,-51.270,-58.594
1630093746.366,217.773,-49.805,-42.969,-51.270
1630093746.370,-1000.000,-6.836,-5.371,-9.277
1630093746.373,-532.715,-23.438,-21.484,-25.391
1630093746.377,-935.059,-63.477,-55.664,-65.430
1630093746.381,296.387,-53.223,-37.109,-50.781
1630093746.385,-1000.000,-53.223,-41.504,-51.758
1630093746.389,-631.836,-55.176,-53.223,-63.965
1630093746.388,928.223,-53.223,-55.664,-62.988
1630093746.392,812.500,-34.668,-30.762,-40.039
1630093746.396,-689.941,-27.344,-25.879,-32.715
1630093746.400,-1000.000,-45.898,-48.340,-49.316
1630093746.404,100.586,-56.152,-57.129,-52.734
1630093746.408,-783.203,-17.090,-17.090,-10.254
1630093746.412,165.527,65.430,64.941,71.289
1630093746.415,-1000.000,8.789,8.789,16.602
1630093746.419,-242.676,-58.594,-67.871,-55.176
1630093746.423,-809.570,-40.039,-51.758,-47.852
1630093746.427,121.582,-38.086,-37.598,-43.945
1630093746.431,-1000.000,-51.758,-46.875,-47.363
1630093746.448,-275.879,-55.664,-58.594,-43.457
1630093746.452,-829.102,-49.805,-57.617,-36.621
1630093746.456,245.117,-50.781,-48.340,-44.922
1630093746.460,-1000.000,-50.781,-50.293,-52.246
1630093746.464,-596.191,-44.434,-55.664,-44.922
1630093746.468,-970.703,-34.180,-40.527,-23.926
1630093746.472,591.309,-41.992,-40.527,-36.133
1630093746.475,-954.590,-56.641,-50.781,-52.734
1630093746.479,-1000.000,-45.898,-45.898,-38.086
1630093746.483,317.383,21.484,17.578,30.273
1630093746.487,-931.641,-5.371,6.836,3.906
1630093746.491,-377.930,-65.918,-46.387,-63.965
1630093746.493,-1000.000,-59.082,-43.457,-53.223
1630093746.497,-156.250,-53.711,-46.387,-41.016
1630093746.501,-824.707,-53.711,-41.504,-36.621
1630093746.505,146.484,-62.988,-46.875,-50.293
1630093746.509,-1000.000,-18.555,-13.184,-12.207
1630093746.513,-251.465,5.371,2.930,12.695
1630093746.517,-816.895,-36.621,-42.969,-28.809
1630093746.520,239.746,-57.129,-56.152,-54.688
1630093746.524,-1000.000,-11.230,-5.859,-11.719
1630093746.528,-580.078,8.301,10.742,16.602
1630093746.532,-965.820,-54.199,-55.176,-40.527
1630093746.536,613.281,-60.059,-58.105,-49.316
1630093746.538,-926.270,-39.551,-32.715,-25.391
1630093746.542,-1000.000,-43.945,-41.016,-32.715
1630093746.546,300.293,-68.359,-55.176,-37.109
1630093746.550,-898.438,-60.059,-50.781,-10.742
1630093746.554,-322.754,-48.828,-59.570,-42.969
1630093746.558,-1000.000,-48.828,-54.688,-73.242
1630093746.562,-148.438,-46.387,-47.363,-64.941
1630093746.565,-813.965,-31.250,-41.016,-62.500
1630093746.569,214.844,17.578,-0.977,-43.945
1630093746.573,-1000.000,-7.324,-19.531,-83.496
1630093746.577,-288.086,-34.180,-49.316,-113.770
1630093746.581,-821.289,-18.555,-38.086,-111.328
1630093746.584,262.695,-25.391,-34.180,-123.535
1630093746.588,-1000.000,-16.602,-29.297,-125.000
1630093746.592,-665.527,-22.461,-43.457,-154.785
1630093746.596,976.562,8.789,-13.184,-104.492
1630093746.600,599.121,43.945,26.367,-65.918
1630093746.604,-932.129,-8.301,-19.531,-132.324
1630093746.608,-1000.000,-37.109,-53.223,-156.250
1630093746.611,187.012,9.766,-6.836,-94.238
1630093746.615,-922.363,26.855,14.648,-67.383
1630093746.619,-350.586,-30.762,-39.551,-123.047
1630093746.623,-1000.000,-37.598,-42.480,-113.770
1630093746.627,-199.707,-35.156,-37.598,-94.727
1630093746.628,-839.355,-35.645,-44.922,-88.867
1630093746.632,145.020,-34.180,-44.922,-102.051
1630093746.636,-1000.000,-30.762,-38.086,-102.051
1630093746.640,-308.105,-28.809,-37.109,-81.543
1630093746.644,-837.891,-29.785,-43.457,-69.336
1630093746.648,292.480,-38.574,-52.246,-87.891
1630093746.652,-1000.000,-50.293,-55.176,-96.680
1630093746.655,-715.820,12.695,10.742,-19.531
1630093746.659,939.941,22.949,18.066,-8.789
1630093746.663,582.031,-44.434,-50.781,-78.613
1630093746.667,-943.848,-48.828,-57.129,-91.309
1630093746.671,-1000.000,-41.992,-48.340,-79.590
1630093746.673,81.055,-45.410,-37.109,-55.176
1630093746.677,-862.305,-54.688,-55.176,-64.453
1630093746.681,-203.613,-28.809,-37.598,-55.176
1630093746.685,-1000.000,-12.207,-4.395,-26.855
1630093746.689,-221.680,-41.016,-25.391,-41.992
1630093746.693,-834.473,-48.340,-41.992,-46.387
1630093746.697,235.840,-16.113,-15.137,-21.973
1630093746.700,-1000.000,1.953,11.230,-5.371
1630093746.704,-461.426,-40.527,-25.391,-38.086
1630093746.708,-887.207,-41.016,-38.086,-29.297
1630093746.712,320.801,-23.438,-32.715,-22.949
1630093746.716,-1000.000,-30.762,-30.762,-40.527
1630093746.719,-963.867,-48.340,-40.039,-53.711
1630093746.723,590.820,-37.109,-35.645,-38.086
1630093746.727,769.531,-34.180,-49.805,-50.781
1630093746.731,-801.758,-42.480,-53.711,-67.871
1630093746.735,-1000.000,-48.340,-48.340,-64.453
1630093746.739,-37.598,-40.039,-38.574,-35.645
1630093746.743,-838.379,16.602,-0.977,13.672
1630093746.746,-60.059,4.883,-21.973,-21.973
1630093746.750,-1000.000,-42.480,-61.035,-69.824
1630093746.754,-230.469,-31.250,-42.969,-48.828
1630093746.758,-830.078,-27.344,-42.480,-29.297
1630093746.762,243.164,-32.715,-59.570,-53.711
1630093746.764,-1000.000,-45.410,-66.895,-75.195
1630093746.768,-554.688,-21.484,-32.715,-37.109
1630093746.772,-935.059,24.414,16.113,21.973
1630093746.776,448.242,-14.160,-30.762,-26.367
1630093746.780,-1000.000,-49.316,-66.406,-83.984
1630093746.784,-993.652,-5.859,-11.230,-40.527
1630093746.788,541.016,15.625,18.066,8.301
1630093746.791,881.348,-35.645,-39.551,-35.645
1630093746.795,-648.438,-48.828,-54.199,-62.988
1630093746.799,-1000.000,-37.598,-36.133,-46.387
1630093746.803,-165.039,-32.715,-25.391,-21.484
1630093746.807,-854.980,-33.203,-38.574,-25.879
1630093746.823,24.902,-39.551,-51.270,-56.152
1630093746.827,-1000.000,-41.016,-48.828,-58.594
1630093746.831,-278.320,-39.062,-37.598,-34.668
1630093746.835,-841.797,-37.598,-35.645,-13.184
1630093746.839,238.281,-36.621,-51.270,-33.691
1630093746.843,-1000.000,16.113,0.977,3.906
1630093746.847,-801.758,15.625,15.625,12.695
1630093746.850,838.379,-44.434,-31.738,-23.438
1630093746.854,423.828,-36.621,-35.156,-22.461
1630093746.858,-1000.000,-32.227,-35.645,-46.875
1630093746.862,-1000.000,-38.086,-51.758,-52.734
1630093746.866,119.629,-26.855,-45.410,-27.344
1630093746.868,988.281,-27.344,-35.156,-11.719
1630093746.872,-487.305,-42.969,-37.109,-31.250
1630093746.876,-1000.000,-53.711,-40.039,-53.711
1630093746.880,-212.891,-61.523,-42.969,-38.574
1630093746.884,-847.656,-30.762,-10.742,12.207
1630093746.888,209.961,-6.836,8.301,18.555
1630093746.892,-1000.000,-52.734,-36.133,-35.645
1630093746.895,-467.285,-74.707,-45.410,-41.992
1630093746.899,-893.066,-16.602,5.371,28.809
1630093746.903,235.352,11.719,12.695,36.133
1630093746.907,-1000.000,-58.594,-46.387,-45.898
1630093746.911,-1000.000,-69.824,-47.363,-49.316
1630093746.913,438.965,-51.758,-33.203,-12.207
1630093746.917,311.523,-54.688,-44.922,-14.648
1630093746.921,-1000.000,-63.477,-55.176,-44.434
1630093746.925,-1000.000,-60.059,-45.898,-40.527
1630093746.929,-55.176,-49.805,-31.738,-16.113
1630093746.933,375.977,-47.852,-41.992,-15.625
1630093746.937,-948.730,-62.012,-61.523,-43.945
1630093746.940,-1000.000,-69.336,-62.500,-55.176
1630093746.944,-290.527,1.953,17.578,33.691
1630093746.948,566.406,9.766,17.578,44.922
1630093746.952,-774.902,-56.152,-60.547,-53.223
1630093746.956,-1000.000,-50.293,-49.316,-55.176
1630093746.958,-958.496,-45.410,-31.250,-36.133
1630093746.962,395.508,-44.922,-27.344,-20.020
1630093746.966,44.434,-60.547,-58.105,-46.387
1630093746.970,-1000.000,-35.156,-32.227,-37.109
1630093746.974,-1000.000,-8.301,-0.488,-5.859
1630093746.978,237.305,-36.621,-29.785,-16.602
1630093746.982,271.484,-52.734,-59.082,-41.992
1630093746.985,-1000.000,-26.367,-31.738,-31.738
1630093746.989,-1000.000,-4.883,1.953,-1.953
1630093746.993,-119.629,-49.316,-29.297,-24.414
1630093746.997,464.355,-57.129,-55.664,-32.715
1630093747.001,-865.234,-38.086,-50.781,-39.062
1630093747.003,-1000.000,-38.086,-36.133,-41.016
1630093747.007,-348.145,-50.293,-40.527,-37.598
1630093747.011,-930.176,-45.898,-38.086,-18.555
1630093747.015,57.129,-48.340,-51.758,-41.016
1630093747.019,-1000.000,-50.781,-49.316,-59.570
1630093747.023,-635.742,-54.199,-36.621,-49.805
1630093747.027,965.332,-51.270,-37.109,-26.367
1630093747.030,400.879,-18.555,-21.484,-9.277
1630093747.034,-1000.000,-31.250,-30.762,-41.016
1630093747.038,-998.535,-58.594,-50.293,-60.547
1630093747.042,353.516,-41.992,-36.133,-25.391
1630093747.046,-828.125,-39.551,-48.340,-27.344
1630093747.049,-203.613,-52.734,-59.082,-63.965
1630093747.053,-1000.000,-60.059,-59.082,-72.754
1630093747.057,-24.414,-26.855,-21.484,-20.996
1630093747.061,-777.832,11.230,7.812,27.832
1630093747.065,206.055,-31.738,-47.363,-42.969
1630093747.069,-1000.000,-60.547,-72.754,-86.426
1630093747.073,-276.367,-17.578,-16.113,-18.066
1630093747.076,-814.941,5.371,5.371,25.391
1630093747.080,497.070,-42.969,-65.430,-51.270
1630093747.084,-1000.000,-56.152,-74.707,-76.172
1630093747.088,-505.371,-46.875,-44.434,-44.922
1630093747.092,-989.746,-38.086,-32.227,-16.113
1630093747.093,969.727,-36.133,-65.430,-57.129
1630093747.097,-505.859,-39.551,-74.707,-94.238
1630093747.101,-1000.000,-31.738,-50.781,-66.406
1630093747.105,434.082,-21.484,-36.621,-30.273
1630093747.109,-783.691,-18.066,-56.641,-38.574
1630093747.113,92.773,-25.391,-75.684,-83.984
1630093747.117,-1000.000,39.551,-5.371,-11.230
1630093747.120,-142.578,57.129,20.508,29.785
1630093747.124,-775.879,1.465,-49.316,-28.320
1630093747.128,212.402,2.930,-68.848,-55.664
1630093747.132,-1000.000,-3.418,-62.500,-63.477
1630093747.136,-277.832,-6.836,-45.898,-40.039
1630093747.138,-826.172,-9.277,-44.434,-13.672
1630093747.142,556.152,6.836,-45.410,-12.207
1630093747.146,-1000.000,23.926,-22.949,-8.301
1630093747.150,-688.477,-7.812,-34.668,-24.414
1630093747.154,884.766,-23.438,-41.016,-24.902
1630093747.158,-965.332,10.742,-25.879,-2.441
1630093747.162,-374.512,13.672,-19.531,-9.766
1630093747.165,-1000.000,-32.715,-44.922,-47.363
1630093747.169,144.531,-26.855,-32.715,-20.020
1630093747.173,-783.203,-27.832,-43.945,-8.789
1630093747.177,29.297,-33.691,-54.199,-42.480
1630093747.181,-1000.000,-32.715,-43.945,-50.781
1630093747.198,-245.117,-32.227,-37.598,-38.574
1630093747.202,-818.359,2.930,-7.324,15.137
1630093747.206,239.258,-6.348,-26.855,-14.160
1630093747.210,-1000.000,-41.992,-62.500,-70.801
1630093747.214,-448.242,-34.668,-36.621,-41.016
1630093747.218,-883.301,-20.996,-15.625,-2.441
1630093747.222,486.816,-35.156,-51.758,-29.785
1630093747.225,-1000.000,-56.641,-70.312,-73.242
1630093747.229,-931.641,-40.527,-39.551,-53.223
1630093747.233,598.145,-13.184,0.977,13.184
1630093747.237,-995.605,-29.297,-35.156,-8.301
1630093747.241,-483.887,-46.387,-68.359,-70.801
1630093747.243,-1000.000,-14.648,-37.109,-47.363
1630093747.247,-19.531,42.480,22.949,33.691
1630093747.251,-804.688,9.277,-22.949,22.461
1630093747.255,70.312,-35.156,-81.055,-42.480
1630093747.259,-1000.000,-3.906,-39.551,-23.438
1630093747.263,-246.094,8.789,-13.184,0.488
1630093747.267,-821.777,-17.090,-39.551,-0.977
1630093747.270,241.211,-35.156,-70.801,-35.645
1630093747.274,-1000.000,0.000,-25.391,-24.902
1630093747.278,-588.379,20.020,14.648,18.555
1630093747.282,-957.520,-25.391,-29.297,-3.906
1630093747.286,553.223,-33.203,-57.617,-31.738
1630093747.288,-965.332,-31.738,-56.152,-52.734
1630093747.292,-1000.000,-26.855,-47.363,-44.434
1630093747.296,253.418,-30.273,-42.969,-22.461
1630093747.300,-913.086,-30.762,-51.270,-18.066
1630093747.304,-346.680,-17.578,-48.340,-32.227
1630093747.308,-1000.000,-21.973,-42.480,-43.457
1630093747.312,-200.684,-32.715,-38.086,-30.273
1630093747.315,-829.590,-28.320,-37.109,-17.090
1630093747.319,225.098,1.465,-19.043,-7.324
1630093747.323,-1000.000,-14.648,-24.902,-26.367
1630093747.327,-319.824,-38.086,-40.527,-38.086
1630093747.331,-833.008,-25.879,-32.715,-5.371
1630093747.333,245.117,-33.203,-50.293,-33.691
1630093747.337,-1000.000,-39.551,-49.805,-53.223
1630093747.341,-785.645,-41.016,-38.574,-40.527
1630093747.345,823.242,-10.254,-2.441,14.160
1630093747.349,722.656,9.277,-0.977,21.973
1630093747.353,-841.309,-31.250,-40.039,-42.969
1630093747.357,-1000.000,-47.852,-44.922,-53.223
1630093747.360,122.559,-3.418,3.906,19.531
1630093747.364,-871.094,28.809,29.297,56.641
1630093747.368,-236.816,-32.227,-42.480,-42.480
1630093747.372,-1000.000,-56.152,-65.430,-77.148
1630093747.376,-219.727,-46.875,-43.457,-53.711
1630093747.378,-835.938,-41.992,-46.875,-41.016
1630093747.382,228.516,-48.340,-67.383,-71.777
1630093747.386,-1000.000,-52.246,-62.012,-85.938
1630093747.390,-444.824,-43.457,-41.016,-63.477
1630093747.394,-880.371,-31.738,-33.691,-36.133
1630093747.398,350.586,-41.992,-57.129,-57.129
1630093747.402,-1000.000,-41.992,-60.059,-79.590
1630093747.405,-931.152,-2.930,-5.371,-28.320
1630093747.409,627.441,-9.766,6.348,-7.812
1630093747.413,825.195,-48.828,-51.270,-56.152
1630093747.417,-725.098,-39.062,-46.387,-65.430
1630093747.421,-1000.000,-21.973,-20.020,-40.527
1630093747.423,-70.312,-42.969,-27.344,-38.086
1630093747.427,-837.891,-54.688,-52.246,-45.898
1630093747.431,-29.785,-27.344,-40.039,-44.434
1630093747.435,-1000.000,-6.836,-8.789,-28.320
1630093747.439,-232.422,-41.504,-22.949,-33.691
1630093747.443,-829.590,-59.082,-39.551,-30.273
1630093747.447,247.559,-23.926,-23.438,-13.184
1630093747.450,-1000.000,-10.742,1.465,-19.043
1630093747.454,-562.500,-62.012,-35.156,-70.312
1630093747.458,937.988,-55.664,-40.527,-56.152
1630093747.462,235.840,-45.898,-50.781,-60.547
1630093747.466,-1000.000,-48.340,-54.199,-79.102
1630093747.470,-1000.000,-51.270,-45.898,-75.684
1630093747.474,343.262,-51.758,-33.691,-48.340
1630093747.478,962.402,-33.203,-27.832,-33.203
1630093747.482,-553.223,-38.086,-39.551,-59.082
1630093747.486,-1000.000,-51.270,-52.246,-76.660
1630093747.490,-184.082,-39.062,-32.715,-54.199
1630093747.494,-845.703,9.277,7.812,3.418
1630093747.497,91.797,-11.230,-15.137,-34.180
1630093747.501,-1000.000,-56.152,-47.852,-82.520
1630093747.505,-277.344,-40.039,-28.320,-56.152
1630093747.509,-834.961,-33.691,-27.832,-42.969
1630093747.513,243.652,-40.527,-46.875,-69.824
1630093747.513,-1000.000,-48.340,-56.641,-88.379
1630093747.517,-695.312,-19.531,-19.531,-48.340
1630093747.521,952.637,-4.883,2.930,-9.766
1630093747.525,536.133,-35.156,-49.316,-55.176
1630093747.529,-992.188,-50.781,-76.172,-100.586
1630093747.533,-1000.000,-19.043,-33.203,-56.152
1630093747.537,253.418,42.969,38.574,36.621
1630093747.540,-939.453,-11.230,-22.461,-20.020
1630093747.544,-391.602,-63.965,-72.266,-97.656
1630093747.548,-1000.000,-58.594,-53.223,-90.332
1630093747.552,-212.402,-54.688,-42.480,-67.871
1630093747.556,-842.773,-49.805,-45.410,-52.734
1630093747.560,179.688,-51.270,-62.988,-79.590
1630093747.564,-1000.000,-50.293,-56.641,-87.891
1630093747.568,-380.859,-49.316,-37.598,-67.871
1630093747.572,-861.816,-50.781,-42.480,-51.270
1630093747.576,269.043,-50.293,-60.059,-62.012
1630093747.580,-1000.000,-45.898,-49.316,-69.336
1630093747.584,-889.160,-48.340,-40.527,-63.965
1630093747.587,711.914,-41.504,-36.621,-37.598
1630093747.591,679.688,-37.109,-41.992,-33.691
1630093747.595,-883.301,2.441,9.766,-0.488
1630093747.599,-1000.000,-13.184,-1.953,-16.113
1630093747.603,-0.488,-41.016,-39.062,-42.480
1630093747.618,-875.488,-26.367,-41.016,-25.879
1630093747.622,-195.312,-36.133,-55.176,-59.082
1630093747.626,-1000.000,-37.109,-47.852,-72.266
1630093747.630,-220.703,-47.363,-46.875,-63.965
1630093747.634,-836.914,-6.836,-11.719,-5.371
1630093747.638,244.629,18.555,10.742,7.812
1630093747.642,-1000.000,-37.598,-33.203,-54.688
1630093747.645,-544.922,-61.523,-46.875,-64.941
1630093747.649,-926.270,-19.531,-4.883,-1.465
1630093747.653,359.863,3.418,-1.465,10.254
1630093747.657,-1000.000,-49.805,-60.059,-70.312
1630093747.661,-1000.000,-57.129,-57.617,-80.566
1630093747.663,455.078,-45.410,-33.203,-43.457
1630093747.667,852.539,-50.293,-51.270,-44.922
1630093747.671,-707.520,-63.477,-61.035,-76.172
1630093747.675,-1000.000,-60.059,-44.434,-73.730
1630093747.679,-97.168,-52.246,-25.879,-43.457
1630093747.683,-844.727,-50.781,-32.715,-33.691
1630093747.687,-26.855,-59.082,-50.781,-68.848
1630093747.690,-1000.000,-58.594,-41.016,-71.289
1630093747.694,-231.445,-18.555,8.789,-15.625
1630093747.698,-830.078,-24.414,-7.324,-13.184
1630093747.702,241.699,-53.223,-60.059,-71.289
1630093747.706,-1000.000,-37.109,-42.480,-74.707
1630093747.708,-655.762,-28.809,-18.555,-41.504
1630093747.712,994.629,-43.457,-27.344,-31.250
1630093747.716,483.398,-60.059,-56.641,-65.430
1630093747.720,-1000.000,-32.715,-28.809,-58.594
1630093747.724,-1000.000,1.953,9.277,-22.461
1630093747.728,277.832,-26.367,-14.160,-36.621
1630093747.732,-996.094,-44.922,-46.387,-54.688
1630093747.735,-487.305,-6.836,-16.113,-39.551
1630093747.739,-1000.000,15.625,18.066,-17.578
1630093747.743,-195.801,-28.809,-26.367,-42.480
1630093747.747,-847.168,-30.762,-41.504,-36.621
1630093747.751,116.211,-31.250,-44.922,-55.176
1630093747.753,-1000.000,-38.574,-40.527,-65.430
1630093747.757,-319.336,-41.992,-30.762,-44.434
1630093747.761,-847.656,-39.551,-31.250,-25.879
1630093747.765,246.582,-29.785,-33.203,-39.062
1630093747.769,-1000.000,-41.992,-37.598,-60.547
1630093747.773,-747.070,-56.152,-41.504,-72.266
1630093747.777,875.000,-43.945,-24.414,-50.781
1630093747.780,691.406,-1.953,5.859,-0.488
1630093747.784,-860.840,-18.066,-8.789,-22.949
1630093747.788,-1000.000,-52.246,-33.203,-59.082
1630093747.792,116.699,-33.203,-11.719,-34.668
1630093747.796,-885.254,-34.180,-28.320,-33.203
1630093747.798,-261.719,-45.410,-44.922,-62.012
1630093747.802,-1000.000,-55.664,-43.457,-72.754
1630093747.806,-216.797,-21.484,-7.324,-17.090
1630093747.810,-837.891,6.836,12.695,22.949
1630093747.814,207.520,-38.086,-38.086,-36.133
1630093747.818,-1000.000,-59.570,-53.223,-67.383
1630093747.822,-425.781,-18.555,-5.371,-6.348
1630093747.825,-874.023,26.367,38.574,59.570
1630093747.829,291.504,-27.344,-27.832,-23.926
1630093747.833,-1000.000,-60.547,-61.523,-74.219
1630093747.837,-953.613,-51.758,-44.922,-56.152
1630093747.841,579.102,-47.363,-37.598,-33.691
1630093747.844,830.078,-48.340,-55.176,-38.574
1630093747.848,-730.957,-48.828,-63.477,-72.266
1630093747.852,-1000.000,-44.922,-46.387,-62.012
1630093747.856,-50.293,-37.109,-35.156,-34.668
1630093747.860,-837.402,-39.062,-48.340,-38.574
1630093747.864,-46.875,-47.852,-60.547,-66.895
1630093747.868,-1000.000,-15.625,-20.996,-29.785
1630093747.871,-231.445,-20.996,-10.254,-15.137
1630093747.875,-829.590,-55.664,-49.805,-50.293
1630093747.879,243.164,-35.645,-52.246,-56.152
1630093747.883,-1000.000,-14.648,-29.297,-45.898
1630093747.887,-575.684,-36.621,-34.180,-48.828
1630093747.888,-945.801,-50.293,-38.086,-31.250
1630093747.892,479.980,-40.039,-37.109,-29.297
1630093747.896,-1000.000,-39.551,-34.668,-48.828
1630093747.900,-1000.000,-56.641,-32.715,-54.688
1630093747.904,333.984,-66.406,-26.367,-32.715
1630093747.908,-929.199,-26.367,-6.348,0.488
1630093747.912,-375.977,11.230,25.391,11.719
1630093747.915,-1000.000,-41.992,-13.672,-38.574
1630093747.919,-189.941,-60.059,-32.227,-40.527
1630093747.923,-843.750,-52.246,-32.227,-31.250
1630093747.927,86.426,-60.547,-46.875,-68.848
1630093747.931,-1000.000,-67.383,-50.781,-82.520
1630093747.936,-287.598,-65.918,-45.410,-65.430
1630093747.940,-839.355,-39.062,-20.020,-22.461
1630093747.944,244.141,-41.992,-30.273,-44.434
1630093747.948,-1000.000,-64.453,-48.340,-73.730
1630093747.952,-720.215,-55.664,-38.574,-53.223
1630093747.956,926.758,-46.875,-26.367,-32.227
1630093747.960,560.547,-55.176,-51.270,-52.734
1630093747.963,-972.168,-63.965,-69.824,-78.613
1630093747.967,-1000.000,-49.805,-44.434,-67.383
1630093747.971,184.570,-16.113,-3.418,-21.484
1630093747.975,-906.250,-34.668,-31.250,-36.133
1630093747.979,-326.172,-52.734,-58.105,-81.543
1630093747.993,-1000.000,-41.504,-38.086,-66.406
1630093747.997,-214.844,-33.691,-26.855,-37.109
1630093748.001,-836.426,-23.926,-35.156,-37.598
1630093748.005,197.754,-36.621,-54.199,-74.707
1630093748.009,-1000.000,-19.531,-26.855,-54.199
1630093748.013,-328.613,57.129,58.105,44.922
1630093748.017,-837.891,24.414,25.391,22.949
1630093748.020,252.930,-44.434,-58.594,-70.801
1630093748.024,-1000.000,-38.086,-44.922,-76.660
1630093748.028,-914.551,-42.969,-34.668,-64.941
1630093748.032,666.504,-51.270,-42.480,-53.711
1630093748.036,715.820,-47.852,-55.664,-56.152
1630093748.053,-853.027,-46.387,-57.129,-69.336
1630093748.057,-1000.000,-50.781,-44.922,-66.406
1630093748.061,-3.418,-55.176,-38.086,-47.852
1630093748.065,-865.723,-48.828,-43.457,-37.109
1630093748.069,-167.969,-49.316,-49.316,-56.641
1630093748.073,-1000.000,-52.246,-42.969,-68.848
1630093748.077,-222.168,-45.898,-32.227,-53.711
1630093748.080,-835.449,-46.875,-41.016,-44.922
1630093748.084,244.141,12.207,8.301,-0.488
1630093748.088,-1000.000,8.789,10.742,-14.160
1630093748.092,-545.898,-55.664,-37.109,-64.941
1630093748.096,-928.223,-40.039,-25.391,-24.902
1630093748.084,372.070,-36.133,-47.852,-40.039
1630093748.088,-1000.000,-38.574,-48.828,-63.965
1630093748.092,-1000.000,-45.898,-46.387,-65.918
1630093748.096,513.184,-13.672,-6.836,-14.648
1630093748.100,841.797,6.836,4.395,11.719
1630093748.104,-708.984,-41.992,-47.852,-58.594
1630093748.108,-1000.000,-43.945,-50.293,-71.289
1630093748.111,-134.277,-21.484,-27.344,-31.738
1630093748.115,-856.445,-19.531,-29.297,-24.414
1630093748.119,-35.645,-35.645,-52.246,-59.570
1630093748.123,-1000.000,-52.246,-64.941,-82.520
1630093748.127,-229.004,-4.883,-6.836,-22.461
1630093748.128,-831.055,41.992,32.227,31.250
1630093748.132,241.699,-22.949,-41.504,-56.152
1630093748.136,-1000.000,-47.852,-52.734,-76.660
1630093748.140,-656.250,-39.551,-34.180,-51.270
1630093748.144,994.629,-38.086,-32.227,-35.645
1630093748.148,486.816,-47.363,-52.246,-51.758
1630093748.152,-1000.000,-47.363,-54.688,-67.383
1630093748.155,-1000.000,-8.301,-5.371,-15.137
1630093748.159,258.301,-15.137,-0.488,1.953
1630093748.163,985.840,-42.969,-45.410,-32.227
1630093748.167,-510.742,-42.480,-46.387,-54.199
1630093748.171,-1000.000,-42.480,-33.203,-55.664
1630093748.174,-206.543,-31.738,-23.438,-35.156
1630093748.178,-844.727,-33.691,-36.133,-30.762
1630093748.182,156.738,-22.461,-31.738,-30.762
1630093748.186,-1000.000,14.648,16.113,6.348
1630093748.190,-317.383,-13.672,-3.418,-9.766
1630093748.194,-840.820,-36.621,-38.574,-28.320
1630093748.198,236.328,-1.953,-13.184,-15.625
1630093748.201,-1000.000,10.254,10.254,-11.230
1630093748.205,-847.656,-37.598,-31.250,-53.223
1630093748.209,774.414,-41.504,-39.551,-51.758
1630093748.213,602.051,-35.156,-60.547,-62.988
1630093748.217,-953.613,-39.551,-62.012,-58.594
1630093748.218,-1000.000,-42.480,-34.180,-34.668
1630093748.222,91.797,-42.969,-24.414,-35.156
1630093748.226,-890.625,-43.457,-39.551,-33.203
1630093748.230,-268.555,-58.105,-50.293,-55.176
1630093748.234,-1000.000,-73.242,-46.875,-69.336
1630093748.238,-217.773,-80.566,-40.039,-55.176
1630093748.242,-838.867,-13.184,27.344,25.391
1630093748.245,224.121,-16.113,20.020,-0.977
1630093748.249,-1000.000,-90.820,-54.199,-100.586
1630093748.253,-466.797,-84.961,-40.039,-91.309
1630093748.257,-895.020,-74.219,-27.832,-62.500
1630093748.261,270.508,-74.707,-48.340,-83.984
1630093748.263,-1000.000,-92.285,-68.359,-125.977
1630093748.267,-894.043,-67.383,-30.762,-98.145
1630093748.271,679.688,-24.414,19.531,-41.504
1630093748.275,747.070,-58.594,-32.227,-78.125
1630093748.279,-826.172,-85.938,-65.918,-120.605
1630093748.283,-1000.000,-47.852,-16.602,-73.242
1630093748.287,33.691,-28.320,10.254,-24.902
1630093748.290,-862.305,-67.383,-41.504,-59.082
1630093748.294,-179.199,-89.355,-68.359,-102.539
1630093748.298,-1000.000,-54.688,-28.809,-64.453
1630093748.302,-222.168,-37.598,-9.766,-30.762
1630093748.306,-836.426,-73.242,-51.270,-55.664
1630093748.310,239.258,-79.102,-63.965,-83.496
1630093748.314,-1000.000,-77.148,-59.570,-89.355
1630093748.318,-542.969,-71.289,-45.410,-60.059
1630093748.322,-924.805,-73.242,-39.062,-32.715
1630093748.326,380.371,-73.730,-55.664,-46.875
1630093748.330,-1000.000,-62.988,-44.434,-55.176
1630093748.334,-1000.000,-62.500,-42.969,-44.922
1630093748.337,386.230,-71.289,-45.410,-32.227
1630093748.341,961.426,-64.453,-47.363,-29.297
1630093748.345,-552.734,-15.137,-0.488,-4.883
1630093748.349,-1000.000,-25.391,-8.789,-29.785
1630093748.353,-171.387,-62.012,-49.805,-59.082
1630093748.368,-849.121,-54.688,-46.875,-45.410
1630093748.372,43.457,-55.176,-55.664,-77.637
1630093748.376,-1000.000,-59.082,-55.664,-93.262
1630093748.380,-251.465,-68.359,-52.246,-84.473
1630093748.384,-831.055,-32.227,-16.113,-28.809
1630093748.388,240.234,-7.812,-1.465,-12.207
1630093748.392,-1000.000,-57.617,-43.457,-67.383
1630093748.395,-709.961,-70.801,-53.223,-79.590
1630093748.399,941.406,-20.020,-3.418,-14.648
1630093748.403,508.301,-13.184,-10.254,-11.230
1630093748.407,-1000.000,-63.477,-61.035,-77.637
1630093748.411,-1000.000,-66.406,-53.711,-65.430
1630093748.428,207.031,-38.086,-23.926,-16.602
1630093748.432,-943.848,-33.203,-31.738,-19.531
1630093748.436,-395.996,-57.129,-55.664,-58.105
1630093748.440,-1000.000,-56.641,-44.434,-57.617
1630093748.444,-212.402,-47.852,-31.738,-41.016
1630093748.448,-839.844,-43.457,-33.203,-31.250
1630093748.452,179.688,-57.129,-50.293,-69.824
1630093748.455,-1000.000,-55.176,-44.922,-81.543
1630093748.459,-313.477,-2.441,8.789,-16.113
1630093748.463,-836.426,-14.160,0.000,-4.395
1630093748.467,233.887,-52.734,-52.734,-65.430
1630093748.471,-1000.000,-41.992,-45.410,-83.496
1630093748.458,-854.492,-32.715,-30.762,-72.266
1630093748.462,744.141,-20.020,-23.438,-42.969
1630093748.466,706.055,-32.715,-53.223,-53.711
1630093748.470,-857.422,-15.625,-37.109,-54.199
1630093748.474,-1000.000,20.508,18.555,-6.836
1630093748.478,34.180,-20.020,-16.602,-30.273
1630093748.482,-871.582,-27.344,-52.246,-42.480
1630093748.485,-202.148,-34.668,-46.875,-52.246
1630093748.489,-1000.000,-53.223,-42.969,-60.547
1630093748.493,-220.215,-49.316,-35.156,-27.344
1630093748.497,-836.914,-66.406,-51.758,-11.719
1630093748.501,234.375,-29.785,-16.113,17.090
1630093748.503,-1000.000,-16.113,5.859,25.879
1630093748.507,-513.672,-71.777,-39.551,-11.719
1630093748.511,-912.598,-64.453,-34.668,13.184
1630093748.515,348.145,-62.988,-49.805,-6.348
1630093748.519,-1000.000,-74.707,-53.711,-34.180
1630093748.523,-962.891,-72.754,-42.969,-24.902
1630093748.527,542.480,-71.777,-40.039,-6.348
1630093748.530,914.551,-6.348,18.555,57.129
1630093748.534,-611.816,-5.371,23.926,39.551
1630093748.538,-1000.000,-74.707,-40.527,-36.621
1630093748.542,-109.375,-57.617,-29.297,-16.113
1630093748.546,-852.539,-49.805,-39.062,-9.277
1630093748.549,-53.711,-57.617,-55.664,-37.598
1630093748.553,-1000.000,-64.453,-56.152,-52.734
1630093748.557,-228.027,-32.227,-13.672,0.488
1630093748.561,-831.543,-1.953,16.602,52.734
1630093748.565,243.652,-48.340,-37.598,-19.531
1630093748.569,-1000.000,-73.730,-55.664,-70.801
1630093748.573,-604.980,-22.461,-13.672,-21.973
1630093748.576,-960.449,14.160,18.066,25.391
1630093748.580,428.223,-41.016,-46.387,-43.457
1630093748.584,-1000.000,-68.848,-72.754,-81.543
1630093748.588,-1000.000,-29.785,-18.066,-26.367
1630093748.592,344.727,-19.531,-1.465,4.395
1630093748.593,909.180,-60.547,-57.617,-46.387
1630093748.597,-627.930,-63.477,-64.453,-68.848
1630093748.601,-1000.000,-63.965,-47.852,-62.500
1630093748.605,-189.941,-64.453,-36.621,-41.992
1630093748.609,-851.074,-66.895,-45.410,-30.762
1630093748.613,81.543,-72.266,-62.988,-61.035
1630093748.617,-1000.000,-27.344,-16.113,-16.602
1630093748.620,-289.551,-31.738,-5.859,1.953
1630093748.624,-840.820,-63.477,-43.945,-28.809
1630093748.628,245.117,-57.129,-54.688,-39.551
1630093748.632,-1000.000,-57.617,-51.270,-50.293
1630093748.636,-719.727,-51.758,-39.551,-41.016
1630093748.639,925.293,-53.711,-36.621,-28.320
1630093748.643,592.285,-35.645,-36.621,-20.996
1630093748.647,-945.312,4.883,2.930,5.371
1630093748.651,-1000.000,-30.273,-15.625,-21.484
1630093748.655,114.258,-63.477,-49.316,-46.387
1630093748.659,-865.723,-17.578,-24.414,-0.977
1630093748.663,-225.586,-7.324,-9.277,-2.930
1630093748.666,-1000.000,-67.383,-45.898,-58.105
1630093748.670,-216.797,-70.312,-39.551,-35.156
1630093748.674,-838.379,-51.758,-29.297,-1.953
1630093748.678,192.383,-57.129,-43.457,-32.715
1630093748.682,-1000.000,-67.383,-54.199,-64.941
1630093748.698,-431.152,-54.199,-36.133,-44.922
1630093748.702,-881.836,-45.898,-32.715,-26.367
1630093748.706,260.254,-49.805,-53.711,-48.828
1630093748.710,-1000.000,-55.664,-55.176,-67.383
1630093748.714,-908.203,-64.453,-57.617,-74.707
1630093748.718,678.223,0.977,11.719,4.883
1630093748.722,680.176,11.230,5.371,7.812
1630093748.725,-888.184,-56.152,-68.848,-84.473
1630093748.729,-1000.000,-51.270,-44.434,-68.359
1630093748.733,-2.441,-38.574,-23.438,-23.926
1630093748.737,-865.234,-50.293,-48.828,-31.738
1630093748.741,-169.434,-63.477,-67.871,-69.824
1630093748.744,-1000.000,-57.129,-59.570,-71.777
1630093748.748,-221.680,-47.852,-38.086,-47.363
1630093748.752,-835.938,-45.898,-39.551,-25.391
1630093748.756,234.375,-64.453,-72.266,-65.430
1630093748.760,-1000.000,-37.109,-34.668,-46.875
1630093748.764,-523.926,-13.672,4.883,-5.371
1630093748.768,-916.016,-47.852,-27.344,-22.949
1630093748.771,337.891,-68.848,-69.336,-66.406
1630093748.775,-1000.000,-31.738,-27.344,-49.316
1630093748.779,-1000.000,9.766,34.180,7.812
1630093748.783,468.750,-38.574,-18.555,-25.879
1630093748.787,813.477,-58.594,-65.430,-58.594
1630093748.788,-747.559,-59.570,-60.547,-75.684
1630093748.792,-1000.000,-59.082,-55.176,-80.078
1630093748.796,-147.461,-52.246,-46.387,-60.547
1630093748.800,-856.934,-44.434,-44.922,-48.828
1630093748.804,-18.555,-47.852,-51.758,-79.102
1630093748.808,-1000.000,-47.363,-44.922,-88.379
1630093748.812,-232.910,-45.898,-42.969,-69.824
1630093748.815,-831.055,-50.781,-47.852,-47.852
1630093748.819,241.699,2.930,-5.371,-10.254
1630093748.823,-1000.000,-6.836,-10.254,-34.180
1630093748.827,-666.504,-59.570,-57.617,-76.172
1630093748.831,986.328,-37.109,-34.668,-30.762
1630093748.833,456.055,-32.227,-42.480,-28.809
1630093748.837,-1000.000,-51.270,-60.059,-70.312
1630093748.841,-1000.000,-63.965,-60.547,-77.148
1630093748.845,256.836,-28.809,-11.719,-9.277
1630093748.849,978.516,-5.371,2.441,11.719
1630093748.853,-522.949,-49.805,-50.293,-65.918
1630093748.857,-1000.000,-76.172,-62.012,-83.008
1630093748.860,-201.172,-26.855,-1.465,-5.859
1630093748.864,-855.469,6.348,18.555,33.203
1630093748.868,70.801,-52.734,-51.270,-59.570
1630093748.872,-1000.000,-63.965,-55.176,-88.867
1630093748.876,-305.176,-53.223,-29.785,-59.570
1630093748.878,-847.168,-47.852,-29.785,-37.598
1630093748.882,242.676,-60.547,-62.988,-75.195
1630093748.886,-1000.000,-63.477,-57.617,-92.773
1630093748.890,-795.410,-35.156,-17.578,-50.293
1630093748.894,837.402,-27.832,-11.719,-20.508
1630093748.898,610.840,-52.734,-54.199,-49.805
1630093748.902,-940.430,-62.988,-68.359,-85.938
1630093748.905,-1000.000,-17.578,-13.672,-34.668
1630093748.909,99.609,-21.973,-4.883,-8.301
1630093748.913,-898.438,-64.941,-55.176,-45.410
1630093748.917,-288.086,-62.988,-54.688,-66.406
1630093748.921,-1000.000,-62.012,-46.387,-63.477
1630093748.923,-216.309,-55.176,-27.344,-27.344
1630093748.927,-840.332,-62.012,-28.809,-15.137
1630093748.931,216.797,-46.875,-26.855,-22.461
1630093748.935,-1000.000,-4.395,18.555,9.766
1630093748.939,-473.145,-42.480,-6.348,-11.230
1630093748.943,-895.508,-72.266,-41.992,-29.297
1630093748.947,297.363,-33.691,-20.996,-10.254
1630093748.950,-1000.000,-16.602,-0.488,-7.812
1630093748.954,-983.398,-55.664,-39.551,-52.734
1630093748.958,567.383,-57.617,-34.668,-32.715
1630093748.962,734.863,-52.734,-44.922,-29.297
1630093748.966,-839.844,-62.988,-56.641,-64.453
1630093748.968,-1000.000,-65.918,-50.293,-55.664
1630093748.972,-47.852,-52.246,-41.504,-31.738
1630093748.976,-866.211,-45.410,-44.922,-39.551
1630093748.980,-147.461,-48.828,-54.199,-69.824
1630093748.984,-1000.000,-41.992,-46.875,-72.754
1630093748.988,-222.168,-41.016,-44.434,-56.152
1630093748.992,-836.426,31.250,19.531,30.273
1630093748.995,244.629,40.039,15.625,3.906
1630093748.999,-1000.000,-34.180,-51.758,-80.566
1630093749.003,-603.027,-34.668,-35.645,-57.129
1630093749.007,-959.961,-25.879,-23.438,-29.297
1630093749.011,400.391,-30.762,-50.781,-49.805
1630093749.013,-1000.000,-49.316,-63.477,-80.078
1630093749.017,-1000.000,-29.785,-25.879,-43.457
1630093749.021,419.434,-6.836,2.930,2.930
1630093749.025,876.953,-35.645,-39.551,-27.344
1630093749.029,-671.875,-62.012,-66.406,-68.359
1630093749.033,-1000.000,-28.809,-25.391,-33.203
1630093749.037,-152.832,7.324,21.484,23.438
1630093749.040,-847.656,-37.598,-29.785,-10.254
1630093749.044,41.504,-63.965,-64.453,-59.570
1630093749.048,-1000.000,-38.574,-27.344,-42.969
1630093749.052,-272.949,-30.762,-11.719,-22.949
1630093749.056,-838.867,-49.805,-43.457,-32.227
1630093749.088,243.164,-51.758,-65.430,-59.570
1630093749.092,-1000.000,-48.340,-57.617,-72.266
1630093749.096,-719.727,-42.480,-40.527,-54.199
1630093749.100,933.105,-42.969,-32.715,-31.738
1630093749.104,503.418,-49.316,-51.758,-50.781
1630093749.108,-996.582,-41.016,-49.805,-68.359
1630093749.112,-1000.000,-46.387,-36.621,-63.965
1630093749.115,150.391,-54.688,-33.203,-50.293
1630093749.119,-926.758,-42.480,-43.457,-36.621
1630093749.123,-356.934,-21.973,-32.227,-42.480
1630093749.127,-1000.000,-41.016,-35.645,-65.918
1630093749.131,-214.355,-59.570,-43.945,-65.430
1630093749.118,-840.820,-32.227,-29.297,-20.020
1630093749.122,207.520,-22.949,-28.809,-25.391
1630093749.126,-1000.000,-50.293,-46.875,-61.035
1630093749.130,-411.133,-55.176,-51.758,-61.035
1630093749.134,-870.117,-9.766,-7.324,0.977
1630093749.138,274.414,6.836,-1.953,8.301
1630093749.142,-1000.000,-48.828,-53.711,-66.406
1630093749.145,-898.438,-65.918,-52.246,-69.824
1630093749.149,704.590,-42.969,-20.508,-13.672
1630093749.153,653.320,-45.410,-34.668,-24.414
1630093749.157,-909.180,-70.801,-65.918,-82.520
1630093749.161,-1000.000,-79.590,-72.754,-89.355
1630093749.163,9.277,-23.438,-10.742,-10.742
1630093749.167,-885.254,-5.859,-1.465,12.695
1630093749.171,-223.145,-74.219,-78.125,-78.613
1630093749.175,-1000.000,-78.125,-73.242,-83.984
1630093749.179,-218.262,-54.688,-30.762,-26.855
1630093749.183,-836.914,-55.664,-35.645,-15.625
1630093749.187,231.445,-79.590,-75.195,-72.754
1630093749.190,-1000.000,-75.684,-65.918,-84.961
1630093749.194,-486.328,-26.855,-5.859,-23.926
1630093749.198,-898.438,-32.715,-10.254,-14.648
1630093749.202,316.895,-72.754,-69.824,-73.242
1630093749.206,-1000.000,-70.801,-67.383,-87.402
1630093749.208,-1000.000,-69.336,-55.176,-80.078
1630093749.212,490.723,-53.223,-35.645,-44.922
1630093749.216,818.359,-52.734,-56.641,-48.340
1630093749.220,-746.094,-33.203,-44.922,-48.340
1630093749.224,-1000.000,-11.719,-12.695,-21.484
1630093749.228,-110.840,-40.039,-36.621,-37.598
1630093749.232,-850.098,-52.246,-62.500,-52.246
1630093749.235,-36.133,-15.625,-35.156,-37.109
1630093749.239,-1000.000,22.949,21.484,7.812
1630093749.243,-229.980,-29.297,-10.254,-19.531
1630093749.247,-831.055,-47.852,-39.062,-29.785
1630093749.251,243.164,-42.480,-54.688,-50.781
1630093749.253,-1000.000,-53.223,-55.664,-73.730
1630093749.257,-636.719,-54.199,-51.758,-66.895
1630093749.261,-985.840,-42.969,-46.875,-32.715
1630093749.265,474.121,-41.504,-58.105,-39.062
1630093749.269,-1000.000,-47.363,-65.918,-65.430
1630093749.273,-1000.000,-50.781,-58.594,-57.617
1630093749.277,279.785,-43.457,-43.945,-29.297
1630093749.280,986.328,-3.906,-16.602,11.719
1630093749.284,-512.695,-21.973,-35.645,-27.832
1630093749.288,-1000.000,-67.871,-68.848,-75.684
1630093749.292,-197.266,-47.363,-41.504,-33.203
1630093749.296,-854.004,-33.203,-39.062,-13.184
1630093749.298,72.754,-53.223,-68.848,-59.082
1630093749.302,-1000.000,-61.035,-73.242,-81.055
1630093749.306,-304.199,-32.715,-31.250,-35.645
1630093749.310,-847.168,6.348,16.113,31.738
1630093749.314,247.070,-37.109,-41.992,-33.691
1630093749.318,-1000.000,-69.824,-73.242,-89.844
1630093749.322,-731.934,-20.020,-16.602,-24.902
1630093749.325,918.457,11.719,16.602,36.133
1630093749.329,547.852,-34.180,-49.316,-23.926
1630093749.333,-966.309,-54.688,-63.477,-66.895
1630093749.337,-1000.000,-46.387,-37.598,-45.898
1630093749.341,109.863,-36.621,-23.438,-14.648
1630093749.345,-943.359,-40.527,-41.016,-21.484
1630093749.349,-370.605,-46.875,-62.500,-58.105
1630093749.353,-1000.000,-28.320,-35.156,-49.805
1630093749.357,-214.844,-18.066,-14.648,-21.973
1630093749.361,-842.285,-34.180,-37.598,-23.438
1630093749.365,219.238,-49.316,-60.059,-61.035
1630093749.369,-1000.000,-15.137,-16.113,-35.156
1630093749.372,-446.777,-18.555,-6.836,-18.555
1630093749.376,-884.277,-50.781,-48.828,-37.598
1630093749.380,257.812,-48.340,-64.941,-52.246
1630093749.384,-1000.000,-49.805,-57.129,-68.359
1630093749.388,-958.984,-53.223,-51.270,-64.453
1630093749.388,589.844,-53.711,-48.828,-42.969
1630093749.392,761.230,-27.344,-41.504,-30.762
1630093749.396,-830.078,-20.020,-32.715,-41.992
1630093749.400,-1000.000,-46.387,-46.387,-58.105
1630093749.404,-44.434,-52.246,-44.434,-48.828
1630093749.408,-839.844,-15.137,-18.066,-14.160
1630093749.412,-55.176,45.410,39.551,25.879
1630093749.415,-1000.000,-1.953,0.000,-19.531
1630093749.419,-229.980,-50.293,-48.828,-51.270
1630093749.423,-831.543,-42.969,-42.969,-34.180
1630093749.427,234.863,-47.852,-62.012,-62.012
1630093749.431,-1000.000,-53.223,-66.895,-81.055
1630093749.435,-589.355,-42.969,-44.922,-62.500
1630093749.439,-953.125,-35.645,-28.320,-25.391
1630093749.443,377.441,-43.457,-49.316,-39.551
1630093749.447,-1000.000,-49.805,-54.688,-67.383
1630093749.451,-1000.000,-49.805,-46.387,-63.477
1630093749.455,378.418,-34.668,-27.344,-26.855
1630093749.459,946.289,-35.156,-43.457,-35.645
1630093749.462,-581.055,-51.758,-63.965,-78.613
1630093749.466,-1000.000,-48.340,-49.805,-67.383
1630093749.470,-139.160,16.113,24.414,20.508
1630093749.474,-853.027,6.836,6.348,19.531
1630093749.478,-19.043,-52.246,-65.430,-65.430
1630093749.493,-1000.000,-45.410,-49.805,-62.988
1630093749.497,-244.629,-39.551,-29.785,-37.109
1630093749.501,-835.449,-40.039,-32.227,-25.391
1630093749.505,241.699,-55.176,-67.871,-65.918
1630093749.509,-1000.000,-23.926,-32.227,-41.992
1630093749.513,-703.125,12.207,23.926,15.625
1630093749.517,949.219,-30.273,-14.648,-0.977
1630093749.520,502.441,-56.641,-65.430,-45.410
1630093749.524,-996.582,-13.184,-23.438,-25.391
1630093749.528,-1000.000,13.672,8.301,-1.465
1630093749.532,196.289,-34.180,-27.832,-33.691
1630093749.536,-986.328,-47.363,-45.410,-37.598
1630093749.538,-463.867,-42.480,-52.246,-64.453
1630093749.542,-1000.000,-41.016,-46.387,-71.777
1630093749.546,-205.566,-43.945,-41.504,-50.781
1630093749.550,-852.051,-39.062,-42.969,-29.297
1630093749.554,117.676,-46.875,-64.453,-61.035
1630093749.558,-1000.000,-52.734,-58.105,-73.242
1630093749.562,-382.812,-52.734,-38.574,-49.805
1630093749.565,-870.117,-44.434,-29.297,-26.855
1630093749.569,287.598,-8.301,-5.859,-10.254
1630093749.573,-1000.000,-26.855,-20.020,-45.898
1630093749.577,-870.117,-59.082,-46.875,-69.336
1630093749.581,751.465,-45.410,-29.297,-29.297
1630093749.584,637.207,-41.016,-46.875,-39.062
1630093749.588,-921.387,-47.363,-59.570,-73.242
1630093749.592,-1000.000,-57.617,-65.918,-80.566
1630093749.596,31.250,-25.391,-22.461,-21.973
1630093749.600,-884.277,12.207,19.531,38.574
1630093749.604,-232.422,-44.434,-38.574,-36.133
1630093749.608,-1000.000,-87.891,-67.383,-82.031
1630093749.611,-217.773,-34.668,-9.277,-7.812
1630093749.615,-839.355,-3.906,13.672,48.340
1630093749.619,222.168,-69.336,-55.176,-34.180
1630093749.623,-1000.000,-81.055,-67.383,-71.777
1630093749.627,-513.184,-64.453,-44.922,-50.293
1630093749.628,-915.039,-57.129,-33.203,-21.484
1630093749.632,294.922,-64.453,-62.988,-47.363
1630093749.636,-1000.000,-72.754,-63.477,-73.730
1630093749.640,-976.562,-44.922,-25.391,-41.016
1630093749.644,525.879,-35.645,-16.113,-12.695
1630093749.648,869.629,-52.734,-47.363,-30.762
1630093749.652,-679.199,-59.570,-60.059,-61.523
1630093749.655,-1000.000,-16.602,-10.742,-20.996
1630093749.659,-98.145,-9.277,1.953,2.441
1630093749.663,-857.422,-42.969,-44.922,-29.297
1630093749.667,-80.566,-46.875,-56.152,-54.199
1630093749.671,-1000.000,-46.387,-42.969,-54.688
1630093749.673,-226.074,-40.039,-22.461,-29.785
1630093749.677,-833.984,-38.574,-26.855,-17.090
1630093749.681,243.652,-27.344,-33.203,-27.344
1630093749.685,-1000.000,-16.602,-13.184,-23.926
1630093749.689,-637.207,-39.062,-27.832,-38.086
1630093749.693,-980.957,-49.316,-43.457,-33.203
1630093749.697,460.938,-20.996,-37.109,-11.230
1630093749.700,-1000.000,16.602,4.395,13.184
1630093749.704,-1000.000,-28.809,-19.043,-28.320
1630093749.708,283.203,-53.223,-41.016,-31.738
1630093749.712,921.387,-46.875,-53.223,-21.484
1630093749.716,-604.004,-57.129,-61.035,-54.199
1630093749.720,-1000.000,-58.105,-51.758,-66.406
1630093749.724,-194.336,-49.316,-41.016,-48.340
1630093749.728,-859.863,-44.434,-45.898,-30.762
1630093749.732,42.969,-52.734,-58.594,-56.152
1630093749.736,-1000.000,-60.059,-55.176,-66.895
1630093749.740,-293.945,-53.223,-41.504,-48.340
1630093749.744,-846.680,-4.395,6.348,11.230
1630093749.747,246.094,-13.184,-21.973,-22.461
1630093749.751,-1000.000,-58.105,-66.406,-85.449
1630093749.755,-740.723,-40.039,-37.598,-59.082
1630093749.759,908.691,-19.043,-9.277,-11.719
1630093749.763,536.621,-40.039,-46.875,-38.086
1630093749.763,-983.887,-59.082,-68.359,-83.496
1630093749.767,-1000.000,-41.016,-38.574,-62.012
1630093749.771,171.387,-28.809,-15.137,-23.926
1630093749.775,-942.383,-39.062,-41.016,-35.156
1630093749.779,-386.719,-56.152,-67.871,-84.961
1630093749.783,-1000.000,-27.832,-24.414,-54.199
1630093749.787,-209.961,46.875,60.547,52.734
1630093749.790,-846.191,-1.953,12.207,19.043
1630093749.794,163.574,-61.523,-61.035,-72.266
1630093749.798,-1000.000,-60.059,-52.734,-80.078
1630093749.802,-416.016,-54.688,-33.691,-53.223
1630093749.806,-877.930,-45.410,-27.832,-20.508
1630093749.818,264.648,-51.758,-54.199,-47.363
1630093749.822,-1000.000,-37.598,-35.156,-48.828
1630093749.826,-921.875,-34.668,-15.137,-27.344
1630093749.830,656.250,-48.828,-24.414,-18.066
1630093749.834,701.172,-44.434,-40.527,-28.320
1630093749.838,-866.699,-37.109,-42.480,-48.340
1630093749.842,-1000.000,-41.504,-42.480,-47.363
1630093749.845,-21.484,-50.293,-39.551,-29.785
1630093749.849,-865.723,-41.992,-43.457,-15.137
1630093749.853,-160.156,-18.066,-27.832,-14.648
1630093749.857,-1000.000,-31.738,-24.414,-34.180
1630093749.861,-221.680,-37.598,-24.414,-39.551
1630093749.868,-836.426,-24.414,-21.484,-19.043
1630093749.872,237.305,-39.551,-45.410,-46.387
1630093749.876,-1000.000,-47.363,-40.527,-58.594
1630093749.880,-568.848,-47.852,-32.227,-46.387
1630093749.884,-941.406,-28.320,-9.766,-8.301
1630093749.888,458.984,43.457,44.922,54.688
1630093749.892,-1000.000,7.324,10.742,2.441
1630093749.895,-1000.000,-62.500,-46.387,-64.453
1630093749.899,402.832,-39.062,-16.602,-20.996
1630093749.903,833.008,-36.621,-29.785,-18.066
1630093749.907,-723.633,-56.152,-54.199,-57.129
1630093749.911,-1000.000,-54.688,-50.293,-65.430
1630093749.913,-163.086,-44.434,-30.273,-41.504
1630093749.917,-857.422,-44.434,-37.109,-29.785
1630093749.921,3.906,-54.688,-59.570,-65.430
1630093749.925,-1000.000,-50.293,-42.969,-66.895
1630093749.929,-252.930,-42.969,-26.367,-40.527
1630093749.933,-835.938,-39.551,-28.809,-15.625
1630093749.937,244.629,-45.410,-48.340,-31.250
1630093749.940,-1000.000,-62.012,-59.570,-63.477
1630093749.944,-655.762,2.930,19.531,4.395
1630093749.948,997.559,14.648,43.457,41.504
1630093749.952,452.148,-54.688,-52.246,-49.805
1630093749.956,-1000.000,-55.176,-60.059,-73.730
1630093749.958,-1000.000,-52.246,-37.109,-53.223
1630093749.962,203.613,-57.617,-21.484,-22.949
1630093749.966,980.469,-65.918,-48.340,-31.738
1630093749.970,-515.625,-39.062,-47.852,-49.316
1630093749.974,-1000.000,-6.836,-8.789,-36.621
1630093749.978,-204.590,-39.062,-23.926,-50.293
1630093749.982,-854.004,-56.641,-50.293,-53.711
1630093749.985,106.934,-24.902,-32.227,-40.039
1630093749.989,-1000.000,-2.930,2.930,-17.578
1630093749.993,-358.887,-41.992,-20.020,-38.086
1630093749.997,-863.770,-49.316,-31.250,-20.996
1630093750.001,245.605,-30.762,-37.109,-24.414
1630093750.004,-1000.000,-32.715,-39.062,-48.828
1630093750.008,-849.609,-47.363,-46.875,-59.082
1630093750.012,769.531,-41.016,-38.086,-33.203
1630093750.016,616.211,-43.945,-53.223,-36.133
1630093750.020,-942.383,-47.852,-59.082,-66.406
1630093750.024,-1000.000,-46.875,-54.199,-68.848
1630093750.028,65.918,-40.039,-41.504,-30.273
1630093750.031,-876.953,-1.953,-5.859,19.043
1630093750.035,-233.887,-20.020,-27.832,-28.320
1630093750.039,-1000.000,-59.082,-60.547,-73.242
1630093750.043,-218.262,-42.480,-35.156,-37.109
1630093750.047,-838.379,-34.668,-27.832,-12.207
1630093750.052,222.168,-40.039,-50.781,-52.734
1630093750.056,-1000.000,-48.828,-58.105,-76.660
1630093750.060,-488.770,-18.066,-17.578,-32.227
1630093750.064,-903.809,36.621,34.180,39.551
1630093750.068,291.016,-6.836,-24.414,-14.160
1630093750.072,-1000.000,-53.711,-72.266,-83.496
1630093750.076,-957.520,-4.395,-17.090,-28.320
1630093750.079,598.633,37.109,33.203,39.062
1630093750.083,741.699,-13.672,-35.645,-15.625
1630093750.087,-827.148,-41.992,-64.453,-59.082
1630093750.091,-1000.000,-40.039,-42.480,-48.828
1630093750.095,-84.473,-29.785,-25.391,-18.066
1630093750.093,-852.539,-27.832,-39.062,-13.672
1630093750.097,-72.754,-39.062,-61.035,-56.152
1630093750.101,-1000.000,-37.598,-51.270,-57.129
1630093750.105,-227.539,-34.180,-27.344,-31.250
1630093750.109,-833.008,-33.691,-30.762,-20.020
1630093750.113,244.141,-48.828,-61.523,-57.129
1630093750.117,-1000.000,8.301,5.859,-4.395
1630093750.120,-616.699,26.855,37.109,20.508
1630093750.124,-966.797,-43.457,-24.902,-27.832
1630093750.128,397.949,-47.363,-51.270,-46.875
1630093750.132,-1000.000,-43.457,-50.293,-71.777
1630093750.136,-1000.000,-43.945,-38.086,-56.152
1630093750.138,317.383,-52.734,-33.691,-28.809
1630093750.142,988.770,-28.809,-25.391,-13.672
1630093750.146,-516.113,-4.883,-13.184,-19.531
1630093750.150,-1000.000,-39.551,-40.039,-56.152
1630093750.154,-199.219,-54.199,-45.898,-57.129
1630093750.158,-846.680,-12.207,-8.301,-0.977
1630093750.162,120.117,-2.441,-5.859,-12.695
1630093750.165,-1000.000,-54.199,-53.223,-75.684
1630093750.169,-303.711,-60.547,-49.316,-59.082
1630093750.173,-841.309,-11.230,-2.441,12.207
1630093750.177,244.629,-7.812,-20.996,-6.836
1630093750.181,-1000.000,-58.105,-63.965,-68.848
1630093750.185,-741.699,-55.664,-45.410,-49.805
1630093750.189,907.227,-47.852,-28.809,-13.184
1630093750.193,549.316,-50.293,-47.363,-28.320
1630093750.197,-975.586,-62.500,-58.594,-65.430
1630093750.201,-1000.000,-56.152,-41.504,-50.293
1630093750.205,150.879,-35.156,-10.742,-1.465
1630093750.209,-922.852,-39.062,-24.902,-4.883
1630093750.212,-348.145,-57.129,-49.805,-58.105
1630093750.216,-1000.000,-58.105,-40.039,-58.105
1630093750.220,-210.449,7.324,32.227,28.320
1630093750.224,-845.215,-4.395,14.160,20.508
1630093750.228,160.645,-69.336,-64.941,-72.266
1630093750.243,-1000.000,-58.105,-51.270,-74.219
1630093750.247,-412.598,-47.852,-32.715,-52.246
1630093750.251,-878.418,-43.457,-31.250,-28.809
1630093750.255,252.441,-61.523,-68.848,-60.059
1630093750.259,-1000.000,-41.992,-39.551,-52.734
1630093750.263,-884.766,1.953,15.137,-5.859
1630093750.267,724.121,-34.668,-15.137,-15.137
1630093750.270,614.258,-65.918,-62.988,-50.781
1630093750.274,-937.988,-26.855,-30.273,-40.039
1630093750.278,-1000.000,-6.348,-5.859,-20.020
1630093750.282,-13.184,-45.410,-37.598,-37.109
1630093750.286,-874.512,-50.293,-50.781,-34.668
1630093750.288,-188.477,-34.668,-42.969,-43.457
1630093750.292,-1000.000,-34.180,-28.320,-45.898
1630093750.296,-220.215,-49.805,-32.227,-37.598
1630093750.300,-837.402,-46.875,-36.133,-10.742
1630093750.304,235.352,-52.734,-53.711,-38.086
1630093750.308,-1000.000,-54.688,-46.387,-47.852
1630093750.312,-551.758,-57.129,-31.250,-31.738
1630093750.315,-930.664,-47.852,-22.461,-8.301
1630093750.319,410.645,0.000,-1.465,20.508
1630093750.323,-1000.000,-16.113,-13.672,-12.695
1630093750.327,-1000.000,-52.246,-39.551,-44.922
1630093750.331,423.340,-34.668,-18.555,-6.836
1630093750.333,800.781,-40.039,-38.086,-9.277
1630093750.337,-764.160,-56.641,-54.199,-54.688
1630093750.341,-1000.000,-64.453,-56.641,-71.777
1630093750.345,-149.902,-29.785,-18.555,-14.648
1630093750.349,-862.305,14.648,21.973,43.945
1630093750.353,-38.086,-35.645,-35.156,-38.574
1630093750.357,-1000.000,-77.148,-78.613,-98.145
1630093750.360,-231.934,-25.879,-18.555,-22.949
1630093750.364,-833.008,9.277,18.555,35.645
1630093750.368,241.211,-54.688,-62.988,-52.246
1630093750.372,-1000.000,-68.359,-71.289,-83.496
1630093750.376,-682.129,-57.617,-41.992,-55.664
1630093750.378,971.191,-58.105,-40.039,-25.879
1630093750.382,456.055,-63.965,-65.918,-49.805
1630093750.386,-1000.000,-66.406,-67.871,-81.055
1630093750.390,-1000.000,-58.594,-51.270,-68.848
1630093750.394,239.258,-51.270,-34.668,-37.109
1630093750.398,983.887,-54.199,-50.781,-36.621
1630093750.402,-514.648,-68.359,-76.660,-80.566
1630093750.405,-1000.000,-0.488,0.000,-15.137
1630093750.409,-198.242,15.137,28.320,26.855
1630093750.413,-856.445,-61.523,-48.828,-28.809
1630093750.417,77.148,-65.918,-66.895,-60.547
1630093750.421,-1000.000,-60.059,-56.152,-68.359
1630093750.423,-354.004,-56.641,-35.156,-40.527
1630093750.427,-865.723,-56.641,-43.945,-25.391
1630093750.431,246.094,-41.992,-45.410,-29.297
1630093750.435,-1000.000,-24.414,-18.555,-23.438
1630093750.439,-848.145,-50.293,-30.273,-37.109
1630093750.443,767.578,-63.477,-35.645,-22.461
1630093750.447,635.742,-18.066,-19.531,3.906
1630093750.450,-924.316,1.953,2.930,-0.488
1630093750.454,-1000.000,-52.734,-41.504,-53.711
1630093750.458,58.594,-59.082,-45.898,-43.945
1630093750.462,-878.906,-31.738,-30.273,-13.672
1630093750.466,-234.375,-36.133,-47.363,-47.852
1630093750.468,-1000.000,-59.570,-62.988,-72.754
1630093750.472,-217.773,-52.734,-42.480,-46.875
1630093750.476,-837.402,-47.852,-37.109,-33.203
1630093750.480,218.750,-52.734,-56.641,-65.430
1630093750.484,-1000.000,-60.547,-52.246,-76.172
1630093750.488,-458.496,-57.617,-38.086,-51.270
1630093750.492,-889.160,-5.859,4.883,14.160
1630093750.495,270.996,-11.719,-20.996,-16.113
1630093750.499,-1000.000,-57.617,-65.430,-83.984
1630093750.503,-980.957,-52.734,-43.945,-69.824
1630093750.507,559.082,-41.016,-23.438,-34.668
1630093750.511,752.930,-38.086,-44.922,-35.645
1630093750.515,-827.148,-56.152,-67.871,-75.195
1630093750.519,-1000.000,-39.551,-35.645,-45.898
1630093750.523,-15.137,14.648,30.273,34.668
1630093750.527,-869.141,-13.672,-9.277,7.324
1630093750.531,-171.875,-66.895,-74.219,-71.289
1630093750.535,-1000.000,-32.227,-24.902,-39.551
1630093750.539,-221.191,-2.930,15.625,5.859
1630093750.542,-837.891,-44.434,-33.203,-25.391
1630093750.546,239.746,-56.641,-61.035,-67.871
1630093750.550,-1000.000,-45.410,-38.574,-58.105
1630093750.554,-601.074,-39.551,-20.508,-35.645
1630093750.558,-958.496,-41.016,-24.902,-22.949
1630093750.573,361.816,-39.551,-47.363,-44.434
1630093750.577,-1000.000,-38.574,-51.270,-82.520
1630093750.581,-1000.000,-42.969,-34.668,-73.730
1630093750.585,329.590,-45.410,-22.461,-39.551
1630093750.589,882.324,-47.363,-54.199,-58.594
1630093750.593,-664.551,-0.488,-19.043,-43.945
1630093750.597,-1000.000,7.812,-2.930,-29.785
1630093750.600,-190.430,-43.945,-49.316,-59.082
1630093750.604,-858.398,-36.621,-44.922,-38.086
1630093750.608,51.270,-26.855,-44.434,-54.199
1630093750.612,-1000.000,-43.457,-45.898,-68.359
1630093750.616,-293.457,-55.664,-35.156,-46.875
1630093750.618,-845.703,-45.898,-28.320,-20.020
1630093750.622,245.117,-43.457,-52.246,-49.805
1630093750.626,-1000.000,-49.316,-53.711,-73.242
1630093750.630,-748.535,-60.059,-45.410,-67.871
1630093750.634,898.438,-22.949,-0.977,-9.277
1630093750.638,564.453,2.930,5.371,10.742
1630093750.642,-966.309,-45.898,-45.898,-61.523
1630093750.645,-1000.000,-69.824,-53.711,-77.148
1630093750.649,164.062,-21.484,-0.488,-6.836
1630093750.653,-956.543,26.855,24.414,36.133
1630093750.657,-407.227,-35.645,-45.898,-58.594
1630093750.661,-1000.000,-63.965,-67.871,-99.121
1630093750.663,-208.496,-49.316,-47.852,-68.359
1630093750.667,-848.145,-46.875,-48.828,-46.387
1630093750.671,148.926,-54.688,-67.871,-72.754
1630093750.675,-1000.000,-53.711,-62.988,-78.125
1630093750.679,-408.691,-45.898,-43.457,-51.758
1630093750.683,-878.906,-40.527,-34.180,-27.344
1630093750.687,252.930,-49.316,-61.035,-61.035
1630093750.690,-1000.000,-56.152,-59.570,-86.914
1630093750.694,-847.656,-9.277,8.301,-20.996
1630093750.698,769.043,-9.766,11.719,4.883
1630093750.702,626.953,-56.152,-59.570,-51.270
1630093750.706,-924.316,-49.316,-54.199,-64.453
1630093750.708,-1000.000,-25.879,-17.578,-42.480
1630093750.712,-0.488,-31.738,-17.090,-26.855
1630093750.716,-879.395,-46.387,-52.734,-41.504
1630093750.720,-206.543,-31.738,-45.410,-54.199
1630093750.724,-1000.000,-12.207,-6.836,-29.785
1630093750.728,-218.750,-40.527,-23.926,-42.969
1630093750.732,-838.379,-54.688,-46.875,-44.922
1630093750.735,226.562,-22.461,-30.273,-33.691
1630093750.739,-1000.000,2.441,1.953,-20.020
1630093750.743,-523.438,-43.945,-26.367,-45.410
1630093750.747,-917.480,-55.176,-40.039,-35.645
1630093750.751,331.055,-46.875,-60.547,-47.363
1630093750.754,-1000.000,-52.734,-54.688,-68.359
1630093750.758,-1000.000,-53.223,-35.156,-63.965
1630093750.762,486.816,-41.992,-24.414,-31.250
1630093750.766,845.703,-22.949,-24.414,-14.160
1630093750.770,-711.426,-33.203,-34.668,-45.898
1630093750.774,-1000.000,-52.734,-43.457,-61.523
1630093750.778,-112.305,-40.527,-28.320,-26.367
1630093750.781,-850.586,11.719,9.277,31.738
1630093750.785,-36.621,-0.977,-11.719,-21.973
1630093750.789,-1000.000,-51.758,-54.688,-80.566
1630093750.793,-229.980,-39.551,-36.133,-41.016
1630093750.797,-831.055,-23.926,-32.227,-12.695
1630093750.798,242.676,-28.320,-49.805,-37.109
1630093750.802,-1000.000,-46.875,-48.340,-60.059
1630093750.806,-637.207,-24.902,-19.531,-33.203
1630093750.810,-984.863,14.648,15.137,20.508
1630093750.814,447.754,-19.531,-36.621,-19.531
1630093750.818,-1000.000,-52.246,-71.777,-72.266
1630093750.822,-1000.000,-13.672,-28.809,-28.809
1630093750.825,308.594,43.945,35.156,51.270
1630093750.829,913.086,-7.812,-27.344,-2.441
1630093750.833,-617.676,-52.246,-75.684,-72.754
1630093750.837,-1000.000,-46.875,-56.641,-67.383
1630093750.841,-202.637,-41.504,-41.992,-41.504
1630093750.843,-857.910,-39.062,-47.363,-31.250
1630093750.847,74.707,-44.922,-61.035,-62.500
1630093750.851,-1000.000,-44.434,-54.688,-66.895
1630093750.855,-319.824,-41.504,-34.668,-42.480
1630093750.859,-852.539,-39.062,-33.203,-21.484
1630093750.863,244.141,-52.246,-64.453,-57.617
1630093750.867,-1000.000,3.906,0.000,-14.648
1630093750.870,-801.270,20.508,23.438,15.137
1630093750.874,832.520,-45.898,-36.621,-30.273
1630093750.878,591.309,-42.480,-53.711,-40.039
1630093750.882,-951.172,-44.922,-61.523,-65.430
1630093750.886,-1000.000,-52.734,-52.246,-68.848
1630093750.889,65.430,-52.246,-40.527,-47.363
1630093750.893,-866.699,-24.414,-29.785,-22.461
1630093750.897,-211.426,-2.441,-14.160,-23.926
1630093750.901,-1000.000,-41.016,-35.645,-57.129
1630093750.905,-219.727,-51.270,-37.109,-54.688
1630093750.909,-835.449,-8.301,-3.418,0.977
1630093750.913,224.609,-2.441,-10.742,-6.836
1630093750.916,-1000.000,-49.805,-46.875,-62.012
1630093750.920,-450.195,-58.105,-35.156,-46.387
1630093750.924,-884.766,-13.672,11.230,26.367
1630093750.928,268.066,-10.254,-5.859,8.301
1630093750.932,-1000.000,-63.477,-55.176,-67.871
1630093750.949,-962.891,-62.012,-42.480,-61.035
1630093750.953,591.797,-51.758,-25.879,-33.691
1630093750.957,726.562,-49.316,-45.898,-35.156
1630093750.961,-850.098,-55.664,-57.617,-65.430
1630093750.965,-1000.000,-47.852,-43.945,-62.012
1630093750.969,-20.508,-27.344,-20.020,-24.414
1630093750.973,-863.281,-31.250,-35.156,-22.949
1630093750.976,-155.273,-50.293,-60.547,-63.965
1630093750.980,-1000.000,-43.457,-48.340,-61.523
1630093750.984,-222.168,-8.301,-4.883,-7.812
1630093750.988,-836.426,-24.414,-17.090,-0.977
1630093750.992,237.793,-62.012,-70.801,-61.035
1630093750.995,-1000.000,-43.945,-48.828,-57.129
1630093750.999,-570.312,-23.438,-12.207,-16.602
1630093751.003,-941.895,-38.086,-24.902,-10.742
1630093751.007,352.051,-57.129,-61.035,-48.828
1630093751.011,-1000.000,-33.203,-34.180,-46.875
1630093751.015,-1000.000,-8.301,3.418,-12.207
1630093751.019,396.484,-35.156,-15.137,-17.578
1630093751.022,878.906,-56.152,-56.152,-42.480
1630093751.026,-667.969,-22.949,-29.297,-27.832
1630093751.030,-1000.000,3.418,7.812,-0.977
1630093751.034,-179.688,-48.828,-27.832,-31.738
1630093751.038,-855.469,-54.688,-45.410,-27.344
1630093751.038,35.156,-50.781,-59.570,-52.246
1630093751.042,-1000.000,-55.664,-47.852,-57.129
1630093751.046,-258.301,-58.105,-35.156,-36.621
1630093751.050,-834.961,-57.129,-37.109,-24.414
1630093751.054,240.723,-47.363,-41.504,-30.273
1630093751.058,-1000.000,-46.875,-39.062,-44.434
1630093751.062,-736.816,-59.082,-44.434,-51.270
1630093751.065,910.156,-53.711,-33.691,-28.320
1630093751.069,583.008,-11.230,-6.836,1.465
1630093751.073,-956.543,-29.297,-22.949,-38.574
1630093751.077,-1000.000,-68.359,-47.363,-72.266
1630093751.081,204.102,-52.246,-26.367,-32.227
1630093751.084,-1000.000,-52.734,-41.992,-28.320
1630093751.088,-482.422,-62.012,-58.594,-70.801
1630093751.092,-1000.000,-69.336,-62.012,-87.891
1630093751.096,-204.590,-39.062,-20.020,-32.715
1630093751.100,-852.539,-6.348,1.953,8.301
1630093751.104,112.793,-44.434,-58.594,-64.941
1630093751.108,-1000.000,-73.730,-70.312,-101.562
1630093751.111,-371.094,-29.297,-9.277,-33.203
1630093751.115,-867.676,31.250,38.574,45.410
1630093751.119,246.582,-26.367,-39.551,-41.992
1630093751.123,-1000.000,-58.594,-64.941,-88.867
1630093751.127,-865.234,-51.758,-44.434,-65.430
1630093751.128,746.582,-53.223,-38.574,-40.527
1630093751.132,638.184,-55.664,-55.664,-45.898
1630093751.136,-927.246,-57.617,-61.035,-70.312
1630093751.140,-1000.000,-47.363,-45.898,-61.035
1630093751.144,57.129,-40.039,-34.668,-32.715
1630093751.148,-874.512,-42.480,-50.781,-26.855
1630093751.152,-222.656,-53.223,-73.730,-64.453
1630093751.155,-1000.000,-7.324,-19.531,-19.043
1630093751.159,-218.750,2.930,1.953,6.836
1630093751.163,-838.867,-35.645,-43.457,-33.203
1630093751.167,221.191,-36.133,-47.363,-56.152
1630093751.171,-1000.000,-22.461,-17.090,-44.434
1630093751.173,-505.859,-32.227,-18.066,-40.039
1630093751.177,-911.133,-45.898,-34.668,-45.410
1630093751.181,299.316,-20.996,-35.645,-44.434
1630093751.185,-1000.000,-0.977,-10.742,-37.109
1630093751.189,-981.934,-38.086,-32.227,-63.477
1630093751.193,515.625,-58.105,-46.387,-54.688
1630093751.197,877.930,-18.066,-23.926,-10.742
1630093751.200,-668.945,6.836,-3.418,-10.254
1630093751.204,-1000.000,-47.363,-42.480,-68.848
1630093751.208,-106.445,-52.734,-42.969,-54.688
1630093751.212,-858.887,-44.434,-46.875,-33.691
1630093751.216,-76.660,-57.129,-68.848,-69.824
1630093751.220,-1000.000,-56.152,-64.941,-84.473
1630093751.224,-226.074,-48.828,-47.363,-65.918
1630093751.228,-833.496,-29.297,-21.973,-20.020
1630093751.232,244.141,-38.086,-42.969,-45.898
1630093751.236,-1000.000,-62.500,-58.594,-83.496
1630093751.240,-620.117,-65.918,-42.969,-67.383
1630093751.244,-968.750,-15.137,13.672,12.207
1630093751.247,391.602,-17.578,-7.324,-2.930
1630093751.251,-1000.000,-72.266,-62.988,-84.473
1630093751.255,-1000.000,-66.406,-46.875,-73.242
1630093751.259,296.875,-60.059,-30.762,-43.457
1630093751.263,958.984,-58.594,-45.898,-44.434
1630093751.263,-557.617,-68.848,-63.965,-78.613
1630093751.267,-1000.000,-49.805,-37.109,-57.617
1630093751.271,-188.965,-21.484,-2.930,-13.672
1630093751.275,-853.027,-38.574,-31.738,-29.297
1630093751.279,58.105,-64.453,-68.848,-78.613
1630093751.283,-1000.000,-39.062,-36.133,-57.129
1630093751.287,-272.461,39.551,56.641,50.781
1630093751.290,-836.914,-4.395,14.160,21.484
1630093751.294,237.793,-66.895,-81.055,-76.660
1630093751.298,-1000.000,-66.406,-73.730,-93.750
1630093751.302,-789.551,-66.406,-52.734,-79.102
1630093751.306,850.098,-54.199,-48.340,-48.828
1630093751.310,560.547,-50.293,-68.359,-56.641
1630093751.314,-966.797,-53.223,-69.336,-80.566
1630093751.318,-1000.000,-51.758,-47.852,-70.801
1630093751.322,93.262,-37.109,-33.203,-37.598
1630093751.326,-913.086,-31.250,-43.945,-21.973
1630093751.330,-314.941,-32.227,-40.527,-39.551
1630093751.334,-1000.000,-40.039,-35.156,-47.363
1630093751.337,-215.332,-53.223,-28.809,-35.156
1630093751.341,-840.820,-47.852,-30.273,-22.461
1630093751.345,217.773,10.254,9.766,17.090
1630093751.349,-1000.000,-5.859,6.348,0.000
1630093751.353,-457.031,-62.500,-37.598,-41.992
1630093751.368,-889.648,-49.316,-26.855,-13.184
1630093751.372,264.648,-53.223,-53.711,-43.457
1630093751.376,-1000.000,-60.059,-57.617,-68.848
1630093751.380,-957.520,-63.477,-52.734,-75.195
1630093751.384,590.332,-22.949,-12.207,-22.949
1630093751.388,751.465,16.602,9.277,16.602
1630093751.392,-823.730,-34.668,-41.504,-56.641
1630093751.395,-1000.000,-62.012,-58.105,-80.078
1630093751.399,-28.320,-7.324,4.395,-5.859
1630093751.403,-865.723,14.648,15.625,15.625
1630093751.407,-156.738,-44.922,-53.711,-68.359
1630093751.411,-1000.000,-53.223,-56.152,-85.449
1630093751.413,-221.191,-15.137,-8.789,-31.738
1630093751.417,-836.914,-17.090,-8.789,-13.672
1630093751.421,232.422,-55.176,-55.664,-67.383
1630093751.425,-1000.000,-58.105,-45.898,-74.219
1630093751.429,-570.801,-49.316,-27.344,-53.223
1630093751.433,-943.359,-36.133,-17.578,-22.949
1630093751.437,380.859,-42.969,-40.527,-41.016
1630093751.440,-1000.000,-50.293,-54.199,-73.730
1630093751.444,-1000.000,-2.930,2.930,-11.230
1630093751.448,437.500,-8.789,9.766,12.207
1630093751.452,842.773,-45.410,-52.734,-46.875
1630093751.456,-709.961,-42.969,-59.082,-74.219
1630093751.459,-1000.000,-39.551,-44.922,-61.035
1630093751.463,-157.227,-33.691,-27.832,-33.203
1630093751.467,-865.234,-46.875,-49.805,-45.410
1630093751.471,-39.062,-30.273,-45.410,-56.641
1630093751.475,-1000.000,20.508,17.090,-4.395
1630093751.479,-250.977,-13.672,-2.441,-21.484
1630093751.483,-839.844,-51.758,-46.387,-45.898
1630093751.486,242.676,-9.766,-15.625,-16.113
1630093751.490,-1000.000,8.789,17.090,-1.953
1630093751.494,-717.773,-47.852,-29.785,-43.945
1630093751.498,935.547,-52.246,-33.691,-32.227
1630093751.502,485.352,-48.828,-49.316,-41.504
1630093751.503,-1000.000,-56.152,-57.129,-67.871
1630093751.507,-1000.000,-53.711,-40.527,-58.594
1630093751.511,188.965,-45.410,-22.949,-27.344
1630093751.515,-967.285,-42.480,-32.715,-22.949
1630093751.519,-433.594,-53.711,-49.316,-51.270
1630093751.523,-1000.000,-53.711,-41.992,-53.223
1630093751.527,-211.426,-49.805,-29.785,-35.645
1630093751.530,-844.727,20.020,31.250,48.828
1630093751.534,177.734,29.785,22.461,25.879
1630093751.538,-1000.000,-46.875,-53.711,-71.289
1630093751.542,-381.348,-41.504,-37.109,-50.293
1630093751.546,-864.258,-31.738,-26.367,-17.090
1630093751.552,248.535,-40.527,-55.664,-48.340
1630093751.556,-1000.000,-54.199,-67.871,-91.309
1630093751.560,-823.730,-28.809,-29.297,-45.898
1630093751.564,802.734,6.836,11.719,20.508
1630093751.568,592.285,-31.250,-45.898,-41.504
1630093751.572,-956.055,-64.941,-76.660,-91.309
1630093751.576,-1000.000,-23.438,-21.484,-37.109
1630093751.579,105.469,39.062,55.176,47.852
1630093751.583,-913.574,-15.137,-4.395,-4.395
1630093751.587,-318.359,-63.477,-58.594,-77.148
1630093751.591,-1000.000,-57.617,-38.086,-68.848
1630093751.595,-214.844,-52.246,-21.973,-47.852
1630093751.594,-842.285,-55.176,-33.203,-41.016
1630093751.598,213.867,-66.406,-55.664,-73.242
1630093751.602,-1000.000,-62.012,-44.922,-75.195
1630093751.606,-488.281,-51.270,-22.949,-47.363
1630093751.610,-903.320,-48.340,-24.414,-25.391
1630093751.614,307.617,-48.828,-56.152,-51.758
1630093751.618,-1000.000,-2.930,-17.578,-27.832
1630093751.621,-978.516,-3.418,-5.371,-17.090
1630093751.625,561.035,-44.922,-44.434,-44.434
1630093751.629,782.227,-28.809,-56.152,-41.016
1630093751.633,-784.668,-17.090,-42.969,-51.270
1630093751.637,-1000.000,-38.574,-41.016,-65.918
1630093751.638,-102.051,-52.734,-43.457,-55.664
1630093751.642,-841.309,-28.809,-27.344,-14.648
1630093751.646,-0.977,-12.207,-15.137,-16.602
1630093751.650,-1000.000,-45.898,-34.180,-57.129
1630093751.654,-234.375,-56.641,-37.598,-62.012
1630093751.658,-828.125,-8.301,-3.418,-3.906
1630093751.662,241.699,23.438,11.230,9.766
1630093751.665,-1000.000,-41.504,-35.645,-60.059
1630093751.669,-648.438,-58.594,-45.410,-64.453
1630093751.673,-996.094,-38.086,-33.691,-26.855
1630093751.677,411.133,-47.852,-60.547,-48.828
1630093751.681,-1000.000,-59.570,-69.824,-83.008
1630093751.686,-1000.000,-54.688,-58.105,-81.055
1630093751.690,312.500,-23.926,-25.391,-38.086
1630093751.694,941.895,-23.438,-37.598,-23.926
1630093751.698,-583.008,-54.199,-71.289,-67.871
1630093751.702,-1000.000,-56.641,-58.594,-71.777
1630093751.706,-181.152,-39.062,-32.715,-35.156
1630093751.710,-854.492,-38.086,-41.016,-21.484
1630093751.713,47.363,-54.688,-62.500,-62.012
1630093751.717,-1000.000,-56.641,-56.152,-68.359
1630093751.721,-284.668,-25.879,-7.324,-13.184
1630093751.725,-842.773,-30.762,-4.395,-0.488
1630093751.729,244.629,-55.664,-57.129,-50.293
1630093751.743,-1000.000,-51.270,-51.758,-62.500
1630093751.747,-728.516,-46.387,-32.715,-42.969
1630093751.751,919.922,-41.504,-26.367,-11.719
1630093751.755,557.617,-44.434,-49.316,-24.414
1630093751.759,-970.703,-34.668,-39.551,-39.062
1630093751.763,-1000.000,40.039,56.152,45.898
1630093751.767,198.730,30.762,59.082,64.941
1630093751.770,-986.328,-42.969,-32.227,-16.602
1630093751.774,-462.891,-55.664,-51.270,-57.129
1630093751.778,-1000.000,-55.176,-42.969,-60.059
1630093751.782,-210.938,-44.434,-38.086,-37.109
1630093751.786,-848.633,-44.922,-46.875,-18.555
1630093751.788,179.688,-52.734,-59.082,-45.410
1630093751.792,-1000.000,-48.828,-53.711,-61.035
1630093751.796,-446.289,-41.992,-36.133,-45.898
1630093751.800,-890.625,-36.133,-27.344,-23.438
1630093751.804,262.207,-36.621,-47.363,-43.945
1630093751.808,-1000.000,-43.457,-52.734,-69.824
1630093751.812,-925.781,-44.434,-38.574,-54.688
1630093751.815,641.113,-53.711,-36.621,-30.273
1630093751.819,724.609,7.812,7.324,26.367
1630093751.823,-842.773,12.207,13.672,7.812
1630093751.827,-1000.000,-61.035,-46.387,-63.477
1630093751.831,-17.090,-48.828,-25.879,-32.227
1630093751.833,-890.137,-39.551,-28.320,-19.531
1630093751.837,-218.262,-51.758,-48.340,-48.828
1630093751.841,-1000.000,-61.035,-48.828,-55.664
1630093751.845,-218.262,-26.367,-6.348,-6.348
1630093751.849,-838.379,2.930,13.672,36.621
1630093751.853,233.887,-38.574,-37.109,-28.320
1630093751.857,-1000.000,-64.941,-53.711,-66.895
1630093751.860,-528.809,-17.090,2.441,0.488
1630093751.864,-917.969,20.020,41.016,59.570
1630093751.868,359.863,-45.410,-41.992,-21.973
1630093751.872,-1000.000,-68.359,-67.383,-62.988
1630093751.876,-1000.000,-32.715,-22.461,-24.414
1630093751.878,435.059,-23.926,-9.766,-3.418
1630093751.882,864.746,-53.223,-55.176,-39.062
1630093751.886,-683.594,-60.547,-62.012,-63.965
1630093751.890,-1000.000,-54.199,-46.387,-62.500
1630093751.894,-159.180,-44.434,-27.344,-34.668
1630093751.898,-857.910,-45.898,-37.598,-27.832
1630093751.902,-10.254,-59.082,-61.035,-74.219
1630093751.905,-1000.000,-18.066,-4.883,-34.668
1630093751.909,-230.957,-14.160,13.672,1.953
1630093751.913,-829.590,-51.758,-28.809,-18.066
1630093751.917,240.723,-44.922,-41.992,-37.598
1630093751.921,-1000.000,-46.875,-38.574,-56.641
1630093751.925,-670.898,-42.969,-22.949,-43.457
1630093751.929,981.934,-39.062,-16.602,-19.043
1630093751.933,478.516,-36.621,-33.691,-24.902
1630093751.937,-1000.000,6.836,12.695,7.324
1630093751.941,-1000.000,-15.137,3.906,-9.277
1630093751.945,203.125,-60.059,-41.504,-45.410
1630093751.949,-958.984,-18.066,-20.020,-2.930
1630093751.952,-420.410,7.812,-3.418,1.465
1630093751.956,-1000.000,-40.527,-47.852,-59.570
1630093751.960,-210.938,-48.828,-40.039,-43.945
1630093751.964,-843.750,-37.598,-29.297,-12.695
1630093751.968,166.016,-47.363,-57.129,-48.340
1630093751.968,-1000.000,-51.758,-57.129,-63.965
1630093751.972,-348.145,-46.875,-35.156,-42.480
1630093751.976,-852.539,-38.574,-33.203,-22.461
1630093751.980,245.605,-45.410,-54.199,-41.016
1630093751.984,-1000.000,-52.734,-51.758,-57.129
1630093751.988,-798.340,-60.547,-52.734,-58.594
1630093751.992,834.473,2.441,18.066,29.297
1630093751.995,601.562,15.625,21.484,39.062
1630093751.999,-941.406,-59.082,-64.941,-72.266
1630093752.003,-1000.000,-56.641,-55.664,-65.918
1630093752.007,65.918,-42.969,-29.785,-25.879
1630093752.011,-895.020,-41.504,-41.992,-30.762
1630093752.013,-270.508,-57.129,-64.941,-73.730
1630093752.017,-1000.000,-34.668,-35.156,-57.129
1630093752.021,-216.797,4.883,8.301,0.488
1630093752.025,-838.867,-20.996,-27.832,-18.555
1630093752.029,218.750,-53.711,-71.289,-73.730
1630093752.033,-1000.000,-29.297,-33.691,-47.363
1630093752.037,-448.730,10.254,18.066,12.695
1630093752.040,-884.766,-30.762,-25.391,-14.160
1630093752.044,264.160,-61.523,-75.195,-71.777
1630093752.048,-1000.000,-38.086,-44.922,-62.988
1630093752.052,-968.750,-26.855,-20.996,-41.504
1630093752.056,577.148,-45.898,-37.598,-44.922
1630093752.060,743.652,-50.781,-59.570,-53.223
1630093752.064,-828.613,-57.617,-65.430,-78.613
1630093752.068,-1000.000,-63.965,-56.641,-71.777
1630093752.072,-70.801,-62.500,-44.922,-43.457
1630093752.076,-853.516,-60.059,-61.035,-46.875
1630093752.080,-93.262,-57.129,-69.824,-76.172
1630093752.084,-1000.000,-59.082,-59.570,-80.078
1630093752.087,-226.074,-62.500,-49.316,-67.871
1630093752.091,-833.984,-51.270,-46.387,-45.410
1630093752.095,244.141,-25.391,-38.574,-40.527
1630093752.099,-1000.000,-34.180,-40.039,-62.988
1630093752.103,-611.816,-60.059,-53.223,-77.637
1630093752.118,-966.309,-36.133,-23.438,-30.273
1630093752.122,482.422,-14.160,-23.438,-20.508
1630093752.126,-1000.000,-39.551,-50.293,-65.918
1630093752.130,-1000.000,-59.082,-54.688,-75.195
1630093752.134,333.008,-27.344,-12.207,-16.113
1630093752.138,958.984,9.766,16.113,23.926
1630093752.142,-558.105,-34.180,-37.109,-53.223
1630093752.145,-1000.000,-62.988,-57.617,-86.426
1630093752.149,-174.316,-24.902,-3.906,-23.926
1630093752.153,-853.516,-10.254,6.348,2.930
1630093752.157,36.621,-49.805,-45.898,-62.988
1630093752.161,-1000.000,-55.176,-49.805,-78.613
1630093752.163,-282.227,-45.410,-35.645,-56.152
1630093752.167,-844.238,-37.109,-33.203,-27.832
1630093752.171,249.023,-50.293,-58.105,-54.688
1630093752.175,-1000.000,-54.688,-60.547,-78.613
1630093752.179,-690.918,-30.273,-31.738,-42.969
1630093752.183,976.562,-22.949,-21.484,-10.742
1630093752.187,541.016,-42.480,-59.570,-47.363
1630093752.190,-972.168,-54.199,-70.801,-81.543
1630093752.194,-1000.000,-6.836,-7.324,-18.555
1630093752.198,172.363,-3.906,1.953,5.859
1630093752.202,-978.516,-46.875,-60.547,-45.898
1630093752.206,-444.336,-48.828,-66.895,-73.242
1630093752.208,-1000.000,-48.340,-54.688,-73.242
1630093752.212,-209.473,-41.016,-35.645,-48.828
1630093752.216,-847.656,-50.781,-45.898,-38.574
1630093752.220,164.551,-40.039,-46.875,-52.734
1630093752.224,-1000.000,0.977,6.348,-18.066
1630093752.228,-396.973,-27.344,-4.883,-29.297
1630093752.232,-871.094,-57.129,-45.410,-52.246
1630093752.235,244.141,-22.949,-36.621,-35.156
1630093752.239,-1000.000,-3.418,-5.371,-22.949
1630093752.243,-904.297,-50.293,-37.598,-58.594
1630093752.247,685.059,-55.176,-38.086,-38.574
1630093752.251,668.457,-55.664,-51.270,-41.992
1630093752.253,-901.367,-62.988,-64.453,-79.102
1630093752.257,-1000.000,-62.500,-53.223,-70.312
1630093752.261,10.254,-59.570,-30.762,-28.809
1630093752.265,-871.582,-50.293,-33.203,-21.484
1630093752.269,-190.918,-51.758,-49.316,-60.059
1630093752.273,-1000.000,-52.246,-39.062,-64.453
1630093752.277,-221.191,-55.664,-29.785,-48.340
1630093752.280,-836.914,7.324,22.461,25.879
1630093752.284,244.629,17.090,14.648,9.766
1630093752.288,-1000.000,-57.617,-51.270,-78.125
1630093752.292,-538.574,-53.711,-34.180,-65.918
1630093752.296,-924.805,-38.086,-23.438,-35.156
1630093752.299,307.129,-41.504,-51.270,-53.711
1630093752.303,-1000.000,-57.129,-62.012,-89.355
1630093752.307,-1000.000,-35.156,-34.180,-60.059
1630093752.311,510.742,-2.441,5.371,-2.930
1630093752.315,812.988,-36.621,-45.898,-44.922
1630093752.319,-758.301,-65.918,-83.984,-103.027
1630093752.323,-1000.000,-20.020,-26.855,-49.316
1630093752.326,-66.406,17.090,22.461,13.184
1630093752.330,-841.309,-32.715,-34.668,-30.762
1630093752.334,-48.828,-50.781,-68.359,-80.078
1630093752.338,-1000.000,-20.996,-32.227,-54.688
1630093752.342,-230.469,-13.184,-4.883,-18.555
1630093752.344,-831.543,-35.645,-26.367,-29.297
1630093752.348,241.699,-42.480,-47.852,-55.664
1630093752.352,-1000.000,-45.898,-39.551,-60.059
1630093752.356,-663.086,-40.527,-26.855,-46.387
1630093752.360,989.258,-38.574,-22.949,-25.879
1630093752.364,475.098,-45.898,-52.246,-48.828
1630093752.368,-1000.000,-8.789,-17.090,-29.297
1630093752.371,-1000.000,-4.395,1.465,-19.531
1630093752.375,244.629,-36.133,-22.949,-33.691
1630093752.379,959.473,-26.367,-38.574,-21.973
1630093752.383,-549.316,-37.109,-48.828,-52.734
1630093752.387,-1000.000,-40.039,-35.156,-58.105
1630093752.389,-204.590,-30.762,-22.949,-33.691
1630093752.393,-846.680,-16.113,-17.578,-9.277
1630093752.397,161.133,28.809,6.348,6.348
1630093752.401,-1000.000,-1.465,-17.578,-34.668
1630093752.405,-356.934,-44.922,-45.898,-62.988
1630093752.409,-856.445,-1.953,2.441,2.441
1630093752.413,244.141,8.301,4.395,4.883
1630093752.416,-1000.000,-48.828,-42.969,-69.336
1630093752.420,-837.891,-52.734,-38.086,-64.453
1630093752.424,789.551,-25.879,-16.113,-10.742
1630093752.428,566.406,-28.809,-39.551,-24.902
1630093752.432,-967.285,-41.016,-54.688,-74.707
1630093752.448,-1000.000,-34.180,-49.316,-77.637
1630093752.452,97.656,-28.320,-34.180,-39.551
1630093752.456,-972.168,-29.785,-44.434,-30.273
1630093752.460,-404.785,-40.527,-65.918,-67.383
1630093752.464,-1000.000,-57.617,-63.965,-80.078
1630093752.468,-211.426,5.371,19.043,10.742
1630093752.472,-847.656,28.809,34.180,49.316
1630093752.475,175.293,-53.711,-59.570,-55.176
1630093752.479,-1000.000,-61.035,-52.246,-68.848
1630093752.483,-474.121,-50.293,-25.391,-41.504
1630093752.487,-903.320,-48.828,-23.438,-26.855
1630093752.491,284.180,-52.734,-49.805,-49.316
1630093752.494,-1000.000,-59.570,-50.781,-64.453
1630093752.498,-958.008,-55.176,-28.809,-49.805
1630093752.502,601.074,-51.270,-17.578,-18.555
1630093752.506,721.191,-64.453,-49.805,-31.738
1630093752.510,-850.098,-45.898,-31.738,-38.086
1630093752.514,-1000.000,-17.090,6.836,-8.789
1630093752.518,-39.062,-40.527,-20.020,-19.043
1630093752.521,-873.535,-57.129,-58.105,-36.621
1630093752.525,-170.410,-23.926,-38.086,-33.691
1630093752.529,-1000.000,17.578,19.043,14.160
1630093752.533,-221.191,-34.668,-15.137,-13.672
1630093752.537,-837.402,-57.129,-41.992,-25.879
1630093752.538,244.629,-54.688,-58.105,-44.434
1630093752.542,-1000.000,-67.871,-61.035,-69.824
1630093752.546,-587.891,-65.430,-41.992,-49.316
1630093752.550,-950.684,-52.246,-39.062,-17.578
1630093752.554,386.719,-52.246,-63.477,-38.574
1630093752.558,-1000.000,-57.617,-67.383,-69.336
1630093752.562,-1000.000,-57.129,-59.082,-65.918
1630093752.565,386.719,-50.293,-41.504,-34.180
1630093752.569,926.270,-7.324,-9.766,5.859
1630093752.573,-604.004,-23.438,-21.484,-33.691
1630093752.577,-1000.000,-62.500,-54.688,-78.125
1630093752.581,-179.199,-44.922,-29.297,-39.062
1630093752.584,-854.492,-29.785,-16.602,-8.301
1630093752.588,43.457,-54.199,-50.781,-62.988
1630093752.592,-1000.000,-77.637,-68.359,-94.727
1630093752.596,-280.273,-46.387,-27.832,-41.992
1630093752.600,-841.797,-8.301,6.348,14.160
1630093752.604,245.117,-46.387,-51.758,-45.898
1630093752.608,-1000.000,-76.660,-78.613,-92.285
1630093752.611,-714.355,-41.016,-27.344,-31.250
1630093752.615,938.965,-4.395,18.066,36.621
1630093752.619,470.703,-51.758,-55.176,-34.668
1630093752.623,-1000.000,-72.754,-79.102,-85.938
1630093752.627,-1000.000,-62.988,-56.641,-70.801
1630093752.629,166.504,-54.199,-42.480,-40.527
1630093752.633,-952.637,-53.711,-53.711,-39.062
1630093752.637,-406.738,-64.941,-77.637,-79.102
1630093752.641,-1000.000,-42.969,-48.828,-60.059
1630093752.645,-208.984,-33.691,-23.438,-28.320
1630093752.649,-847.656,-46.875,-46.387,-39.062
1630093752.653,155.273,-58.594,-72.266,-76.660
1630093752.656,-1000.000,-22.949,-25.391,-41.016
1630093752.660,-406.250,-21.973,-10.254,-19.043
1630093752.664,-876.953,-58.594,-47.852,-45.410
1630093752.668,250.000,-43.457,-67.383,-63.965
1630093752.672,-1000.000,-46.875,-58.105,-69.336
1630093752.673,-870.605,-59.082,-36.621,-58.105
1630093752.677,740.234,-71.289,-36.621,-43.457
1630093752.681,630.371,-59.082,-39.062,-19.531
1630093752.685,-927.246,-38.086,-12.695,-12.207
1630093752.689,-1000.000,-71.777,-27.344,-39.551
1630093752.693,-3.906,-86.426,-41.504,-38.086
1630093752.697,-855.469,-50.293,-22.949,-0.488
1630093752.700,-146.484,-14.160,12.695,20.996
1630093752.704,-1000.000,-58.105,-23.926,-31.738
1630093752.708,-222.656,-80.078,-42.969,-41.992
1630093752.712,-834.961,-63.965,-35.156,-9.766
1630093752.716,232.910,-73.242,-59.570,-39.062
1630093752.718,-1000.000,-80.566,-62.012,-62.012
1630093752.722,-520.508,-71.777,-43.457,-41.992
1630093752.726,-916.016,-63.477,-33.691,-12.207
1630093752.730,306.641,-69.824,-58.594,-31.738
1630093752.734,-1000.000,-72.754,-63.965,-61.035
1630093752.738,-991.211,-72.754,-54.199,-53.223
1630093752.742,525.391,-21.484,3.418,28.809
1630093752.745,820.312,-19.043,-11.719,23.926
1630093752.749,-743.164,-80.566,-75.195,-64.453
1630093752.753,-1000.000,-75.195,-56.641,-56.641
1630093752.757,-90.820,-44.434,-20.020,-5.371
1630093752.761,-854.004,-50.781,-36.621,-3.418
1630093752.764,-73.242,-79.590,-72.266,-60.547
1630093752.768,-1000.000,-56.641,-43.945,-53.711
1630093752.772,-227.051,-16.602,3.906,5.859
1630093752.776,-833.008,-46.875,-20.996,2.930
1630093752.780,243.164,-80.566,-66.895,-55.176
1630093752.784,-1000.000,-44.434,-29.297,-31.738
1630093752.788,-632.812,-8.301,27.832,25.879
1630093752.791,-979.980,-51.758,-5.859,3.906
1630093752.795,404.785,-67.871,-47.852,-33.203
1630093752.799,-1000.000,-61.035,-50.293,-56.641
1630093752.803,-1000.000,-58.594,-41.992,-58.105
1630093752.807,265.137,-54.199,-30.762,-33.203
1630093752.811,922.363,-59.570,-51.270,-39.062
1630093752.815,-604.980,-43.457,-41.016,-48.340
1630093752.819,-1000.000,-39.551,-32.715,-43.457
1630093752.823,-200.195,-53.223,-39.062,-38.574
1630093752.827,-854.980,-44.922,-42.969,-24.902
1630093752.831,84.473,-44.922,-57.129,-57.129
1630093752.835,-1000.000,-47.852,-49.805,-66.895
1630093752.838,-310.059,-46.875,-38.574,-53.223
1630093752.842,-846.680,-41.016,-29.297,-24.414
1630093752.846,252.441,-20.508,-20.020,-2.930
1630093752.850,-1000.000,-32.227,-40.527,-57.617
1630093752.854,-823.730,-53.711,-60.547,-109.863
1630093752.868,808.594,-32.715,-25.391,-60.547
1630093752.872,589.355,-24.414,-30.273,-49.805
1630093752.876,-955.566,-42.480,-47.363,-101.074
1630093752.880,-1000.000,-51.270,-46.387,-115.234
1630093752.884,86.426,-22.461,-15.137,-66.895
1630093752.888,-894.531,55.176,43.945,7.812
1630093752.892,-279.785,8.789,-5.859,-66.895
1630093752.895,-1000.000,-60.547,-64.453,-152.832
1630093752.899,-211.426,-27.832,-24.902,-106.445
1630093752.903,-844.238,-20.996,-20.996,-78.613
1630093752.907,166.504,-43.945,-58.105,-118.164
1630093752.911,-1000.000,-47.363,-54.688,-127.930
1630093752.913,-448.730,-45.898,-39.062,-98.145
1630093752.917,-893.555,-39.551,-30.273,-62.500
1630093752.921,274.414,-45.410,-56.152,-84.961
1630093752.925,-1000.000,-53.223,-63.965,-112.305
1630093752.929,-916.504,-39.062,-39.062,-84.473
1630093752.933,661.621,-27.832,-20.020,-37.598
1630093752.937,707.520,-38.086,-49.805,-49.316
1630093752.940,-861.328,-52.246,-70.801,-87.402
1630093752.944,-1000.000,9.766,5.371,-14.160
1630093752.948,-22.949,22.949,25.879,19.531
1630093752.952,-844.727,-32.227,-48.340,-40.039
1630093752.956,-182.129,-33.203,-62.012,-71.777
1630093752.960,-1000.000,-34.180,-47.852,-74.219
1630093752.964,-41.992,-32.715,-29.785,-48.340
1630093752.968,-853.516,-34.180,-47.363,-47.852
1630093752.972,238.281,-16.113,-45.898,-55.176
1630093752.976,-1000.000,5.371,-1.465,-31.738
1630093752.980,-562.012,-19.531,-14.648,-43.457
1630093752.984,-935.547,-44.434,-37.598,-41.504
1630093752.987,363.281,-21.973,-30.762,-24.414
1630093752.991,-1000.000,23.926,20.996,0.000
1630093752.995,-1000.000,-20.996,-9.766,-37.598
1630093752.999,368.652,-41.016,-29.785,-37.598
1630093753.003,875.977,-33.691,-38.574,-27.344
1630093753.003,-673.828,-46.875,-57.129,-66.895
1630093753.007,-1000.000,-49.805,-51.758,-74.707
1630093753.011,-166.504,-42.480,-37.109,-40.527
1630093753.015,-865.723,-31.250,-39.062,-20.996
1630093753.019,-27.832,-37.109,-58.105,-56.152
1630093753.023,-1000.000,-44.922,-54.199,-75.684
1630093753.027,-261.719,-45.410,-41.016,-58.105
1630093753.030,-842.773,0.000,6.348,17.090
1630093753.034,244.629,-2.441,-9.277,-10.742
1630093753.038,-1000.000,-52.734,-61.523,-92.285
1630093753.042,-708.496,-36.621,-36.133,-60.547
1630093753.046,944.336,-8.301,0.488,1.465
1630093753.048,476.562,-26.367,-37.109,-39.551
1630093753.052,-1000.000,-60.059,-64.453,-94.238
1630093753.056,-1000.000,-38.574,-25.391,-52.734
1630093753.060,235.840,2.930,24.414,14.160
1630093753.064,960.938,-31.738,-25.391,-22.949
1630093753.068,-545.898,-66.406,-69.824,-85.938
1630093753.072,-1000.000,-28.320,-26.855,-45.898
1630093753.075,-202.148,8.301,20.996,18.066
1630093753.079,-858.887,-42.969,-33.691,-17.578
1630093753.083,81.055,-69.824,-64.941,-59.570
1630093753.087,-1000.000,-68.848,-48.340,-53.711
1630093753.091,-382.324,-62.500,-35.156,-33.203
1630093753.095,-876.465,-52.734,-30.762,-11.230
1630093753.099,250.000,-62.500,-57.129,-41.992
1630093753.103,-1000.000,-46.387,-42.480,-45.410
1630093753.107,-860.840,-39.062,-26.367,-27.832
1630093753.111,747.070,-58.594,-33.203,-24.902
1630093753.115,658.203,-66.895,-60.059,-43.945
1630093753.119,-900.391,-23.926,-26.855,-26.367
1630093753.122,-1000.000,-21.973,-13.184,-21.484
1630093753.126,30.762,-66.895,-43.945,-43.945
1630093753.130,-910.156,-57.617,-49.805,-33.203
1630093753.134,-283.691,-60.547,-60.547,-63.965
1630093753.138,-1000.000,-61.523,-50.293,-70.312
1630093753.138,-216.797,-61.035,-47.363,-50.781
1630093753.142,-839.355,-38.574,-33.691,-13.184
1630093753.146,243.652,-20.508,-34.180,-22.949
1630093753.150,-1000.000,-52.734,-61.035,-68.359
1630093753.154,-496.582,-67.871,-61.523,-69.336
1630093753.158,-900.879,-33.691,-27.344,-8.301
1630093753.162,385.742,43.945,35.156,64.941
1630093753.165,-1000.000,-3.906,-0.977,0.000
1630093753.169,-1000.000,-68.848,-55.176,-60.547
1630093753.173,521.973,-48.828,-30.273,-13.672
1630093753.177,754.395,-52.246,-50.781,-21.973
1630093753.181,-816.406,-62.988,-69.824,-67.383
1630093753.185,-1000.000,-61.523,-50.781,-69.336
1630093753.189,-103.516,-53.223,-30.762,-34.180
1630093753.193,-855.469,-49.316,-42.969,-26.855
1630093753.197,-63.477,-55.664,-59.570,-62.988
1630093753.201,-1000.000,-59.570,-50.293,-62.500
1630093753.205,-227.539,-35.156,-15.137,-16.602
1630093753.209,-831.055,-25.391,-19.043,4.395
1630093753.212,243.652,-50.293,-59.570,-46.387
1630093753.216,-1000.000,-58.105,-52.734,-64.453
1630093753.220,-574.219,-2.930,19.531,7.812
1630093753.224,-939.941,-0.977,20.508,22.461
1630093753.228,389.648,-50.293,-60.547,-49.316
1630093753.243,-1000.000,-50.781,-57.129,-68.848
1630093753.247,-1000.000,-44.434,-40.039,-57.617
1630093753.251,291.504,-38.086,-32.715,-27.832
1630093753.255,919.434,-48.828,-60.059,-45.898
1630093753.259,-611.816,-37.109,-50.293,-60.547
1630093753.263,-1000.000,-4.395,4.883,-11.719
1630093753.267,-192.871,-36.621,-13.672,-17.578
1630093753.270,-854.004,-62.012,-51.758,-34.668
1630093753.274,72.266,-29.297,-24.414,-19.531
1630093753.278,-1000.000,-15.625,2.930,-10.254
1630093753.282,-296.875,-52.734,-24.414,-35.156
1630093753.286,-844.238,-50.293,-29.297,-21.484
1630093753.288,242.188,-25.391,-29.297,-21.973
1630093753.292,-1000.000,-27.832,-32.227,-45.410
1630093753.296,-782.227,-53.711,-41.016,-62.012
1630093753.300,857.910,-47.852,-28.320,-29.785
1630093753.304,567.383,-43.945,-49.316,-41.504
1630093753.308,-965.820,-45.898,-56.641,-71.777
1630093753.312,-1000.000,-51.270,-48.340,-65.918
1630093753.315,116.699,-52.246,-41.992,-41.992
1630093753.319,-915.527,-6.836,-10.742,10.254
1630093753.323,-325.684,-19.043,-19.043,-23.438
1630093753.327,-1000.000,-61.523,-49.316,-72.754
1630093753.331,-212.891,-42.480,-24.414,-37.109
1630093753.334,-843.262,-40.527,-27.832,-18.555
1630093753.338,190.918,-52.246,-48.340,-52.246
1630093753.342,-1000.000,-63.477,-49.805,-73.730
1630093753.346,-444.824,-40.039,-17.578,-35.645
1630093753.350,-889.160,21.973,46.387,48.340
1630093753.354,267.578,-18.555,-3.906,-6.836
1630093753.358,-1000.000,-78.613,-59.082,-83.008
1630093753.361,-888.184,-32.715,-11.230,-25.879
1630093753.365,710.449,9.766,29.297,35.156
1630093753.369,666.016,-46.875,-40.039,-32.715
1630093753.373,-893.555,-68.359,-58.594,-74.219
1630093753.377,-1000.000,-54.688,-39.551,-59.570
1630093753.378,-38.574,-43.945,-25.391,-39.551
1630093753.382,-857.910,-38.086,-31.738,-35.645
1630093753.386,-128.418,-49.316,-53.223,-65.918
1630093753.390,-1000.000,-52.246,-53.223,-76.172
1630093753.394,-224.121,-42.480,-32.227,-50.781
1630093753.398,-834.473,-33.691,-28.320,-25.391
1630093753.402,244.141,-44.922,-66.406,-63.477
1630093753.405,-1000.000,17.578,-2.930,-19.531
1630093753.409,-568.359,37.109,30.762,8.301
1630093753.413,-939.453,-34.668,-39.062,-42.480
1630093753.417,345.703,-34.180,-61.035,-57.129
1630093753.421,-1000.000,-34.180,-60.547,-82.520
1630093753.423,-1000.000,-38.574,-47.852,-79.590
1630093753.427,373.047,-41.992,-36.133,-51.758
1630093753.431,921.387,-23.926,-34.668,-33.203
1630093753.435,-618.652,-3.906,-11.719,-29.785
1630093753.439,-1000.000,-36.621,-31.250,-55.176
1630093753.443,-143.555,-54.688,-47.363,-56.152
1630093753.447,-840.332,-12.695,-17.090,-7.324
1630093753.450,61.035,8.301,-0.977,-9.277
1630093753.454,-1000.000,-45.898,-43.457,-71.777
1630093753.458,-263.184,-60.059,-43.457,-57.617
1630093753.462,-832.520,-27.344,-3.906,4.395
1630093753.466,241.699,-30.273,-24.414,-20.996
1630093753.468,-1000.000,-60.059,-50.293,-76.660
1630093753.472,-700.684,-48.828,-30.273,-64.941
1630093753.476,951.660,-36.621,-12.695,-23.926
1630093753.480,479.980,-47.852,-39.551,-36.621
1630093753.484,-1000.000,-58.594,-53.711,-75.684
1630093753.488,-1000.000,-58.105,-48.340,-75.684
1630093753.492,243.164,-3.418,4.395,1.465
1630093753.495,986.328,6.836,-2.930,6.836
1630093753.499,-509.766,-40.527,-60.547,-70.801
1630093753.503,-1000.000,-42.480,-47.852,-69.824
1630093753.507,-203.613,-36.621,-31.250,-42.969
1630093753.511,-852.539,-34.180,-41.016,-30.762
1630093753.513,92.773,-51.270,-64.941,-67.871
1630093753.517,-1000.000,-44.434,-46.875,-66.406
1630093753.521,-313.477,12.207,20.996,7.812
