timestamps,TP9,AF7,AF8,TP10
1630086786.764,-818.359,-42.480,-56.152,-70.801
1630086786.768,240.723,-44.922,-28.809,55.664
1630086786.772,-1000.000,-51.758,-34.180,-6.836
1630086786.776,-528.809,-45.898,-53.711,-116.699
1630086786.780,-934.082,-34.668,-54.199,-89.355
1630086786.784,611.816,-25.879,-22.949,62.012
1630086786.788,-981.934,-27.344,-22.461,34.668
1630086786.791,-978.516,-32.715,-41.504,-83.008
1630086786.795,535.156,-29.297,-56.152,-102.539
1630086786.799,-932.617,-29.785,-37.109,26.855
1630086786.803,-359.863,-44.922,-20.996,45.410
1630086786.807,-1000.000,-44.434,-29.785,-79.590
1630086786.809,-149.414,-31.250,-50.781,-143.066
1630086786.813,-816.895,-30.273,-31.250,-39.551
1630086786.817,183.105,-38.574,-13.672,64.453
1630086786.821,-1000.000,-45.410,-24.902,-18.555
1630086786.825,-259.277,-41.992,-39.551,-116.699
1630086786.829,-814.453,-31.250,-35.156,-66.406
1630086786.833,278.320,-34.668,-8.789,74.219
1630086786.836,-1000.000,-50.293,-11.230,3.906
1630086786.840,-633.789,-41.016,-38.086,-130.371
1630086786.844,987.305,-24.902,-49.316,-106.445
1630086786.848,708.984,-22.949,-16.113,60.059
1630086786.852,-838.867,-40.039,-10.254,49.805
1630086786.854,-1000.000,-49.316,-37.598,-90.332
1630086786.858,218.750,-39.062,-56.641,-131.836
1630086786.862,-840.332,-29.785,-31.738,12.207
1630086786.866,-187.012,-38.086,-14.648,61.523
1630086786.870,-1000.000,-44.434,-27.832,-62.012
1630086786.874,-203.613,-33.203,-59.082,-117.188
1630086786.878,-820.801,-34.668,-52.734,-25.879
1630086786.881,233.398,-37.598,-8.301,73.730
1630086786.885,-1000.000,-35.645,-10.742,-19.531
1630086786.889,-327.637,-34.180,-46.875,-126.953
1630086786.893,-832.520,-26.367,-43.457,-70.801
1630086786.897,359.375,-32.715,-0.977,68.848
1630086786.900,-1000.000,-47.363,-10.742,12.695
1630086786.904,-723.145,-44.434,-43.945,-100.098
1630086786.908,884.277,-37.109,-48.828,-97.168
1630086786.912,825.684,-36.621,-15.137,39.551
1630086786.916,-708.984,-32.715,-5.371,55.664
1630086786.920,-1000.000,-31.250,-26.367,-54.199
1630086786.924,125.488,-30.273,-38.574,-90.820
1630086786.927,-802.246,-25.879,-17.578,21.973
1630086786.931,-20.020,-37.109,-10.742,68.359
1630086786.935,-1000.000,-42.969,-23.438,-40.527
1630086786.939,-238.770,-33.203,-43.457,-119.629
1630086786.943,-819.824,-29.297,-41.992,-50.781
1630086786.944,238.281,-34.668,-14.160,75.195
1630086786.948,-1000.000,-44.434,-13.672,8.789
1630086786.952,-398.926,-34.668,-29.785,-92.285
1630086786.956,-867.188,-26.367,-26.855,-69.824
1630086786.960,524.902,-28.809,-2.930,72.266
1630086786.964,-1000.000,-27.832,0.488,45.410
1630086786.968,-874.023,-36.133,-27.832,-89.844
1630086786.971,688.965,-51.270,-60.059,-128.418
1630086786.975,-997.559,-39.062,-21.973,24.902
1630086786.979,-465.820,-32.715,10.742,66.895
1630086786.983,-1000.000,-39.062,-10.742,-61.523
1630086786.987,-11.230,-39.062,-42.969,-129.395
1630086786.989,-805.664,-35.156,-26.855,-34.180
1630086786.993,49.805,-32.227,-1.953,50.781
1630086786.997,-1000.000,-35.645,-12.207,-40.527
1630086787.001,-243.652,-33.691,-39.551,-128.418
1630086787.005,-820.312,-23.438,-34.668,-57.617
1630086787.009,240.723,-33.691,-18.066,62.988
1630086787.013,-1000.000,-57.129,-28.809,-8.789
1630086787.016,-505.371,-48.828,-42.969,-110.840
1630086787.020,-913.574,-38.086,-52.246,-103.027
1630086787.024,545.898,-47.852,-19.043,29.297
1630086787.028,-983.887,-57.129,-10.742,13.672
1630086787.032,-1000.000,-50.781,-34.668,-110.352
1630086787.049,368.652,-48.828,-52.246,-146.484
1630086787.053,-880.371,-36.133,-25.391,-0.488
1630086787.057,-284.668,-29.785,-11.719,50.781
1630086787.061,-1000.000,-38.574,-36.621,-72.266
1630086787.065,-161.621,-36.621,-54.199,-137.695
1630086787.069,-813.965,-29.297,-34.180,-39.551
1630086787.073,214.355,-31.250,-10.254,71.777
1630086787.076,-1000.000,-45.410,-18.555,-20.996
1630086787.080,-274.902,-49.805,-44.434,-128.906
1630086787.084,-816.406,-39.551,-47.363,-71.289
1630086787.088,283.691,-40.039,-14.160,69.824
1630086787.092,-1000.000,-57.129,-7.324,11.719
1630086787.094,-652.344,-56.641,-29.297,-114.258
1630086787.098,963.379,-43.457,-40.039,-109.375
1630086787.102,735.352,-39.062,-23.926,46.387
1630086787.106,-827.637,-39.062,-30.273,57.617
1630086787.110,-1000.000,-35.156,-44.922,-63.477
1630086787.114,271.973,-25.391,-51.758,-88.867
1630086787.118,-837.891,-25.391,-36.133,35.156
1630086787.121,-181.152,-39.551,-11.230,99.121
1630086787.125,-1000.000,-58.105,-7.812,-7.812
1630086787.129,-220.215,-55.176,-38.086,-119.141
1630086787.133,-825.195,-42.969,-29.297,-41.016
1630086787.137,230.469,-56.152,-7.324,62.500
1630086787.140,-1000.000,-70.312,-20.020,-25.391
1630086787.144,-327.148,-66.895,-37.109,-129.395
1630086787.148,-833.008,-74.219,-30.762,-93.750
1630086787.152,362.305,-85.449,6.836,48.828
1630086787.156,-1000.000,-98.145,7.812,4.395
1630086787.160,-778.809,-96.191,-35.156,-125.977
1630086787.164,802.246,-85.938,-34.668,-114.746
1630086787.167,895.508,-92.773,22.949,46.875
1630086787.171,-623.535,-113.281,25.879,42.969
1630086787.175,-1000.000,-121.094,-4.395,-91.309
1630086787.179,70.312,-108.398,-15.625,-133.301
1630086787.183,-805.664,-106.445,13.672,-12.207
1630086787.184,-6.836,-121.094,35.156,75.195
1630086787.188,-1000.000,-125.000,24.902,-18.555
1630086787.192,-238.770,-108.887,-0.977,-101.074
1630086787.196,-821.289,-98.633,3.418,-29.297
1630086787.200,239.746,-98.145,33.203,89.355
1630086787.204,-1000.000,-97.656,40.527,30.273
1630086787.208,-437.988,-89.844,15.137,-65.918
1630086787.211,-878.906,-85.449,-10.742,-60.059
1630086787.215,486.816,-86.914,13.672,81.055
1630086787.219,-1000.000,-93.262,15.137,57.617
1630086787.223,-899.414,-78.613,4.395,-62.988
1630086787.227,659.180,-65.430,-7.812,-76.660
1630086787.229,963.867,-62.012,4.395,48.340
1630086787.233,-527.344,-68.848,5.859,77.148
1630086787.237,-1000.000,-76.172,-12.695,-46.387
1630086787.241,-63.477,-70.312,-26.367,-101.562
1630086787.245,-809.570,-73.242,-10.254,1.953
1630086787.249,107.422,-73.242,14.648,85.449
1630086787.253,-1000.000,-68.359,-3.418,-3.906
1630086787.256,-249.512,-60.547,-39.551,-96.191
1630086787.260,-818.848,-58.594,-33.691,-54.199
1630086787.264,240.723,-65.918,5.859,59.082
1630086787.268,-1000.000,-62.012,14.160,14.160
1630086787.272,-578.125,-58.105,-15.137,-93.750
1630086787.274,-956.543,-56.641,-20.996,-67.871
1630086787.278,583.008,-55.176,6.348,91.797
1630086787.282,-968.750,-65.430,-5.859,66.406
1630086787.286,-1000.000,-68.359,-29.297,-65.430
1630086787.290,338.379,-55.176,-45.410,-92.773
1630086787.294,-876.953,-44.922,-14.160,50.293
1630086787.298,-277.344,-53.711,7.324,91.797
1630086787.301,-1000.000,-57.617,-8.301,-21.973
1630086787.305,-176.758,-51.758,-31.738,-90.820
1630086787.309,-818.848,-46.875,-22.461,-13.184
1630086787.313,207.031,-43.457,4.395,95.703
1630086787.317,-1000.000,-53.223,-12.695,10.742
1630086787.319,-283.691,-60.059,-56.641,-100.586
1630086787.323,-820.312,-49.316,-44.434,-55.664
1630086787.327,292.969,-50.781,1.953,89.844
1630086787.331,-1000.000,-56.641,0.488,33.691
1630086787.335,-684.570,-53.223,-27.832,-117.188
1630086787.339,927.246,-47.363,-48.340,-117.188
1630086787.343,764.648,-31.250,-17.090,65.918
1630086787.346,-785.645,-42.969,-3.418,63.477
1630086787.350,-1000.000,-58.594,-32.227,-99.121
1630086787.354,183.105,-46.875,-42.969,-140.137
1630086787.358,-819.824,-37.109,-13.184,-1.465
1630086787.362,-118.652,-42.480,-0.977,63.965
1630086787.365,-1000.000,-46.875,-18.555,-34.668
1630086787.369,-226.562,-41.016,-46.875,-106.445
1630086787.373,-822.754,-40.527,-36.133,-33.203
1630086787.377,235.840,-46.875,-6.836,82.031
1630086787.381,-1000.000,-51.758,-21.973,6.348
1630086787.385,-334.473,-54.688,-49.805,-96.191
1630086787.389,-834.961,-57.129,-48.828,-63.477
1630086787.392,372.070,-58.594,-21.973,64.453
1630086787.396,-1000.000,-61.523,-22.461,27.344
1630086787.400,-808.105,-56.152,-41.016,-91.309
1630086787.404,790.527,-50.293,-52.734,-108.398
1630086787.408,842.773,-51.758,-30.273,27.344
1630086787.425,-698.730,-60.547,-23.438,40.527
1630086787.429,-1000.000,-53.223,-29.785,-77.148
1630086787.433,62.012,-42.969,-41.016,-123.535
1630086787.437,-801.758,-39.062,-27.344,-11.719
1630086787.441,31.738,-48.828,-19.043,58.105
1630086787.445,-1000.000,-43.457,-21.973,-32.227
1630086787.449,-243.652,-22.949,-30.762,-95.215
1630086787.452,-818.848,-39.062,-39.551,-36.621
1630086787.456,239.258,-65.918,-13.672,59.570
1630086787.460,-1000.000,-74.219,-17.578,-23.926
1630086787.464,-443.848,-55.664,-48.340,-125.000
1630086787.468,-880.371,-39.551,-50.293,-96.680
1630086787.469,482.422,-39.551,-22.949,41.504
1630086787.473,-1000.000,-43.945,-22.949,20.508
1630086787.477,-972.656,-52.734,-45.410,-107.910
1630086787.481,546.387,-55.664,-61.523,-131.348
1630086787.485,994.141,-50.293,-39.551,-0.488
1630086787.489,-510.742,-45.898,-26.855,52.246
1630086787.493,-1000.000,-41.504,-37.598,-44.922
1630086787.496,-29.297,-46.387,-49.805,-112.305
1630086787.500,-801.270,-42.480,-26.855,-12.207
1630086787.504,123.535,-41.992,0.977,60.547
1630086787.508,-1000.000,-52.246,-14.160,-39.062
1630086787.512,-252.930,-43.945,-39.551,-118.652
1630086787.514,-817.383,-37.598,-31.738,-66.406
1630086787.518,240.234,-43.945,-1.465,59.082
1630086787.522,-1000.000,-53.223,-6.348,2.930
1630086787.526,-583.496,-53.223,-59.082,-118.164
1630086787.530,-973.145,-51.270,-92.285,-116.699
1630086787.534,649.902,-46.387,-33.203,36.621
1630086787.538,-926.758,-54.199,-6.348,42.969
1630086787.541,-1000.000,-71.777,-22.949,-67.383
1630086787.545,408.203,-50.293,-39.551,-72.754
1630086787.549,-900.391,-24.902,-31.738,17.578
1630086787.553,-315.918,-27.344,-19.531,17.090
1630086787.557,-1000.000,-31.250,-31.738,-73.730
1630086787.559,-186.035,-23.926,-52.246,-121.582
1630086787.563,-821.777,-9.766,-45.410,-27.344
1630086787.567,218.262,-16.113,-24.414,63.477
1630086787.571,-1000.000,-35.645,-35.156,-42.969
1630086787.575,-274.902,-32.227,-57.129,-133.301
1630086787.579,-815.918,-21.973,-49.805,-63.965
1630086787.583,302.246,-34.668,-28.320,62.500
1630086787.586,-1000.000,-47.363,-29.785,4.395
1630086787.590,-696.289,-39.551,-55.176,-108.887
1630086787.594,915.039,-36.621,-70.801,-116.699
1630086787.598,775.391,-37.109,-39.062,32.227
1630086787.602,-776.855,-37.109,-35.156,40.039
1630086787.606,-1000.000,-38.574,-43.945,-86.426
1630086787.610,169.434,-38.574,-62.012,-131.348
1630086787.614,-799.805,-36.621,-31.250,8.789
1630086787.618,-14.648,-27.832,2.441,97.656
1630086787.622,-1000.000,-32.715,-38.574,-26.855
1630086787.626,-240.234,-43.945,-88.867,-123.535
1630086787.630,-818.848,-46.875,-72.754,-40.039
1630086787.633,237.305,-6.348,15.625,120.117
1630086787.637,-1000.000,16.113,41.504,55.176
1630086787.641,-387.207,-36.621,-33.691,-128.906
1630086787.645,-856.934,-43.457,-58.105,-89.355
1630086787.649,443.848,-33.203,-35.156,69.824
1630086787.649,-1000.000,-41.016,-23.438,11.230
1630086787.653,-838.379,-35.645,-36.133,-118.164
1630086787.657,731.934,-29.297,-57.617,-119.629
1630086787.661,946.777,-32.715,-29.785,24.414
1630086787.665,-561.035,-46.875,-20.508,31.738
1630086787.669,-1000.000,-61.523,-50.293,-101.074
1630086787.673,52.734,-49.316,-51.758,-130.371
1630086787.676,-793.945,1.465,12.207,54.199
1630086787.680,77.148,-20.996,3.418,104.980
1630086787.684,-1000.000,-54.199,-36.621,-52.734
1630086787.688,-249.023,-33.203,-55.176,-118.652
1630086787.692,-815.918,-29.785,-63.477,-49.805
1630086787.694,238.770,-39.062,-36.621,48.340
1630086787.698,-1000.000,-50.293,-21.484,-30.762
1630086787.702,-460.449,-40.039,-25.879,-114.746
1630086787.706,-894.043,-37.598,-38.574,-75.684
1630086787.710,538.086,-42.969,-25.879,50.781
1630086787.714,-1000.000,-49.316,-24.414,14.648
1630086787.718,-891.602,-14.648,-8.789,-61.523
1630086787.721,643.555,19.043,5.859,-15.625
1630086787.725,-950.684,-29.297,-2.930,79.102
1630086787.729,-386.230,-55.664,-17.578,53.711
1630086787.733,-1000.000,-38.086,-36.133,-60.059
1630086787.737,-61.523,-29.297,-45.410,-115.234
1630086787.739,-800.781,-32.227,-20.996,-16.113
1630086787.743,142.578,-35.645,5.371,61.523
1630086787.747,-1000.000,-37.598,-9.277,-48.828
1630086787.751,-256.348,-33.203,-36.621,-131.348
1630086787.755,-815.918,-32.715,-39.062,-61.035
1630086787.759,270.996,-29.297,-3.418,78.125
1630086787.763,-1000.000,-21.484,10.742,42.969
1630086787.766,-593.750,-35.156,-30.273,-110.352
1630086787.770,-983.398,-33.203,-47.852,-115.234
1630086787.774,692.871,-27.832,-9.766,49.316
1630086787.778,-877.930,-32.227,0.000,36.621
1630086787.782,-1000.000,-48.828,-22.461,-88.867
1630086787.785,349.609,-60.059,-35.645,-85.449
1630086787.789,-844.238,-21.973,-3.418,78.125
1630086787.793,-191.406,-9.766,0.977,60.547
1630086787.797,-1000.000,-39.062,-40.039,-133.789
1630086787.801,-197.754,-20.996,-61.035,-192.871
1630086787.805,-819.824,13.672,-33.203,-71.289
1630086787.809,227.539,5.371,-17.578,6.836
1630086787.812,-1000.000,-26.855,-61.035,-142.090
1630086787.816,-327.148,-35.156,-105.469,-253.906
1630086787.820,-833.008,19.043,-62.500,-150.879
1630086787.824,320.312,51.270,-1.465,8.301
1630086787.828,-1000.000,13.672,-47.852,-94.238
1630086787.844,-743.652,11.230,-96.680,-226.562
1630086787.848,875.977,17.578,-104.980,-210.449
1630086787.852,763.672,15.137,-72.754,-62.500
1630086787.856,-801.270,4.395,-81.055,-82.520
1630086787.860,-1000.000,12.207,-94.238,-207.031
1630086787.864,175.781,43.945,-74.707,-175.781
1630086787.868,-811.523,30.762,-51.270,-44.922
1630086787.871,-75.195,7.812,-49.316,-21.484
1630086787.875,-1000.000,17.090,-60.547,-118.652
1630086787.879,-233.398,19.531,-68.359,-174.316
1630086787.883,-823.242,13.184,-56.641,-85.938
1630086787.887,238.770,1.465,-33.691,14.648
1630086787.889,-1000.000,-13.672,-42.480,-63.477
1630086787.893,-397.949,-11.230,-66.406,-163.574
1630086787.897,-862.305,2.441,-58.594,-112.793
1630086787.901,453.125,-1.953,-16.113,37.109
1630086787.905,-1000.000,-3.906,-8.789,-0.488
1630086787.909,-777.832,-4.395,-48.340,-110.352
1630086787.913,808.594,-7.324,-67.871,-104.492
1630086787.916,929.199,-8.789,-29.785,25.391
1630086787.920,-566.406,0.977,5.371,40.039
1630086787.924,-1000.000,12.207,19.531,-46.875
1630086787.928,59.082,-11.719,-31.738,-126.953
1630086787.932,-800.293,-18.066,-37.109,-36.133
1630086787.934,27.832,-26.367,-13.672,38.086
1630086787.938,-1000.000,-31.250,-24.902,-67.383
1630086787.942,-242.676,-21.973,-44.434,-134.766
1630086787.946,-820.312,-16.602,-35.156,-53.711
1630086787.950,240.234,-18.066,-9.277,63.477
1630086787.954,-1000.000,-23.926,-15.137,-15.137
1630086787.958,-484.863,-28.809,-40.527,-127.930
1630086787.961,-906.738,-9.766,-30.762,-68.359
1630086787.965,566.406,17.578,32.227,117.676
1630086787.969,-986.816,-23.926,16.602,41.504
1630086787.973,-1000.000,-39.551,-28.809,-123.535
1630086787.977,453.613,-26.367,-40.527,-135.254
1630086787.979,-890.625,-29.297,-16.602,17.578
1630086787.983,-305.176,-40.527,-1.953,41.992
1630086787.987,-1000.000,-41.504,-21.484,-88.867
1630086787.991,-108.887,-30.273,-43.945,-138.672
1630086787.995,-806.152,-24.902,-25.879,-19.043
1630086787.999,166.504,-27.344,4.883,65.430
1630086788.003,-1000.000,-31.250,-5.859,-39.062
1630086788.006,-255.859,-11.719,-22.461,-87.891
1630086788.010,-814.941,1.465,4.883,-14.160
1630086788.014,239.258,-25.879,20.508,54.199
1630086788.018,-1000.000,-38.574,2.441,-16.602
1630086788.022,-594.727,-25.391,-18.066,-107.422
1630086788.024,-975.098,-20.508,-27.832,-99.121
1630086788.028,630.859,-25.391,0.488,39.551
1630086788.032,-930.176,-25.879,7.324,27.832
1630086788.036,-1000.000,-20.508,-12.207,-99.121
1630086788.040,306.641,-16.602,-20.020,-110.840
1630086788.044,-830.078,-16.113,0.000,30.762
1630086788.048,-154.297,-14.160,20.020,75.195
1630086788.051,-1000.000,-0.977,22.949,-20.508
1630086788.055,-206.543,-22.949,-18.555,-119.141
1630086788.059,-817.871,-29.785,-19.043,-21.484
1630086788.063,232.422,-20.020,10.742,82.520
1630086788.067,-1000.000,-26.855,-17.578,-76.660
1630086788.070,-315.430,-26.367,-60.059,-195.312
1630086788.074,-828.613,-20.020,-48.340,-116.211
1630086788.078,378.418,-4.883,-5.371,35.156
1630086788.082,-1000.000,-8.301,-10.254,-30.273
1630086788.086,-729.980,-16.113,-51.758,-154.297
1630086788.090,856.445,-14.160,-76.172,-147.461
1630086788.094,902.832,23.926,-19.043,43.457
1630086788.097,-608.398,33.203,35.645,77.148
1630086788.101,-1000.000,-12.695,3.906,-96.191
1630086788.105,136.230,-15.625,-29.297,-157.715
1630086788.109,-807.617,-5.859,-14.648,-30.273
1630086788.113,-64.941,-24.902,-6.836,24.414
1630086788.114,-1000.000,-35.645,-24.414,-92.285
1630086788.118,-233.887,-20.996,-39.551,-165.527
1630086788.122,-819.824,-7.324,-22.949,-73.730
1630086788.126,235.840,-9.277,4.883,54.199
1630086788.130,-1000.000,-21.973,-13.672,-39.551
1630086788.134,-334.473,-16.602,-38.086,-140.625
1630086788.138,-839.355,13.672,0.488,-46.875
1630086788.141,491.699,6.348,20.020,83.984
1630086788.145,-1000.000,-23.438,-9.766,0.000
1630086788.149,-818.848,-22.461,-24.902,-123.047
1630086788.153,748.047,-17.090,-37.109,-122.559
1630086788.157,-999.512,-18.066,-25.879,21.484
1630086788.174,-472.168,-34.668,-13.184,25.879
1630086788.178,-1000.000,-41.016,-23.926,-105.957
1630086788.182,64.453,-26.367,-52.246,-140.137
1630086788.186,-783.691,-14.648,-33.691,-14.648
1630086788.190,132.812,-17.090,-15.625,58.594
1630086788.194,-1000.000,-1.465,1.953,-30.762
1630086788.198,-256.836,4.883,1.465,-96.680
1630086788.201,-811.523,-11.719,-11.719,-35.645
1630086788.205,237.305,-28.809,-4.883,44.434
1630086788.209,-1000.000,-3.906,8.301,-16.113
1630086788.213,-454.590,37.109,6.348,-77.637
1630086788.217,-895.508,1.953,-22.461,-66.895
1630086788.219,583.984,-29.297,3.906,59.082
1630086788.223,-977.051,-26.855,13.672,-4.395
1630086788.227,-993.652,-27.344,-16.602,-166.504
1630086788.231,479.980,-36.621,-26.855,-193.359
1630086788.235,-871.094,-29.785,12.207,-51.758
1630086788.239,-260.254,-38.086,20.508,-39.062
1630086788.243,-1000.000,-61.035,2.930,-194.824
1630086788.246,-92.773,-62.988,-17.578,-265.625
1630086788.250,-795.898,-39.062,24.902,-140.137
1630086788.254,197.754,-36.133,94.238,-29.297
1630086788.258,-1000.000,-75.195,58.594,-159.668
1630086788.262,-262.695,-81.543,8.301,-267.090
1630086788.265,-811.523,-57.129,38.086,-185.547
1630086788.269,262.207,-57.617,86.914,-45.898
1630086788.273,-1000.000,-95.703,76.660,-103.027
1630086788.277,-562.988,-91.309,67.871,-191.895
1630086788.281,-978.027,-87.891,32.715,-169.434
1630086788.285,734.375,-112.793,39.062,-16.602
1630086788.289,-815.918,-120.605,66.406,-27.344
1630086788.292,-1000.000,-125.977,42.969,-159.668
1630086788.296,299.316,-75.684,56.641,-145.020
1630086788.300,-816.895,-25.879,104.004,24.902
1630086788.304,-120.605,-72.266,81.543,37.598
1630086788.308,-1000.000,-82.031,41.504,-73.242
1630086788.310,-182.129,-52.734,10.254,-110.840
1630086788.314,-807.129,-55.176,12.695,-32.227
1630086788.318,225.586,-70.801,21.973,58.105
1630086788.322,-1000.000,-65.430,8.789,-17.578
1630086788.326,-276.855,-41.016,-0.488,-99.609
1630086788.330,-816.406,-40.527,7.324,-39.551
1630086788.334,424.805,-64.941,23.926,108.398
1630086788.337,-1000.000,-50.293,22.949,87.402
1630086788.341,-701.172,-18.066,9.766,-15.137
1630086788.345,901.367,-47.363,-16.113,-43.457
1630086788.349,888.184,-50.781,8.789,95.215
1630086788.353,-620.117,-52.246,16.602,90.332
1630086788.354,-1000.000,-62.500,-9.277,-51.270
1630086788.358,148.438,-54.199,-23.926,-74.219
1630086788.362,-791.504,-42.480,-8.301,56.641
1630086788.366,18.555,-44.434,6.836,95.703
1630086788.370,-1000.000,-53.223,1.953,-11.719
1630086788.374,-235.352,-47.852,-30.273,-68.848
1630086788.378,-813.477,-43.945,-24.414,20.996
1630086788.381,234.863,-51.270,19.043,140.625
1630086788.385,-1000.000,-53.711,23.926,44.922
1630086788.389,-372.559,-53.223,-24.414,-89.355
1630086788.393,-854.492,-40.039,-34.180,-41.016
1630086788.397,497.559,-26.367,5.371,111.816
1630086788.399,-1000.000,-45.898,-13.184,61.035
1630086788.403,-850.098,-66.406,-49.805,-87.402
1630086788.407,694.824,-48.828,-54.199,-82.031
1630086788.411,-963.867,-31.738,-17.090,98.145
1630086788.415,-418.945,-34.180,2.930,98.633
1630086788.419,-1000.000,-38.086,-33.203,-50.781
1630086788.423,39.062,-36.621,-55.176,-57.129
1630086788.426,-784.668,-20.020,-2.930,91.797
1630086788.430,133.789,-31.738,24.414,127.441
1630086788.434,-1000.000,-58.594,3.418,-8.301
1630086788.438,-256.348,-42.969,-10.742,-65.918
1630086788.442,-813.477,-17.578,-10.742,24.414
1630086788.444,238.770,-27.832,-1.465,108.887
1630086788.448,-1000.000,-35.645,2.441,18.555
1630086788.452,-503.418,-30.273,-21.484,-83.984
1630086788.456,-917.969,-25.879,-31.250,-31.738
1630086788.460,577.637,-32.715,-8.301,97.168
1630086788.464,-1000.000,-40.527,-18.066,37.109
1630086788.468,-957.031,-18.066,-18.066,-45.410
1630086788.471,536.621,-1.953,-13.672,-19.531
1630086788.475,-895.996,-18.066,-8.301,71.777
1630086788.479,-305.176,-32.715,-6.348,63.965
1630086788.483,-1000.000,-33.691,-20.508,-54.688
1630086788.487,-72.266,-29.785,-36.133,-99.609
1630086788.490,-793.945,-33.691,-34.668,9.766
1630086788.494,193.359,-31.250,-7.812,83.984
1630086788.498,-1000.000,-22.461,1.953,-25.391
1630086788.502,-266.113,-19.043,-24.414,-89.844
1630086788.506,-812.500,-24.902,-14.648,-12.207
1630086788.510,321.289,-23.438,20.020,95.703
1630086788.514,-1000.000,-22.461,15.137,12.207
1630086788.517,-619.629,-32.715,-24.414,-132.812
1630086788.521,-989.746,-26.855,-33.691,-92.773
1630086788.525,696.777,-25.879,-8.301,59.082
1630086788.529,-855.469,-40.039,-13.184,11.230
1630086788.533,-1000.000,-39.062,-36.133,-133.789
1630086788.550,242.676,-24.902,-58.594,-150.391
1630086788.554,-813.965,-10.254,-31.738,7.812
1630086788.558,-100.586,-22.461,-2.930,38.086
1630086788.562,-1000.000,-36.621,-19.531,-104.004
1630086788.566,-206.543,-31.250,-51.270,-166.992
1630086788.570,-813.477,1.465,-12.207,-32.715
1630086788.574,230.469,11.719,19.043,85.938
1630086788.577,-1000.000,-28.809,-17.578,-50.781
1630086788.581,-310.547,-39.551,-41.504,-173.340
1630086788.585,-832.520,-3.906,-12.695,-80.078
1630086788.589,509.277,10.254,14.648,79.102
1630086788.593,-1000.000,-18.555,-11.719,-17.578
1630086788.594,-656.738,-13.672,-37.109,-151.367
1630086788.598,903.320,-12.695,-52.246,-144.531
1630086788.602,-975.586,-38.574,-9.277,19.531
1630086788.606,-425.781,-43.945,4.395,46.387
1630086788.610,-1000.000,-14.648,-28.320,-119.629
1630086788.614,260.254,0.488,-44.434,-164.062
1630086788.618,-766.602,4.883,-23.438,0.488
1630086788.621,159.668,2.441,-15.137,55.176
1630086788.625,-1000.000,-1.465,-23.926,-70.801
1630086788.629,-213.379,13.184,-25.391,-106.934
1630086788.633,-784.668,16.602,-25.879,-35.645
1630086788.637,319.336,19.043,-11.719,59.570
1630086788.639,-1000.000,12.695,-21.973,-15.137
1630086788.643,-270.996,9.277,-49.316,-143.066
1630086788.647,-889.160,10.742,-36.621,-117.676
1630086788.651,873.047,20.020,1.465,69.824
1630086788.655,-725.586,22.949,-3.906,68.848
1630086788.659,-618.164,19.531,-23.438,-55.664
1630086788.663,919.922,27.344,-33.691,-94.238
1630086788.666,-852.051,36.621,-14.648,32.715
1630086788.670,-23.438,44.434,15.137,116.211
1630086788.674,-1000.000,49.805,22.949,39.551
1630086788.678,257.812,34.668,-24.902,-97.656
1630086788.682,-748.535,30.273,-18.555,-47.363
1630086788.684,180.664,26.855,12.695,133.301
1630086788.688,-1000.000,9.277,-0.977,60.059
1630086788.692,-264.160,11.719,-32.227,-107.422
1630086788.696,-800.781,22.949,-24.414,-88.379
1630086788.700,436.523,19.043,16.602,96.680
1630086788.704,-1000.000,5.859,9.277,105.469
1630086788.708,-342.773,11.719,-25.879,-40.039
1630086788.711,-922.363,24.902,-33.691,-120.117
1630086788.715,934.082,34.180,5.859,84.961
1630086788.719,-581.543,15.137,-2.930,157.715
1630086788.723,-887.695,1.953,-32.715,-26.855
1630086788.727,686.035,22.461,-31.738,-145.996
1630086788.729,-830.566,28.320,-5.859,0.000
1630086788.733,-47.363,2.930,0.977,118.652
1630086788.737,-1000.000,-20.020,-16.602,-2.441
1630086788.741,-60.059,-15.625,-44.922,-164.551
1630086788.745,-772.949,-4.395,-25.879,-107.422
1630086788.749,207.031,-4.883,11.719,105.957
1630086788.753,-1000.000,-4.883,-2.930,70.801
1630086788.756,-271.973,20.508,-19.531,-106.934
1630086788.760,-808.594,40.527,-8.789,-143.066
1630086788.764,365.723,12.207,0.977,56.152
1630086788.768,-1000.000,-5.859,-21.973,95.215
1630086788.772,-485.352,0.488,-51.758,-94.727
1630086788.775,959.961,0.977,-47.363,-225.586
1630086788.779,-928.711,-2.441,-4.883,-12.695
1630086788.783,-377.441,-11.230,14.160,122.559
1630086788.787,-965.332,-9.277,-9.766,-21.484
1630086788.791,556.152,0.977,-36.133,-199.219
1630086788.795,-776.855,3.418,-11.230,-111.816
1630086788.799,131.348,-6.836,29.785,125.488
1630086788.802,-1000.000,-5.371,21.484,104.492
1630086788.806,24.414,10.742,-39.062,-146.484
1630086788.810,-743.164,6.836,-43.457,-222.168
1630086788.814,191.406,6.348,-13.184,-3.418
1630086788.818,-1000.000,4.395,-17.090,17.578
1630086788.819,-274.902,7.812,-45.410,-141.602
1630086788.823,-835.449,19.531,-56.641,-223.633
1630086788.827,643.555,21.973,-28.809,-10.254
1630086788.831,-1000.000,2.441,-25.879,86.914
1630086788.835,-479.004,-10.742,-46.387,-70.312
1630086788.839,976.562,-5.859,-67.871,-211.914
1630086788.843,-879.395,21.973,-14.648,-34.668
1630086788.846,-197.754,33.203,30.762,159.668
1630086788.850,-969.727,-3.418,-19.531,30.762
1630086788.854,532.715,-13.184,-60.547,-165.527
1630086788.858,-769.043,-2.930,-39.062,-116.211
1630086788.862,151.855,-2.930,-17.578,80.566
1630086788.864,-1000.000,-19.043,-32.715,52.246
1630086788.868,-32.715,-19.043,-55.176,-125.977
1630086788.872,-747.559,-8.301,-41.016,-166.992
1630086788.876,299.316,-17.090,-11.719,37.109
1630086788.880,-1000.000,-37.598,-23.438,74.219
1630086788.884,-251.953,-16.113,-40.527,-52.734
1630086788.888,-933.105,17.090,-27.344,-107.910
1630086788.891,-961.426,-9.277,-12.695,36.621
1630086788.895,-437.988,-38.574,-24.902,131.348
1630086788.899,-345.215,-29.297,-46.875,42.480
1630086788.903,-900.391,-18.555,-59.082,-104.492
1630086788.907,947.754,-29.785,-30.762,-20.508
1630086788.924,938.477,-24.414,-18.555,225.098
1630086788.928,972.656,-24.902,-41.016,226.074
1630086788.932,965.820,-35.156,-56.152,-32.715
1630086788.936,966.309,-35.156,-36.133,-107.422
1630086788.940,966.309,-36.133,-17.578,140.625
1630086788.944,966.309,-35.156,-35.645,250.488
1630086788.948,966.309,-24.902,-67.383,64.941
1630086788.951,966.309,-24.902,-62.012,-125.977
1630086788.955,966.309,-33.691,-26.367,57.617
1630086788.959,966.309,6.836,23.926,283.691
1630086788.963,966.797,30.762,0.000,158.203
1630086788.967,900.879,-18.555,-62.500,-145.508
1630086788.969,-830.566,-23.926,-29.785,-39.551
1630086788.973,47.852,-22.949,-7.324,144.043
1630086788.977,-322.266,-34.668,-23.926,40.527
1630086788.981,965.820,-35.645,-46.387,-139.160
1630086788.985,-817.871,-30.273,-21.484,-114.258
1630086788.989,74.707,-28.320,1.953,65.918
1630086788.993,-838.379,-38.574,-17.578,51.270
1630086788.996,602.539,-38.574,-51.270,-112.305
1630086789.000,-767.578,-33.203,-35.156,-152.344
1630086789.004,161.621,-26.855,-0.488,-7.812
1630086789.008,-1000.000,-46.387,-7.324,15.137
1630086789.012,-103.516,-38.086,-35.156,-79.590
1630086789.015,-770.020,-17.578,-50.293,-152.344
1630086789.019,513.672,-29.297,-25.391,-87.891
1630086789.023,-1000.000,-33.203,-18.555,-48.828
1630086789.027,-301.270,-23.438,-42.969,-114.258
1630086789.031,-899.902,-12.207,-48.828,-106.934
1630086789.035,961.426,-11.230,-23.926,-61.523
1630086789.039,-583.496,-21.973,-9.766,-86.914
1630086789.042,-614.258,-29.785,-18.066,-146.973
1630086789.046,925.781,-4.883,-23.438,-69.336
1630086789.050,-843.262,7.324,6.348,5.859
1630086789.054,-6.836,-18.066,10.254,-71.289
1630086789.058,-1000.000,-26.855,-16.113,-171.387
1630086789.059,325.684,-8.789,-34.180,-104.980
1630086789.063,-749.023,-7.812,-24.414,19.531
1630086789.067,174.805,-20.508,-6.348,-41.504
1630086789.071,-1000.000,-31.250,-12.207,-180.664
1630086789.075,-221.680,-20.020,-33.691,-141.602
1630086789.079,-785.645,-3.906,-40.039,61.035
1630086789.083,408.691,-18.555,-19.531,-27.344
1630086789.086,-1000.000,-38.574,-11.230,-237.305
1630086789.090,-299.805,-33.691,-20.020,-196.289
1630086789.094,-840.332,-25.391,-39.062,75.684
1630086789.098,698.730,-25.391,-30.762,52.246
1630086789.102,-857.422,-20.996,-16.113,-246.582
1630086789.104,-922.363,-15.137,-4.395,-361.816
1630086789.108,641.113,-8.301,-14.648,-79.102
1630086789.112,-886.719,-11.719,-17.090,106.934
1630086789.116,-258.301,-25.879,-7.324,-226.562
1630086789.120,-1000.000,-26.855,-17.090,-480.957
1630086789.124,-77.148,0.000,-19.531,-223.145
1630086789.128,-793.945,9.277,-18.555,127.441
1630086789.131,177.734,-5.371,2.930,-90.332
1630086789.135,-1000.000,4.395,27.344,-379.395
1630086789.139,-258.789,1.953,-10.254,-255.371
1630086789.143,-813.477,-0.977,-31.738,140.137
1630086789.147,239.258,-15.137,-7.324,34.668
1630086789.149,-1000.000,-33.691,-11.230,-342.285
1630086789.153,-573.730,-18.066,-27.832,-320.801
1630086789.157,-971.191,3.906,-36.133,136.230
1630086789.161,673.340,-2.930,-22.461,208.496
1630086789.165,-915.527,-24.902,-14.648,-218.750
1630086789.169,-1000.000,-30.273,-32.227,-366.699
1630086789.173,415.039,-2.930,-40.527,56.152
1630086789.176,-831.055,12.695,-13.672,354.980
1630086789.180,-166.504,-21.973,-22.949,-64.941
1630086789.184,-1000.000,-37.598,-36.621,-360.840
1630086789.188,-129.395,-5.859,-24.414,-19.043
1630086789.192,-796.875,0.000,-17.090,392.090
1630086789.195,218.750,-28.320,-12.695,60.059
1630086789.199,-1000.000,-34.668,-20.996,-328.613
1630086789.203,-271.973,-17.090,-36.621,-138.184
1630086789.207,-810.547,-4.395,-37.598,374.512
1630086789.211,406.250,-17.578,-27.832,225.586
1630086789.215,-1000.000,-23.438,-40.039,-254.395
1630086789.219,-557.129,-3.906,-8.301,-196.777
1630086789.222,-990.234,7.812,22.949,354.492
1630086789.226,863.281,-17.578,-8.789,382.812
1630086789.230,-640.625,-48.340,-11.719,-167.480
1630086789.234,-1000.000,-54.199,0.977,-347.168
1630086789.238,275.879,-35.156,2.930,151.367
1630086789.254,-796.387,-47.852,-2.441,524.902
1630086789.258,-24.414,-79.590,-4.883,25.879
1630086789.262,-1000.000,-75.684,3.418,-355.469
1630086789.266,-229.492,-73.730,5.371,-16.113
1630086789.270,-814.453,-79.102,-0.488,534.668
1630086789.274,234.375,-82.031,4.883,211.426
1630086789.278,-1000.000,-67.871,44.434,-283.203
1630086789.281,-349.121,-83.496,36.621,-161.621
1630086789.285,-838.867,-97.168,13.672,470.703
1630086789.289,380.859,-104.980,34.180,388.672
1630086789.293,-1000.000,-119.629,34.180,-282.227
1630086789.297,-881.348,-114.258,14.160,-379.883
1630086789.299,719.727,-90.820,18.066,335.449
1630086789.303,812.500,-79.590,35.156,587.402
1630086789.307,-734.863,-100.098,34.180,-132.324
1630086789.311,-1000.000,-101.074,12.207,-477.539
1630086789.315,-24.902,-76.172,0.488,100.098
1630086789.319,-832.520,-50.293,28.320,678.223
1630086789.323,-53.711,-72.266,30.273,104.980
1630086789.326,-1000.000,-94.727,1.953,-494.629
1630086789.330,-230.957,-83.984,-18.555,-152.344
1630086789.334,-831.055,-15.625,28.809,666.504
1630086789.338,243.652,-4.395,63.965,334.961
1630086789.342,-1000.000,-83.008,4.883,-513.672
1630086789.344,-614.746,-73.242,-18.066,-451.172
1630086789.348,-964.844,-33.691,-13.672,470.703
1630086789.352,342.285,-41.504,-6.836,492.188
1630086789.356,-1000.000,-68.359,-12.695,-426.270
1630086789.360,-1000.000,-66.406,-14.648,-674.805
1630086789.364,311.035,-38.086,-6.836,217.773
1630086789.368,791.016,-38.086,-1.465,669.922
1630086789.371,-775.391,-71.777,-6.348,-250.977
1630086789.375,-1000.000,-63.965,-3.906,-776.855
1630086789.379,-187.500,-5.859,31.250,-20.508
1630086789.383,-888.184,-11.719,25.391,802.734
1630086789.387,-81.543,-64.453,0.000,60.547
1630086789.389,-1000.000,-69.336,-17.578,-752.441
1630086789.393,-288.086,-46.387,-20.020,-326.172
1630086789.397,-857.910,-23.926,-13.672,757.324
1630086789.401,249.023,-44.434,-23.926,402.832
1630086789.405,-1000.000,-65.918,-22.949,-612.305
1630086789.409,-735.840,-42.480,-16.113,-536.133
1630086789.413,918.457,-12.695,-14.160,577.148
1630086789.416,430.176,-30.273,-18.066,726.074
1630086789.420,-1000.000,-82.520,-20.020,-338.379
1630086789.424,-1000.000,-68.848,-23.438,-649.902
1630086789.428,187.500,1.465,-22.949,316.895
1630086789.432,961.914,-9.277,-28.809,887.207
1630086789.434,-543.945,-61.035,-27.344,-51.758
1630086789.438,-1000.000,-43.945,-35.645,-751.953
1630086789.442,-204.102,-2.930,-43.457,-61.035
1630086789.446,-854.004,15.625,-35.156,958.008
1630086789.450,103.516,-16.602,-55.176,252.930
1630086789.454,-1000.000,-48.828,-67.383,-743.652
1630086789.458,-359.375,-23.438,-62.500,-378.418
1630086789.461,-864.746,16.602,-57.129,791.016
1630086789.465,252.441,-14.160,-47.852,561.035
1630086789.469,-1000.000,-47.363,-62.988,-541.016
1630086789.473,-773.926,-24.414,-60.547,-583.008
1630086789.477,848.145,8.789,-33.203,520.508
1630086789.480,687.500,-4.883,-34.668,798.340
1630086789.484,-880.859,-41.992,-45.898,-242.188
1630086789.488,-1000.000,-37.598,-45.898,-709.473
1630086789.492,108.887,-0.488,-26.855,208.008
1630086789.496,-828.613,0.488,-27.344,937.988
1630086789.500,-133.301,-38.574,-50.293,71.289
1630086789.504,-1000.000,-46.387,-53.223,-699.219
1630086789.507,-226.562,-2.441,-27.344,-67.383
1630086789.511,-826.172,25.879,-2.930,977.539
1630086789.515,238.281,-34.668,-20.020,365.234
1630086789.519,-1000.000,-60.547,-40.527,-624.023
1630086789.523,-372.070,-14.648,-37.109,-354.004
1630086789.524,-851.074,10.742,-25.879,765.625
1630086789.528,430.664,-22.461,-41.504,649.902
1630086789.532,-1000.000,-54.688,-46.387,-458.008
1630086789.536,-756.348,-41.016,-32.715,-534.668
1630086789.540,839.355,-7.324,-26.855,557.129
1630086789.544,982.422,-13.184,-39.062,836.914
1630086789.548,-494.629,-39.062,-59.082,-143.066
1630086789.551,-1000.000,-24.902,-28.809,-675.781
1630086789.555,57.617,-0.488,-5.859,159.668
1630086789.559,-785.645,0.488,-37.598,970.215
1630086789.563,120.117,-34.180,-53.711,161.621
1630086789.567,-1000.000,-52.734,-43.945,-660.156
1630086789.571,-254.883,-14.648,-37.109,-126.465
1630086789.575,-812.012,11.230,-28.809,935.059
1630086789.579,237.793,-24.414,-29.785,474.609
1630086789.583,-1000.000,-52.734,-34.180,-558.594
1630086789.587,-445.801,-32.715,-31.738,-440.918
1630086789.591,-891.602,2.441,-30.273,669.922
1630086789.595,595.703,-22.461,-15.137,727.051
1630086789.598,-979.492,-48.828,-7.812,-306.641
1630086789.602,-974.121,-20.508,-43.457,-683.594
1630086789.606,532.227,3.418,-48.340,282.715
1630086789.610,-898.926,-7.812,-39.551,854.980
1630086789.614,-316.895,-28.809,-44.434,-126.465
1630086789.614,-1000.000,-26.367,-47.852,-780.762
1630086789.618,-84.961,9.277,-43.945,-19.043
1630086789.622,-789.551,29.297,-25.391,954.102
1630086789.626,181.152,-10.254,-27.832,197.754
1630086789.630,-1000.000,-29.785,-44.922,-687.500
1630086789.634,-175.293,5.371,-22.949,-234.863
1630086789.638,-823.242,47.852,4.395,829.102
1630086789.641,260.742,19.531,-26.855,492.188
1630086789.645,-1000.000,-20.996,-40.039,-563.965
1630086789.649,-588.379,2.930,-27.344,-501.465
1630086789.653,-983.398,47.852,-23.438,602.051
1630086789.657,708.496,32.715,-19.043,716.797
1630086789.660,-843.262,-13.184,-23.438,-331.543
1630086789.664,-1000.000,0.000,-32.227,-708.984
1630086789.668,276.367,24.902,-28.320,213.867
1630086789.672,-841.797,13.672,-28.809,830.566
1630086789.676,-204.102,-11.230,-34.668,-92.285
1630086789.680,-1000.000,-12.695,-20.996,-753.906
1630086789.684,-204.590,12.695,-9.277,-90.820
1630086789.687,-821.289,20.020,-18.066,868.652
1630086789.691,232.422,-18.066,-27.832,209.473
1630086789.695,-1000.000,-10.742,-11.230,-701.172
1630086789.699,-305.176,20.508,-11.719,-385.742
1630086789.703,-824.707,16.602,-33.691,700.684
1630086789.719,312.012,-10.254,-26.855,505.371
1630086789.723,-1000.000,-35.645,-23.926,-531.738
1630086789.727,-750.977,-21.484,-23.926,-630.859
1630086789.731,876.953,7.812,-27.344,408.691
1630086789.735,746.582,1.465,-24.902,699.707
1630086789.739,-815.918,-20.020,-9.766,-286.133
1630086789.743,-1000.000,-27.344,-15.625,-711.914
1630086789.746,128.906,-12.695,-25.391,99.609
1630086789.750,-811.523,-2.441,-16.113,831.055
1630086789.754,-69.336,-25.391,-13.672,35.645
1630086789.758,-1000.000,-32.715,-40.039,-736.816
1630086789.762,-233.398,-13.672,-48.340,-245.117
1630086789.764,-824.219,9.277,-41.992,737.305
1630086789.768,240.234,-10.254,-53.223,229.492
1630086789.772,-1000.000,-30.762,-58.594,-695.801
1630086789.776,-419.434,-7.812,-53.711,-509.277
1630086789.780,-868.164,11.719,-43.945,555.176
1630086789.784,432.129,-5.371,-35.156,519.531
1630086789.788,-1000.000,-29.785,-33.691,-479.004
1630086789.791,-885.254,-38.574,-47.852,-692.871
1630086789.795,674.316,17.578,-18.555,308.594
1630086789.799,941.895,47.363,29.297,781.738
1630086789.803,-572.266,-32.715,-14.648,-210.449
1630086789.807,-1000.000,-53.711,-46.875,-772.949
1630086789.809,-5.859,-8.789,-42.480,-19.043
1630086789.813,-808.594,-3.906,-44.434,775.879
1630086789.817,38.086,-43.945,-45.410,52.734
1630086789.821,-1000.000,-54.199,-43.457,-717.773
1630086789.825,-242.188,-25.391,-41.016,-277.344
1630086789.829,-821.777,-11.719,-40.527,719.727
1630086789.833,241.211,-53.223,-48.828,346.680
1630086789.836,-1000.000,-65.430,-43.457,-573.242
1630086789.840,-518.066,-9.277,-3.418,-465.820
1630086789.844,-917.480,3.906,-13.184,552.246
1630086789.848,526.367,-46.387,-41.992,588.867
1630086789.852,-1000.000,-80.078,-50.781,-401.855
1630086789.855,-1000.000,-60.547,-55.664,-690.918
1630086789.859,448.730,-29.297,-54.199,196.289
1630086789.863,-924.316,-41.504,-57.617,722.656
1630086789.867,-431.152,-81.543,-67.383,-183.594
1630086789.871,-1000.000,-76.660,-67.871,-685.547
1630086789.875,38.574,-36.621,-48.340,14.160
1630086789.879,-834.473,-37.598,-46.875,738.770
1630086789.882,170.898,-40.527,-18.066,160.156
1630086789.886,-1000.000,-39.062,-7.812,-637.695
1630086789.890,-255.371,-60.547,-60.059,-392.090
1630086789.894,-816.406,-36.133,-59.082,611.328
1630086789.898,239.746,-54.199,-53.711,370.605
1630086789.899,-1000.000,-96.680,-69.824,-583.984
1630086789.903,-639.160,-74.219,-59.082,-618.164
1630086789.907,-993.652,-26.367,-41.016,385.742
1630086789.911,610.352,-47.852,-40.527,598.633
1630086789.915,-939.453,-93.750,-62.988,-366.699
1630086789.919,-1000.000,-81.055,-80.566,-747.070
1630086789.923,216.797,-31.250,-55.664,100.098
1630086789.926,-854.004,-12.207,-14.160,738.281
1630086789.930,-231.445,-62.500,-33.691,-83.496
1630086789.934,-1000.000,-82.031,-58.594,-744.629
1630086789.938,-221.191,-45.898,-52.246,-179.199
1630086789.942,-829.102,-25.879,-60.059,705.566
1630086789.944,235.840,-55.176,-60.547,183.105
1630086789.948,-1000.000,-83.984,-46.875,-628.906
1630086789.952,-328.125,-49.805,-29.785,-403.809
1630086789.956,-823.730,-16.602,-36.133,565.430
1630086789.960,271.484,-69.336,-62.012,360.840
1630086789.964,-1000.000,-96.680,-62.988,-573.730
1630086789.968,-652.832,-44.922,-27.832,-658.691
1630086789.971,853.516,-22.461,-6.348,306.152
1630086789.975,731.934,-102.539,-51.270,530.762
1630086789.979,-819.336,-148.438,-61.035,-483.887
1630086789.983,-1000.000,-123.047,-51.270,-917.480
1630086789.987,78.125,-79.102,-41.504,-125.977
1630086789.990,-826.172,-64.941,-38.574,595.703
1630086789.994,-101.562,-104.492,-46.387,-165.039
1630086789.998,-1000.000,-126.465,-49.316,-875.000
1630086790.002,-229.004,-103.516,-46.387,-356.445
1630086790.006,-827.637,-85.449,-44.434,626.953
1630086790.010,241.211,-102.539,-38.086,163.086
1630086790.014,-1000.000,-84.961,-0.488,-679.199
1630086790.017,-436.523,-76.172,-7.324,-524.902
1630086790.021,-874.023,-68.359,-27.832,514.160
1630086790.025,407.227,-73.242,-19.043,465.820
1630086790.029,-1000.000,-97.168,-26.855,-546.387
1630086790.033,-910.156,-92.285,-41.504,-757.324
1630086790.049,640.625,-60.059,-38.086,225.098
1630086790.053,927.246,-50.293,-36.133,676.758
1630086790.057,-600.098,-85.449,-36.621,-286.133
1630086790.061,-1000.000,-107.422,-44.922,-829.102
1630086790.065,-26.855,-79.590,-45.410,-80.078
1630086790.069,-806.641,-37.598,-20.508,771.484
1630086790.073,75.684,-62.988,-20.020,41.504
1630086790.076,-1000.000,-101.562,-45.898,-786.133
1630086790.080,-246.094,-82.031,-43.945,-357.910
1630086790.084,-819.824,-14.160,6.348,755.371
1630086790.088,241.211,-20.020,11.719,387.695
1630086790.092,-1000.000,-91.309,-54.688,-657.227
1630086790.094,-534.180,-81.055,-62.500,-603.516
1630086790.098,-926.758,-40.039,-42.480,489.258
1630086790.102,538.574,-51.758,-42.969,566.406
1630086790.106,-1000.000,-88.379,-52.734,-470.703
1630086790.110,-1000.000,-77.148,-48.828,-769.043
1630086790.114,451.660,-29.785,-36.133,183.594
1630086790.118,-899.902,-32.227,-30.273,738.281
1630086790.121,-332.031,-88.867,-39.062,-207.520
1630086790.125,-1000.000,-74.219,-35.645,-816.406
1630086790.129,-104.004,-14.648,-5.859,-97.168
1630086790.133,-802.246,-24.902,-18.066,779.297
1630086790.137,190.430,-69.824,-45.410,82.031
1630086790.139,-1000.000,-65.430,-37.109,-760.254
1630086790.143,-260.254,-36.133,-35.645,-415.039
1630086790.147,-813.965,-25.879,-47.852,653.809
1630086790.151,247.070,-47.363,-44.434,371.094
1630086790.155,-1000.000,-64.941,-46.875,-628.906
1630086790.159,-618.164,-46.387,-47.852,-649.414
1630086790.163,-997.559,-11.719,-38.574,442.383
1630086790.166,685.547,-33.203,-50.293,636.230
1630086790.170,-870.605,-49.805,-17.090,-377.930
1630086790.174,-1000.000,-23.926,15.625,-733.398
1630086790.178,244.629,-28.320,-24.902,111.328
1630086790.182,-825.684,-28.809,-42.969,776.367
1630086790.184,-162.109,-58.594,-34.668,-70.312
1630086790.188,-1000.000,-78.613,-26.367,-784.180
1630086790.192,-219.727,-32.227,-33.691,-205.566
1630086790.196,-823.242,-12.695,-31.250,783.691
1630086790.200,234.863,-54.199,-17.090,208.984
1630086790.204,-1000.000,-61.035,-17.090,-685.547
1630086790.208,-318.359,-36.621,-31.738,-440.430
1630086790.211,-829.102,-10.254,-20.996,683.594
1630086790.215,368.164,-4.395,2.930,550.293
1630086790.219,-1000.000,-47.852,-21.484,-528.809
1630086790.223,-766.602,-57.617,-37.109,-681.152
1630086790.227,852.051,-16.113,-28.809,377.930
1630086790.229,812.500,-32.227,-28.809,707.520
1630086790.233,-730.469,-75.195,-46.387,-317.871
1630086790.237,-1000.000,-73.242,-61.523,-799.805
1630086790.241,90.332,-27.832,-44.434,47.852
1630086790.245,-810.547,-8.301,-34.180,821.289
1630086790.249,-44.922,-44.922,-37.109,-25.391
1630086790.253,-1000.000,-68.359,-39.062,-777.832
1630086790.256,-234.863,-8.301,0.000,-212.891
1630086790.260,-823.730,53.711,51.270,871.094
1630086790.264,240.723,-28.809,-0.977,338.379
1630086790.268,-1000.000,-76.660,-64.941,-669.922
1630086790.272,-440.430,-33.691,-52.246,-500.488
1630086790.274,-877.441,-4.395,-25.879,582.031
1630086790.278,452.637,-38.086,-38.086,529.785
1630086790.282,-1000.000,-68.848,-53.223,-490.723
1630086790.286,-928.711,-51.758,-56.641,-698.730
1630086790.290,596.680,-12.695,-40.527,268.555
1630086790.294,-999.512,-14.160,-29.297,722.168
1630086790.298,-492.676,-43.945,-25.879,-208.984
1630086790.301,-1000.000,-34.180,0.000,-731.445
1630086790.305,-37.598,-22.461,5.371,-18.066
1630086790.309,-805.176,-33.691,-4.883,768.066
1630086790.313,84.473,-50.293,5.371,72.266
1630086790.317,-1000.000,-50.293,3.906,-702.148
1630086790.319,-247.070,-41.504,-14.160,-315.918
1630086790.323,-819.824,-21.484,-8.789,694.336
1630086790.327,241.211,-43.945,-17.578,321.289
1630086790.331,-1000.000,-74.219,-34.668,-625.488
1630086790.335,-547.852,-57.617,-33.203,-570.801
1630086790.339,-938.965,-31.250,-31.250,466.309
1630086790.343,597.656,-26.367,13.184,621.582
1630086790.346,-956.543,-17.578,37.598,-316.406
1630086790.350,-1000.000,-35.156,-18.555,-728.516
1630086790.354,354.980,-22.949,-27.832,127.441
1630086790.358,-880.859,-7.324,-14.648,728.027
1630086790.362,-293.945,-41.992,-15.625,-151.367
1630086790.365,-1000.000,-57.129,-18.555,-775.879
1630086790.369,-170.898,-24.902,-16.113,-143.555
1630086790.373,-817.871,0.000,-1.953,746.094
1630086790.377,200.684,-44.922,-11.230,96.680
1630086790.381,-1000.000,-79.102,-33.691,-758.301
1630086790.385,-258.789,-38.574,-26.855,-416.992
1630086790.389,-813.965,7.324,5.371,679.688
1630086790.392,251.953,-29.785,-15.137,394.531
1630086790.396,-1000.000,-63.965,-32.715,-609.863
1630086790.400,-634.277,-45.410,-23.926,-629.395
1630086790.404,998.047,-25.391,-15.137,423.340
1630086790.408,670.410,-43.945,-12.207,627.930
1630086790.424,-872.070,-69.824,-28.320,-383.789
1630086790.428,-1000.000,-61.035,-47.852,-776.367
1630086790.432,171.387,-34.180,-43.457,80.566
1630086790.436,-830.078,-24.902,-27.832,759.277
1630086790.440,-163.574,-57.617,-32.715,-106.445
1630086790.444,-1000.000,-46.875,-12.695,-773.926
1630086790.448,-225.098,4.395,0.488,-155.273
1630086790.451,-827.637,-9.766,-39.062,754.883
1630086790.455,238.281,-56.641,-52.734,151.855
1630086790.459,-1000.000,-54.688,-39.062,-700.684
1630086790.463,-361.816,-37.109,-43.945,-458.008
1630086790.467,-843.750,-26.367,-45.410,583.496
1630086790.469,317.383,-39.062,-37.598,453.125
1630086790.473,-1000.000,-65.918,-38.574,-544.922
1630086790.477,-839.844,-56.152,-39.062,-680.664
1630086790.481,745.117,-23.926,-33.203,320.801
1630086790.485,829.590,-35.645,-28.320,675.293
1630086790.489,-724.121,-66.895,-28.320,-278.809
1630086790.493,-1000.000,-64.941,-34.668,-761.719
1630086790.496,44.922,-47.852,-41.992,-1.465
1630086790.500,-817.383,-25.391,-24.902,756.348
1630086790.504,-44.434,-19.043,5.859,19.043
1630086790.508,-1000.000,-50.293,-19.043,-733.398
1630086790.512,-233.887,-46.387,-40.527,-275.879
1630086790.515,-826.172,-18.555,-30.273,710.938
1630086790.519,242.188,-52.734,-32.715,238.770
1630086790.523,-1000.000,-75.195,-46.387,-663.574
1630086790.527,-496.582,-46.387,-47.363,-525.879
1630086790.531,-902.344,-14.648,-22.461,514.648
1630086790.535,448.242,-22.461,-25.879,519.531
1630086790.539,-1000.000,-49.316,-54.688,-456.543
1630086790.542,-979.980,-62.988,-57.617,-699.707
1630086790.546,538.574,-19.531,-14.648,253.418
1630086790.550,954.102,4.883,23.926,751.953
1630086790.554,-564.453,-55.176,-9.766,-188.965
1630086790.558,-1000.000,-62.012,-40.039,-757.812
1630086790.559,-80.078,-20.508,-37.598,-97.168
1630086790.563,-821.777,-5.859,-43.945,701.172
1630086790.567,50.781,-30.762,-37.109,67.383
1630086790.571,-1000.000,-41.016,-24.902,-654.785
1630086790.575,-241.211,-13.184,-26.367,-285.645
1630086790.579,-824.219,4.395,-32.715,697.754
1630086790.583,242.188,-34.668,-39.062,353.027
1630086790.586,-1000.000,-50.293,-31.738,-565.430
1630086790.590,-605.957,-5.371,-15.137,-504.883
1630086790.594,-964.355,7.324,-20.996,501.465
1630086790.598,523.438,-19.531,-20.020,615.723
1630086790.602,-996.582,-40.039,-16.113,-328.125
1630086790.604,-1000.000,-33.691,-23.438,-635.254
1630086790.608,305.176,-15.625,-18.555,211.426
1630086790.612,-934.082,-9.277,-21.484,756.348
1630086790.616,-390.625,-31.250,-26.367,-74.707
1630086790.620,-1000.000,-38.086,-23.438,-667.969
1630086790.624,-196.777,-7.324,-17.578,-73.242
1630086790.628,-835.449,1.953,-19.043,784.668
1630086790.631,167.969,-13.672,-5.371,216.797
1630086790.635,-1000.000,-18.555,10.254,-562.500
1630086790.639,-301.270,-27.832,-7.324,-327.637
1630086790.643,-834.473,-4.883,-8.789,634.766
1630086790.647,241.699,-20.020,-5.371,422.852
1630086790.650,-1000.000,-47.852,-11.230,-482.910
1630086790.654,-747.070,-31.738,-16.602,-550.781
1630086790.658,895.508,4.395,-10.254,400.879
1630086790.662,616.699,-2.441,-4.883,646.484
1630086790.666,-939.453,-44.434,-20.020,-272.461
1630086790.670,-1000.000,-40.039,-25.391,-652.344
1630086790.674,140.137,-6.836,-8.301,111.816
1630086790.677,-863.770,0.488,21.484,735.840
1630086790.681,-239.746,-47.852,-0.488,-21.973
1630086790.685,-1000.000,-62.012,-23.926,-653.320
1630086790.689,-219.238,-20.996,-18.066,-171.875
1630086790.693,-834.961,-16.602,-19.043,678.711
1630086790.694,230.957,-49.316,-20.996,216.309
1630086790.698,-1000.000,-52.246,-29.297,-571.289
1630086790.702,-421.875,-26.855,-26.367,-373.535
1630086790.706,-871.094,-13.184,-25.879,529.785
1630086790.710,291.016,-39.551,-11.719,420.410
1630086790.714,-1000.000,-64.941,-11.719,-418.457
1630086790.718,-883.301,-28.809,-11.719,-533.691
1630086790.721,703.125,17.090,7.324,328.125
1630086790.725,762.695,-8.301,-5.859,628.418
1630086790.729,-802.734,-45.898,-24.414,-210.449
1630086790.733,-1000.000,-43.457,-28.809,-632.324
1630086790.737,-22.461,-17.578,-29.785,0.488
1630086790.739,-842.773,-15.625,-27.344,632.812
1630086790.743,-95.215,-41.992,-18.555,22.461
1630086790.747,-1000.000,-44.434,-16.113,-612.305
1630086790.751,-227.051,-24.902,-15.625,-231.445
1630086790.755,-831.543,-10.254,-18.066,594.238
1630086790.759,243.652,-28.320,-21.484,243.164
1630086790.763,-1000.000,-49.805,-19.043,-517.090
1630086790.766,-537.109,-38.574,-22.461,-452.637
1630086790.770,-920.410,-14.160,-19.531,416.992
1630086790.774,415.527,-35.156,-9.766,458.008
1630086790.778,-1000.000,-56.152,-14.160,-364.258
1630086790.782,-1000.000,-42.480,-28.809,-594.238
1630086790.799,447.266,-25.391,-41.504,163.086
1630086790.803,930.176,-33.203,-29.785,572.266
1630086790.807,-603.027,-57.129,-17.578,-159.180
1630086790.811,-1000.000,-59.570,-26.367,-630.371
1630086790.815,-140.625,-30.762,-24.414,-74.219
1630086790.819,-834.473,-14.160,-10.254,614.258
1630086790.823,71.289,-40.527,-16.113,81.543
1630086790.826,-1000.000,-57.617,-26.367,-569.336
1630086790.830,-241.211,-39.062,-31.250,-295.410
1630086790.834,-824.219,-13.672,-18.066,531.738
1630086790.838,241.699,-34.180,-7.324,293.945
1630086790.842,-1000.000,-62.988,-31.738,-479.980
1630086790.844,-633.789,-46.875,-41.504,-488.770
1630086790.848,-980.957,-17.578,-35.645,332.031
1630086790.852,524.414,-34.180,-33.691,465.820
1630086790.856,-987.305,-68.359,-33.203,-322.266
1630086790.860,-1000.000,-56.152,-31.738,-613.281
1630086790.864,240.723,-22.461,-31.250,94.238
1630086790.868,-938.477,-26.367,-30.273,590.820
1630086790.871,-395.020,-62.988,-32.715,-112.793
1630086790.875,-1000.000,-55.664,-32.227,-631.348
1630086790.879,-211.426,-11.719,-16.602,-115.234
1630086790.883,-840.820,-9.277,-22.949,616.699
1630086790.887,169.434,-39.551,-31.250,128.418
1630086790.890,-1000.000,-52.246,-28.809,-563.965
1630086790.894,-323.730,-29.785,-25.391,-338.867
1630086790.898,-842.773,0.488,-5.371,532.227
1630086790.902,244.629,-30.762,-4.883,371.094
1630086790.906,-1000.000,-62.500,-23.438,-437.500
1630086790.910,-755.371,-42.969,-33.691,-512.695
1630086790.914,884.277,-13.672,-33.203,336.426
1630086790.917,631.348,-32.715,-31.250,552.246
1630086790.921,-926.758,-61.035,-32.227,-267.578
1630086790.925,-1000.000,-51.758,-26.855,-628.418
1630086790.929,100.098,-25.391,-27.344,54.199
1630086790.933,-845.215,-12.695,-30.273,648.926
1630086790.934,-177.246,-46.387,-31.738,-43.457
1630086790.938,-1000.000,-55.664,-42.480,-623.535
1630086790.942,-223.145,-30.273,-30.762,-129.883
1630086790.946,-831.543,-21.484,-6.836,662.109
1630086790.950,241.699,-52.246,-25.879,168.457
1630086790.954,-1000.000,-69.824,-31.250,-614.258
1630086790.958,-431.152,-44.922,-18.555,-449.707
1630086790.961,-871.582,-19.043,-29.297,427.734
1630086790.965,316.895,-42.969,-48.828,320.801
1630086790.969,-1000.000,-80.566,-60.547,-529.297
1630086790.973,-913.574,-68.359,-61.035,-704.102
1630086790.977,638.672,-45.898,-53.223,106.445
1630086790.979,849.609,-53.711,-41.504,460.938
1630086790.983,-708.984,-69.336,-46.387,-339.355
1630086790.987,-1000.000,-72.266,-50.781,-779.785
1630086790.991,-4.395,-41.992,-41.992,-101.562
1630086790.995,-826.172,-34.180,-35.156,599.121
1630086790.999,-44.434,-63.477,-44.434,-45.898
1630086791.003,-1000.000,-62.012,-45.898,-709.473
1630086791.006,-232.422,-30.762,-27.344,-294.922
1630086791.010,-828.125,-19.531,-14.648,618.164
1630086791.014,243.164,-59.082,-24.902,245.605
1630086791.018,-1000.000,-87.402,-38.086,-608.887
1630086791.022,-532.227,-60.547,-41.992,-529.785
1630086791.024,-920.410,-31.738,-33.691,440.918
1630086791.028,453.125,-56.641,-29.785,473.145
1630086791.032,-1000.000,-73.242,-35.156,-436.523
1630086791.036,-1000.000,-56.152,-32.227,-670.898
1630086791.040,474.121,-23.438,-31.738,184.570
1630086791.044,995.117,-20.996,-39.551,645.020
1630086791.048,-504.395,-52.246,-31.738,-176.758
1630086791.051,-1000.000,-48.828,-13.672,-696.777
1630086791.055,-132.324,-26.367,-20.996,-92.773
1630086791.059,-829.102,-23.438,-23.438,686.523
1630086791.063,75.684,-53.223,-18.555,75.684
1630086791.067,-1000.000,-60.059,-24.902,-666.504
1630086791.070,-242.188,-30.762,-43.457,-322.754
1630086791.074,-823.730,-11.719,-41.992,621.094
1630086791.078,241.699,-26.855,-16.602,349.609
1630086791.082,-1000.000,-47.852,-18.555,-542.480
1630086791.086,-629.395,-41.504,-28.809,-547.363
1630086791.090,-983.398,-15.137,-22.949,426.758
1630086791.094,573.242,-11.719,4.395,589.844
1630086791.097,-958.984,-37.109,13.184,-309.082
1630086791.101,-1000.000,-49.805,-25.391,-677.246
1630086791.105,244.141,-20.996,-32.227,123.047
1630086791.109,-916.992,-15.625,-20.508,708.008
1630086791.113,-356.934,-49.316,-22.949,-115.723
1630086791.114,-1000.000,-56.641,-36.133,-727.539
1630086791.118,-215.332,-28.320,-43.945,-140.137
1630086791.122,-835.449,-11.230,-37.109,720.215
1630086791.126,206.543,-44.434,-38.086,153.809
1630086791.130,-1000.000,-72.266,-42.969,-668.945
1630086791.134,-312.988,-41.016,-33.691,-399.414
1630086791.138,-834.473,0.000,-10.742,628.906
1630086791.141,240.723,-32.715,-13.184,425.781
1630086791.145,-1000.000,-71.777,-35.156,-520.508
1630086791.149,-764.648,-55.664,-42.480,-604.980
1630086791.153,859.863,-27.832,-37.598,345.215
1630086791.157,690.430,-27.832,-33.691,611.328
1630086791.159,-871.582,-46.387,-34.668,-300.781
1630086791.163,-1000.000,-44.434,-30.273,-715.820
1630086791.167,102.051,-16.602,-24.902,65.430
1630086791.171,-844.238,-15.137,-26.367,736.816
1630086791.175,-174.316,-51.270,-35.645,-53.223
1630086791.179,-1000.000,-51.270,-35.156,-719.727
1630086791.183,-223.633,-26.367,-25.879,-200.195
1630086791.186,-831.543,-20.996,-32.227,698.242
1630086791.190,241.699,-55.664,-42.969,193.848
1630086791.194,-1000.000,-58.594,-29.297,-634.277
1630086791.198,-430.176,-22.949,-16.113,-431.152
1630086791.202,-871.582,-18.555,-30.762,540.039
1630086791.219,320.801,-52.734,-47.852,434.570
1630086791.223,-1000.000,-69.336,-52.246,-494.629
1630086791.227,-899.902,-46.387,-47.363,-650.879
1630086791.231,678.711,-17.578,-37.598,273.926
1630086791.235,796.387,-21.484,-29.297,647.461
1630086791.239,-765.625,-49.316,-35.156,-252.930
1630086791.243,-1000.000,-58.594,-40.527,-738.281
1630086791.246,-30.762,-32.715,-44.434,-31.738
1630086791.250,-831.543,-16.113,-43.457,713.379
1630086791.254,-43.945,-48.828,-27.832,5.371
1630086791.258,-1000.000,-72.754,-33.203,-737.305
1630086791.262,-231.934,-43.945,-40.527,-294.434
1630086791.264,-828.613,-9.766,-33.691,694.824
1630086791.268,243.164,-39.062,-26.855,302.246
1630086791.272,-1000.000,-71.777,-40.039,-620.605
1630086791.276,-540.527,-43.457,-58.105,-537.109
1630086791.280,-923.340,-15.625,-47.852,494.141
1630086791.284,449.219,-36.133,-36.133,534.668
1630086791.288,-1000.000,-63.965,-46.875,-426.270
1630086791.291,-1000.000,-62.988,-56.152,-717.285
1630086791.295,439.941,-18.555,-26.855,217.773
1630086791.299,936.523,-5.859,-3.418,736.816
1630086791.303,-591.309,-57.129,-24.902,-192.383
1630086791.307,-1000.000,-62.500,-34.180,-764.160
1630086791.309,-151.855,-34.180,-25.879,-97.656
1630086791.313,-839.844,-26.367,-20.508,733.398
1630086791.317,62.012,-58.594,-21.973,73.242
1630086791.321,-1000.000,-73.242,-29.785,-709.961
1630086791.325,-239.746,-45.898,-30.762,-346.680
1630086791.329,-824.707,-27.832,-27.832,655.273
1630086791.333,241.211,-48.828,-34.668,353.516
1630086791.336,-1000.000,-67.871,-45.410,-575.684
1630086791.340,-654.297,-46.387,-39.062,-559.082
1630086791.344,-999.023,-18.555,-20.508,431.641
1630086791.348,519.531,-32.715,-17.578,566.406
1630086791.352,-987.793,-61.523,-24.902,-367.676
1630086791.355,-1000.000,-55.176,-35.156,-703.125
1630086791.359,202.148,-27.344,-38.574,113.770
1630086791.363,-918.457,-27.344,-35.156,700.195
1630086791.367,-356.934,-54.199,-35.156,-116.699
1630086791.371,-1000.000,-52.246,-45.410,-729.492
1630086791.375,-213.867,-24.414,-44.434,-152.832
1630086791.379,-838.379,-10.254,-32.227,721.191
1630086791.382,192.383,-41.016,-19.531,162.109
1630086791.386,-1000.000,-53.223,-24.414,-646.973
1630086791.390,-335.938,-29.785,-44.434,-404.297
1630086791.394,-843.262,-12.207,-32.715,590.820
1630086791.398,240.234,-45.410,-21.973,430.176
1630086791.399,-1000.000,-77.148,-23.926,-503.906
1630086791.403,-822.754,-61.035,-31.738,-629.395
1630086791.407,797.363,-21.484,-33.203,333.496
1630086791.411,666.016,-28.809,-27.344,625.000
1630086791.415,-905.273,-62.988,-29.785,-310.059
1630086791.419,-1000.000,-53.711,-35.156,-722.168
1630086791.423,81.543,-25.879,-27.344,68.848
1630086791.426,-846.191,-17.090,-4.883,753.418
1630086791.430,-169.922,-45.410,-19.043,-41.016
1630086791.434,-1000.000,-58.105,-48.340,-730.957
1630086791.438,-223.633,-25.391,-42.969,-232.422
1630086791.442,-831.543,-4.883,-18.555,697.266
1630086791.444,241.699,-35.156,-20.020,244.629
1630086791.448,-1000.000,-62.500,-42.480,-631.836
1630086791.452,-440.430,-48.340,-32.715,-458.984
1630086791.456,-875.488,-19.531,-8.789,586.426
1630086791.460,354.004,-31.738,-14.160,506.836
1630086791.464,-1000.000,-52.734,-41.016,-470.703
1630086791.468,-911.621,-37.598,-39.551,-639.160
1630086791.471,649.902,-17.578,-25.391,308.105
1630086791.475,854.980,-24.902,-35.645,675.293
1630086791.479,-691.406,-44.922,-20.996,-242.676
1630086791.483,-1000.000,-48.340,-13.672,-748.047
1630086791.487,-45.898,-31.250,-33.691,-47.363
1630086791.489,-833.496,-23.438,-35.645,723.633
1630086791.493,-40.527,-62.012,-26.855,6.348
1630086791.497,-1000.000,-76.172,-34.180,-748.047
1630086791.501,-231.934,-35.645,-42.969,-298.340
1630086791.505,-828.613,-15.137,-41.992,697.754
1630086791.509,243.652,-36.621,-30.762,287.598
1630086791.513,-1000.000,-43.457,-21.484,-620.117
1630086791.516,-545.410,-34.668,-36.621,-529.785
1630086791.520,-927.246,-14.160,-32.227,519.043
1630086791.524,468.262,-24.414,-10.254,570.312
1630086791.528,-1000.000,-57.129,-14.648,-442.383
1630086791.532,-1000.000,-54.688,-28.320,-729.492
1630086791.535,435.547,-29.297,-31.738,202.148
1630086791.539,-997.559,-25.879,-17.578,725.098
1630086791.543,-493.164,-46.875,-33.691,-191.895
1630086791.547,-1000.000,-56.641,-64.453,-804.688
1630086791.551,-155.762,-32.227,-56.641,-125.977
1630086791.555,-832.031,-12.207,-28.320,762.695
1630086791.559,100.586,-30.762,-29.297,83.008
1630086791.562,-1000.000,-49.805,-53.711,-779.785
1630086791.566,-244.629,-38.574,-50.781,-422.852
1630086791.570,-822.266,-7.812,-34.668,655.273
1630086791.574,241.211,-22.461,-39.062,361.816
1630086791.578,-1000.000,-62.500,-44.434,-634.766
1630086791.594,-635.254,-57.129,-43.457,-703.125
1630086791.598,-986.816,-26.855,-37.109,344.238
1630086791.602,569.824,-35.645,-33.691,552.734
1630086791.606,-963.867,-89.844,-42.480,-507.812
1630086791.610,-1000.000,-93.750,-51.758,-921.387
1630086791.614,248.535,-30.762,-31.738,48.340
1630086791.618,-910.156,-34.668,-24.414,687.988
1630086791.621,-345.703,-84.473,-56.152,-295.898
1630086791.625,-1000.000,-83.496,-60.547,-985.352
1630086791.629,-214.355,-44.922,-38.086,-335.938
1630086791.633,-837.402,-35.156,-43.457,632.812
1630086791.637,194.824,-74.219,-64.941,-2.441
1630086791.639,-1000.000,-87.402,-63.965,-904.785
1630086791.643,-330.566,-63.965,-53.223,-591.797
1630086791.647,-841.797,-32.715,-42.480,558.594
1630086791.651,244.629,-50.293,-40.039,340.332
1630086791.655,-1000.000,-78.125,-43.945,-721.191
1630086791.659,-756.348,-48.340,-39.062,-774.414
1630086791.663,869.141,-9.277,-30.273,346.191
1630086791.666,685.547,-32.227,-34.180,627.441
1630086791.670,-872.070,-60.547,-21.973,-418.945
1630086791.674,-1000.000,-40.527,-0.488,-838.867
1630086791.678,95.215,-24.414,-20.508,25.879
1630086791.682,-852.051,-25.391,-38.086,758.789
1630086791.684,-192.871,-55.664,-36.621,-134.277
1630086791.688,-1000.000,-59.082,-40.527,-895.996
1630086791.692,-222.168,-28.320,-39.551,-293.457
1630086791.696,-833.496,-19.531,-30.273,760.254
1630086791.700,242.188,-48.828,-31.250,187.500
1630086791.704,-1000.000,-57.617,-26.855,-767.578
1630086791.708,-447.754,-38.086,-22.949,-537.109
1630086791.711,-878.418,-4.883,-19.531,620.117
1630086791.715,319.824,-4.395,-13.672,549.316
1630086791.719,-1000.000,-49.805,-30.762,-543.945
1630086791.723,-945.312,-57.617,-43.457,-747.559
1630086791.727,620.605,-16.113,-16.602,339.355
1630086791.729,779.297,-20.508,-14.648,764.648
1630086791.733,-792.480,-67.383,-47.852,-312.012
1630086791.737,-1000.000,-62.012,-48.340,-874.512
1630086791.741,-49.316,-23.438,-28.809,-14.160
1630086791.745,-839.844,-7.812,-28.809,865.723
1630086791.749,-58.594,-45.898,-39.551,-2.441
1630086791.753,-1000.000,-71.289,-44.434,-862.793
1630086791.756,-229.980,-18.066,-16.113,-320.312
1630086791.760,-829.590,16.602,16.602,830.078
1630086791.764,243.652,-41.016,-24.414,313.477
1630086791.768,-1000.000,-64.453,-54.199,-769.043
1630086791.772,-545.410,-41.504,-42.480,-640.625
1630086791.775,-924.316,-16.602,-23.438,529.785
1630086791.779,424.316,-35.645,-25.879,525.879
1630086791.783,-1000.000,-59.570,-25.391,-589.844
1630086791.787,-1000.000,-47.363,-20.508,-861.328
1630086791.791,388.184,-20.020,-30.762,180.176
1630086791.795,-985.352,-19.531,-35.645,746.582
1630086791.799,-479.980,-48.340,-36.133,-277.832
1630086791.802,-1000.000,-37.109,-26.855,-914.062
1630086791.806,-156.250,-17.578,-28.809,-174.805
1630086791.810,-833.984,-18.555,-33.203,760.742
1630086791.814,85.449,-46.875,-33.203,11.719
1630086791.818,-1000.000,-58.594,-37.109,-883.789
1630086791.819,-242.676,-29.785,-35.645,-469.727
1630086791.823,-823.242,-7.324,-33.691,682.129
1630086791.827,241.211,-23.438,-36.133,328.613
1630086791.831,-1000.000,-49.316,-39.062,-729.980
1630086791.835,-645.996,-45.898,-43.457,-718.750
1630086791.839,-996.094,-18.555,-32.227,436.523
1630086791.843,579.590,-20.508,-16.113,626.953
1630086791.846,-952.148,-30.762,-0.977,-457.031
1630086791.850,-1000.000,-41.992,-27.832,-873.535
1630086791.854,217.285,-26.367,-51.270,85.938
1630086791.858,-922.363,-23.438,-49.316,773.438
1630086791.862,-363.770,-71.289,-54.199,-229.004
1630086791.864,-1000.000,-75.195,-45.410,-945.801
1630086791.868,-213.379,-29.785,-30.762,-229.980
1630086791.872,-838.867,-8.789,-20.508,800.293
1630086791.876,187.988,-40.527,-26.855,108.398
1630086791.880,-1000.000,-62.012,-42.480,-855.469
1630086791.884,-336.914,-33.203,-40.527,-508.789
1630086791.888,-844.238,5.371,-5.859,708.984
1630086791.891,240.234,-37.598,-20.020,459.473
1630086791.895,-1000.000,-77.637,-46.875,-685.059
1630086791.899,-826.660,-45.410,-33.691,-754.883
1630086791.903,798.828,-4.883,-29.297,399.414
1630086791.907,642.090,-24.902,-40.039,689.453
1630086791.924,-924.316,-66.406,-45.898,-431.152
1630086791.928,-1000.000,-63.965,-37.109,-893.066
1630086791.932,61.523,-28.809,-24.902,37.598
1630086791.936,-860.352,-22.949,-23.926,821.777
1630086791.940,-199.219,-67.871,-41.016,-101.562
1630086791.944,-1000.000,-63.965,-43.457,-885.254
1630086791.948,-221.191,-27.832,-24.902,-269.531
1630086791.951,-834.473,-28.809,-20.508,802.734
1630086791.955,243.164,-68.359,-44.434,205.078
1630086791.959,-1000.000,-65.918,-31.250,-780.273
1630086791.963,-469.238,-20.508,-6.348,-524.902
1630086791.967,-888.184,-15.625,-40.039,626.465
1630086791.969,312.012,-45.410,-49.805,503.418
1630086791.973,-1000.000,-72.266,-47.852,-616.211
1630086791.977,-965.820,-59.570,-51.270,-818.359
1630086791.981,582.031,-27.832,-38.574,289.551
1630086791.985,792.969,-42.969,-34.668,744.141
1630086791.989,-779.785,-75.684,-45.898,-348.145
1630086791.993,-1000.000,-67.871,-43.945,-911.621
1630086791.996,-64.453,-37.598,-42.480,-63.477
1630086792.000,-837.891,-19.531,-41.016,831.543
1630086792.004,-37.598,-39.551,-27.832,-10.254
1630086792.008,-1000.000,-52.246,-29.785,-884.766
1630086792.012,-231.445,-36.133,-41.016,-395.508
1630086792.014,-828.613,-13.672,-26.855,729.980
1630086792.018,243.652,-40.039,-18.555,264.648
1630086792.022,-1000.000,-75.195,-46.387,-817.871
1630086792.026,-555.664,-52.246,-45.410,-717.773
1630086792.030,-931.641,-20.508,-30.273,497.070
1630086792.034,458.984,-42.480,-48.828,547.363
1630086792.038,-1000.000,-72.266,-53.223,-578.125
1630086792.041,-1000.000,-75.195,-42.480,-889.648
1630086792.045,398.926,-18.066,-3.418,171.387
1630086792.049,984.375,8.789,22.949,770.996
1630086792.053,-518.555,-64.453,-28.809,-335.449
1630086792.057,-1000.000,-71.777,-46.875,-1000.000
1630086792.059,-127.441,-30.273,-30.762,-192.871
1630086792.063,-942.383,-23.926,-30.273,685.547
1630086792.067,-98.145,-54.688,-41.016,-126.465
1630086792.071,-1000.000,-62.988,-41.504,-894.043
1630086792.075,-240.234,-40.527,-26.855,-482.422
1630086792.079,-829.102,-21.973,-21.973,663.086
1630086792.083,240.723,-50.781,-37.109,314.453
1630086792.086,-1000.000,-66.895,-36.621,-766.113
1630086792.090,-660.645,-43.945,-11.719,-714.844
1630086792.094,994.141,-23.438,-11.719,447.266
1630086792.098,540.527,-28.809,-37.598,567.871
1630086792.102,-977.051,-53.711,-54.688,-570.801
1630086792.104,-1000.000,-44.922,-51.758,-951.172
1630086792.108,181.641,-17.578,-41.992,33.203
1630086792.112,-877.930,-3.906,-46.875,742.188
1630086792.116,-281.738,-28.320,-45.898,-205.566
1630086792.120,-1000.000,-34.668,-48.340,-926.270
1630086792.124,-216.797,3.906,-45.410,-253.418
1630086792.128,-834.473,9.766,-39.551,771.484
1630086792.131,213.867,6.836,-15.625,159.180
1630086792.135,-1000.000,41.504,21.973,-732.910
1630086792.139,-344.238,27.832,-18.066,-484.863
1630086792.143,-843.750,20.996,-44.434,654.297
1630086792.147,240.234,6.836,-47.852,459.473
1630086792.150,-1000.000,-19.043,-52.734,-623.535
1630086792.154,-798.340,-15.625,-41.016,-646.973
1630086792.158,706.543,12.695,-39.551,441.895
1630086792.162,-989.258,13.184,-37.598,923.828
1630086792.166,-587.891,-23.438,-36.621,211.426
1630086792.170,-1000.000,-21.484,-34.180,-1.953
1630086792.174,454.102,11.230,-14.648,620.605
1630086792.177,-833.496,19.043,-9.766,-994.629
1630086792.181,75.684,-42.480,-48.340,499.023
1630086792.185,-1000.000,-78.613,-75.684,26.855
1630086792.189,-125.488,-43.945,-53.223,454.102
1630086792.193,-764.160,-27.344,-43.457,-951.660
1630086792.194,327.637,-63.965,-74.707,684.082
1630086792.198,-1000.000,-78.613,-81.055,18.555
1630086792.202,-284.180,-62.012,-64.941,238.770
1630086792.206,-861.816,-36.133,-53.223,959.961
1630086792.210,780.762,-46.387,-56.641,813.965
1630086792.214,-845.703,-71.777,-62.500,96.191
1630086792.218,-641.602,-38.086,-40.527,-7.324
1630086792.221,927.734,-7.324,-17.578,722.656
1630086792.225,-890.625,-46.387,-44.434,907.715
1630086792.229,-193.359,-73.242,-55.664,200.684
1630086792.233,-1000.000,-67.383,-49.316,-217.773
1630086792.237,184.570,-39.551,-46.875,408.691
1630086792.240,-757.812,-35.645,-46.387,995.605
1630086792.244,175.781,-64.453,-44.922,363.281
1630086792.248,-1000.000,-70.801,-43.457,-284.668
1630086792.252,-266.602,-47.852,-46.875,119.141
1630086792.256,-806.152,-35.156,-35.645,957.520
1630086792.260,249.512,-51.758,-29.785,569.824
1630086792.264,-1000.000,-69.824,-27.832,-251.465
1630086792.267,-432.129,-62.012,-22.461,-158.691
1630086792.271,-881.836,-28.320,-24.902,733.887
1630086792.275,578.613,-40.039,-31.250,722.656
1630086792.279,-986.816,-66.895,-35.645,-164.062
1630086792.283,-973.633,-51.758,-33.691,-397.949
1630086792.299,559.082,-18.555,-21.484,428.711
1630086792.303,-960.449,-22.461,-15.625,819.824
1630086792.307,-411.133,-54.199,-20.508,-17.090
1630086792.311,-1000.000,-61.523,-18.555,-470.215
1630086792.315,-88.379,-50.781,-12.695,153.809
1630086792.319,-803.711,-15.137,0.000,872.559
1630086792.323,159.668,2.930,22.461,233.887
1630086792.326,-1000.000,-26.367,-11.230,-492.188
1630086792.330,-255.859,-19.043,-34.668,-173.828
1630086792.334,-816.895,19.043,-0.977,757.812
1630086792.338,238.281,-6.836,-3.906,455.566
1630086792.342,-1000.000,-46.387,-22.461,-431.152
1630086792.344,-667.480,-47.852,-31.250,-421.875
1630086792.348,989.258,-25.391,-34.180,483.398
1630086792.352,506.836,-36.133,-34.180,581.543
1630086792.356,-991.211,-66.406,-42.969,-308.594
1630086792.360,-1000.000,-52.246,-34.180,-582.031
1630086792.364,207.520,-15.625,-17.578,214.844
1630086792.368,-991.211,-20.020,-18.066,743.652
1630086792.371,-475.586,-65.918,-34.668,-99.609
1630086792.375,-1000.000,-65.918,-28.809,-650.879
1630086792.379,-201.172,13.184,32.715,5.371
1630086792.383,-857.422,10.742,27.832,795.410
1630086792.387,79.102,-59.082,-23.438,138.184
1630086792.389,-1000.000,-72.754,-31.250,-628.418
1630086792.393,-386.719,-51.758,-27.344,-352.539
1630086792.397,-878.418,-21.973,-19.043,611.328
1630086792.401,250.488,-43.457,-16.602,372.559
1630086792.405,-1000.000,-67.383,-21.973,-553.711
1630086792.409,-867.188,-46.387,-31.250,-598.633
1630086792.413,753.906,-14.160,-27.344,364.258
1630086792.416,559.082,-41.504,-29.785,582.520
1630086792.420,-974.609,-51.270,-5.859,-344.238
1630086792.424,-1000.000,-7.324,48.828,-652.344
1630086792.428,67.383,-16.113,13.184,98.145
1630086792.432,-943.848,-38.574,-22.949,679.688
1630086792.434,-362.793,-65.430,-14.648,-145.020
1630086792.438,-1000.000,-70.312,-17.578,-756.348
1630086792.442,-213.379,-38.086,-19.531,-206.055
1630086792.446,-843.262,-12.695,-13.184,677.246
1630086792.450,216.309,-56.152,-17.578,146.484
1630086792.454,-1000.000,-85.938,-25.391,-666.504
1630086792.458,-466.797,-62.500,-29.785,-452.637
1630086792.461,-892.578,-11.719,-22.949,530.762
1630086792.465,297.363,-2.441,2.930,453.125
1630086792.469,-1000.000,-50.781,-26.367,-506.836
1630086792.473,-951.172,-49.316,-45.410,-662.598
1630086792.477,610.840,-14.648,-26.855,274.902
1630086792.479,752.441,-22.461,-23.438,612.305
1630086792.483,-820.801,-57.129,-20.508,-297.852
1630086792.487,-1000.000,-60.059,-16.113,-720.215
1630086792.491,-51.758,-28.320,-4.883,3.418
1630086792.495,-854.004,-20.020,-16.602,694.824
1630086792.499,-116.211,-53.711,-33.203,-51.270
1630086792.503,-1000.000,-54.688,-29.785,-708.008
1630086792.506,-223.633,-3.906,-6.836,-230.469
1630086792.510,-833.496,26.367,19.531,687.012
1630086792.514,244.141,-32.227,-13.672,228.516
1630086792.518,-1000.000,-65.430,-30.273,-633.301
1630086792.522,-546.387,-47.852,-16.602,-514.160
1630086792.524,-927.734,-26.855,-21.484,419.922
1630086792.528,459.961,-43.457,-40.039,420.898
1630086792.532,-1000.000,-67.383,-40.039,-502.930
1630086792.536,-998.047,-58.105,-20.508,-725.586
1630086792.540,458.496,-37.109,-18.066,107.910
1630086792.544,-935.059,-33.691,-21.484,546.875
1630086792.548,-402.344,-52.734,-21.484,-289.551
1630086792.551,-1000.000,-35.645,11.719,-750.000
1630086792.555,-76.660,-11.719,2.930,-133.301
1630086792.559,-799.805,-19.043,-30.762,577.637
1630086792.563,182.617,-50.781,-33.203,-78.613
1630086792.567,-1000.000,-65.430,-33.203,-782.715
1630086792.569,-262.695,-38.574,-31.738,-400.391
1630086792.573,-811.035,-15.137,-25.391,534.668
1630086792.577,291.016,-38.574,-23.926,211.426
1630086792.581,-1000.000,-58.105,-23.926,-640.137
1630086792.585,-532.715,-44.434,-17.090,-593.750
1630086792.589,-974.121,-20.020,-24.414,342.773
1630086792.593,795.410,-13.184,-14.160,492.676
1630086792.596,-769.531,-13.672,21.484,-359.375
1630086792.600,-1000.000,-44.922,-7.812,-694.824
1630086792.604,423.340,-41.504,-36.133,55.176
1630086792.608,-817.871,-23.926,-31.738,614.258
1630086792.612,-104.980,-66.406,-39.062,-213.379
1630086792.614,-1000.000,-79.590,-36.133,-779.297
1630086792.618,-150.879,-38.086,-25.391,-177.246
1630086792.622,-796.875,-15.137,-17.090,647.461
1630086792.626,220.215,-46.387,-26.367,56.641
1630086792.630,-1000.000,-62.500,-39.062,-701.660
1630086792.634,-271.484,-30.273,-32.715,-403.320
1630086792.638,-812.500,15.625,-4.395,577.637
1630086792.641,403.320,-32.227,-10.742,360.352
1630086792.645,-1000.000,-75.684,-36.133,-557.129
1630086792.649,-643.066,-27.832,-26.855,-615.234
1630086792.653,965.332,10.254,-7.324,315.430
1630086792.657,855.469,-17.578,-25.391,548.828
1630086792.659,-656.250,-49.805,-36.621,-348.633
1630086792.663,-1000.000,-46.387,-28.809,-701.172
1630086792.667,173.340,-16.602,-27.344,40.039
1630086792.671,-781.250,-21.973,-26.367,659.180
1630086792.675,-58.594,-60.059,-29.297,-114.258
1630086792.679,-1000.000,-48.828,-33.691,-633.301
1630086792.683,-58.105,-20.020,-41.992,-107.910
1630086792.686,-836.426,-16.113,-39.062,637.695
1630086792.690,235.352,-53.711,-50.781,143.555
1630086792.694,-1000.000,-27.832,-17.578,-588.867
1630086792.698,-369.629,17.090,17.090,-366.211
1630086792.702,-849.609,1.465,-10.742,505.859
1630086792.719,461.426,-26.367,-18.555,413.086
1630086792.723,-1000.000,-55.664,-13.672,-453.125
1630086792.727,-873.047,-48.828,-19.531,-601.562
1630086792.731,697.754,-29.297,-29.297,250.977
1630086792.735,953.613,-28.809,-25.391,588.379
1630086792.739,-554.688,-51.758,-20.508,-255.859
1630086792.743,-1000.000,-57.617,-22.461,-667.969
1630086792.746,21.484,-28.320,-25.391,-10.254
1630086792.750,-800.781,-9.277,-12.207,655.762
1630086792.754,51.270,-28.320,2.930,-15.625
1630086792.758,-1000.000,-63.965,-21.973,-678.711
1630086792.762,-244.629,-50.293,-22.949,-262.695
1630086792.764,-820.801,-20.996,-25.879,608.398
1630086792.768,241.211,-44.434,-30.762,208.984
1630086792.772,-1000.000,-59.570,-22.949,-586.426
1630086792.776,-531.250,-40.527,-30.762,-502.441
1630086792.780,-922.852,3.418,-13.184,434.082
1630086792.784,513.184,-5.859,-9.766,465.332
1630086792.788,-1000.000,-50.293,-24.902,-426.758
1630086792.791,-1000.000,-59.082,-35.156,-645.996
1630086792.795,471.191,-8.301,-5.859,182.129
1630086792.799,-976.562,19.043,23.926,652.832
1630086792.803,-459.473,-51.270,-19.531,-221.680
1630086792.807,-1000.000,-62.012,-39.062,-726.562
1630086792.809,-133.789,-21.973,-24.414,-98.633
1630086792.813,-820.801,-18.555,-20.020,635.742
1630086792.817,133.789,-60.059,-29.785,8.789
1630086792.821,-1000.000,-65.430,-30.273,-689.453
1630086792.825,-250.000,-27.832,-30.273,-335.449
1630086792.829,-818.359,-2.930,-23.438,591.309
1630086792.833,240.723,-40.527,-23.438,279.297
1630086792.836,-1000.000,-77.148,-29.297,-558.594
1630086792.840,-595.215,3.418,26.855,-454.590
1630086792.844,-977.539,40.039,5.859,429.688
1630086792.848,652.832,-20.508,-55.176,481.445
1630086792.852,-902.832,-58.105,-41.016,-382.812
1630086792.854,-1000.000,-56.152,-34.668,-664.551
1630086792.858,262.207,-24.414,-31.738,79.590
1630086792.862,-824.707,-28.320,-23.926,596.191
1630086792.866,-158.203,-62.988,-20.508,-153.809
1630086792.870,-1000.000,-67.871,-24.414,-669.922
1630086792.874,-203.613,-30.273,-29.297,-137.207
1630086792.878,-815.918,-9.277,-41.016,639.160
1630086792.881,229.004,-31.738,-21.973,134.277
1630086792.885,-1000.000,-35.645,6.348,-543.457
1630086792.889,-270.020,-31.250,-11.719,-313.477
1630086792.893,-812.988,-21.973,-26.855,539.551
1630086792.897,392.090,-32.715,-28.320,369.629
1630086792.899,-1000.000,-55.664,-36.133,-437.012
1630086792.903,-699.707,-53.711,-44.434,-492.676
1630086792.907,907.715,-16.113,-39.062,348.145
1630086792.911,871.582,-20.996,-26.367,573.730
1630086792.915,-652.344,-61.035,-26.367,-246.094
1630086792.919,-1000.000,-62.988,-34.668,-567.871
1630086792.923,166.016,-23.438,-27.344,127.441
1630086792.926,-794.922,-14.648,-10.742,708.984
1630086792.930,-11.230,-56.152,-13.184,14.648
1630086792.934,-1000.000,-71.777,-26.855,-539.062
1630086792.938,-240.234,-43.457,-29.785,-89.844
1630086792.942,-817.383,-23.438,-35.645,678.223
1630086792.945,236.328,-67.871,-41.016,235.352
1630086792.949,-1000.000,-87.402,-41.504,-495.605
1630086792.953,-359.863,-42.480,-24.902,-306.152
1630086792.957,-848.145,-1.953,-26.367,583.496
1630086792.961,499.512,-24.902,-47.852,512.207
1630086792.965,-1000.000,-70.801,-35.156,-295.898
1630086792.969,-853.027,-45.898,-13.184,-439.941
1630086792.972,719.238,-15.137,-6.348,322.266
1630086792.976,988.281,-65.430,-28.320,585.938
1630086792.980,-493.652,-130.371,-40.039,-229.980
1630086792.984,-1000.000,-159.180,-30.762,-648.438
1630086792.988,18.555,-109.375,-33.691,-51.758
1630086792.989,-797.363,-49.805,-20.020,611.328
1630086792.993,68.848,-84.961,-39.062,-60.059
1630086792.997,-1000.000,-125.000,-57.617,-713.867
1630086793.001,-246.582,-101.074,-10.742,-310.547
1630086793.005,-819.336,-88.379,0.000,481.445
1630086793.009,241.211,-115.234,-17.090,95.215
1630086793.013,-1000.000,-64.941,28.320,-569.824
1630086793.016,-524.414,-51.270,15.625,-484.375
1630086793.020,-922.363,-92.285,-28.320,321.289
1630086793.024,542.480,-109.375,-20.996,357.422
1630086793.028,-1000.000,-132.812,-26.367,-477.539
1630086793.032,-1000.000,-121.582,-30.762,-671.387
1630086793.034,453.125,-82.520,-30.762,114.746
1630086793.038,-910.156,-77.637,-20.020,554.199
1630086793.042,-341.309,-110.352,-14.648,-201.172
1630086793.046,-1000.000,-108.887,-22.949,-652.832
1630086793.050,-144.043,-65.918,-31.738,-88.867
1630086793.054,-812.988,-2.930,-0.488,675.293
1630086793.058,187.500,-19.043,18.555,118.652
1630086793.061,-1000.000,-62.012,-5.859,-573.242
1630086793.065,-257.324,-45.898,-18.555,-267.578
1630086793.069,-814.941,3.906,13.672,644.531
1630086793.073,239.258,8.301,35.156,399.414
1630086793.077,-1000.000,-45.410,-5.859,-450.684
1630086793.094,-626.953,-31.250,-18.555,-414.551
1630086793.098,-994.629,3.906,-20.996,512.207
1630086793.102,648.438,-14.160,-15.625,630.859
1630086793.106,-900.391,-51.270,-9.277,-260.254
1630086793.110,-1000.000,-41.016,-2.441,-547.852
1630086793.114,225.586,3.906,11.230,217.285
1630086793.118,-860.352,-0.488,-2.441,735.840
1630086793.121,-249.512,-45.410,-29.785,-75.195
1630086793.125,-1000.000,-33.691,-22.461,-602.051
1630086793.129,-219.727,18.066,16.113,-17.090
1630086793.133,-831.543,1.953,2.441,774.414
1630086793.137,231.445,-47.363,-22.461,178.711
1630086793.139,-1000.000,-51.270,-12.207,-557.617
1630086793.143,-344.238,-23.926,-7.812,-272.461
1630086793.147,-839.844,-7.324,-22.461,649.902
1630086793.151,294.434,-36.133,-33.691,422.852
1630086793.155,-1000.000,-62.988,-42.969,-454.102
1630086793.159,-769.531,-41.016,-36.621,-486.816
1630086793.163,844.727,0.488,-17.090,453.613
1630086793.166,767.578,-27.832,-34.180,675.781
1630086793.170,-788.086,-25.879,-20.508,-221.680
1630086793.174,-1000.000,20.508,15.625,-538.574
1630086793.178,71.289,7.812,-29.297,162.598
1630086793.182,-815.918,-0.488,-37.598,777.832
1630086793.185,-55.176,-29.297,-4.395,25.879
1630086793.189,-1000.000,-51.270,-12.207,-622.070
1630086793.193,-233.398,-23.438,-40.527,-139.648
1630086793.197,-824.707,6.348,-52.246,750.000
1630086793.201,240.723,-22.949,-41.504,223.633
1630086793.205,-1000.000,-47.363,-41.992,-587.402
1630086793.209,-441.895,-22.461,-48.340,-341.797
1630086793.212,-875.488,15.137,-10.742,652.344
1630086793.216,415.527,-7.812,5.859,488.281
1630086793.220,-1000.000,-80.566,-41.992,-523.926
1630086793.224,-948.242,-76.172,-63.965,-647.949
1630086793.228,583.496,-32.715,-47.852,259.766
1630086793.229,943.848,-47.852,-41.016,601.562
1630086793.233,-580.078,-77.148,-40.039,-296.387
1630086793.237,-1000.000,-67.871,-40.039,-746.582
1630086793.241,-45.410,-34.668,-54.688,-26.367
1630086793.245,-816.895,-39.551,-82.031,692.383
1630086793.249,37.598,-70.801,-79.102,-60.059
1630086793.253,-1000.000,-66.406,-67.383,-744.141
1630086793.256,-240.723,-30.762,-27.344,-272.461
1630086793.260,-823.242,13.184,20.020,733.398
1630086793.264,242.188,-41.992,-20.508,281.250
1630086793.268,-1000.000,-87.402,-52.246,-623.535
1630086793.272,-558.594,-56.641,-35.156,-492.676
1630086793.274,-935.547,-24.414,-41.992,507.812
1630086793.278,508.789,-45.898,-57.617,504.883
1630086793.282,-1000.000,-75.684,-48.340,-457.520
1630086793.286,-1000.000,-63.965,-52.246,-671.387
1630086793.290,354.980,-37.598,-51.270,219.238
1630086793.294,-939.453,-38.086,-44.922,708.008
1630086793.298,-399.902,-62.988,-44.922,-206.055
1630086793.301,-1000.000,-49.805,-20.996,-708.496
1630086793.305,-178.711,-24.902,-15.625,-41.992
1630086793.309,-827.637,-20.508,-31.738,742.188
1630086793.313,165.527,-53.223,-38.574,55.664
1630086793.317,-1000.000,-71.777,-45.410,-699.219
1630086793.319,-252.441,-40.039,-41.016,-333.496
1630086793.323,-817.871,-13.672,-35.645,664.551
1630086793.327,236.328,-36.621,-42.969,343.262
1630086793.331,-1000.000,-57.129,-45.410,-574.707
1630086793.335,-699.707,-46.387,-43.457,-551.758
1630086793.339,937.988,-20.020,-40.527,444.824
1630086793.343,653.320,-10.742,-15.625,626.953
1630086793.346,-901.367,-33.691,-4.883,-324.707
1630086793.350,-1000.000,-51.758,-47.852,-673.340
1630086793.354,171.875,-28.320,-53.711,145.996
1630086793.358,-867.676,-19.043,-31.250,725.098
1630086793.362,-257.324,-56.641,-37.109,-162.598
1630086793.364,-1000.000,-62.988,-41.016,-750.977
1630086793.368,-218.750,-32.715,-26.367,-138.184
1630086793.372,-833.496,-22.949,-27.832,749.023
1630086793.376,233.887,-55.664,-48.340,129.395
1630086793.380,-1000.000,-79.102,-55.664,-691.895
1630086793.384,-380.859,-52.734,-56.641,-388.184
1630086793.388,-853.027,-16.113,-46.875,632.812
1630086793.391,291.016,-39.062,-49.316,400.879
1630086793.395,-1000.000,-63.477,-61.035,-559.082
1630086793.399,-854.980,-45.898,-57.617,-620.605
1630086793.403,743.652,-15.137,-35.156,366.211
1630086793.407,755.859,-20.020,-33.203,622.559
1630086793.410,-813.965,-52.246,-44.434,-352.539
1630086793.414,-1000.000,-47.852,-25.879,-712.891
1630086793.418,47.852,-22.461,-11.719,87.891
1630086793.422,-840.332,-33.203,-29.297,725.586
1630086793.426,-139.160,-71.289,-45.410,-114.258
1630086793.430,-1000.000,-62.012,-27.344,-720.215
1630086793.434,-224.609,-25.879,-14.648,-180.176
1630086793.437,-833.008,-23.438,-39.551,712.402
1630086793.441,243.652,-61.035,-66.406,158.691
1630086793.445,-1000.000,-55.664,-38.086,-659.668
1630086793.449,-509.766,-25.391,-15.137,-427.246
1630086793.453,-907.227,-19.043,-35.156,548.340
1630086793.469,395.996,-43.945,-32.227,429.199
1630086793.473,-1000.000,-78.613,-29.785,-524.902
1630086793.477,-997.070,-69.336,-46.875,-667.480
1630086793.481,516.602,-61.523,-68.848,234.863
1630086793.485,903.809,-67.871,-69.824,618.652
1630086793.489,-639.648,-63.477,-45.898,-297.852
1630086793.493,-1000.000,-73.242,-46.875,-775.391
1630086793.496,-91.797,-70.801,-61.523,-66.406
1630086793.500,-835.938,-50.293,-59.570,692.383
1630086793.504,-5.371,-83.984,-64.941,-70.801
1630086793.508,-1000.000,-105.469,-77.148,-794.434
1630086793.512,-233.887,-77.637,-86.914,-339.355
1630086793.514,-828.613,-56.641,-93.750,634.766
1630086793.518,243.164,-82.031,-79.590,187.500
1630086793.522,-1000.000,-105.957,-67.383,-708.984
1630086793.526,-612.305,-78.613,-60.547,-578.613
1630086793.530,-966.797,-41.504,-50.781,453.125
1630086793.534,500.488,-63.477,-58.594,478.516
1630086793.538,-1000.000,-88.867,-75.684,-498.535
1630086793.541,-1000.000,-79.590,-82.031,-723.633
1630086793.545,307.617,-30.273,-30.762,211.914
1630086793.549,-970.703,9.766,20.020,761.719
1630086793.553,-452.637,-58.105,-26.855,-227.539
1630086793.557,-1000.000,-96.680,-68.848,-812.988
1630086793.559,-205.566,-60.059,-55.664,-131.348
1630086793.563,-847.168,-38.574,-51.758,708.008
1630086793.567,109.375,-68.359,-66.406,14.160
1630086793.571,-1000.000,-85.449,-78.125,-765.137
1630086793.575,-295.410,-52.734,-64.941,-381.836
1630086793.579,-840.332,-20.020,-42.969,647.949
1630086793.583,243.164,-56.641,-52.734,329.102
1630086793.586,-1000.000,-79.102,-46.875,-617.676
1630086793.590,-750.977,-36.133,-17.090,-567.383
1630086793.594,894.043,-21.484,-27.344,429.688
1630086793.598,593.750,-53.711,-49.805,553.223
1630086793.602,-950.195,-64.941,-37.598,-411.133
1630086793.604,-1000.000,-40.527,-35.156,-721.680
1630086793.608,126.953,-22.461,-57.617,122.070
1630086793.612,-880.371,-29.297,-46.875,753.418
1630086793.616,-270.996,-70.312,-41.504,-165.527
1630086793.620,-1000.000,-71.777,-48.340,-818.848
1630086793.624,-216.797,-39.551,-41.016,-169.922
1630086793.628,-837.891,-34.668,-44.434,716.797
1630086793.631,218.262,-46.387,-20.508,105.957
1630086793.635,-1000.000,-40.039,23.926,-650.391
1630086793.639,-423.828,-60.059,1.465,-391.602
1630086793.643,-874.512,-50.293,-19.043,594.727
1630086793.647,261.719,-60.059,-28.809,370.605
1630086793.651,-1000.000,-88.867,-31.250,-579.102
1630086793.655,-901.855,-76.660,-26.367,-631.836
1630086793.659,674.805,-45.898,-17.578,346.680
1630086793.663,748.535,-43.457,-7.812,642.090
1630086793.667,-828.125,-77.637,-19.043,-348.633
1630086793.671,-1000.000,-76.172,-28.320,-744.629
1630086793.675,9.766,-35.156,-11.719,73.730
1630086793.678,-846.191,-6.836,-1.465,763.672
1630086793.682,-135.742,-47.363,-32.715,-93.262
1630086793.686,-1000.000,-70.801,-50.781,-773.438
1630086793.690,-224.121,-30.762,-30.273,-212.891
1630086793.694,-833.984,-8.301,-16.113,732.910
1630086793.694,244.141,-48.340,-29.297,187.012
1630086793.698,-1000.000,-66.895,-38.086,-673.340
1630086793.702,-532.227,-35.156,-26.855,-444.824
1630086793.706,-918.945,-9.766,-8.789,585.449
1630086793.710,355.469,-34.180,-24.902,465.332
1630086793.714,-1000.000,-68.848,-45.410,-516.602
1630086793.718,-1000.000,-26.367,-13.672,-627.930
1630086793.721,513.184,53.223,49.805,377.441
1630086793.725,829.590,9.766,12.695,731.934
1630086793.729,-728.027,-61.523,-52.734,-283.203
1630086793.733,-1000.000,-57.129,-49.805,-745.605
1630086793.737,-145.020,-27.344,-32.227,-2.930
1630086793.739,-855.957,-13.672,-24.414,758.789
1630086793.743,-23.926,-48.340,-28.320,-8.789
1630086793.747,-1000.000,-58.594,-28.320,-721.680
1630086793.751,-229.980,-28.809,-25.391,-266.113
1630086793.755,-830.566,-11.719,-28.809,713.379
1630086793.759,243.652,-38.086,-35.156,278.809
1630086793.763,-1000.000,-28.320,-2.930,-573.242
1630086793.766,-636.230,-19.043,-9.277,-464.355
1630086793.770,-977.051,-24.414,-37.598,501.953
1630086793.774,438.477,-24.414,-37.598,527.832
1630086793.778,-1000.000,-46.875,-40.039,-458.984
1630086793.782,-1000.000,-52.734,-44.922,-699.707
1630086793.784,234.375,-21.973,-36.621,205.078
1630086793.788,976.562,-15.625,-36.133,701.172
1630086793.792,-529.785,-48.340,-39.551,-220.215
1630086793.796,-1000.000,-50.781,-29.297,-738.281
1630086793.800,-203.613,-20.996,-27.344,-80.078
1630086793.804,-853.516,7.812,-15.137,766.113
1630086793.808,94.238,-15.137,-27.344,88.379
1630086793.811,-1000.000,-55.176,-58.594,-707.520
1630086793.815,-326.660,-42.969,-48.340,-357.422
1630086793.819,-852.051,14.160,-2.930,686.523
1630086793.823,242.676,0.488,9.766,377.930
1630086793.827,-1000.000,-69.824,-36.621,-618.652
1630086793.844,-829.590,-59.570,-42.480,-604.492
1630086793.848,804.688,-25.391,-30.273,418.945
1630086793.852,547.852,-36.133,-41.992,564.941
1630086793.856,-979.980,-61.523,-52.246,-420.898
1630086793.860,-1000.000,-43.945,-31.250,-694.336
1630086793.864,100.098,-15.137,-14.648,142.578
1630086793.868,-949.219,-29.297,-35.645,684.570
1630086793.871,-381.836,-83.496,-44.922,-209.961
1630086793.875,-1000.000,-71.777,-28.809,-770.020
1630086793.879,-211.426,-12.207,-6.836,-140.625
1630086793.883,-845.215,-19.043,-24.902,713.379
1630086793.887,187.500,-43.457,-62.988,77.637
1630086793.889,-1000.000,-38.086,-59.082,-722.656
1630086793.893,-446.289,-27.832,-30.273,-416.016
1630086793.897,-888.672,-10.254,-39.062,592.773
1630086793.901,247.559,-36.133,-70.312,366.211
1630086793.905,-1000.000,-63.965,-54.199,-578.125
1630086793.909,-949.707,-45.410,-24.414,-620.117
1630086793.913,625.000,-19.043,-26.367,337.891
1630086793.916,661.133,-41.016,-47.363,604.004
1630086793.920,-912.109,-54.199,-30.273,-339.355
1630086793.924,-1000.000,-18.066,0.488,-703.613
1630086793.928,-41.016,-13.672,-25.879,45.898
1630086793.932,-886.230,-21.973,-53.223,699.219
1630086793.934,-207.031,-60.547,-69.824,-112.305
1630086793.938,-1000.000,-74.219,-72.266,-769.043
1630086793.942,-218.262,-36.621,-59.082,-250.000
1630086793.946,-838.867,-12.695,-45.410,689.453
1630086793.950,244.629,-33.203,-39.551,186.523
1630086793.954,-1000.000,-54.199,-33.691,-658.203
1630086793.958,-567.871,-42.480,-31.250,-467.773
1630086793.961,-937.012,-10.742,-15.625,561.035
1630086793.965,345.215,-6.836,-1.953,505.371
1630086793.969,-1000.000,-60.547,-32.715,-498.535
1630086793.973,-1000.000,-62.988,-48.340,-674.316
1630086793.977,396.973,-16.113,-36.621,265.625
1630086793.979,796.387,-21.484,-45.898,643.066
1630086793.983,-773.926,-63.477,-59.082,-298.828
1630086793.987,-1000.000,-59.570,-50.781,-746.582
1630086793.991,-165.039,-19.531,-41.016,-10.742
1630086793.995,-868.652,-10.742,-36.133,757.324
1630086793.999,-47.852,-49.316,-36.133,-20.508
1630086794.003,-1000.000,-73.242,-39.062,-737.305
1630086794.006,-226.562,-27.832,-8.301,-245.605
1630086794.010,-832.520,37.598,45.410,763.672
1630086794.014,240.234,-15.137,10.742,290.527
1630086794.018,-1000.000,-72.266,-35.156,-641.602
1630086794.022,-702.148,-55.176,-31.250,-534.180
1630086794.024,956.543,-23.926,-26.855,462.891
1630086794.028,445.312,-36.621,-30.273,507.812
1630086794.032,-1000.000,-68.848,-45.898,-463.379
1630086794.036,-1000.000,-63.965,-57.129,-722.168
1630086794.040,208.984,-30.762,-40.039,175.293
1630086794.044,959.473,-19.043,-41.016,691.895
1630086794.048,-549.316,-44.922,-50.781,-235.352
1630086794.051,-1000.000,-41.992,-23.926,-739.746
1630086794.055,-201.660,-32.715,-29.297,-90.820
1630086794.059,-856.445,-43.457,-48.828,703.125
1630086794.063,79.590,-55.176,-42.969,31.738
1630086794.067,-1000.000,-55.664,-40.039,-713.867
1630086794.069,-338.379,-55.176,-39.062,-349.121
1630086794.073,-858.398,-31.738,-25.391,629.883
1630086794.077,244.141,-44.922,-32.715,316.895
1630086794.081,-1000.000,-62.988,-43.457,-602.539
1630086794.085,-840.332,-43.457,-30.273,-588.379
1630086794.089,786.133,-29.785,-44.922,407.715
1630086794.093,593.750,5.859,-25.391,631.836
1630086794.096,-950.195,24.414,38.086,-282.715
1630086794.100,-1000.000,-43.457,-10.742,-692.383
1630086794.104,77.637,-52.734,-43.457,77.148
1630086794.108,-952.148,-30.762,-37.598,693.359
1630086794.112,-376.953,-56.152,-49.805,-172.363
1630086794.116,-1000.000,-64.941,-50.293,-770.996
1630086794.120,-210.938,-43.457,-30.273,-151.855
1630086794.124,-845.703,-2.930,-12.207,743.164
1630086794.128,188.965,-17.578,-38.086,88.867
1630086794.132,-1000.000,-51.758,-69.336,-750.000
1630086794.136,-460.938,-20.508,-56.152,-437.500
1630086794.140,-895.508,38.086,-11.719,623.047
1630086794.143,248.047,-8.789,-32.227,400.879
1630086794.147,-1000.000,-60.059,-65.430,-586.426
1630086794.151,-969.727,-31.738,-51.758,-659.180
1630086794.155,590.332,-3.418,-41.992,306.641
1630086794.159,675.293,-9.766,-45.410,599.121
1630086794.174,-901.367,-36.133,-43.945,-357.422
1630086794.178,-1000.000,-40.039,-44.922,-738.770
1630086794.182,-58.105,-18.555,-41.016,36.133
1630086794.186,-862.793,-9.766,-37.109,730.957
1630086794.190,-142.090,-46.875,-60.059,-88.379
1630086794.194,-1000.000,-31.250,-29.297,-725.098
1630086794.198,-221.680,35.156,22.949,-146.484
1630086794.201,-835.938,18.555,-23.926,738.281
1630086794.205,244.629,-41.992,-64.941,191.406
1630086794.209,-1000.000,-46.387,-40.039,-652.832
1630086794.213,-580.566,-22.461,-29.297,-469.727
1630086794.217,-944.824,-11.719,-27.344,534.180
1630086794.219,324.219,-28.809,-29.297,453.125
1630086794.223,-1000.000,-47.363,-41.016,-513.184
1630086794.227,-1000.000,-37.598,-34.668,-670.898
1630086794.231,378.906,-16.602,-29.297,253.418
1630086794.235,818.359,-19.043,-38.574,662.109
1630086794.239,-748.535,-45.410,-43.457,-274.414
1630086794.243,-1000.000,-44.922,-35.156,-743.652
1630086794.246,-170.898,-32.715,-30.273,-33.203
1630086794.250,-864.258,-16.602,-25.391,735.840
1630086794.254,-23.438,1.953,11.719,41.992
1630086794.258,-1000.000,-24.414,-7.324,-689.941
1630086794.262,-233.398,-25.391,-50.293,-306.641
1630086794.264,-833.008,2.441,-46.387,672.852
1630086794.268,241.211,-29.785,-47.852,250.488
1630086794.272,-1000.000,-48.828,-47.852,-659.668
1630086794.276,-694.336,-24.902,-29.785,-540.527
1630086794.280,964.355,2.441,-13.184,498.535
1630086794.284,464.844,-20.020,-25.879,537.598
1630086794.288,-1000.000,-44.434,-28.809,-437.500
1630086794.291,-1000.000,-48.340,-38.086,-708.008
1630086794.295,200.684,10.742,4.395,190.918
1630086794.299,982.910,58.105,48.828,775.391
1630086794.303,-513.184,-31.250,-14.648,-200.195
1630086794.307,-1000.000,-66.895,-49.316,-787.109
1630086794.309,-201.660,-11.230,-24.902,-97.656
1630086794.313,-856.445,5.371,-24.414,726.562
1630086794.317,81.055,-43.945,-51.758,26.367
1630086794.321,-1000.000,-55.664,-49.316,-726.074
1630086794.325,-354.492,-33.203,-40.527,-368.164
1630086794.329,-865.234,-6.348,-27.344,630.371
1630086794.333,247.559,-25.391,-34.668,334.961
1630086794.336,-1000.000,-45.898,-34.668,-599.121
1630086794.340,-836.914,-2.930,0.977,-561.523
1630086794.344,793.457,11.719,-0.977,421.387
1630086794.348,566.406,-12.207,-25.391,583.984
1630086794.352,-968.262,-43.457,-32.227,-391.602
1630086794.355,-1000.000,-47.363,-31.738,-714.844
1630086794.359,66.895,-15.625,-23.438,121.582
1630086794.363,-911.621,-13.672,-32.227,720.215
1630086794.367,-308.594,-27.832,-20.508,-112.793
1630086794.371,-1000.000,-27.832,-11.719,-715.332
1630086794.375,-213.379,-19.043,-19.531,-152.344
1630086794.379,-843.262,-6.348,-22.461,743.652
1630086794.382,202.148,-15.137,-14.648,171.875
1630086794.386,-1000.000,-12.695,18.555,-616.699
1630086794.390,-483.398,-27.832,-1.953,-396.973
1630086794.394,-905.273,-9.766,-16.602,582.031
1630086794.398,252.441,-21.484,-20.508,396.484
1630086794.399,-1000.000,-48.828,-28.320,-549.805
1630086794.403,-961.914,-39.551,-23.926,-612.793
1630086794.407,590.332,-14.648,-15.625,341.797
1630086794.411,715.332,-8.301,-20.508,644.043
1630086794.415,-861.328,-42.969,-31.738,-316.895
1630086794.419,-1000.000,-54.199,-41.016,-743.652
1630086794.423,-55.664,-18.066,-31.250,37.598
1630086794.426,-860.840,17.090,0.977,772.461
1630086794.430,-137.207,-20.508,-10.742,-40.527
1630086794.434,-1000.000,-56.152,-40.039,-748.047
1630086794.438,-222.168,-32.227,-38.574,-232.422
1630086794.442,-835.449,-13.672,-23.926,725.098
1630086794.444,244.629,-41.504,-20.996,224.609
1630086794.448,-1000.000,-63.965,-27.344,-652.832
1630086794.452,-567.383,-47.852,-26.367,-469.238
1630086794.456,-937.500,-19.531,-26.367,554.199
1630086794.460,342.285,-28.809,-32.715,479.492
1630086794.464,-1000.000,-54.199,-41.016,-482.910
1630086794.468,-1000.000,-29.785,-24.902,-631.836
1630086794.471,398.926,28.809,17.578,318.359
1630086794.475,864.746,-1.953,-10.742,702.637
1630086794.479,-688.477,-60.547,-44.922,-266.113
1630086794.483,-1000.000,-42.480,-31.250,-732.422
1630086794.487,-172.363,-12.207,-17.090,-18.555
1630086794.489,-861.328,-5.371,-13.184,752.441
1630086794.493,-13.672,-35.156,-23.438,11.719
1630086794.497,-1000.000,-46.387,-31.250,-710.449
1630086794.501,-229.980,-23.926,-25.879,-287.109
1630086794.505,-830.566,-10.254,-22.949,678.223
1630086794.509,240.234,-34.668,-27.344,276.367
1630086794.513,-1000.000,-34.668,-6.836,-584.961
1630086794.516,-697.266,-20.996,-7.812,-496.582
1630086794.520,960.938,-1.953,-23.438,472.168
1630086794.524,477.051,-1.465,-24.414,545.898
1630086794.528,-1000.000,-37.109,-25.391,-416.992
1630086794.532,-1000.000,-54.199,-29.297,-688.965
1630086794.534,202.637,-23.926,-31.250,182.129
1630086794.538,-993.652,-7.324,-31.738,723.145
1630086794.542,-480.957,-38.574,-30.273,-163.086
1630086794.546,-1000.000,-46.875,-30.273,-714.844
1630086794.550,-205.078,-17.090,-24.414,-82.031
1630086794.554,-852.051,2.930,-18.066,746.582
1630086794.558,112.793,-27.344,-30.273,99.121
1630086794.561,-1000.000,-52.246,-38.574,-679.688
1630086794.565,-367.188,-37.109,-37.109,-360.352
1630086794.569,-866.211,1.465,-9.277,656.250
1630086794.573,248.535,-9.277,5.371,388.184
1630086794.577,-1000.000,-61.035,-30.273,-573.730
1630086794.594,-837.402,-43.457,-30.762,-578.613
1630086794.598,790.527,1.465,-14.160,412.109
1630086794.602,578.613,-13.184,-29.297,580.566
1630086794.606,-963.867,-52.734,-41.016,-384.277
1630086794.610,-1000.000,-44.922,-25.391,-692.383
1630086794.614,71.289,-5.371,-3.418,127.930
1630086794.618,-893.066,-4.883,-9.277,733.887
1630086794.621,-277.344,-55.176,-44.434,-111.816
1630086794.625,-1000.000,-58.594,-46.387,-712.891
1630086794.629,-215.820,-9.766,-13.672,-134.766
1630086794.633,-840.332,4.395,-14.648,731.934
1630086794.637,217.773,-34.180,-27.344,147.461
1630086794.639,-1000.000,-54.199,-34.180,-647.949
1630086794.643,-468.750,-29.297,-43.457,-396.484
1630086794.647,-894.531,5.859,-37.109,591.797
1630086794.651,266.602,-17.090,-31.738,428.223
1630086794.655,-1000.000,-48.340,-25.391,-506.348
1630086794.659,-962.891,-46.875,-20.996,-608.398
1630086794.663,595.215,-14.648,-20.996,340.332
1630086794.666,717.285,-13.184,-49.805,633.301
1630086794.670,-858.398,-36.133,-38.086,-309.082
1630086794.674,-1000.000,-20.508,5.859,-669.434
1630086794.678,-59.570,-8.301,-14.648,49.805
1630086794.682,-859.863,-9.766,-21.484,714.355
1630086794.684,-129.883,-43.457,-17.578,-41.992
1630086794.688,-1000.000,-55.176,-21.973,-697.754
1630086794.692,-222.656,-27.344,-17.578,-222.656
1630086794.696,-835.449,-7.324,-10.742,694.336
1630086794.700,244.629,-36.133,-22.461,223.633
1630086794.704,-1000.000,-52.246,-27.344,-608.398
1630086794.708,-581.055,-34.180,-14.160,-444.824
1630086794.711,-944.336,-5.371,4.395,548.340
1630086794.715,380.371,12.207,26.855,526.855
1630086794.719,-1000.000,-26.367,2.930,-434.082
1630086794.723,-1000.000,-45.410,-29.785,-645.996
1630086794.727,378.418,-11.230,-23.926,255.371
1630086794.729,862.305,-19.043,-30.762,660.645
1630086794.733,-691.406,-54.688,-38.086,-250.000
1630086794.737,-1000.000,-57.129,-32.715,-714.355
1630086794.741,-175.293,-25.391,-30.273,-7.812
1630086794.745,-861.328,-15.625,-30.762,754.395
1630086794.749,-7.812,-44.922,-27.832,29.785
1630086794.753,-1000.000,-66.406,-19.531,-670.898
1630086794.756,-232.422,-27.832,10.254,-229.492
1630086794.760,-831.055,28.809,18.555,733.887
1630086794.764,239.258,-22.949,-24.414,303.223
1630086794.768,-1000.000,-55.176,-40.527,-591.797
1630086794.772,-714.844,-19.531,-19.531,-497.070
1630086794.774,942.871,5.371,-8.301,478.027
1630086794.778,456.055,-31.250,-25.879,514.160
1630086794.782,-1000.000,-67.871,-28.320,-436.523
1630086794.786,-1000.000,-57.129,-34.180,-665.039
1630086794.790,194.336,-25.391,-34.668,183.105
1630086794.794,-991.211,-24.902,-24.902,699.707
1630086794.798,-477.051,-52.734,-16.113,-156.738
1630086794.801,-1000.000,-45.898,-5.859,-686.523
1630086794.805,-205.566,-24.902,-14.160,-81.543
1630086794.809,-846.191,-27.832,-21.973,717.285
1630086794.813,84.473,-65.918,-24.902,65.430
1630086794.817,-1000.000,-80.566,-39.551,-647.949
1630086794.820,-280.273,-52.246,-38.574,-312.988
1630086794.824,-878.418,-19.531,-20.996,637.695
1630086794.828,247.070,-24.414,-20.996,396.484
1630086794.832,-1000.000,-45.410,-26.855,-517.090
1630086794.836,-858.398,-42.969,-38.086,-554.199
1630086794.840,759.766,-17.578,-41.992,380.371
1630086794.844,622.070,-7.812,-19.531,603.516
1630086794.847,-937.012,-21.484,10.254,-297.363
1630086794.851,-1000.000,-45.410,-12.207,-678.223
1630086794.855,57.129,-22.949,-16.113,86.914
1630086794.859,-902.832,-15.137,-8.789,713.867
1630086794.863,-286.621,-54.688,-26.855,-122.070
1630086794.864,-1000.000,-68.848,-35.645,-728.516
1630086794.868,-214.355,-39.551,-24.902,-158.203
1630086794.872,-840.820,-11.719,-24.414,706.055
1630086794.876,208.008,-45.410,-39.062,136.719
1630086794.880,-1000.000,-65.918,-47.363,-652.344
1630086794.884,-458.984,-36.133,-46.875,-394.531
1630086794.888,-891.113,16.113,-20.020,625.977
1630086794.891,257.324,-15.625,-11.719,445.801
1630086794.895,-1000.000,-68.848,-21.973,-528.320
1630086794.899,-963.867,-46.875,-14.160,-596.680
1630086794.903,589.355,-17.578,-14.648,327.637
1630086794.907,724.609,-30.273,-22.949,606.934
1630086794.909,-851.074,-61.035,-29.785,-309.082
1630086794.913,-1000.000,-56.152,-29.297,-709.473
1630086794.917,-61.035,-16.602,-20.996,33.691
1630086794.921,-860.352,-10.254,-19.043,734.863
1630086794.925,-131.348,-64.453,-32.227,-55.664
1630086794.929,-1000.000,-60.547,-20.020,-712.891
1630086794.933,-222.168,-24.414,-9.766,-206.055
1630086794.936,-835.938,-23.926,-26.855,702.148
1630086794.940,244.629,-58.594,-48.340,213.379
1630086794.944,-1000.000,-57.617,-23.926,-618.652
1630086794.948,-583.008,-16.602,4.883,-430.176
1630086794.952,-945.312,-11.230,-17.090,533.691
1630086794.969,354.492,-35.156,-24.414,470.703
1630086794.973,-1000.000,-66.895,-22.461,-480.957
1630086794.977,-1000.000,-53.223,-23.438,-648.926
1630086794.981,351.074,-19.043,-22.461,229.492
1630086794.985,870.117,-20.996,-12.695,649.902
1630086794.989,-682.617,-50.293,-21.484,-232.910
1630086794.993,-1000.000,-51.270,-33.203,-713.867
1630086794.996,-184.570,-27.344,-29.785,-60.547
1630086795.000,-862.305,-6.836,-22.461,706.543
1630086795.004,5.371,-23.438,-12.207,49.805
1630086795.008,-1000.000,-54.688,-39.551,-662.598
1630086795.012,-250.488,-38.086,-52.734,-281.738
1630086795.014,-835.938,1.953,-15.137,666.992
1630086795.018,242.676,-18.555,1.465,312.012
1630086795.022,-1000.000,-53.223,-15.625,-563.477
1630086795.026,-703.613,-34.668,-20.508,-505.859
1630086795.030,952.637,2.441,-6.836,470.703
1630086795.034,514.160,-17.090,-9.277,552.246
1630086795.038,-991.699,-53.711,-21.973,-395.508
1630086795.041,-1000.000,-52.246,-35.156,-647.949
1630086795.045,191.406,-3.418,-7.324,197.266
1630086795.049,-974.121,26.367,6.348,744.141
1630086795.053,-447.754,-36.621,-35.645,-132.324
1630086795.057,-1000.000,-60.547,-33.691,-711.426
1630086795.060,-205.078,-27.832,-21.484,-113.281
1630086795.064,-849.609,-14.160,-31.250,710.449
1630086795.068,114.746,-44.434,-41.504,68.848
1630086795.072,-1000.000,-45.898,-21.484,-689.941
1630086795.076,-351.562,-7.812,-0.977,-342.773
1630086795.080,-859.375,0.488,-15.625,606.445
1630086795.084,244.629,-42.480,-44.434,327.148
1630086795.087,-1000.000,-62.500,-34.668,-549.805
1630086795.091,-846.191,-22.949,7.324,-540.039
1630086795.095,773.926,0.488,7.812,382.812
1630086795.099,631.348,-24.902,-25.391,572.266
1630086795.103,-930.176,-58.594,-45.410,-364.258
1630086795.104,-1000.000,-58.105,-33.691,-708.496
1630086795.108,55.664,-33.203,-25.391,81.055
1630086795.112,-889.160,-35.645,-26.855,686.523
1630086795.116,-261.719,-56.641,-31.250,-102.539
1630086795.120,-1000.000,-52.734,-42.969,-701.660
1630086795.124,-217.285,-26.367,-27.344,-178.711
1630086795.128,-839.355,-12.695,-37.109,677.246
1630086795.131,235.352,-24.902,-30.273,170.410
1630086795.135,-1000.000,5.859,32.227,-544.434
1630086795.139,-493.652,-5.859,-0.488,-366.211
1630086795.143,-903.320,-28.320,-40.527,532.715
1630086795.147,285.156,-50.781,-35.156,396.973
1630086795.149,-1000.000,-81.055,-55.664,-528.320
1630086795.153,-979.004,-68.848,-59.570,-643.555
1630086795.157,559.082,-35.645,-37.598,281.738
1630086795.161,770.508,-37.109,-27.832,610.840
1630086795.165,-806.152,-61.523,-36.133,-311.035
1630086795.169,-1000.000,-52.246,-42.969,-708.008
1630086795.173,-64.453,-22.461,-38.086,5.371
1630086795.176,-852.539,29.297,9.766,731.934
1630086795.180,-97.168,-18.555,1.953,-7.324
1630086795.184,-1000.000,-75.195,-39.062,-715.820
1630086795.188,-225.586,-37.109,-32.227,-261.719
1630086795.192,-833.496,-15.625,-37.598,652.344
1630086795.195,244.141,-46.387,-51.270,199.219
1630086795.199,-1000.000,-54.688,-51.758,-641.602
1630086795.203,-588.379,-20.020,-34.668,-471.680
1630086795.207,-949.219,8.301,-17.578,502.930
1630086795.211,409.668,-25.391,-30.762,459.961
1630086795.215,-1000.000,-70.801,-62.012,-473.633
1630086795.219,-1000.000,-37.598,-32.227,-619.629
1630086795.222,402.344,35.645,26.367,313.965
1630086795.226,854.980,9.766,-10.742,667.480
1630086795.230,-715.820,-45.410,-29.785,-259.277
1630086795.234,-1000.000,-41.504,-1.953,-705.078
1630086795.238,-182.129,-26.367,-32.227,-103.027
1630086795.239,-860.840,-34.180,-56.152,647.949
1630086795.243,22.949,-66.406,-33.203,5.371
1630086795.247,-1000.000,-81.055,-34.668,-706.543
1630086795.251,-265.625,-56.641,-46.387,-350.098
1630086795.255,-839.355,-30.273,-46.875,577.637
1630086795.259,242.676,-49.316,-46.387,270.508
1630086795.263,-1000.000,-48.340,-17.090,-558.594
1630086795.266,-728.027,-30.273,-12.695,-532.227
1630086795.270,924.805,-16.113,-26.367,408.691
1630086795.274,523.926,-31.738,-27.832,522.461
1630086795.278,-992.188,-59.082,-31.738,-409.180
1630086795.282,-1000.000,-44.922,-26.367,-674.805
1630086795.286,184.570,-14.160,-29.785,153.320
1630086795.290,-940.918,3.906,-17.090,691.895
1630086795.294,-392.090,-34.668,-10.742,-147.949
1630086795.298,-1000.000,-70.312,-43.945,-708.984
1630086795.302,-208.984,-48.340,-50.293,-126.953
1630086795.306,-846.191,-3.418,-4.883,716.797
1630086795.310,147.949,-33.203,-9.766,115.234
1630086795.313,-1000.000,-78.125,-48.340,-669.922
1630086795.317,-384.766,-51.270,-34.668,-370.117
1630086795.321,-868.652,0.977,4.395,621.094
1630086795.325,248.047,-12.695,0.000,389.648
1630086795.329,-1000.000,-68.359,-35.645,-536.133
1630086795.344,-857.422,-57.617,-32.227,-576.172
1630086795.348,757.812,-21.973,-22.949,365.234
1630086795.352,638.672,-31.250,-30.762,593.262
1630086795.356,-928.711,-74.219,-50.293,-338.379
1630086795.360,-1000.000,-71.777,-46.875,-707.031
1630086795.364,51.270,-2.930,-1.465,103.027
1630086795.368,-869.629,0.977,-1.465,734.863
1630086795.371,-217.773,-60.547,-41.504,-108.887
1630086795.375,-1000.000,-63.477,-31.738,-733.887
1630086795.379,-219.238,-38.086,-24.414,-171.875
1630086795.383,-837.402,-24.414,-34.668,706.543
1630086795.387,237.305,-46.875,-37.598,156.738
1630086795.389,-1000.000,-71.777,-38.574,-649.414
1630086795.393,-497.070,-50.293,-42.480,-420.898
1630086795.397,-907.715,-16.602,-29.785,553.223
1630086795.401,323.730,-40.039,-30.273,423.828
1630086795.405,-1000.000,-68.848,-48.828,-520.996
1630086795.409,-870.117,-48.340,-43.457,-543.457
1630086795.413,750.488,-11.719,-30.273,412.598
1630086795.416,760.742,-22.949,-40.039,612.793
1630086795.420,-795.410,-50.293,-23.926,-281.250
1630086795.424,-1000.000,-29.785,10.742,-647.949
1630086795.428,-72.266,-15.137,-19.531,42.969
1630086795.432,-855.469,-19.531,-27.344,690.430
1630086795.434,-102.539,-45.898,-8.789,-49.805
1630086795.438,-1000.000,-62.012,-35.156,-699.219
1630086795.442,-224.609,-39.062,-46.875,-262.695
1630086795.446,-834.473,-23.926,-41.504,635.254
1630086795.450,244.141,-49.805,-36.621,206.055
1630086795.454,-1000.000,-58.105,-25.879,-618.652
1630086795.458,-603.027,-34.180,-26.855,-467.773
1630086795.461,-957.520,-2.441,-20.020,522.461
1630086795.465,421.875,-3.906,-1.953,533.203
1630086795.469,-1000.000,-46.387,-18.555,-450.684
1630086795.473,-1000.000,-49.316,-50.781,-683.105
1630086795.477,328.613,-2.441,-27.344,225.098
1630086795.479,914.551,5.859,-8.789,679.688
1630086795.483,-625.977,-49.805,-26.855,-226.562
1630086795.487,-1000.000,-62.500,-41.016,-733.398
1630086795.491,-187.988,-30.762,-43.945,-62.500
1630086795.495,-855.957,-15.137,-36.621,723.633
1630086795.499,44.434,-42.969,-42.969,41.504
1630086795.503,-1000.000,-56.152,-36.621,-702.148
1630086795.506,-264.160,-15.137,0.000,-293.945
1630086795.510,-836.426,27.832,31.738,703.613
1630086795.514,240.723,-18.555,-0.488,319.336
1630086795.518,-1000.000,-72.754,-26.367,-565.430
1630086795.522,-742.188,-51.758,-30.762,-517.578
1630086795.525,910.156,-10.254,-24.414,425.781
1630086795.529,530.273,-23.438,-22.461,529.297
1630086795.533,-987.793,-57.617,-30.762,-391.602
1630086795.537,-1000.000,-55.176,-22.949,-665.039
1630086795.541,168.945,-24.414,-10.742,147.461
1630086795.545,-944.824,-15.137,-15.137,697.266
1630086795.549,-395.508,-45.410,-19.531,-150.879
1630086795.552,-1000.000,-41.016,-15.137,-712.891
1630086795.556,-209.473,-7.324,-7.812,-122.559
1630086795.560,-845.703,2.441,-16.602,708.008
1630086795.564,160.645,-34.668,-25.879,114.258
1630086795.568,-1000.000,-62.988,-23.926,-660.156
1630086795.569,-395.508,-33.203,-22.949,-365.234
1630086795.573,-871.582,-6.348,-25.879,620.605
1630086795.577,249.023,-32.715,-31.738,372.559
1630086795.581,-1000.000,-53.711,-18.066,-520.020
1630086795.585,-859.375,-41.992,-3.906,-544.922
1630086795.589,754.395,-14.160,2.930,391.113
1630086795.593,646.484,-15.625,7.812,629.395
1630086795.596,-921.875,-29.785,10.742,-278.809
1630086795.600,-1000.000,-31.738,0.488,-649.414
1630086795.604,39.551,-16.113,-6.348,88.379
1630086795.608,-871.582,-7.812,-6.348,713.867
1630086795.612,-216.797,-42.969,-22.949,-76.660
1630086795.614,-1000.000,-49.805,-33.691,-681.152
1630086795.618,-218.750,-16.602,-23.438,-167.480
1630086795.622,-837.402,3.418,-21.484,698.242
1630086795.626,236.816,-27.344,-38.086,190.918
1630086795.630,-1000.000,-53.711,-29.785,-623.047
1630086795.634,-498.047,-22.949,-5.859,-408.691
1630086795.638,-903.320,11.230,-5.859,590.820
1630086795.641,315.430,-21.973,-20.020,466.309
1630086795.645,-1000.000,-62.012,-35.156,-479.492
1630086795.649,-992.188,-50.781,-25.391,-609.375
1630086795.653,541.992,-6.836,1.953,315.918
1630086795.657,791.016,-13.672,-12.695,651.367
1630086795.659,-783.203,-57.129,-41.016,-275.879
1630086795.663,-1000.000,-49.316,-41.016,-701.660
1630086795.667,-72.754,-18.555,-36.621,22.949
1630086795.671,-852.051,-17.578,-31.738,732.910
1630086795.675,-87.402,-50.293,-31.250,-10.254
1630086795.679,-1000.000,-46.875,-20.996,-663.574
1630086795.683,-226.074,-16.113,-11.719,-211.914
1630086795.686,-833.496,-4.883,-28.809,707.031
1630086795.690,244.141,-43.945,-43.457,240.723
1630086795.694,-1000.000,-45.898,-18.066,-595.215
1630086795.698,-608.398,-3.418,0.000,-430.664
1630086795.702,-960.938,-7.324,-24.414,494.141
1630086795.719,416.504,-40.527,-51.758,483.398
1630086795.723,-1000.000,-62.500,-60.059,-437.988
1630086795.727,-1000.000,-54.688,-39.062,-644.531
1630086795.731,317.871,-22.461,-19.531,217.285
1630086795.735,949.219,-21.484,-16.602,657.227
1630086795.739,-576.660,-55.176,-22.461,-218.750
1630086795.743,-1000.000,-61.523,-25.879,-708.008
1630086795.746,-189.941,-33.691,-23.438,-67.871
1630086795.750,-852.539,-19.531,-23.926,702.637
1630086795.754,64.453,-50.781,-29.785,43.945
1630086795.758,-1000.000,-61.523,-40.527,-702.148
1630086795.762,-273.926,-42.480,-30.762,-337.402
1630086795.764,-837.402,-18.066,-29.297,670.410
1630086795.768,242.676,-36.621,-39.062,336.426
1630086795.772,-1000.000,-64.453,-33.691,-582.031
1630086795.776,-730.957,-44.922,-31.250,-549.316
1630086795.780,919.434,-14.648,-19.043,399.902
1630086795.784,552.734,-37.598,-25.391,512.695
1630086795.788,-974.121,-69.824,-53.223,-416.016
1630086795.791,-1000.000,-59.082,-62.988,-710.938
1630086795.795,167.480,-27.832,-34.668,94.727
1630086795.799,-933.105,-20.996,-22.461,647.461
1630086795.803,-374.023,-53.711,-38.574,-199.219
1630086795.807,-1000.000,-65.430,-41.504,-750.000
1630086795.809,-212.891,-35.645,-37.598,-148.926
1630086795.813,-841.797,-19.043,-41.016,676.758
1630086795.817,192.871,-49.316,-47.852,83.496
1630086795.821,-1000.000,-72.754,-38.574,-720.215
1630086795.825,-387.207,-53.711,-42.969,-414.062
1630086795.829,-863.770,-14.160,-47.852,609.863
1630086795.833,245.117,-35.156,-35.156,366.211
1630086795.836,-1000.000,-63.477,-39.062,-552.734
1630086795.840,-868.652,-39.062,-44.922,-590.332
1630086795.844,732.910,-4.395,-37.109,348.633
1630086795.848,684.082,-13.184,-41.992,574.219
1630086795.852,-890.137,-50.781,-39.551,-368.652
1630086795.854,-1000.000,-56.152,-32.227,-690.430
1630086795.858,37.109,-27.344,-18.066,78.125
1630086795.862,-844.727,-14.160,-20.020,719.238
1630086795.866,-149.902,-53.223,-31.738,-64.941
1630086795.870,-1000.000,-62.500,-32.227,-703.613
1630086795.874,-223.633,-30.273,-22.949,-182.129
1630086795.878,-833.984,0.000,-17.090,718.750
1630086795.881,243.652,-29.785,-11.230,196.289
1630086795.885,-1000.000,-60.547,-16.602,-610.840
1630086795.889,-510.742,-29.785,-30.762,-425.293
1630086795.893,-908.203,-3.906,-20.996,541.504
1630086795.897,343.750,-23.926,-22.461,439.453
1630086795.899,-1000.000,-54.688,-31.738,-489.746
1630086795.903,-982.910,-44.922,-28.809,-616.699
1630086795.907,538.086,-13.184,-19.043,281.738
1630086795.911,858.887,-12.207,-32.227,659.180
1630086795.915,-698.730,-44.922,-43.945,-280.762
1630086795.919,-1000.000,-50.781,-39.551,-721.191
1630086795.923,-72.266,-17.090,-34.668,12.207
1630086795.926,-839.844,-3.906,-25.391,729.980
1630086795.930,-41.992,-42.480,-22.461,-19.043
1630086795.934,-1000.000,-58.105,-23.926,-704.102
1630086795.938,-230.469,-27.344,-15.137,-237.305
1630086795.942,-831.055,-10.254,-18.066,685.059
1630086795.944,243.652,-37.109,-39.551,249.023
1630086795.948,-1000.000,-52.734,-43.457,-592.773
1630086795.952,-614.258,-34.668,-32.227,-473.633
1630086795.956,-964.844,-11.719,-24.902,495.605
1630086795.960,428.711,-40.039,-27.344,487.305
1630086795.964,-1000.000,-64.453,-34.180,-458.496
1630086795.968,-1000.000,-38.086,-31.250,-650.391
1630086795.971,321.289,-10.254,-20.508,221.680
1630086795.975,952.637,-21.484,-22.461,677.246
1630086795.979,-569.336,-55.664,-21.973,-198.730
1630086795.983,-1000.000,-56.152,-21.973,-692.871
1630086795.987,-203.125,-12.207,-23.926,-43.457
1630086795.990,-853.027,-1.465,-20.508,743.164
1630086795.994,83.008,-44.922,-18.555,69.336
1630086795.998,-1000.000,-56.152,-32.715,-668.457
1630086796.002,-279.785,-37.109,-30.273,-302.246
1630086796.006,-837.891,-17.090,-20.996,658.691
1630086796.010,242.676,-30.762,-38.574,324.219
1630086796.014,-1000.000,-54.688,-33.691,-548.828
1630086796.017,-736.328,-45.410,-22.949,-523.438
1630086796.021,912.598,-16.113,-22.461,415.039
1630086796.025,567.383,-26.855,-26.855,544.922
1630086796.029,-967.285,-61.523,-32.715,-392.090
1630086796.033,-1000.000,-61.523,-16.602,-670.410
1630086796.052,161.621,-26.367,-16.602,144.043
1630086796.056,-908.691,-20.996,-48.340,693.359
1630086796.060,-330.078,-59.570,-50.293,-134.277
1630086796.064,-1000.000,-62.012,-34.180,-706.543
1630086796.068,-215.332,-21.973,-16.113,-125.977
1630086796.072,-838.867,-6.836,-10.742,736.816
1630086796.076,211.426,-39.551,-17.578,136.719
1630086796.079,-1000.000,-61.523,-27.832,-669.434
1630086796.083,-398.926,-38.574,-29.297,-360.352
1630086796.087,-865.723,-13.184,-9.277,637.695
1630086796.091,256.836,-38.574,-21.973,403.809
1630086796.095,-1000.000,-60.547,-56.152,-539.551
1630086796.094,-868.164,-42.969,-48.340,-601.074
1630086796.098,731.445,-7.812,-28.320,342.773
1630086796.102,702.637,-19.531,-40.527,586.426
1630086796.106,-870.117,-47.363,-55.664,-337.402
1630086796.110,-1000.000,-45.898,-48.828,-710.938
1630086796.114,37.109,-6.348,-28.320,69.336
1630086796.118,-855.957,2.930,-32.715,718.262
1630086796.121,-176.758,-48.828,-47.363,-98.145
1630086796.125,-1000.000,-60.059,-44.922,-705.566
1630086796.129,-222.168,-29.297,-28.320,-175.781
1630086796.133,-835.449,-12.207,-20.020,705.566
1630086796.137,244.141,-36.621,-21.484,177.734
1630086796.139,-1000.000,-53.711,-19.043,-642.090
1630086796.143,-520.020,-46.875,-25.391,-436.035
1630086796.147,-912.598,-20.020,-19.531,548.828
1630086796.151,356.934,-31.738,-13.184,458.984
1630086796.155,-1000.000,-62.500,-21.484,-486.328
1630086796.159,-997.070,-45.410,-22.461,-618.652
1630086796.163,525.391,-6.348,-20.508,306.152
1630086796.166,846.680,-20.508,-32.227,654.785
1630086796.170,-710.938,-59.082,-37.109,-268.066
1630086796.174,-1000.000,-54.199,-27.832,-692.871
1630086796.178,-103.027,-23.438,-31.738,9.277
1630086796.182,-846.191,-13.672,-41.504,727.051
1630086796.184,-34.668,-54.688,-39.551,-8.789
1630086796.188,-1000.000,-69.824,-22.461,-710.449
1630086796.192,-230.469,-34.180,-17.578,-277.832
1630086796.196,-830.566,-9.277,-24.414,661.133
1630086796.200,243.652,-44.922,-24.902,258.301
1630086796.204,-1000.000,-65.430,-18.555,-570.801
1630086796.208,-617.676,-40.527,-12.695,-470.703
1630086796.211,-967.773,-11.230,-10.254,496.094
1630086796.215,453.613,-26.855,-14.648,522.461
1630086796.219,-1000.000,-56.641,-33.691,-425.781
1630086796.223,-1000.000,-48.340,-43.945,-654.297
1630086796.227,290.527,-13.184,-35.156,205.566
1630086796.230,999.023,-7.812,-36.133,700.684
1630086796.234,-502.441,-47.363,-54.688,-169.434
1630086796.238,-1000.000,-62.012,-46.875,-694.336
1630086796.242,-204.590,-33.691,-19.043,-63.965
1630086796.246,-849.121,-12.207,-17.578,723.145
1630086796.250,100.098,-50.293,-32.715,64.941
1630086796.254,-1000.000,-67.383,-31.250,-654.297
1630086796.257,-282.715,-35.156,-17.578,-285.645
1630086796.261,-836.914,-22.461,-16.113,659.180
1630086796.265,241.211,-58.105,-27.344,330.078
1630086796.269,-1000.000,-67.383,-39.551,-542.480
1630086796.273,-756.348,-49.805,-43.457,-508.789
1630086796.274,889.648,-26.855,-32.715,434.570
1630086796.278,585.938,-29.785,-41.992,583.984
1630086796.282,-957.031,-52.734,-42.969,-355.469
1630086796.286,-1000.000,-43.945,-26.855,-677.246
1630086796.290,138.672,-10.742,-11.719,131.348
1630086796.294,-890.137,-6.348,-12.695,704.102
1630086796.298,-292.480,-42.480,-26.855,-117.188
1630086796.301,-1000.000,-59.082,-26.855,-673.828
1630086796.305,-215.820,-35.156,-20.996,-121.094
1630086796.309,-838.867,-22.461,-14.160,704.590
1630086796.313,208.984,-56.152,-28.809,125.000
1630086796.317,-1000.000,-69.336,-47.363,-666.504
1630086796.319,-412.109,-41.016,-43.457,-385.254
1630086796.323,-871.094,-19.531,-38.086,595.703
1630086796.327,264.160,-50.293,-42.480,404.297
1630086796.331,-1000.000,-83.008,-36.133,-499.512
1630086796.335,-883.789,-67.383,-21.973,-601.562
1630086796.339,704.102,-8.789,-8.789,356.445
1630086796.343,736.328,-7.324,-33.203,634.277
1630086796.346,-836.914,-66.406,-41.992,-323.730
1630086796.350,-1000.000,-56.641,-25.879,-692.871
1630086796.354,7.324,-7.324,-20.020,58.105
1630086796.358,-848.145,-2.930,-10.742,723.633
1630086796.362,-139.160,-43.945,-22.949,-51.758
1630086796.364,-1000.000,-53.223,-29.785,-687.500
1630086796.368,-223.633,-24.902,-16.602,-200.195
1630086796.372,-833.496,-3.418,-4.395,689.453
1630086796.376,243.652,-34.180,-16.602,190.430
1630086796.380,-1000.000,-60.059,-19.043,-620.117
1630086796.384,-511.719,-30.273,-18.555,-391.113
1630086796.388,-908.203,-7.324,-30.762,570.312
1630086796.391,368.164,-28.809,-25.879,457.031
1630086796.395,-1000.000,-49.805,-33.691,-462.891
1630086796.399,-1000.000,-55.664,-41.016,-635.254
1630086796.403,499.023,-26.367,-27.832,275.879
1630086796.407,877.441,-22.949,-26.367,682.617
1630086796.410,-673.340,-57.129,-42.480,-237.305
1630086796.414,-1000.000,-57.617,-42.969,-700.684
1630086796.418,-120.117,-30.273,-19.531,-5.371
1630086796.422,-845.703,-9.766,-17.578,723.145
1630086796.426,-13.184,-39.551,-21.484,-7.812
1630086796.430,-1000.000,-57.617,-14.160,-686.035
1630086796.434,-231.934,-24.902,-14.160,-244.629
1630086796.437,-829.590,-10.254,-21.973,671.875
1630086796.441,243.164,-48.828,-35.645,251.465
1630086796.445,-1000.000,-72.266,-41.504,-593.750
1630086796.449,-623.047,-50.781,-35.156,-486.816
1630086796.453,-972.168,-10.254,-28.809,484.375
1630086796.470,477.539,-22.949,-36.621,510.742
1630086796.474,-1000.000,-53.711,-39.062,-417.480
1630086796.478,-1000.000,-49.316,-25.391,-652.344
1630086796.482,276.855,-13.672,-13.184,184.570
1630086796.486,-985.840,-9.277,-13.672,653.320
1630086796.490,-478.027,-43.945,-13.672,-198.242
1630086796.494,-1000.000,-44.922,-28.809,-668.457
1630086796.497,-205.566,-13.672,-32.227,-54.199
1630086796.501,-848.145,-0.488,-26.855,735.840
1630086796.505,110.352,-41.504,-28.809,84.473
1630086796.509,-1000.000,-53.223,-22.461,-645.996
1630086796.513,-299.805,-20.996,-19.531,-291.992
1630086796.514,-841.309,-2.441,-12.207,665.039
1630086796.518,243.652,-31.250,-14.648,412.109
1630086796.522,-1000.000,-37.109,-26.855,-508.789
1630086796.526,-756.836,-8.301,-35.645,-564.453
1630086796.530,885.742,6.348,-15.625,418.945
1630086796.534,614.746,-7.812,-7.324,616.211
1630086796.538,-937.988,-26.367,-31.738,-319.336
1630086796.541,-1000.000,-32.715,-34.668,-637.695
1630086796.545,128.418,-1.953,-12.695,166.504
1630086796.549,-890.625,15.625,-12.695,752.930
1630086796.553,-288.086,-28.320,-29.297,-89.844
1630086796.557,-1000.000,-40.039,-25.391,-673.828
1630086796.559,-216.309,-1.465,-11.719,-90.820
1630086796.563,-838.379,11.230,-15.137,741.211
