timestamps,TP9,AF7,AF8,TP10
1630093637.233,-766.602,-25.391,-50.781,104.004
1630093637.237,-724.609,-31.738,-45.410,145.508
1630093637.241,-688.965,-33.691,-47.852,130.859
1630093637.245,-702.637,-15.625,-57.129,87.402
1630093637.249,-812.988,-19.531,-65.430,37.598
1630093637.253,-924.805,-33.203,-52.734,38.086
1630093637.257,-979.980,-34.180,-54.199,44.434
1630093637.260,-1000.000,-9.277,-36.133,93.262
1630093637.264,-999.512,0.977,-26.855,76.660
1630093637.268,-1000.000,-35.645,-50.781,7.812
1630093637.272,-1000.000,-41.016,-44.922,-9.766
1630093637.276,-1000.000,-35.156,-48.340,54.688
1630093637.278,-1000.000,-34.668,-60.059,296.387
1630093637.282,-1000.000,-36.621,-51.270,442.383
1630093637.286,-1000.000,-47.852,-38.086,467.285
1630093637.290,-1000.000,1.953,5.859,626.953
1630093637.294,-942.383,12.207,-5.859,675.293
1630093637.298,-1000.000,-31.250,-60.059,583.008
1630093637.302,-811.035,-23.438,-34.668,634.766
1630093637.305,600.098,-4.883,-7.324,647.949
1630093637.309,-937.012,-20.996,-36.133,589.355
1630093637.313,902.832,-41.016,-64.941,566.406
1630093637.317,977.539,-24.902,-43.945,633.789
1630093637.321,927.246,-17.578,-39.551,725.098
1630093637.324,-976.562,-30.762,-53.711,738.281
1630093637.328,460.938,-36.133,-62.012,699.219
1630093637.332,-715.820,-24.414,-47.852,629.883
1630093637.336,-1000.000,-15.137,-37.109,601.562
1630093637.340,-967.285,-15.137,-42.480,674.316
1630093637.344,-1000.000,-26.855,-55.176,885.254
1630093637.348,-1000.000,10.254,-27.344,976.562
1630093637.351,-1000.000,42.969,10.254,780.762
1630093637.355,-1000.000,-3.418,-33.691,573.242
1630093637.359,-997.559,-14.648,-60.547,502.441
1630093637.363,-991.699,-13.672,-55.664,392.578
1630093637.367,-1000.000,-19.531,-47.363,225.098
1630093637.368,-765.625,-15.137,-50.293,90.332
1630093637.372,-318.848,-21.484,-59.570,-111.328
1630093637.376,52.734,2.930,-42.480,-251.953
1630093637.380,352.539,2.441,-29.785,-45.410
1630093637.384,587.891,-24.414,-52.246,66.406
1630093637.388,827.148,-18.555,-66.406,-299.805
1630093637.392,963.867,-0.488,-45.898,-781.250
1630093637.395,963.379,-13.184,-47.852,-1000.000
1630093637.399,963.867,-37.109,-69.824,-993.164
1630093637.403,967.285,-18.066,-53.223,-996.582
1630093637.407,966.309,-1.953,-48.340,-1000.000
1630093637.411,966.309,-23.926,-79.590,-1000.000
1630093637.415,966.309,-31.250,-77.148,-1000.000
1630093637.419,966.309,-23.926,-68.359,-1000.000
1630093637.423,966.309,-27.344,-74.707,-1000.000
1630093637.427,966.309,-30.762,-72.266,-1000.000
1630093637.431,966.309,-32.227,-73.242,-1000.000
1630093637.435,966.309,-3.418,-58.594,-1000.000
1630093637.439,966.309,1.953,-65.430,-1000.000
1630093637.442,966.309,-31.250,-100.586,-1000.000
1630093637.446,966.309,-22.461,-102.051,-1000.000
1630093637.450,966.309,6.836,-87.402,-1000.000
1630093637.454,966.309,4.395,-84.961,-1000.000
1630093637.458,966.797,-15.625,-108.887,-1000.000
1630093637.473,966.309,-9.277,-96.680,-1000.000
1630093637.477,966.309,28.809,-37.109,-1000.000
1630093637.481,965.820,17.578,-50.781,-1000.000
1630093637.485,958.496,-29.785,-99.121,-1000.000
1630093637.489,950.195,-23.926,-81.543,-1000.000
1630093637.493,807.617,9.277,-49.316,-1000.000
1630093637.497,309.082,-4.395,-72.754,-1000.000
1630093637.500,-27.832,-34.180,-105.469,-1000.000
1630093637.504,-180.664,-20.020,-100.586,-999.023
1630093637.508,-661.133,10.254,-55.664,-1000.000
1630093637.512,-978.027,-25.391,-74.219,-999.023
1630093637.516,-989.258,-51.758,-96.680,-929.688
1630093637.518,-837.402,-39.062,-91.797,-868.652
1630093637.522,-714.844,-33.691,-87.891,-878.906
1630093637.526,-581.055,-43.945,-77.148,-867.188
1630093637.530,-363.770,-54.688,-86.426,-848.145
1630093637.534,-350.098,-30.762,-72.754,-806.641
1630093637.538,-682.617,-26.855,-54.688,-806.152
1630093637.542,-670.898,-50.293,-71.289,-857.422
1630093637.545,-379.883,-57.617,-93.750,-885.742
1630093637.549,103.027,-19.531,-74.707,-856.445
1630093637.553,845.215,-3.906,-56.152,-844.727
1630093637.557,987.305,-48.828,-80.566,-907.715
1630093637.561,942.383,-50.293,-86.426,-924.805
1630093637.563,970.703,-50.293,-82.520,-891.113
1630093637.567,966.309,-53.223,-76.660,-809.082
1630093637.571,966.309,-46.387,-75.195,-667.480
1630093637.575,966.309,-41.992,-78.613,-483.398
1630093637.579,966.309,-23.438,-51.758,-235.352
1630093637.583,965.820,-30.762,-48.828,-224.121
1630093637.587,966.309,-54.688,-75.195,-423.828
1630093637.590,966.309,-49.805,-75.195,-487.305
1630093637.594,966.309,18.066,-7.324,-494.629
1630093637.598,966.309,-2.930,-21.484,-704.102
1630093637.602,966.309,-71.777,-77.148,-858.398
1630093637.606,966.309,-65.430,-58.594,-821.777
1630093637.608,966.309,-67.383,-58.594,-809.570
1630093637.612,966.309,-66.895,-71.289,-861.816
1630093637.616,966.309,-52.246,-66.406,-972.656
1630093637.620,966.309,-46.875,-51.270,-1000.000
1630093637.624,966.309,-57.617,-59.082,-996.582
1630093637.628,966.309,-59.082,-65.918,-1000.000
1630093637.632,966.309,-68.848,-71.777,-1000.000
1630093637.635,966.309,-31.738,-23.926,-1000.000
1630093637.639,966.309,-15.137,-4.883,-1000.000
1630093637.643,966.309,-63.965,-65.918,-1000.000
1630093637.647,966.309,-58.594,-82.031,-1000.000
1630093637.651,966.309,-45.410,-46.387,-1000.000
1630093637.653,966.309,-60.547,-32.227,-1000.000
1630093637.657,966.309,-71.289,-60.547,-1000.000
1630093637.661,966.309,-67.871,-70.312,-1000.000
1630093637.665,966.309,-40.039,-37.598,-1000.000
1630093637.669,966.309,-40.039,-26.855,-1000.000
1630093637.673,966.309,-62.500,-48.828,-1000.000
1630093637.677,966.309,-48.340,-44.922,-1000.000
1630093637.680,966.309,-12.207,-4.395,-1000.000
1630093637.684,966.309,-25.879,-5.371,-1000.000
1630093637.688,966.309,-47.363,-34.668,-1000.000
1630093637.692,966.309,-42.480,-31.738,-1000.000
1630093637.696,966.309,-44.434,-32.227,-1000.000
1630093637.699,972.168,-47.363,-40.039,-1000.000
1630093637.703,944.336,-52.246,-49.805,-997.559
1630093637.707,949.707,-25.879,-22.949,-1000.000
1630093637.711,-997.070,-14.160,-18.066,-964.355
1630093637.715,-144.531,-41.504,-37.109,-901.855
1630093637.719,-1000.000,-60.547,-36.133,-930.664
1630093637.723,-957.031,-20.020,1.465,-773.926
1630093637.726,-992.188,1.465,14.648,-462.891
1630093637.730,-1000.000,-55.664,-39.062,-336.914
1630093637.734,-1000.000,-63.965,-31.738,-224.609
1630093637.738,-1000.000,-56.641,-25.391,-449.707
1630093637.742,-1000.000,-50.781,-41.992,-843.262
1630093637.743,-1000.000,-48.828,-53.711,-804.688
1630093637.747,-1000.000,-40.527,-45.410,-713.379
1630093637.751,-1000.000,-11.719,-11.719,-674.316
1630093637.755,-1000.000,-21.973,-17.578,-741.211
1630093637.759,-1000.000,-58.105,-45.410,-791.504
1630093637.763,-1000.000,-64.453,-38.574,-763.672
1630093637.767,-1000.000,5.371,22.461,-713.867
1630093637.770,-1000.000,9.277,15.625,-720.703
1630093637.774,-1000.000,-55.664,-55.664,-711.426
1630093637.778,-1000.000,-52.734,-53.223,-631.836
1630093637.782,-1000.000,-52.246,-41.016,-653.320
1630093637.786,-1000.000,-58.594,-46.387,-715.332
1630093637.790,-1000.000,-54.199,-53.711,-805.176
1630093637.794,-1000.000,-47.363,-45.410,-812.988
1630093637.798,-1000.000,-46.875,-36.133,-601.562
1630093637.802,-1000.000,-45.410,-41.016,-460.449
1630093637.806,-1000.000,-41.016,-51.758,-202.637
1630093637.810,-1000.000,-31.250,-44.922,149.414
1630093637.814,-1000.000,-31.738,-27.832,255.859
1630093637.817,-1000.000,-35.156,-30.762,416.504
1630093637.821,-1000.000,-47.852,-44.922,659.180
1630093637.825,-1000.000,-14.160,-19.043,843.750
1630093637.829,-1000.000,12.695,0.000,967.285
1630093637.833,-1000.000,-34.180,-41.504,964.844
1630093637.849,-1000.000,-43.457,-43.945,964.355
1630093637.853,-1000.000,-32.227,-40.039,967.773
1630093637.857,-1000.000,-32.715,-49.316,966.797
1630093637.861,-1000.000,-33.691,-44.434,966.797
1630093637.865,-1000.000,-51.270,-44.434,966.797
1630093637.869,-1000.000,2.441,9.277,966.797
1630093637.873,-1000.000,29.785,18.555,966.797
1630093637.876,-1000.000,-57.617,-36.621,966.797
1630093637.880,-1000.000,-52.246,-41.016,966.797
1630093637.884,-1000.000,-28.809,-46.387,966.797
1630093637.888,-1000.000,-46.875,-57.617,966.797
1630093637.892,-1000.000,-53.223,-49.805,966.797
1630093637.893,-1000.000,-42.969,-38.574,966.797
1630093637.897,-1000.000,-41.504,-41.992,966.797
1630093637.901,-1000.000,-56.641,-61.523,966.797
1630093637.905,-1000.000,-49.805,-60.547,966.797
1630093637.909,-1000.000,-49.805,-48.828,967.773
1630093637.913,-1000.000,-60.059,-49.805,963.379
1630093637.917,-1000.000,-60.547,-60.547,966.309
1630093637.920,-1000.000,-59.082,-66.895,951.172
1630093637.924,-1000.000,-27.832,-24.902,800.293
1630093637.928,-1000.000,-19.531,-10.742,537.109
1630093637.932,-1000.000,-62.012,-55.176,340.820
1630093637.936,-1000.000,-59.570,-70.312,176.270
1630093637.938,-1000.000,-41.992,-46.387,-46.387
1630093637.942,-1000.000,-56.641,-41.504,-157.715
1630093637.946,-980.957,-65.430,-58.594,-283.691
1630093637.950,-1000.000,-57.617,-66.406,-546.875
1630093637.954,-887.695,-49.805,-44.434,-744.629
1630093637.958,-248.535,-57.129,-40.527,-849.121
1630093637.962,472.168,-63.477,-58.105,-959.473
1630093637.965,677.246,-56.152,-62.500,-1000.000
1630093637.969,760.254,-32.715,-35.645,-997.559
1630093637.973,-949.219,-43.945,-30.762,-1000.000
1630093637.977,717.773,-67.871,-61.523,-1000.000
1630093637.981,521.484,-64.941,-70.312,-1000.000
1630093637.984,956.543,-59.570,-62.500,-1000.000
1630093637.988,980.957,-58.594,-45.898,-1000.000
1630093637.992,920.898,-61.035,-50.293,-1000.000
1630093637.996,956.055,-33.203,-41.016,-1000.000
1630093638.000,971.680,-25.391,-37.109,-1000.000
1630093638.004,963.867,-44.434,-41.504,-1000.000
1630093638.008,967.285,-45.410,-44.434,-1000.000
1630093638.011,966.309,-21.484,-26.367,-1000.000
1630093638.015,966.309,-10.742,-19.043,-1000.000
1630093638.019,966.309,-41.992,-48.340,-1000.000
1630093638.023,967.285,-48.828,-45.410,-1000.000
1630093638.027,903.809,-47.852,-41.504,-1000.000
1630093638.028,-895.020,-28.320,-45.898,-1000.000
1630093638.032,187.012,-43.945,-50.781,-1000.000
1630093638.036,-1000.000,-64.453,-45.410,-1000.000
1630093638.040,-984.375,-33.691,-24.902,-1000.000
1630093638.044,-973.145,-31.738,-31.738,-995.605
1630093638.048,-1000.000,-53.223,-47.852,-1000.000
1630093638.052,-1000.000,-53.223,-34.180,-975.098
1630093638.055,-1000.000,-9.277,2.930,-840.820
1630093638.059,-1000.000,-14.160,-12.207,-779.785
1630093638.063,-1000.000,-51.758,-52.734,-690.430
1630093638.067,-1000.000,-40.039,-30.762,-503.906
1630093638.071,-1000.000,-33.691,-24.414,-321.289
1630093638.073,-1000.000,-42.480,-32.715,-292.480
1630093638.077,-1000.000,-44.434,-43.457,-274.414
1630093638.081,-1000.000,-41.504,-35.156,-93.262
1630093638.085,-1000.000,-42.480,-22.949,111.816
1630093638.089,-1000.000,-38.086,-31.738,278.809
1630093638.093,-1000.000,-42.480,-39.551,427.246
1630093638.097,-1000.000,-3.418,-5.371,731.934
1630093638.100,-1000.000,20.508,10.742,971.680
1630093638.104,-1000.000,-19.043,-31.738,962.402
1630093638.108,-1000.000,-24.414,-40.039,962.402
1630093638.112,-1000.000,-17.090,-23.926,968.262
1630093638.116,-1000.000,-24.902,-13.184,966.797
1630093638.119,-1000.000,-33.691,-26.855,966.797
1630093638.123,-1000.000,-28.809,-38.086,967.285
1630093638.127,-1000.000,-16.113,-24.902,966.797
1630093638.131,-1000.000,-22.461,-20.508,966.797
1630093638.135,-1000.000,-36.133,-26.855,967.285
1630093638.139,-1000.000,-26.855,-17.090,966.797
1630093638.143,-1000.000,-11.719,-18.066,966.797
1630093638.146,-1000.000,-19.043,-26.855,966.797
1630093638.150,-1000.000,-30.762,-28.320,966.797
1630093638.154,-1000.000,-20.508,-21.973,966.797
1630093638.158,-1000.000,-16.113,-25.879,966.797
1630093638.162,-1000.000,-21.973,-28.809,966.797
1630093638.166,-978.516,-24.902,-21.973,966.797
1630093638.170,-965.820,-7.324,-9.277,966.797
1630093638.174,-1000.000,-3.418,-16.602,966.797
1630093638.178,302.246,-22.949,-35.645,966.797
1630093638.182,357.422,-28.320,-30.273,966.797
1630093638.186,47.852,-14.648,-13.672,966.797
1630093638.190,139.160,-6.836,-19.531,966.797
1630093638.193,-506.348,-18.066,-40.527,966.797
1630093638.197,905.762,-20.020,-25.879,967.285
1630093638.201,-970.215,-14.160,-11.230,965.332
1630093638.205,910.645,-14.160,-24.414,967.773
1630093638.209,979.492,-28.809,-44.922,961.914
1630093638.238,965.820,-27.344,-32.227,918.945
1630093638.242,965.820,-15.625,-16.602,875.488
1630093638.246,966.309,-21.973,-26.855,820.801
1630093638.250,966.309,-29.297,-40.527,763.672
1630093638.254,966.309,-35.156,-48.828,718.262
1630093638.258,966.309,3.418,6.348,747.070
1630093638.262,966.309,19.043,23.438,752.441
1630093638.265,966.309,-28.320,-34.180,669.434
1630093638.269,966.309,-34.668,-42.969,624.023
1630093638.273,966.309,-32.715,-26.367,610.840
1630093638.277,966.309,-37.109,-24.902,594.727
1630093638.281,965.820,-40.039,-35.645,560.547
1630093638.268,966.309,-44.922,-40.527,546.387
1630093638.272,966.309,-45.410,-29.785,547.852
1630093638.276,965.820,-42.969,-19.531,539.551
1630093638.280,966.309,-39.551,-20.020,525.391
1630093638.284,966.309,-41.992,-29.785,504.883
1630093638.288,966.309,-43.945,-28.809,478.516
1630093638.292,966.309,-39.551,-23.438,445.312
1630093638.295,966.309,-40.527,-30.762,416.504
1630093638.299,966.309,-32.227,-36.133,394.043
1630093638.303,966.309,-27.344,-31.250,363.770
1630093638.307,966.309,-32.715,-18.555,335.449
1630093638.311,966.309,-42.969,-36.621,292.969
1630093638.313,965.820,5.371,1.953,307.617
1630093638.317,965.820,23.926,28.320,318.848
1630093638.321,966.309,-40.527,-17.578,245.117
1630093638.325,966.309,-54.688,-23.926,202.637
1630093638.329,971.680,-27.832,-8.301,204.102
1630093638.333,942.871,-30.273,-20.020,181.152
1630093638.337,952.637,-55.664,-36.621,145.996
1630093638.340,989.258,-48.828,-18.066,157.715
1630093638.344,-166.016,-19.531,9.277,178.223
1630093638.348,-1000.000,-38.086,-20.996,138.184
1630093638.352,-956.543,-64.453,-52.734,91.309
1630093638.356,-992.676,-41.016,-18.066,101.562
1630093638.358,-1000.000,-24.414,-1.465,113.770
1630093638.362,-1000.000,-53.223,-44.434,71.289
1630093638.366,-1000.000,-53.223,-52.734,51.758
1630093638.370,-1000.000,-41.504,-24.902,62.500
1630093638.374,-1000.000,-41.016,-7.812,67.871
1630093638.378,-1000.000,-38.086,-16.602,49.805
1630093638.382,-1000.000,-41.992,-41.016,15.625
1630093638.385,-1000.000,0.977,14.160,44.922
1630093638.389,-1000.000,20.020,40.527,45.410
1630093638.393,-1000.000,-28.320,-15.625,-39.062
1630093638.397,-1000.000,-30.273,-30.273,-76.172
1630093638.401,-1000.000,-21.484,-26.855,-90.332
1630093638.404,-1000.000,-25.391,-17.090,-95.703
1630093638.408,-1000.000,-27.832,-22.949,-121.582
1630093638.412,-1000.000,-39.551,-50.781,-150.391
1630093638.416,-1000.000,30.762,28.320,-43.457
1630093638.420,-1000.000,39.062,56.152,-25.391
1630093638.424,-1000.000,-41.504,-32.715,-134.277
1630093638.428,-1000.000,-29.785,-38.086,-133.789
1630093638.431,-1000.000,10.742,12.207,-101.562
1630093638.435,-1000.000,-11.230,3.418,-135.742
1630093638.439,-1000.000,-42.480,-37.598,-172.852
1630093638.443,-1000.000,-24.902,-30.762,-157.715
1630093638.447,-1000.000,-23.926,-33.203,-157.715
1630093638.448,-1000.000,-33.691,-35.645,-166.992
1630093638.452,-1000.000,-29.297,-31.738,-175.293
1630093638.456,-1000.000,-19.043,-26.367,-178.711
1630093638.460,-1000.000,-25.391,-31.738,-186.523
1630093638.464,-1000.000,-35.156,-35.156,-195.312
1630093638.468,-1000.000,-51.270,-48.340,-193.359
1630093638.472,-1000.000,16.602,6.348,-103.027
1630093638.475,-934.570,76.172,54.199,-47.852
1630093638.479,-1000.000,-13.672,-30.762,-135.254
1630093638.483,-270.996,-34.180,-47.852,-131.836
1630093638.487,-979.980,-21.484,-39.062,-102.539
1630093638.491,958.496,-26.367,-51.758,-117.188
1630093638.493,936.035,-27.832,-65.430,-131.348
1630093638.497,911.621,-26.855,-63.477,-132.812
1630093638.501,-895.508,-1.465,-30.273,-102.051
1630093638.505,186.523,-5.859,-40.039,-110.352
1630093638.509,-1000.000,-28.320,-79.590,-125.000
1630093638.513,-984.375,-26.855,-62.012,-99.121
1630093638.517,-973.145,-20.508,-43.945,-88.379
1630093638.520,-1000.000,-26.855,-57.617,-84.961
1630093638.524,-1000.000,-47.363,-76.172,-78.613
1630093638.528,-1000.000,-53.711,-67.383,-60.547
1630093638.532,-1000.000,-53.223,-60.547,-38.574
1630093638.536,-1000.000,-57.129,-66.895,-22.949
1630093638.539,-1000.000,-58.594,-75.684,-18.066
1630093638.543,-1000.000,-65.918,-77.148,-1.953
1630093638.547,-1000.000,-62.500,-58.594,25.391
1630093638.551,-1000.000,-51.758,-59.082,58.105
1630093638.555,-1000.000,-51.270,-71.289,79.590
1630093638.559,-939.453,-41.504,-55.176,103.516
1630093638.563,-1000.000,-32.715,-37.598,118.652
1630093638.566,-212.891,-35.156,-42.969,114.258
1630093638.570,996.582,-31.250,-47.363,107.910
1630093638.574,-935.547,-25.391,-57.129,92.773
1630093638.578,-4.395,-20.508,-50.293,91.309
1630093638.582,-1000.000,-29.297,-40.039,91.309
1630093638.598,-963.379,-33.203,-47.852,79.102
1630093638.602,-984.863,-30.273,-55.664,70.801
1630093638.606,-1000.000,-34.180,-47.852,79.590
1630093638.610,-1000.000,-35.645,-34.180,83.984
1630093638.614,-1000.000,-36.621,-34.668,90.820
1630093638.618,-938.477,-31.738,-40.039,101.074
1630093638.622,-1000.000,-29.785,-46.875,99.121
1630093638.625,-214.844,-30.762,-36.133,101.074
1630093638.629,-960.938,-25.391,-29.785,107.910
1630093638.633,949.219,-30.273,-39.062,106.445
1630093638.637,939.453,-41.016,-47.852,97.656
1630093638.641,972.656,-39.551,-38.574,94.727
1630093638.643,966.309,-29.785,-25.391,98.633
1630093638.647,966.309,-26.367,-23.926,100.586
1630093638.651,966.309,-31.250,-37.598,90.332
1630093638.655,966.309,-25.879,-27.344,91.797
1630093638.659,966.309,-27.344,-17.578,97.656
1630093638.663,966.309,-32.715,-25.391,91.309
1630093638.667,966.309,-31.250,-35.156,89.844
1630093638.670,966.309,-34.180,-41.016,90.332
1630093638.674,966.309,-16.113,-8.789,115.234
1630093638.678,966.309,-11.719,-2.441,119.629
1630093638.682,966.309,-27.344,-30.273,90.332
1630093638.686,966.309,-28.809,-31.250,80.078
1630093638.689,966.309,-36.133,-13.672,83.496
1630093638.693,966.309,-34.180,-6.836,91.309
1630093638.697,966.309,-33.203,-12.695,84.961
1630093638.701,966.309,-34.668,-20.020,74.707
1630093638.705,966.309,-25.391,-4.395,79.102
1630093638.709,966.309,-26.855,6.348,89.355
1630093638.713,966.309,-37.109,-7.812,79.102
1630093638.716,966.309,-34.668,-14.648,75.684
1630093638.720,966.309,-23.926,2.930,87.402
1630093638.724,965.820,-29.785,8.789,82.031
1630093638.728,966.309,-37.598,-6.348,68.359
1630093638.732,966.309,-37.598,-12.207,62.988
1630093638.733,966.309,-33.203,-8.301,59.570
1630093638.737,966.309,-27.832,4.883,56.152
1630093638.741,966.309,-34.668,5.859,73.730
1630093638.745,966.309,-35.645,-3.418,91.797
1630093638.749,966.309,-32.715,-3.418,99.121
1630093638.753,966.309,-32.715,8.301,109.375
1630093638.757,965.820,-40.527,-4.883,104.980
1630093638.760,966.309,-23.926,9.766,134.766
1630093638.764,966.309,-6.348,22.461,148.438
1630093638.768,970.703,-40.039,0.000,110.352
1630093638.772,939.941,-51.758,3.418,103.516
1630093638.776,-995.605,-48.828,-0.977,103.516
1630093638.778,868.164,-54.688,-16.113,96.680
1630093638.782,220.703,-54.199,-17.090,86.914
1630093638.786,463.379,-45.410,-6.348,83.008
1630093638.790,-839.355,-26.367,4.883,88.379
1630093638.794,192.383,-34.180,-15.625,58.105
1630093638.798,-1000.000,-49.805,-31.738,26.855
1630093638.802,-994.141,-44.922,-11.719,39.551
1630093638.805,-909.180,-51.270,-16.602,37.109
1630093638.809,-962.891,-52.246,-25.391,31.250
1630093638.813,-950.684,-51.270,-24.414,30.762
1630093638.817,-540.039,-50.781,-13.672,32.227
1630093638.821,-795.898,-50.781,-12.207,36.133
1630093638.824,-1000.000,-51.270,-17.578,38.086
1630093638.828,-973.633,-54.688,-21.484,47.363
1630093638.832,-1000.000,-57.129,-16.602,57.129
1630093638.836,-1000.000,-51.270,-4.395,61.035
1630093638.840,-1000.000,-45.410,-7.324,14.648
1630093638.844,-979.980,-54.199,-19.531,-78.125
1630093638.848,-993.164,-50.293,-6.348,-124.512
1630093638.851,-938.965,-50.293,6.348,-147.461
1630093638.855,130.859,-55.664,-10.254,-184.082
1630093638.859,-968.750,-45.898,-24.414,-200.195
1630093638.863,937.988,-46.875,-23.438,-217.773
1630093638.867,952.148,-50.293,-10.254,-220.703
1630093638.869,970.215,-43.945,-6.348,-204.590
1630093638.873,966.309,-43.945,-14.648,-218.262
1630093638.877,966.309,-46.387,-21.973,-220.703
1630093638.881,966.309,-44.922,-17.090,-216.797
1630093638.885,966.309,-45.898,-10.254,-209.473
1630093638.889,966.309,-42.480,-12.207,-203.125
1630093638.893,966.309,-42.480,-27.832,-217.773
1630093638.896,966.309,-39.551,-22.949,-212.402
1630093638.900,966.309,-34.180,-4.395,-187.988
1630093638.904,966.309,-35.645,-7.812,-175.781
1630093638.908,966.309,-35.645,-22.461,-174.805
1630093638.912,966.309,-39.062,-21.973,-168.945
1630093638.916,966.309,-39.062,-13.184,-157.227
1630093638.920,966.309,-34.180,-16.113,-143.066
1630093638.924,966.309,-35.645,-19.043,-130.371
1630093638.928,965.820,-26.367,-24.414,-152.344
1630093638.932,966.309,-28.809,-19.531,-166.992
1630093638.936,966.309,-21.484,-10.254,-161.621
1630093638.940,966.309,-22.461,-17.578,-170.410
1630093638.943,966.309,-49.805,-34.180,-181.152
1630093638.947,970.703,-37.109,-20.020,-171.387
1630093638.951,927.246,-32.227,-11.230,-148.438
1630093638.955,998.047,-42.480,-22.949,-147.461
1630093638.959,769.043,-41.016,-33.203,-160.645
1630093638.973,-561.035,-43.945,-31.738,-166.992
1630093638.977,-935.547,-43.457,-17.578,-144.043
1630093638.981,516.113,-39.062,-19.531,-123.535
1630093638.985,-103.516,-39.551,-19.531,-104.004
1630093638.989,-1000.000,-42.480,-20.996,-98.145
1630093638.993,-943.848,-44.434,-17.090,-97.168
1630093638.997,-996.094,-38.574,-23.926,-83.984
1630093639.000,-1000.000,-41.016,-39.062,-72.754
1630093639.004,-1000.000,-43.457,-38.574,-79.590
1630093639.008,-1000.000,-39.062,-27.344,-70.312
1630093639.012,-1000.000,-32.715,-24.414,-50.293
1630093639.016,-1000.000,-24.414,-30.273,-56.641
1630093639.018,-1000.000,-22.461,-44.922,-59.570
1630093639.022,-1000.000,-22.949,-35.156,-47.363
1630093639.026,-1000.000,-28.320,-25.391,-37.109
1630093639.030,-1000.000,-26.367,-32.227,-45.410
1630093639.034,-1000.000,-19.531,-40.527,-51.270
1630093639.038,-1000.000,-15.625,-45.410,-52.734
1630093639.042,-1000.000,-15.137,-35.156,-47.852
1630093639.045,-1000.000,-14.160,-30.273,-40.039
1630093639.049,-1000.000,-18.066,-45.410,-38.086
1630093639.053,-1000.000,-20.996,-53.223,-41.016
1630093639.057,-1000.000,-16.113,-41.992,-33.203
1630093639.061,-1000.000,-19.043,-44.922,-20.020
1630093639.063,-1000.000,-23.926,-56.152,-24.902
1630093639.067,-1000.000,-19.043,-64.941,-41.992
1630093639.071,-1000.000,-22.461,-52.734,-34.668
1630093639.075,-1000.000,-30.273,-42.969,-22.949
1630093639.079,-1000.000,-23.438,-57.617,-41.992
1630093639.083,-1000.000,-24.902,-58.594,-57.129
1630093639.087,-1000.000,-29.297,-41.016,-46.387
1630093639.090,-1000.000,-21.973,-36.133,-32.715
1630093639.094,-1000.000,-32.715,-45.898,-39.551
1630093639.098,-1000.000,-43.945,-50.293,-55.176
1630093639.102,-1000.000,-34.668,-50.293,-66.895
1630093639.106,-1000.000,-31.738,-48.340,-68.359
1630093639.108,-1000.000,-31.250,-44.434,-66.406
1630093639.112,-1000.000,-31.250,-53.223,-75.195
1630093639.116,-992.676,-41.016,-56.641,-81.543
1630093639.120,-996.582,-39.551,-38.086,-79.102
1630093639.124,-1000.000,-30.762,-59.082,-70.801
1630093639.128,-645.996,-36.133,-67.871,-60.547
1630093639.132,-382.324,-41.992,-43.457,-65.918
1630093639.135,-418.457,-59.082,-40.039,-58.105
1630093639.139,-263.672,-58.594,-51.758,-51.270
1630093639.143,-507.812,-35.156,-57.617,-79.102
1630093639.147,-880.371,-47.363,-45.898,-86.426
1630093639.151,-972.168,-75.684,-25.879,-57.617
1630093639.154,-1000.000,-91.797,-29.297,-78.125
1630093639.158,-997.070,-99.121,-49.316,-129.395
1630093639.162,-1000.000,-73.730,-58.594,-166.992
1630093639.166,-1000.000,-64.941,-54.688,-166.504
1630093639.170,-1000.000,-79.590,-28.809,-122.559
1630093639.174,-1000.000,-88.379,-13.184,-129.395
1630093639.178,-1000.000,-65.430,-20.996,-175.781
1630093639.181,-1000.000,-60.059,-33.203,-198.242
1630093639.185,-1000.000,-74.707,-22.461,-180.664
1630093639.189,-1000.000,-46.875,-0.488,-153.320
1630093639.193,-1000.000,-39.062,3.906,-145.996
1630093639.197,-1000.000,-54.199,-6.836,-157.227
1630093639.198,-1000.000,-49.316,10.254,-141.113
1630093639.202,-1000.000,-41.992,12.207,-121.582
1630093639.206,-1000.000,-41.992,15.625,-118.652
1630093639.210,-1000.000,-34.180,13.672,-121.582
1630093639.214,-1000.000,-32.227,8.301,-110.840
1630093639.218,-1000.000,-26.855,19.043,-81.543
1630093639.222,-1000.000,14.648,51.758,-19.043
1630093639.225,-1000.000,49.316,67.383,14.648
1630093639.229,-1000.000,13.184,17.578,-37.598
1630093639.233,-1000.000,-4.395,6.836,-56.152
1630093639.237,-1000.000,5.859,8.789,-39.062
1630093639.241,-1000.000,17.090,1.953,-35.645
1630093639.243,-1000.000,27.344,-8.301,-56.641
1630093639.247,-1000.000,34.668,-1.465,-55.176
1630093639.251,-1000.000,57.129,21.484,-6.348
1630093639.255,-1000.000,47.852,7.324,-5.859
1630093639.259,-1000.000,26.855,-8.301,-52.734
1630093639.263,-1000.000,43.945,3.906,-61.035
1630093639.267,-957.520,68.359,35.156,-21.484
1630093639.270,-1000.000,60.547,21.484,-39.551
1630093639.274,-509.766,32.227,-15.137,-86.426
1630093639.278,701.172,56.641,7.324,-62.988
1630093639.282,-997.559,73.730,35.645,-40.039
1630093639.286,929.688,30.762,7.324,-83.984
1630093639.303,969.238,22.949,-9.766,-113.770
1630093639.307,966.797,27.344,-1.465,-107.910
1630093639.311,966.309,19.043,4.883,-103.027
1630093639.315,965.820,14.160,0.488,-99.121
1630093639.319,966.309,2.930,-9.766,-107.910
1630093639.323,966.309,19.043,2.441,-84.961
1630093639.327,966.309,23.438,14.160,-62.500
1630093639.330,965.820,-9.277,-4.395,-87.891
1630093639.334,966.309,-10.254,-13.184,-91.797
1630093639.338,966.309,6.348,-15.625,-76.660
1630093639.342,965.820,-7.812,-13.672,-77.148
1630093639.346,965.820,-24.414,-22.949,-87.891
1630093639.352,966.309,-27.344,-34.180,-88.379
1630093639.356,966.309,0.977,-9.766,-53.223
1630093639.360,966.309,4.395,-1.465,-54.199
1630093639.364,966.309,-36.621,-24.902,-80.078
1630093639.368,966.309,-35.645,-24.902,-58.594
1630093639.372,966.309,-34.180,-35.156,-56.641
1630093639.376,966.309,-37.598,-40.527,-62.500
1630093639.379,966.309,-43.457,-36.621,-65.430
1630093639.383,966.309,-38.086,-38.086,-57.129
1630093639.387,966.309,-17.578,-24.414,-48.340
1630093639.391,966.309,-27.344,-38.086,-80.566
1630093639.395,966.309,-34.180,-52.246,-97.656
1630093639.394,965.820,-32.227,-44.922,-87.891
1630093639.398,966.309,-43.945,-46.387,-78.613
1630093639.402,966.309,-45.898,-50.293,-79.102
1630093639.406,966.309,-45.898,-44.922,-96.191
1630093639.410,965.820,-35.156,-29.785,-89.355
1630093639.414,966.309,-32.715,-29.297,-82.520
1630093639.418,966.309,-49.805,-53.711,-96.191
1630093639.421,966.309,-63.477,-62.012,-108.398
1630093639.425,966.309,-41.504,-20.508,-83.984
1630093639.429,966.309,-30.762,-13.184,-65.430
1630093639.433,965.820,-60.547,-51.270,-104.004
1630093639.437,966.309,-63.477,-56.152,-114.258
1630093639.439,966.309,-56.641,-47.852,-117.188
1630093639.443,966.309,-51.758,-41.504,-125.000
1630093639.447,966.309,-53.223,-50.781,-124.512
1630093639.451,966.309,-56.641,-57.617,-125.488
1630093639.455,966.309,-38.574,-30.762,-95.215
1630093639.459,966.309,-43.457,-26.855,-94.238
1630093639.463,965.820,-65.430,-48.828,-122.070
1630093639.466,966.309,-64.453,-59.570,-127.930
1630093639.470,966.309,-20.508,-29.297,-97.168
1630093639.474,966.309,-20.508,-24.902,-103.516
1630093639.478,966.309,-58.105,-57.617,-163.574
1630093639.482,966.309,-63.477,-60.059,-174.316
1630093639.484,966.309,-60.547,-52.246,-163.574
1630093639.488,966.309,-53.711,-44.922,-162.109
1630093639.492,966.309,-52.246,-44.922,-161.621
1630093639.496,966.309,-47.363,-40.039,-162.598
1630093639.500,965.820,-41.992,-40.039,-172.852
1630093639.504,965.820,-40.527,-31.250,-169.922
1630093639.508,966.309,-62.012,-31.738,-171.875
1630093639.511,966.309,-37.598,-7.324,-155.273
1630093639.515,966.309,-20.508,4.883,-148.438
1630093639.519,965.820,-66.895,-20.996,-187.500
1630093639.523,966.309,-75.684,-13.184,-184.082
1630093639.527,966.309,-68.848,-6.348,-167.969
1630093639.528,966.309,-71.777,-15.625,-163.574
1630093639.532,966.309,-77.637,-21.484,-156.738
1630093639.536,966.309,-83.984,-13.184,-138.184
1630093639.540,965.820,-75.684,-0.488,-98.633
1630093639.544,966.309,-70.801,-13.672,-85.449
1630093639.548,966.309,-77.637,-30.273,-87.891
1630093639.552,966.309,-75.195,-16.602,-69.824
1630093639.555,966.309,-59.082,6.348,-32.715
1630093639.559,966.309,-65.918,-13.672,-23.926
1630093639.563,961.426,-76.660,-43.457,-39.551
1630093639.567,978.027,-71.777,-35.645,-20.996
1630093639.571,918.457,-75.684,-38.086,-14.648
1630093639.575,863.770,-71.777,-45.410,-17.090
1630093639.579,944.824,-70.312,-62.500,-25.879
1630093639.583,977.051,-54.199,-47.852,-6.348
1630093639.587,944.824,-51.758,-31.250,11.230
1630093639.591,855.469,-72.754,-57.129,-12.695
1630093639.595,887.207,-75.195,-74.707,-32.715
1630093639.599,968.750,-39.062,-46.387,-8.789
1630093639.602,966.309,-23.926,-22.949,15.137
1630093639.606,956.055,-59.082,-56.641,-22.949
1630093639.610,854.980,-59.082,-68.848,-37.598
1630093639.614,741.211,-47.363,-68.848,-33.691
1630093639.618,538.574,-44.434,-57.129,-32.227
1630093639.618,386.230,-50.293,-57.617,-39.551
1630093639.622,481.934,-58.105,-71.289,-48.340
1630093639.626,665.039,-49.316,-65.430,-51.270
1630093639.630,679.199,-44.922,-56.641,-52.734
1630093639.634,533.203,-53.223,-65.430,-63.477
1630093639.638,434.082,-45.410,-72.754,-77.637
1630093639.642,483.887,-13.672,-54.688,-62.012
1630093639.645,468.750,-17.090,-49.805,-59.082
1630093639.649,248.535,-42.480,-63.965,-79.102
1630093639.653,124.023,-36.621,-67.383,-81.543
1630093639.657,241.211,-33.203,-63.477,-81.055
1630093639.661,358.398,-31.738,-60.059,-83.984
1630093639.665,132.324,-35.156,-55.176,-89.844
1630093639.669,-30.273,-38.574,-50.781,-87.891
1630093639.673,123.535,-35.645,-58.105,-89.355
1630093639.677,335.938,-31.250,-68.848,-110.840
1630093639.681,253.906,-30.273,-64.941,-112.793
1630093639.685,55.176,-19.531,-49.316,-87.402
1630093639.689,79.102,-14.648,-45.898,-89.844
1630093639.692,249.023,-20.020,-53.223,-98.145
1630093639.696,241.211,-34.180,-57.129,-100.586
1630093639.700,117.188,-8.301,-29.785,-71.777
1630093639.704,223.633,14.648,-10.254,-57.129
1630093639.708,487.793,-27.344,-46.875,-91.797
1630093639.723,682.129,-36.621,-51.758,-104.980
1630093639.727,561.523,-34.180,-42.969,-103.516
1630093639.731,473.145,-39.551,-50.293,-108.398
1630093639.735,630.371,-43.457,-57.617,-117.188
1630093639.739,745.117,-51.758,-57.617,-115.723
1630093639.743,633.301,-13.184,-13.184,-79.102
1630093639.747,484.375,0.000,-2.441,-68.359
1630093639.750,511.230,-44.434,-46.875,-99.609
1630093639.754,683.105,-49.805,-46.875,-102.539
1630093639.758,549.316,-38.574,-34.180,-107.910
1630093639.762,217.773,-36.133,-39.062,-109.863
1630093639.766,156.738,-41.016,-53.711,-113.770
1630093639.768,292.480,-16.113,-35.156,-86.914
1630093639.772,234.375,-2.441,-15.625,-75.684
1630093639.776,-109.863,-31.738,-38.086,-103.027
1630093639.780,-260.254,-38.574,-45.898,-107.910
1630093639.784,-113.281,-32.227,-42.969,-115.723
1630093639.788,-16.602,-35.645,-36.133,-110.840
1630093639.792,-280.273,-45.410,-25.879,-97.656
1630093639.795,-508.301,-54.199,-30.273,-105.469
1630093639.799,-358.887,-36.133,-22.461,-100.586
1630093639.803,-224.609,-31.250,-17.578,-95.215
1630093639.807,-377.441,-50.293,-40.039,-117.188
1630093639.811,-570.312,-47.852,-42.480,-122.559
1630093639.814,-520.508,-42.480,-46.875,-126.465
1630093639.818,-317.383,-42.969,-49.316,-109.375
1630093639.822,-369.141,-47.852,-43.945,-85.938
1630093639.826,-534.180,-50.293,-44.434,-79.590
1630093639.830,-495.605,-20.508,-17.090,-46.875
1630093639.834,-472.656,-22.461,-10.742,-34.180
1630093639.838,-511.230,-53.711,-36.621,-62.500
1630093639.841,-705.566,-46.875,-30.762,-51.270
1630093639.845,-793.457,-21.973,-13.184,-30.273
1630093639.849,-687.988,-39.062,-37.598,-59.570
1630093639.853,-627.930,-57.617,-56.152,-64.941
1630093639.857,-744.141,-47.852,-34.668,-18.066
1630093639.858,-861.816,-49.805,-33.691,5.371
1630093639.862,-787.598,-50.781,-42.480,16.602
1630093639.866,-623.047,-49.316,-42.480,19.531
1630093639.870,-637.207,-49.316,-37.109,25.391
1630093639.874,-785.645,-58.594,-43.457,38.574
1630093639.878,-727.539,-49.805,-39.062,44.922
1630093639.882,-539.551,-48.828,-46.875,41.992
1630093639.885,-485.840,-23.926,-21.973,69.336
1630093639.889,-595.703,-2.930,7.812,96.191
1630093639.893,-663.086,-39.551,-31.738,55.664
1630093639.897,-469.238,-42.480,-52.246,38.574
1630093639.901,-354.004,-36.133,-44.434,53.223
1630093639.903,-492.188,-42.969,-29.785,91.309
1630093639.907,-557.617,-42.480,-32.715,104.004
1630093639.911,-445.312,-40.527,-41.016,94.727
1630093639.915,-272.949,-29.297,-27.344,104.980
1630093639.919,-363.770,-27.832,-16.113,125.000
1630093639.923,-552.734,-48.340,-31.250,129.395
1630093639.927,-506.836,-53.711,-48.828,115.723
1630093639.930,-295.898,7.812,15.137,185.547
1630093639.934,-307.129,8.789,34.180,189.941
1630093639.938,-535.156,-48.340,-28.320,115.234
1630093639.942,-551.758,-43.457,-37.109,99.609
1630093639.946,-414.551,-40.527,-44.434,76.660
1630093639.949,-393.555,-47.852,-36.621,77.637
1630093639.953,-483.398,-47.852,-19.531,110.840
1630093639.957,-480.957,-32.715,-27.832,105.469
1630093639.961,-397.949,-25.391,-41.504,61.035
1630093639.965,-333.984,-22.461,-39.551,44.434
1630093639.969,-433.594,-20.508,-37.109,46.387
1630093639.973,-467.773,11.230,-17.578,65.918
1630093639.976,-338.379,32.715,-11.230,61.035
1630093639.980,-276.855,1.465,-37.598,20.508
1630093639.984,-320.312,-0.977,-27.344,33.203
1630093639.988,-393.066,23.438,-11.719,69.336
1630093639.992,-381.348,21.973,-19.531,67.871
1630093639.993,-265.137,8.301,-33.203,62.012
1630093639.997,-240.234,17.578,-21.973,97.168
1630093640.001,-317.871,39.551,-6.348,156.738
1630093640.005,-326.172,33.691,-18.555,176.758
1630093640.009,-214.844,12.695,-39.551,176.758
1630093640.013,-168.945,9.766,-33.203,212.891
1630093640.017,-256.836,20.020,-12.695,257.324
1630093640.020,-295.410,15.137,-22.461,264.160
1630093640.024,-219.238,1.953,-48.828,243.164
1630093640.028,-125.977,4.395,-46.387,237.793
1630093640.032,-206.055,0.488,-34.668,233.887
1630093640.036,-295.410,-3.418,-32.715,227.539
1630093640.041,-228.027,-5.371,-40.039,215.820
1630093640.045,-92.773,1.953,-37.598,201.172
1630093640.049,-125.977,3.418,-25.391,193.848
1630093640.053,-250.000,-1.953,-30.762,182.617
1630093640.057,-223.633,-4.395,-38.086,174.805
1630093640.061,-78.613,2.441,-30.762,184.082
1630093640.065,-63.965,5.859,-17.578,208.008
1630093640.068,-220.703,-8.789,-27.832,223.145
1630093640.072,-243.652,-12.695,-39.062,212.402
1630093640.076,-135.254,-10.742,-37.109,209.473
1630093640.080,-75.195,-14.160,-34.668,235.840
1630093640.084,-172.852,-28.320,-36.621,269.043
1630093640.098,-219.727,-29.785,-40.039,289.062
1630093640.102,-122.070,-21.973,-47.363,293.457
1630093640.106,-64.453,-30.762,-45.410,296.875
1630093640.110,-133.789,-33.691,-33.203,286.621
1630093640.114,-213.867,-33.203,-34.180,265.625
1630093640.118,-118.652,-11.230,-24.414,265.137
1630093640.122,23.926,0.977,-18.555,243.164
1630093640.125,-44.434,-25.391,-33.203,200.195
1630093640.129,-141.602,-29.297,-35.156,183.594
1630093640.133,-127.441,-29.785,-40.039,168.457
1630093640.137,-39.551,-36.133,-43.945,154.785
1630093640.141,-13.672,-37.598,-36.621,143.066
1630093640.143,-123.535,-31.250,-32.227,138.672
1630093640.147,-150.879,-29.785,-36.621,124.512
1630093640.151,-62.988,-31.738,-41.504,96.191
1630093640.155,-18.555,-33.203,-39.551,81.543
1630093640.159,-129.395,-33.691,-24.902,90.820
1630093640.163,-195.801,-30.762,-21.484,101.074
1630093640.167,-113.281,-33.203,-36.133,88.867
1630093640.170,-36.133,-40.527,-48.340,57.129
1630093640.174,-57.129,-18.555,-12.207,79.590
1630093640.178,-100.098,0.000,9.277,93.262
1630093640.182,-99.121,-31.738,-32.715,43.945
1630093640.186,-20.996,-49.316,-48.340,8.789
1630093640.189,-35.645,-48.828,-29.297,8.789
1630093640.193,-123.535,-44.922,-28.320,8.789
1630093640.197,-120.605,-45.898,-43.945,-6.348
1630093640.201,-47.852,-45.410,-49.316,-17.090
1630093640.205,-14.648,-34.668,-31.250,-19.043
1630093640.209,-101.562,-33.203,-20.508,-14.648
1630093640.213,-132.324,-35.645,-35.645,-30.273
1630093640.216,-42.480,-32.227,-43.945,-45.898
1630093640.220,29.785,-21.973,-31.250,-46.387
1630093640.224,-49.805,-31.250,-32.227,-54.688
1630093640.228,-130.859,-41.992,-43.457,-74.219
1630093640.232,-81.055,-38.086,-44.922,-90.332
1630093640.233,-2.441,-35.645,-43.945,-96.680
1630093640.237,-56.641,-42.480,-31.250,-90.332
1630093640.241,-150.391,-45.898,-30.762,-89.844
1630093640.245,-116.699,-40.039,-41.504,-101.074
1630093640.249,0.488,-33.691,-48.828,-116.211
1630093640.253,-21.973,-38.574,-36.133,-118.164
1630093640.257,-163.086,-48.828,-26.855,-113.281
1630093640.260,-180.664,-42.969,-35.156,-121.094
1630093640.264,-80.078,-45.898,-41.992,-138.184
1630093640.268,-20.020,-54.688,-39.551,-142.090
1630093640.272,-79.590,-53.223,-26.367,-123.047
1630093640.276,-125.977,-53.223,-29.297,-113.770
1630093640.279,-31.250,-47.363,-35.156,-114.258
1630093640.283,41.016,-41.504,-36.133,-127.930
1630093640.287,-40.527,-39.062,-32.227,-130.859
1630093640.291,-120.117,-35.156,-35.156,-131.836
1630093640.295,-68.848,-38.086,-40.527,-132.812
1630093640.299,31.250,-32.227,-37.109,-134.766
1630093640.303,-21.484,-28.809,-32.715,-134.277
1630093640.306,-136.230,-27.344,-34.668,-129.883
1630093640.310,-117.676,-30.273,-43.457,-143.066
1630093640.314,0.000,-36.621,-45.898,-153.320
1630093640.318,4.395,-33.203,-29.297,-149.902
1630093640.322,-136.230,-36.621,-27.344,-138.672
1630093640.323,-166.992,-43.945,-39.551,-132.324
1630093640.327,-60.059,-39.062,-42.969,-132.324
1630093640.331,-9.277,-32.227,-33.691,-133.301
1630093640.335,-124.023,-47.852,-30.762,-137.695
1630093640.339,-156.738,-48.828,-40.527,-126.953
1630093640.343,-28.809,-32.715,-45.898,-127.441
1630093640.347,76.172,-20.508,-31.250,-120.117
1630093640.350,10.254,-6.836,-6.348,-98.145
1630093640.354,-104.980,-23.926,-20.020,-115.234
1630093640.358,-52.246,-37.598,-41.504,-140.625
1630093640.362,60.059,-35.645,-46.387,-159.180
1630093640.366,26.367,-36.621,-29.297,-155.762
1630093640.368,-85.938,-39.062,-29.785,-157.715
1630093640.372,-87.891,-43.945,-34.180,-162.109
1630093640.376,35.645,-40.527,-36.621,-156.250
1630093640.380,37.598,-41.992,-33.203,-158.691
1630093640.384,-112.305,-41.992,-26.367,-160.645
1630093640.388,-156.250,-40.527,-31.250,-165.527
1630093640.392,-19.531,-25.879,-23.926,-143.066
1630093640.395,78.613,-30.762,-24.414,-142.578
1630093640.399,-63.965,-50.293,-32.227,-169.922
1630093640.403,-178.223,-45.898,-28.320,-169.434
1630093640.407,-95.703,-46.387,-35.645,-166.504
1630093640.411,17.090,-48.828,-43.945,-180.176
1630093640.414,-50.781,-44.922,-31.250,-180.664
1630093640.418,-167.480,-42.480,-33.691,-188.965
1630093640.422,-121.582,-42.480,-46.387,-204.102
1630093640.426,36.133,-36.133,-49.316,-307.617
1630093640.430,11.719,-31.738,-38.574,-457.520
1630093640.434,-126.953,-29.785,-24.902,-501.465
1630093640.438,-126.953,-32.227,-30.273,-510.742
1630093640.441,35.156,-42.480,-42.480,-513.184
1630093640.445,62.500,-42.480,-38.574,-514.160
1630093640.449,-128.906,-40.039,-31.250,-511.719
1630093640.453,-123.047,-37.598,-30.273,-500.488
1630093640.457,55.664,-39.551,-44.922,-510.254
1630093640.473,184.082,-40.527,-39.062,-503.418
1630093640.477,64.941,-37.109,-25.391,-472.656
1630093640.481,-72.754,-37.109,-28.809,-447.754
1630093640.485,62.500,-39.062,-41.504,-439.453
1630093640.489,258.789,-39.551,-48.340,-430.664
1630093640.493,164.062,-37.109,-27.344,-396.973
1630093640.497,-58.594,-38.574,-28.320,-379.883
1630093640.500,-5.859,-44.434,-42.969,-383.789
1630093640.504,298.828,-44.434,-43.457,-375.000
1630093640.508,356.934,-33.203,-28.809,-348.633
1630093640.512,151.367,-34.180,-27.832,-334.961
1630093640.516,214.844,-42.480,-41.504,-333.008
1630093640.518,582.031,-35.645,-44.434,-321.289
1630093640.522,684.570,-32.227,-37.598,-311.523
1630093640.526,351.074,-42.480,-36.133,-297.852
1630093640.530,249.023,-37.598,-36.621,-282.715
1630093640.534,596.191,-27.832,-30.762,-267.578
1630093640.538,856.445,-31.738,-30.273,-256.348
1630093640.542,540.039,-39.062,-27.344,-247.070
1630093640.545,205.566,-42.480,-34.180,-241.699
1630093640.549,360.352,-20.508,-21.973,-217.773
1630093640.553,626.465,-12.207,-12.695,-195.801
1630093640.557,400.391,-38.574,-29.785,-219.727
1630093640.561,15.625,-45.410,-30.273,-218.750
1630093640.564,-4.883,-47.363,-39.551,-212.891
1630093640.568,349.609,-41.992,-47.852,-213.379
1630093640.572,424.805,-41.016,-42.480,-207.031
1630093640.576,35.645,-41.504,-37.109,-196.289
1630093640.580,-6.836,-35.645,-30.273,-179.199
1630093640.584,409.180,-41.504,-34.180,-173.828
1630093640.588,588.867,-45.898,-37.598,-177.734
1630093640.591,185.059,-43.457,-37.598,-182.129
1630093640.595,-41.992,-44.922,-43.945,-182.617
1630093640.599,241.699,-48.828,-45.410,-171.875
1630093640.603,562.988,-46.387,-37.598,-155.273
1630093640.607,291.992,-43.945,-31.250,-149.902
1630093640.608,-89.355,-47.363,-45.410,-169.434
1630093640.612,83.984,-43.457,-51.758,-165.527
1630093640.616,500.000,-44.434,-44.434,-149.414
1630093640.620,403.809,-49.316,-31.250,-139.160
1630093640.624,-54.688,-51.758,-37.598,-150.879
1630093640.628,-73.730,-49.316,-42.480,-150.879
1630093640.632,309.570,-52.734,-44.434,-137.207
1630093640.635,401.367,-29.297,-22.461,-113.281
1630093640.639,-1.465,-4.883,2.930,-94.238
1630093640.643,-197.266,-35.645,-25.391,-122.070
1630093640.647,157.227,-45.898,-43.457,-135.742
1630093640.651,427.246,-37.598,-40.039,-129.883
1630093640.653,47.852,-41.504,-36.621,-122.070
1630093640.657,-239.258,-47.363,-41.992,-128.418
1630093640.661,-4.883,-47.852,-43.457,-137.207
1630093640.665,360.352,-35.156,-20.996,-115.723
1630093640.669,133.789,-43.945,-17.090,-103.516
1630093640.673,-322.266,-60.547,-40.039,-120.605
1630093640.677,-210.449,-51.758,-43.457,-132.812
1630093640.680,270.996,-28.320,-29.785,-117.188
1630093640.684,206.055,-32.227,-22.949,-112.793
1630093640.688,-291.992,-51.758,-30.273,-125.000
1630093640.692,-275.391,-46.387,-35.645,-118.164
1630093640.696,190.918,-38.086,-40.527,-108.887
1630093640.698,362.793,-41.016,-40.527,-111.816
1630093640.702,-81.055,-47.852,-36.133,-114.258
1630093640.706,-277.344,-46.387,-34.668,-104.004
1630093640.710,125.977,-50.293,-48.340,-113.770
1630093640.714,468.750,-54.199,-49.316,-121.094
1630093640.718,130.859,-47.363,-39.062,-111.328
1630093640.722,-186.035,-30.273,-31.738,-96.680
1630093640.725,116.699,-20.996,-29.297,-95.703
1630093640.729,589.844,-35.156,-41.016,-110.352
1630093640.733,420.898,-39.062,-34.180,-105.957
1630093640.737,-18.066,-41.504,-40.039,-110.352
1630093640.741,104.980,-39.062,-42.969,-105.469
1630093640.747,648.926,-33.203,-42.969,-99.121
1630093640.751,646.973,-37.109,-35.156,-99.121
1630093640.755,145.996,-13.672,-2.930,-64.453
1630093640.759,67.871,-16.602,-11.230,-78.125
1630093640.763,537.598,-48.340,-43.945,-100.098
1630093640.767,776.855,-40.527,-31.738,-84.473
1630093640.771,250.977,-20.996,-11.230,-74.707
1630093640.774,-105.957,-31.250,-35.645,-94.238
1630093640.778,300.781,-42.969,-52.246,-104.980
1630093640.782,824.219,-34.668,-35.645,-87.891
1630093640.786,499.512,-34.180,-33.203,-88.379
1630093640.790,22.949,-36.133,-34.668,-94.727
1630093640.789,246.094,-41.992,-39.062,-102.539
1630093640.793,823.242,-38.574,-41.992,-100.586
1630093640.797,595.215,-36.621,-37.598,-94.727
1630093640.801,-85.938,-39.551,-41.504,-95.215
1630093640.805,-48.828,-46.387,-50.293,-106.934
1630093640.809,574.219,-35.156,-35.645,-81.055
1630093640.813,634.766,-18.555,-16.602,-64.941
1630093640.816,-93.262,-36.133,-35.645,-92.773
1630093640.820,-270.020,-45.410,-43.457,-99.609
1630093640.824,316.895,-41.992,-39.062,-102.051
1630093640.828,626.465,-40.527,-35.645,-104.492
1630093640.832,50.293,-41.992,-31.250,-104.980
1630093640.848,-245.605,-42.969,-34.180,-106.445
1630093640.852,255.371,-36.621,-35.156,-92.773
1630093640.856,751.465,-29.297,-36.621,-86.426
1630093640.860,328.125,-25.879,-31.250,-94.727
1630093640.864,-269.043,-25.879,-30.273,-99.121
1630093640.868,16.113,-22.949,-33.691,-94.238
1630093640.872,691.406,-22.949,-39.062,-88.379
1630093640.875,504.395,-28.809,-39.062,-95.703
1630093640.879,-205.566,-33.203,-34.668,-86.426
1630093640.883,-170.898,-23.438,-27.832,-73.730
1630093640.887,468.262,-31.738,-37.109,-82.520
1630093640.891,507.812,-45.410,-44.434,-93.262
1630093640.893,-224.121,-38.086,-43.945,-92.285
1630093640.897,-383.301,-37.109,-50.781,-94.727
1630093640.901,321.289,-38.574,-51.270,-91.309
1630093640.905,804.688,-33.691,-45.410,-87.402
1630093640.909,144.531,-34.180,-34.180,-96.680
1630093640.913,-421.875,-34.180,-34.180,-104.004
1630093640.917,-17.578,-27.832,-39.062,-99.121
1630093640.920,555.176,-29.785,-39.551,-88.379
1630093640.924,120.605,-29.785,-24.414,-79.590
1630093640.928,-580.566,-33.691,-17.578,-81.543
1630093640.932,-442.871,-34.180,-28.809,-99.609
1630093640.936,193.848,-26.855,-33.203,-96.191
1630093640.938,123.047,-31.738,-32.227,-92.285
1630093640.942,-578.613,-30.273,-28.320,-87.402
1630093640.946,-696.777,-22.949,-26.855,-84.961
1630093640.950,-131.348,-28.320,-30.762,-84.961
1630093640.954,98.633,-30.762,-18.066,-76.172
1630093640.958,-474.609,-25.391,-17.578,-85.449
1630093640.962,-745.117,-26.855,-28.320,-92.285
1630093640.965,-281.250,-26.367,-26.367,-80.078
1630093640.969,177.246,-16.113,-15.137,-68.848
1630093640.973,-293.457,-25.879,-15.137,-84.961
1630093640.977,-821.777,-39.062,-29.297,-100.586
1630093640.981,-524.902,-31.738,-29.297,-93.750
1630093640.985,64.941,-23.438,-31.250,-87.402
1630093640.989,-114.258,-26.367,-27.832,-89.355
1630093640.993,-678.223,-26.855,-34.668,-95.703
1630093640.997,-631.348,-19.043,-37.598,-94.238
1630093641.001,-73.242,-22.461,-30.273,-81.543
1630093641.005,-24.902,-29.297,-25.879,-75.684
1630093641.009,-591.309,-31.250,-26.855,-82.031
1630093641.012,-727.539,-36.621,-35.156,-93.262
1630093641.016,-249.023,-40.527,-41.016,-91.309
1630093641.020,44.434,-33.691,-38.086,-83.496
1630093641.024,-418.457,-32.227,-36.621,-96.680
1630093641.028,-731.934,-40.527,-40.039,-97.168
1630093641.028,-350.098,-40.039,-47.852,-92.773
1630093641.032,125.488,-33.203,-47.363,-93.262
1630093641.036,-180.664,-34.668,-28.320,-70.312
1630093641.040,-631.348,-41.016,-21.973,-54.688
1630093641.044,-461.426,-44.922,-28.809,-55.176
1630093641.048,49.316,-47.363,-34.180,-53.711
1630093641.052,-48.340,-55.176,-30.762,-52.734
1630093641.055,-584.473,-78.613,-34.180,-56.641
1630093641.059,-561.035,-86.426,-42.480,-66.895
1630093641.063,-32.227,-86.426,-39.062,-59.570
1630093641.067,89.355,-98.145,-31.738,-55.664
1630093641.071,-430.664,-107.422,-35.645,-66.895
1630093641.073,-599.121,-109.863,-46.875,-69.824
1630093641.077,-138.672,-106.934,-52.734,-70.801
1630093641.081,193.848,-103.516,-42.969,-59.082
1630093641.085,-204.102,-104.980,-34.668,-54.688
1630093641.089,-549.805,-105.957,-40.527,-57.129
1630093641.093,-250.488,-100.586,-50.293,-61.035
1630093641.097,219.238,-81.055,-35.645,-44.434
1630093641.100,-20.020,-66.895,-16.113,-23.438
1630093641.104,-486.816,-88.379,-38.574,-45.410
1630093641.108,-366.699,-92.285,-52.246,-56.641
1630093641.112,159.668,-80.078,-46.387,-57.617
1630093641.116,138.184,-81.055,-37.598,-58.105
1630093641.118,-378.906,-87.402,-31.738,-49.316
1630093641.122,-411.621,-85.449,-31.250,-50.781
1630093641.126,117.188,-68.359,-32.227,-44.922
1630093641.130,312.012,-64.941,-26.367,-47.852
1630093641.134,-171.875,-73.730,-29.785,-66.895
1630093641.138,-375.000,-73.730,-36.133,-67.871
1630093641.142,84.961,-58.105,-22.949,-42.969
1630093641.145,457.520,-61.523,-21.484,-51.758
1630093641.149,84.961,-73.730,-37.598,-77.637
1630093641.153,-190.918,-69.824,-31.250,-69.824
1630093641.157,207.031,-71.777,-32.227,-64.453
1630093641.161,811.035,-66.406,-36.133,-57.129
1630093641.166,583.496,-59.570,-31.738,-58.594
1630093641.170,8.789,-49.805,-30.273,-62.012
1630093641.174,40.527,-47.363,-28.809,-57.129
1630093641.178,557.617,-58.594,-38.574,-72.266
1630093641.182,421.387,-56.641,-34.668,-79.102
1630093641.186,-258.301,-47.363,-23.926,-78.613
1630093641.190,-208.496,-44.434,-30.762,-87.891
1630093641.193,559.082,-44.434,-41.992,-83.984
1630093641.197,961.426,-39.062,-33.691,-73.730
1630093641.201,355.957,-40.527,-28.320,-76.660
1630093641.205,68.848,-40.527,-30.762,-77.148
1630093641.209,625.000,-40.039,-42.969,-82.031
1630093641.223,-974.609,-46.387,-44.922,-86.914
1630093641.227,558.105,-40.039,-28.320,-81.055
1630093641.231,-29.297,-39.551,-28.809,-85.938
1630093641.235,191.895,-45.410,-41.504,-96.191
1630093641.239,830.078,-36.133,-43.457,-87.402
1630093641.243,566.406,-18.066,-16.113,-65.430
1630093641.247,-156.738,-20.508,-11.230,-61.035
1630093641.250,-172.363,-41.992,-37.598,-78.125
1630093641.254,445.801,-38.574,-33.691,-67.383
1630093641.258,505.371,-35.156,-22.949,-57.617
1630093641.262,-160.156,-40.039,-28.320,-68.848
1630093641.266,-322.754,-41.504,-33.691,-80.078
1630093641.268,236.816,-41.016,-32.715,-80.078
1630093641.272,598.633,-40.527,-23.438,-70.312
1630093641.276,57.129,-42.480,-21.484,-74.707
1630093641.280,-347.168,-47.363,-32.715,-82.031
1630093641.284,92.773,-35.645,-32.227,-69.824
1630093641.288,669.922,-23.926,-30.273,-63.965
1630093641.292,276.855,-33.691,-38.086,-82.031
1630093641.295,-282.715,-42.480,-44.434,-92.773
1630093641.299,-1.953,-16.113,-23.926,-70.312
1630093641.303,632.324,-3.906,-9.766,-44.922
1630093641.307,458.008,-33.691,-28.809,-64.941
1630093641.311,-168.457,-37.109,-35.156,-80.566
1630093641.313,-142.090,-33.203,-32.227,-73.730
1630093641.317,483.398,-33.203,-27.344,-62.012
1630093641.321,653.320,-34.668,-25.879,-62.988
1630093641.325,38.086,-36.133,-30.273,-76.172
1630093641.329,-178.223,-24.902,-25.391,-74.219
1630093641.333,327.637,-25.879,-27.832,-69.336
1630093641.337,696.289,-42.480,-37.109,-77.148
1630093641.340,186.035,-47.363,-38.086,-88.867
1630093641.344,-188.477,-5.371,-2.441,-53.711
1630093641.348,164.062,-0.488,-7.812,-46.387
1630093641.352,659.180,-36.133,-46.387,-83.008
1630093641.356,353.516,-48.828,-37.109,-88.379
1630093641.358,-209.961,-54.688,-34.180,-77.637
1630093641.362,-59.570,-45.410,-38.086,-83.496
1630093641.366,551.270,-37.598,-41.504,-108.398
1630093641.370,549.805,-39.062,-29.785,-102.051
1630093641.374,-65.430,-28.320,-27.344,-91.797
1630093641.378,-143.555,-11.719,-32.715,-103.027
1630093641.382,475.586,-8.301,-36.621,-96.680
1630093641.385,719.238,-0.488,-26.367,-60.547
1630093641.389,112.793,3.418,-20.020,-54.199
1630093641.393,-200.684,-10.254,-40.039,-76.660
1630093641.397,298.828,-10.742,-42.480,-76.660
1630093641.401,795.898,0.488,-30.762,-67.383
1630093641.403,323.242,3.906,-33.203,-66.895
1630093641.407,-177.734,0.000,-46.387,-81.055
1630093641.411,143.555,0.977,-47.363,-76.660
1630093641.415,782.227,11.230,-31.250,-48.340
1630093641.419,512.207,5.859,-25.879,-50.293
1630093641.423,-126.953,-4.395,-28.320,-60.059
1630093641.427,1.953,-5.371,-32.227,-55.176
1630093641.430,677.246,-0.488,-32.227,-42.480
1630093641.434,673.340,-6.836,-33.203,-45.898
1630093641.438,-42.969,-22.461,-44.922,-68.359
1630093641.442,-154.785,-21.484,-45.898,-72.266
1630093641.446,471.680,-17.578,-42.969,-56.641
1630093641.450,785.156,-12.695,-38.574,-54.199
1630093641.454,154.785,-9.766,-34.180,-69.824
1630093641.458,-210.449,-10.742,-32.227,-68.848
1630093641.462,261.719,-14.160,-35.645,-72.266
1630093641.466,749.023,-20.996,-38.574,-71.777
1630093641.470,254.395,-25.879,-36.133,-71.777
1630093641.474,-301.270,-20.996,-28.809,-58.594
1630093641.477,-54.688,-20.020,-24.414,-46.875
1630093641.481,608.887,-25.391,-38.086,-56.152
1630093641.485,364.746,-26.367,-40.039,-57.129
1630093641.489,-398.438,-37.109,-39.551,-60.547
1630093641.493,-345.703,-35.645,-40.527,-68.359
1630093641.493,368.164,-28.320,-36.621,-61.035
1630093641.497,460.938,-32.227,-33.203,-50.293
1630093641.501,-271.973,-28.809,-36.621,-59.570
1630093641.505,-489.746,-26.855,-38.574,-64.453
1630093641.509,170.898,-28.320,-28.809,-48.828
1630093641.513,572.266,-28.809,-26.855,-43.457
1630093641.517,-110.840,-15.137,-14.648,-41.992
1630093641.520,-582.520,-9.277,-25.879,-60.059
1630093641.524,-100.098,-25.879,-51.270,-80.078
1630093641.528,582.520,-28.809,-41.504,-57.129
1630093641.532,121.094,-29.785,-37.598,-56.152
1630093641.536,-518.066,-34.180,-40.527,-68.359
1630093641.539,-179.688,-29.785,-43.945,-72.266
1630093641.543,708.984,-20.508,-43.457,-64.941
1630093641.547,564.453,-24.414,-29.785,-56.152
1630093641.551,-220.215,-31.738,-31.738,-57.129
1630093641.555,-2.441,-30.762,-44.922,-67.871
1630093641.559,787.598,-14.160,-30.273,-54.199
1630093641.563,887.695,-6.348,-28.809,-50.293
1630093641.566,56.641,-30.762,-42.480,-71.777
1630093641.570,-314.453,-44.434,-37.598,-60.059
1630093641.574,482.422,-41.992,-31.250,-42.969
1630093641.578,937.500,-39.551,-21.973,-18.555
1630093641.582,-71.777,-38.086,-31.738,-41.992
1630093641.598,-743.164,-30.762,-47.363,-83.008
1630093641.602,61.035,-20.020,-38.574,-71.777
1630093641.606,-985.352,-15.137,-32.227,-55.664
1630093641.610,400.879,-12.207,-36.621,-65.918
1630093641.614,-534.668,-12.207,-43.945,-90.332
1630093641.618,-90.332,7.324,-33.203,-77.637
1630093641.622,928.711,15.625,-33.203,-56.641
1630093641.625,619.629,-5.859,-40.527,-71.777
1630093641.629,-484.375,-14.160,-40.527,-90.820
1630093641.633,-468.750,-13.184,-48.340,-100.098
1630093641.637,583.984,-0.488,-43.945,-82.520
1630093641.641,859.863,-13.184,-43.945,-67.871
1630093641.658,-111.328,-23.438,-39.062,-65.430
1630093641.662,-323.242,-11.719,-31.738,-55.176
1630093641.666,519.531,-17.090,-34.668,-53.223
1630093641.670,-963.379,-15.625,-41.016,-60.547
1630093641.674,237.305,-15.137,-38.574,-73.730
1630093641.678,-462.402,-19.531,-35.645,-78.613
1630093641.682,227.051,-14.648,-31.738,-69.824
1630093641.685,-943.359,-16.602,-31.738,-73.730
1630093641.689,490.234,-7.324,-19.043,-55.176
1630093641.693,-504.395,-9.766,-7.324,-30.273
1630093641.697,-234.863,-26.855,-26.367,-54.199
1630093641.701,818.848,-22.461,-29.785,-47.363
1630093641.689,702.637,-29.297,-25.391,-39.551
1630093641.693,-393.066,-34.668,-23.438,-61.035
1630093641.697,-513.672,-32.227,-28.320,-73.730
1630093641.701,500.000,-39.551,-30.273,-57.617
1630093641.705,877.441,-30.273,-19.531,-40.039
1630093641.709,-168.457,-25.391,-21.484,-51.758
1630093641.713,-714.844,-39.551,-37.598,-79.590
1630093641.716,182.129,-41.016,-31.250,-68.848
1630093641.720,-979.980,-42.969,-19.531,-40.527
1630093641.724,118.652,-44.922,-21.973,-56.152
1630093641.728,-804.688,-53.711,-35.156,-76.660
1630093641.732,-242.676,-37.598,-24.902,-66.406
1630093641.733,900.391,-6.836,3.906,-22.949
1630093641.737,400.391,-26.855,-14.648,-35.156
1630093641.741,-844.238,-48.828,-34.180,-65.918
1630093641.745,-713.379,-41.992,-30.762,-58.105
1630093641.749,530.273,-32.715,-26.367,-38.086
1630093641.753,675.293,-35.156,-35.645,-49.316
1630093641.757,-617.188,-42.969,-52.734,-92.285
1630093641.760,-933.594,-23.438,-35.645,-75.195
1630093641.764,225.098,0.488,-2.441,-22.949
1630093641.768,845.703,-22.461,-24.414,-42.480
1630093641.772,-407.715,-46.387,-49.805,-86.426
1630093641.776,-1000.000,-43.945,-40.527,-82.031
1630093641.778,-240.723,-34.180,-28.320,-56.641
1630093641.782,933.594,-34.668,-29.297,-39.551
1630093641.786,15.625,-41.504,-44.434,-69.336
1630093641.790,-1000.000,-28.809,-36.621,-74.219
1630093641.794,-564.941,-24.414,-24.902,-53.223
1630093641.798,750.000,-34.180,-26.855,-32.227
1630093641.802,442.871,-35.156,-43.457,-48.340
1630093641.805,-854.004,-8.789,-16.602,-50.781
1630093641.809,-839.844,-4.883,-0.488,-43.457
1630093641.813,374.023,-31.738,-22.461,-48.828
1630093641.817,703.125,-36.133,-31.250,-48.340
1630093641.821,-605.957,-49.805,-38.574,-71.289
1630093641.823,-1000.000,-52.734,-39.551,-68.359
1630093641.827,19.043,-40.039,-33.691,-58.594
1630093641.831,856.934,-31.250,-33.203,-54.688
1630093641.835,-254.395,-33.203,-44.434,-85.938
1630093641.839,-1000.000,-31.250,-47.363,-102.051
1630093641.843,-329.590,-28.320,-43.945,-88.867
1630093641.847,839.355,-0.977,-15.625,-53.223
1630093641.850,129.883,4.395,-17.090,-69.824
1630093641.854,-1000.000,-35.645,-49.316,-125.000
1630093641.858,-723.633,-37.598,-44.434,-104.980
1630093641.862,555.176,-24.902,-28.809,-62.012
1630093641.866,487.793,-35.645,-44.434,-68.848
1630093641.868,-827.148,-49.316,-48.340,-98.145
1630093641.872,-964.844,-45.410,-38.574,-101.562
1630093641.876,221.680,-14.160,-9.277,-47.363
1630093641.880,667.969,-13.672,-9.277,-41.992
1630093641.884,-570.312,-43.945,-40.527,-102.051
1630093641.888,-1000.000,-46.387,-32.715,-104.980
1630093641.892,-106.934,-20.996,0.488,-51.270
1630093641.895,741.211,-23.438,-8.301,-36.621
1630093641.899,-251.465,-50.293,-43.945,-88.379
1630093641.903,-1000.000,-48.340,-42.480,-95.703
1630093641.907,-489.746,-41.016,-38.574,-83.984
1630093641.911,647.949,-36.133,-31.738,-65.918
1630093641.917,179.688,-44.434,-42.480,-85.938
1630093641.921,-953.613,-40.527,-40.527,-94.727
1630093641.925,-780.762,-27.832,-29.785,-70.312
1630093641.929,388.672,-32.227,-34.180,-61.035
1630093641.933,456.543,-36.621,-40.039,-62.500
1630093641.937,-705.566,-33.203,-37.598,-77.637
1630093641.941,-937.500,-32.715,-35.645,-79.590
1630093641.944,76.660,-39.551,-37.598,-62.012
1630093641.948,651.367,-41.016,-39.551,-56.152
1630093641.952,-470.215,-50.293,-41.992,-87.402
1630093641.956,-1000.000,-46.387,-35.156,-94.238
1630093641.960,-261.719,-41.016,-27.344,-83.984
1630093641.973,679.688,-47.363,-29.297,-68.359
1630093641.977,-105.469,-56.641,-41.016,-83.008
1630093641.981,-1000.000,-62.500,-45.410,-96.680
1630093641.985,-598.633,-57.129,-39.551,-83.984
1630093641.989,547.363,-48.828,-33.691,-68.359
1630093641.993,290.039,-27.832,-23.926,-56.152
1630093641.997,-800.293,-18.066,-12.695,-59.570
1630093642.000,-832.031,-47.852,-32.715,-92.773
1630093642.004,251.465,-48.828,-34.180,-78.125
1630093642.008,496.582,-42.480,-36.133,-67.871
1630093642.012,-655.273,-54.688,-44.434,-101.074
1630093642.016,-976.562,-56.152,-42.480,-101.562
1630093642.018,3.418,-47.852,-32.227,-61.035
1630093642.022,694.336,-43.945,-32.715,-44.922
1630093642.026,-311.523,-53.711,-41.504,-76.660
1630093642.030,-995.117,-57.129,-37.109,-79.590
1630093642.034,-290.527,-48.340,-28.320,-59.082
1630093642.038,728.027,-41.504,-28.320,-41.504
1630093642.042,69.824,-44.922,-34.180,-62.012
1630093642.045,-905.762,-53.223,-36.621,-87.891
1630093642.049,-541.992,-31.250,-10.254,-49.316
1630093642.053,619.629,-9.277,9.766,-1.465
1630093642.057,405.762,-36.621,-30.273,-43.457
1630093642.061,-765.625,-47.852,-43.945,-70.801
1630093642.063,-830.078,-46.875,-37.109,-63.965
1630093642.067,259.766,-42.969,-33.203,-41.504
1630093642.071,630.859,-43.945,-43.945,-39.551
1630093642.075,-524.902,-52.246,-51.758,-72.754
1630093642.079,-911.621,-36.621,-30.762,-60.547
1630093642.083,7.324,-31.250,-17.578,-40.039
1630093642.087,726.074,-43.945,-32.227,-46.387
1630093642.090,-202.148,-48.828,-43.945,-81.055
1630093642.094,-899.902,-29.297,-33.691,-73.242
1630093642.098,-307.617,-28.809,-23.926,-41.992
1630093642.102,661.133,-48.340,-28.809,-53.711
1630093642.106,92.285,-53.223,-34.668,-83.496
1630093642.108,-898.926,-59.570,-27.344,-87.402
1630093642.112,-677.246,-75.684,-34.668,-83.984
1630093642.116,419.434,-83.008,-26.367,-73.242
1630093642.120,402.832,-92.285,-28.320,-81.543
1630093642.124,-770.996,-105.957,-34.180,-111.816
1630093642.128,-950.684,-109.863,-32.227,-108.398
1630093642.132,100.098,-112.793,-28.809,-79.102
1630093642.135,612.305,-95.703,-0.977,-50.781
1630093642.139,-472.168,-90.332,0.000,-71.289
1630093642.143,-1000.000,-117.188,-42.480,-123.047
1630093642.147,-199.707,-116.211,-37.109,-97.656
1630093642.151,670.410,-112.305,-29.297,-80.566
1630093642.156,-181.641,-111.816,-45.410,-108.887
1630093642.160,-979.004,-111.328,-43.945,-107.910
1630093642.164,-428.711,-104.980,-36.621,-89.355
1630093642.168,684.082,-84.961,-23.926,-51.270
1630093642.172,240.723,-81.055,-26.367,-57.129
1630093642.176,-878.418,-94.238,-37.598,-95.703
1630093642.180,-725.098,-97.656,-37.109,-90.820
1630093642.183,489.258,-70.801,-15.625,-39.551
1630093642.187,618.164,-71.777,-27.344,-44.434
1630093642.191,-620.605,-100.098,-47.852,-87.891
1630093642.195,-831.055,-89.355,-35.156,-69.824
1630093642.199,251.953,-73.730,-24.902,-41.016
1630093642.198,858.398,-74.707,-35.645,-44.434
1630093642.202,-224.121,-76.660,-46.875,-74.219
1630093642.206,-789.551,-72.754,-38.574,-83.496
1630093642.210,114.258,-61.523,-28.320,-62.988
1630093642.214,-961.426,-53.711,-26.367,-47.363
1630093642.218,205.078,-62.500,-39.551,-79.102
1630093642.222,-689.941,-48.828,-18.555,-68.359
1630093642.225,-11.230,-29.785,5.371,-35.156
1630093642.229,-997.070,-54.199,-17.578,-42.480
1630093642.233,632.324,-62.012,-45.410,-68.359
1630093642.237,-222.168,-56.641,-45.410,-84.961
1630093642.241,-75.195,-52.734,-37.109,-78.125
1630093642.243,880.859,-43.457,-28.320,-53.711
1630093642.247,272.461,-45.410,-34.668,-59.570
1630093642.251,-1000.000,-42.480,-41.992,-85.938
1630093642.255,-1000.000,-46.387,-39.551,-88.379
1630093642.259,79.102,-49.805,-31.738,-70.801
1630093642.263,807.129,-39.551,-27.344,-51.758
1630093642.267,-557.129,-31.738,-23.438,-63.965
1630093642.270,-1000.000,-38.086,-23.926,-70.801
1630093642.274,-308.594,-50.781,-30.762,-62.500
1630093642.278,-939.941,-32.715,-14.648,-23.926
1630093642.282,82.031,-17.090,-4.395,-27.832
1630093642.286,-1000.000,-40.527,-25.879,-77.637
1630093642.289,-461.914,-55.664,-30.273,-77.148
1630093642.293,-989.258,-48.340,-23.438,-44.922
1630093642.297,392.578,-39.062,-35.645,-52.734
1630093642.301,-1000.000,-40.527,-38.086,-74.707
1630093642.305,-773.926,-56.152,-39.551,-82.031
1630093642.309,655.273,-3.418,10.742,-3.906
1630093642.313,754.883,23.438,23.438,21.973
1630093642.316,-674.805,-39.551,-39.062,-70.801
1630093642.320,-1000.000,-50.293,-40.527,-85.449
1630093642.324,245.117,-34.668,-17.578,-41.992
1630093642.328,-960.938,-34.180,-22.949,-27.832
1630093642.332,-176.758,-46.387,-42.969,-71.289
1630093642.349,-1000.000,-55.664,-44.434,-87.402
1630093642.353,-157.715,-20.020,1.465,-23.926
1630093642.357,-863.770,-0.488,16.602,11.230
1630093642.361,152.344,-42.480,-33.203,-61.523
1630093642.365,-1000.000,-44.922,-38.574,-79.102
1630093642.369,-682.129,-39.062,-30.762,-60.547
1630093642.373,799.316,-42.480,-32.715,-42.969
1630093642.376,496.094,-48.340,-52.734,-58.594
1630093642.380,-937.012,-46.875,-53.711,-79.590
1630093642.384,-1000.000,-30.762,-29.297,-55.664
1630093642.388,277.832,-35.156,-26.367,-39.062
1630093642.392,770.996,-45.410,-43.457,-48.340
1630093642.394,-581.055,-49.805,-47.852,-74.219
1630093642.398,-1000.000,-51.270,-43.457,-78.125
1630093642.402,-109.863,-47.363,-39.551,-56.641
1630093642.406,-990.723,-50.293,-43.945,-41.992
1630093642.410,-141.113,-41.504,-37.598,-50.781
1630093642.414,-1000.000,-31.738,-21.484,-45.898
1630093642.418,-490.723,-48.828,-26.367,-44.434
1630093642.421,957.031,-60.547,-39.551,-27.344
1630093642.425,314.941,-24.414,-13.184,8.301
1630093642.429,-1000.000,-11.719,7.812,11.230
1630093642.433,-861.328,-60.547,-32.715,-31.250
1630093642.437,560.059,-56.641,-35.645,-4.883
1630093642.438,646.484,-48.828,-41.992,-1.953
1630093642.442,-767.578,-56.152,-52.734,-41.504
1630093642.446,-1000.000,-58.594,-55.664,-50.293
1630093642.450,125.977,-55.664,-54.688,-33.691
1630093642.454,913.086,-19.531,-23.438,10.254
1630093642.458,-367.188,-28.809,-30.273,-19.043
1630093642.462,-1000.000,-67.383,-59.570,-58.105
1630093642.465,-196.289,-55.664,-39.062,-22.949
1630093642.469,-931.641,-15.137,-3.906,34.668
1630093642.473,41.016,-27.344,-25.879,-6.836
1630093642.477,-1000.000,-65.430,-58.105,-66.406
1630093642.481,-557.617,-51.758,-43.457,-41.992
1630093642.484,913.086,-38.574,-40.527,-9.277
1630093642.488,442.383,-53.711,-53.223,-27.344
1630093642.492,-978.027,-56.152,-41.016,-28.809
1630093642.496,-861.816,-34.180,-29.297,-19.531
1630093642.500,494.141,-28.320,-26.855,-27.344
1630093642.504,751.465,-31.250,-43.457,-47.363
1630093642.508,-628.418,-31.738,-49.805,-79.102
1630093642.511,-1000.000,-7.324,-21.973,-66.895
1630093642.515,202.637,20.996,-1.953,-36.621
1630093642.519,967.773,-4.883,-32.715,-63.965
1630093642.523,-282.715,-23.926,-49.805,-115.723
1630093642.527,-1000.000,-15.625,-44.922,-127.930
1630093642.528,-159.668,-6.348,-38.574,-120.117
1630093642.532,-898.926,1.953,-29.297,-94.238
1630093642.536,152.832,0.000,-42.480,-122.070
1630093642.540,-1000.000,-0.977,-28.809,-128.418
1630093642.544,-558.594,-2.930,-11.230,-95.703
1630093642.548,892.578,2.441,-19.531,-72.266
1630093642.552,539.062,-0.977,-36.621,-73.730
1630093642.555,-911.621,4.395,-24.902,-81.055
1630093642.559,-808.105,7.324,-17.578,-77.148
1630093642.563,528.809,-17.578,-26.367,-68.359
1630093642.567,935.547,9.277,-22.461,-53.223
1630093642.571,-213.867,12.695,-4.395,-49.316
1630093642.573,-581.055,-26.367,-30.273,-77.637
1630093642.577,516.602,-17.090,-42.969,-69.824
1630093642.581,976.074,-3.418,-32.715,-44.434
1630093642.585,-248.535,-15.625,-43.457,-75.684
1630093642.589,-1000.000,-18.066,-40.039,-86.426
1630093642.593,-289.551,-12.695,-33.691,-65.430
1630093642.597,-903.320,11.719,-8.789,-20.508
1630093642.600,77.148,21.484,2.930,-15.625
1630093642.604,-1000.000,-14.648,-21.484,-55.176
1630093642.608,-868.652,-19.531,-24.414,-48.828
1630093642.612,623.047,-14.160,-17.578,-23.926
1630093642.616,359.375,-9.277,-27.832,-33.691
1630093642.619,-1000.000,-14.648,-36.133,-56.152
1630093642.623,-1000.000,-25.391,-41.992,-58.594
1630093642.627,64.453,12.207,2.441,3.906
1630093642.631,643.555,18.555,12.695,19.531
1630093642.635,-740.723,-22.949,-35.156,-50.781
1630093642.639,-1000.000,-23.438,-38.574,-69.336
1630093642.643,-231.445,10.254,2.930,-20.996
1630093642.646,918.945,9.277,-1.953,-0.488
1630093642.650,-257.324,-21.484,-48.340,-57.129
1630093642.654,-1000.000,-24.902,-46.875,-76.172
1630093642.658,-643.555,-20.508,-33.203,-51.758
1630093642.662,812.988,-17.578,-28.809,-25.391
1630093642.664,187.988,-24.414,-46.875,-57.617
1630093642.668,-1000.000,-28.320,-42.969,-77.637
1630093642.672,-983.887,-28.809,-32.715,-62.988
1630093642.676,396.484,-20.996,-21.973,-27.344
1630093642.680,559.570,-24.902,-28.809,-35.645
1630093642.684,-884.277,-19.531,-22.949,-51.758
1630093642.688,-1000.000,9.766,6.348,-20.020
1630093642.691,72.754,-2.930,-3.906,-17.090
1630093642.695,852.051,-19.531,-31.250,-32.715
1630093642.699,-453.125,-25.879,-38.574,-64.941
1630093642.703,-1000.000,-33.691,-34.668,-73.242
1630093642.707,-268.066,-35.156,-36.621,-51.758
1630093642.724,-947.266,-35.156,-41.016,-33.203
1630093642.728,29.785,-24.902,-40.039,-45.410
1630093642.732,-1000.000,-23.438,-37.598,-59.570
1630093642.736,-608.398,-31.250,-39.062,-49.805
1630093642.740,885.254,-30.762,-36.133,-18.555
1630093642.744,491.211,23.438,8.301,14.160
1630093642.748,-970.703,16.113,5.859,-19.043
1630093642.751,-969.238,-34.668,-41.992,-55.664
1630093642.755,443.848,-21.973,-17.578,-12.695
1630093642.759,726.562,8.301,15.625,14.160
1630093642.763,-676.270,-22.461,-15.137,-56.152
1630093642.767,-1000.000,-59.570,-42.969,-101.562
1630093642.768,-6.348,-43.457,-20.508,-62.012
1630093642.772,945.801,-45.898,-23.926,-48.340
1630093642.776,-307.617,-57.129,-39.062,-92.285
1630093642.780,-1000.000,-58.594,-37.109,-106.934
1630093642.784,-306.152,-52.246,-24.414,-77.148
1630093642.788,-911.621,-42.969,-20.996,-47.363
1630093642.792,159.668,-41.504,-40.527,-68.848
1630093642.795,-1000.000,-55.176,-52.246,-97.168
1630093642.799,-569.336,-18.066,-6.348,-46.875
1630093642.803,937.012,6.836,17.090,2.441
1630093642.807,479.492,-40.039,-44.922,-56.641
1630093642.811,-983.398,-48.828,-49.316,-87.402
1630093642.813,-880.371,-40.039,-20.996,-62.988
1630093642.817,500.977,-34.668,-9.766,-32.227
1630093642.821,855.469,-43.945,-29.297,-45.410
1630093642.825,-552.246,-51.270,-40.527,-80.566
1630093642.829,-958.984,-35.156,-16.113,-63.965
1630093642.833,289.551,-33.203,-1.953,-35.645
1630093642.837,-929.688,-49.805,-22.949,-33.691
1630093642.840,-134.277,-55.664,-37.109,-67.383
1630093642.844,-1000.000,-27.832,-7.324,-53.223
1630093642.848,-73.730,-29.297,-9.277,-45.410
1630093642.852,-864.258,-38.574,-28.809,-40.527
1630093642.856,163.086,-32.227,-41.992,-59.082
1630093642.860,-1000.000,-42.969,-47.363,-97.656
1630093642.864,-678.223,-46.875,-39.062,-88.867
1630093642.868,864.258,-45.898,-35.645,-53.223
1630093642.872,448.242,-25.391,-29.297,-33.691
1630093642.876,-991.211,-16.113,-23.438,-52.246
1630093642.880,-1000.000,-37.109,-35.645,-68.848
1630093642.884,238.281,-45.898,-40.527,-53.711
1630093642.887,793.457,-14.160,-8.789,-15.625
1630093642.891,-576.172,-5.859,3.906,-29.785
1630093642.895,-1000.000,-48.828,-37.109,-79.102
1630093642.899,-174.805,-43.457,-32.715,-59.082
1630093642.903,-988.770,-30.762,-28.809,-36.621
1630093642.903,-163.086,-37.109,-46.387,-71.777
1630093642.907,-1000.000,-42.480,-41.504,-86.426
1630093642.911,-532.227,-37.598,-31.250,-69.824
1630093642.915,964.844,-12.207,-5.859,-16.602
1630093642.919,237.305,-19.043,-20.996,-35.156
1630093642.923,-1000.000,-47.852,-46.387,-84.961
1630093642.927,-941.406,-52.246,-43.457,-75.195
1630093642.930,498.047,-1.953,12.207,-0.977
1630093642.934,555.664,1.953,4.395,-2.930
1630093642.938,-890.137,-51.758,-58.105,-88.379
1630093642.942,-1000.000,-44.922,-47.852,-83.008
1630093642.946,41.504,-33.691,-32.227,-43.945
1630093642.949,882.324,-30.273,-43.945,-37.109
1630093642.953,-417.480,-27.344,-55.664,-73.730
1630093642.957,-1000.000,-35.156,-45.410,-70.801
1630093642.961,-284.180,-37.109,-31.738,-41.504
1630093642.965,-948.242,-33.203,-32.715,-21.973
1630093642.969,3.418,-44.434,-48.340,-50.293
1630093642.973,-1000.000,-33.203,-28.809,-54.199
1630093642.976,-653.320,-24.414,-5.859,-31.250
1630093642.980,847.168,-43.945,-20.508,-19.043
1630093642.984,354.980,-49.805,-48.340,-36.133
1630093642.988,-1000.000,-45.898,-41.992,-56.152
1630093642.992,-1000.000,-42.480,-31.738,-51.270
1630093642.993,312.988,-48.828,-32.227,-29.297
1630093642.997,722.168,-45.410,-42.480,-27.832
1630093643.001,-662.109,-37.109,-45.898,-58.105
1630093643.005,-1000.000,-45.410,-43.457,-59.570
1630093643.009,-55.664,-51.270,-33.203,-28.809
1630093643.013,966.797,-41.504,-35.645,-19.043
1630093643.017,-268.555,-39.062,-52.734,-66.406
1630093643.020,-1000.000,-42.969,-49.316,-88.379
1630093643.024,-395.508,-36.133,-39.062,-67.871
1630093643.028,-970.703,-26.367,-40.527,-36.133
1630093643.032,132.324,-32.227,-53.711,-61.523
1630093643.036,-1000.000,-35.645,-49.805,-85.938
1630093643.041,-759.277,-31.250,-41.016,-70.801
1630093643.045,726.562,-25.391,-25.879,-26.855
1630093643.049,486.816,-28.320,-41.504,-37.109
1630093643.053,-957.520,-39.551,-59.570,-78.125
1630093643.057,-1000.000,-43.945,-50.293,-69.824
1630093643.061,221.191,-23.438,-19.043,-22.461
1630093643.065,790.039,-15.137,-18.066,-13.672
1630093643.068,-561.035,-42.969,-46.387,-68.359
1630093643.072,-1000.000,-52.734,-49.316,-83.984
1630093643.076,-121.094,-42.969,-34.180,-51.758
1630093643.080,-965.332,-34.668,-32.227,-26.855
1630093643.084,-117.188,-43.457,-55.176,-60.547
1630093643.099,-1000.000,-45.898,-53.223,-80.078
1630093643.103,-430.176,-34.180,-28.320,-53.223
1630093643.107,-962.891,-24.414,-21.484,-15.137
1630093643.111,256.348,-35.156,-41.016,-41.504
1630093643.115,-1000.000,-49.805,-49.805,-83.008
1630093643.119,-777.344,-23.438,-19.043,-49.805
1630093643.123,692.383,-8.301,9.277,6.348
1630093643.126,603.516,-38.574,-28.320,-35.156
1630093643.130,-835.449,-51.758,-45.898,-85.449
1630093643.134,-1000.000,-49.316,-35.156,-75.195
1630093643.138,165.527,-41.016,-23.926,-40.039
1630093643.142,897.949,-39.551,-29.297,-29.785
1630093643.143,-400.391,-44.434,-38.086,-64.453
1630093643.147,-1000.000,-41.504,-35.156,-77.637
1630093643.151,-151.855,-39.062,-29.785,-54.199
1630093643.155,-904.785,-34.668,-24.902,-22.461
1630093643.159,40.039,-32.715,-33.691,-46.387
1630093643.163,-1000.000,-38.574,-39.062,-84.473
1630093643.167,-500.000,-36.133,-30.762,-69.824
1630093643.170,978.516,-35.156,-23.438,-35.156
1630093643.174,431.152,-22.949,-20.996,-40.039
1630093643.178,-1000.000,-9.277,0.977,-46.875
1630093643.182,-887.207,-36.621,-17.578,-58.105
1630093643.186,550.293,-39.062,-27.344,-37.109
1630093643.188,708.984,-36.621,-35.645,-37.598
1630093643.192,-704.102,-49.805,-48.828,-76.172
1630093643.196,-1000.000,-45.898,-41.504,-74.707
1630093643.200,110.352,-42.480,-23.438,-34.668
1630093643.204,988.770,-24.902,-10.742,4.883
1630093643.208,-249.512,-28.320,-33.203,-33.691
1630093643.212,-1000.000,-43.457,-46.387,-66.895
1630093643.215,-253.906,-37.109,-29.785,-43.945
1630093643.219,-899.414,-4.395,5.371,17.090
1630093643.223,113.770,-8.789,-8.301,-8.301
1630093643.227,-1000.000,-42.969,-42.480,-70.801
1630093643.231,-677.246,-41.504,-32.715,-57.129
1630093643.233,827.637,-33.691,-19.043,-17.090
1630093643.237,460.938,-34.668,-36.621,-33.203
1630093643.241,-990.723,-48.340,-45.898,-66.406
1630093643.245,-998.047,-48.340,-32.227,-53.223
1630093643.249,356.934,-35.645,-21.973,-22.461
1630093643.253,763.184,-29.785,-32.715,-25.879
1630093643.257,-618.164,-39.551,-46.387,-67.383
1630093643.260,-1000.000,-31.250,-26.367,-54.199
1630093643.264,11.230,-18.066,-3.418,-17.090
1630093643.268,999.023,-35.645,-32.227,-24.414
1630093643.272,-223.633,-45.410,-53.223,-63.477
1630093643.276,-1000.000,-37.598,-39.551,-66.895
1630093643.278,-308.594,-35.156,-24.414,-39.551
1630093643.282,-919.434,-36.133,-25.879,-25.391
1630093643.286,184.082,-43.457,-50.781,-60.547
1630093643.290,-1000.000,-33.203,-35.156,-65.918
1630093643.294,-738.281,-31.738,-20.508,-53.711
1630093643.298,743.164,-48.340,-35.645,-47.852
1630093643.302,543.945,-44.922,-49.316,-64.941
1630093643.305,-903.809,-13.184,-15.625,-60.059
1630093643.309,-1000.000,-24.414,-16.602,-58.105
1630093643.313,261.230,-42.480,-41.992,-51.758
1630093643.317,823.242,-34.180,-40.039,-27.832
1630093643.321,-541.992,-47.363,-40.039,-45.898
1630093643.325,-1000.000,-54.688,-35.645,-40.527
1630093643.329,-4.395,-57.617,-28.809,-3.906
1630093643.333,-946.289,-44.922,-20.508,29.785
1630093643.337,-78.125,-52.734,-30.273,3.418
1630093643.341,-1000.000,-67.383,-39.062,-22.461
1630093643.345,-381.836,-74.219,-39.551,-16.602
1630093643.349,-936.035,-50.293,-15.137,36.621
1630093643.352,332.031,-31.250,-11.230,36.133
1630093643.356,-1000.000,-72.266,-49.316,-31.738
1630093643.360,-643.066,-71.289,-41.504,-28.320
1630093643.364,850.098,-57.617,-23.926,4.395
1630093643.368,648.926,-63.965,-45.410,-8.789
1630093643.368,-806.641,-74.707,-55.664,-44.434
1630093643.372,-982.910,-72.266,-48.340,-50.293
1630093643.376,414.551,-33.203,-14.160,6.348
1630093643.380,812.500,-33.203,-24.902,15.625
1630093643.384,-569.824,-63.477,-59.082,-53.223
1630093643.388,-1000.000,-65.430,-49.316,-65.430
1630093643.392,-86.426,-31.250,-2.930,-2.441
1630093643.395,-936.523,-21.484,3.906,24.902
1630093643.399,-114.258,-57.129,-49.316,-51.270
1630093643.403,-1000.000,-54.199,-41.992,-71.777
1630093643.407,-458.008,-49.316,-30.762,-53.223
1630093643.411,-957.031,-50.293,-35.156,-27.832
1630093643.417,297.363,-51.270,-49.805,-45.898
1630093643.421,-1000.000,-54.199,-49.805,-65.430
1630093643.425,-826.172,-51.270,-41.016,-55.176
1630093643.429,639.160,-42.480,-30.273,-27.832
1630093643.433,691.895,-46.387,-49.316,-45.410
1630093643.437,-773.926,-26.855,-28.809,-53.223
1630093643.441,-1000.000,-17.090,-3.906,-31.250
1630093643.444,202.148,-52.734,-29.785,-38.574
1630093643.448,934.082,-67.383,-50.781,-47.852
1630093643.452,-338.379,-25.391,-8.789,-34.668
1630093643.456,-1000.000,-14.648,12.207,-25.391
1630093643.460,-247.559,-61.523,-34.180,-53.711
1630093643.473,-908.691,-57.129,-31.250,-35.645
1630093643.477,64.453,-51.758,-35.645,-57.129
1630093643.481,-1000.000,-54.688,-40.039,-78.125
1630093643.485,-658.203,-62.500,-37.598,-71.289
1630093643.489,796.387,-58.594,-30.762,-46.387
1630093643.493,418.457,-12.695,-8.301,-23.926
1630093643.497,-966.797,-22.949,-13.672,-56.152
1630093643.500,-1000.000,-67.871,-50.293,-98.633
1630093643.504,347.168,-49.805,-33.203,-53.711
1630093643.508,759.277,-37.598,-36.621,-47.363
1630093643.512,-626.953,-41.016,-49.805,-91.797
1630093643.516,-1000.000,-51.758,-46.387,-99.609
1630093643.519,-46.875,-42.480,-24.414,-60.059
1630093643.523,-992.188,-27.832,-21.484,-34.668
1630093643.527,-206.543,-48.828,-56.152,-85.449
1630093643.531,-1000.000,-57.617,-58.105,-95.703
1630093643.535,-352.051,-45.410,-36.133,-60.059
1630093643.539,-920.898,-36.133,-29.785,-36.133
1630093643.543,188.965,-36.621,-49.805,-63.477
1630093643.546,-1000.000,-59.570,-69.824,-102.051
1630093643.550,-714.844,-8.301,-11.230,-37.109
1630093643.554,798.828,34.668,31.250,27.832
1630093643.558,513.184,-36.133,-45.410,-52.246
1630093643.562,-929.199,-50.781,-56.152,-102.539
1630093643.565,-1000.000,-43.457,-40.039,-98.633
1630093643.569,216.797,-40.527,-31.738,-65.918
1630093643.573,857.422,-35.645,-41.504,-65.918
1630093643.577,-511.719,-56.152,-70.312,-114.746
1630093643.581,-1000.000,1.953,1.465,-41.504
1630093643.585,37.109,25.879,41.016,17.090
1630093643.589,-967.773,-43.457,-37.109,-37.109
1630093643.592,-123.535,-57.617,-61.523,-75.684
1630093643.596,-1000.000,-30.273,-18.066,-50.293
1630093643.600,-506.348,-32.715,-14.648,-38.086
1630093643.604,979.980,-49.316,-37.109,-37.598
1630093643.608,297.852,-46.387,-43.457,-45.410
1630093643.608,-1000.000,-53.223,-46.875,-70.312
1630093643.612,-855.957,-56.152,-40.039,-64.941
1630093643.616,580.566,-45.410,-32.227,-35.156
1630093643.620,660.645,-44.922,-43.457,-36.133
1630093643.624,-773.926,-51.758,-50.781,-66.406
1630093643.628,-1000.000,-45.410,-44.434,-71.289
1630093643.632,149.902,-50.781,-48.828,-60.059
1630093643.635,938.965,-30.762,-31.250,-21.484
1630093643.639,-305.664,-5.371,-7.324,-20.996
1630093643.643,-1000.000,-50.293,-42.969,-76.172
1630093643.647,-248.535,-60.547,-49.316,-67.383
1630093643.651,-934.082,-42.969,-40.527,-32.715
1630093643.653,12.207,-51.270,-58.105,-62.988
1630093643.657,-1000.000,-54.199,-56.641,-90.332
1630093643.661,-574.707,-52.734,-44.922,-75.195
1630093643.665,916.016,-26.855,-19.043,-19.043
1630093643.669,377.930,-31.738,-34.180,-47.852
1630093643.673,-1000.000,-56.152,-53.223,-103.516
1630093643.677,-935.547,-49.316,-48.828,-95.703
1630093643.680,450.684,-15.137,-13.672,-36.621
1630093643.684,714.355,-20.020,-26.367,-43.945
1630093643.688,-685.547,-57.129,-61.035,-108.398
1630093643.692,-1000.000,-51.270,-43.945,-99.121
1630093643.696,29.785,-36.621,-25.879,-62.012
1630093643.698,961.914,-46.387,-40.527,-57.129
1630093643.702,-275.879,-53.711,-55.664,-91.309
1630093643.706,-1000.000,-50.293,-48.828,-101.074
1630093643.710,-332.520,-45.410,-40.039,-77.148
1630093643.714,-937.988,-37.109,-36.133,-49.316
1630093643.718,145.508,-49.316,-59.570,-84.961
1630093643.722,-1000.000,-24.902,-28.320,-81.055
1630093643.725,-689.453,0.977,6.348,-41.016
1630093643.729,793.457,-36.133,-28.809,-49.316
1630093643.733,427.246,-49.316,-57.129,-82.520
1630093643.737,-1000.000,-46.875,-52.246,-103.027
1630093643.741,-1000.000,-51.270,-48.828,-98.145
1630093643.744,273.926,-46.875,-42.480,-74.219
1630093643.748,751.465,-53.223,-57.129,-78.613
1630093643.752,-594.727,-5.859,-11.719,-51.270
1630093643.756,-1000.000,14.160,20.020,-30.762
1630093643.760,-151.855,-46.387,-35.156,-75.684
1630093643.764,990.723,-48.828,-50.781,-73.242
1630093643.768,-164.062,-5.371,-15.625,-48.828
1630093643.771,-1000.000,-22.461,-15.625,-62.988
1630093643.775,-491.699,-68.848,-54.688,-88.379
1630093643.779,965.332,-50.293,-44.434,-54.199
1630093643.783,191.895,-50.293,-51.270,-76.660
1630093643.787,-1000.000,-64.941,-57.129,-106.445
1630093643.796,-880.859,-64.941,-45.898,-95.215
1630093643.800,549.805,-54.688,-31.738,-62.988
1630093643.804,543.945,-52.734,-41.504,-68.359
1630093643.808,-901.367,-62.988,-47.852,-101.562
1630093643.812,-1000.000,-75.684,-46.387,-90.820
1630093643.816,172.852,-40.039,-2.441,-5.859
1630093643.820,821.777,15.137,21.973,27.344
1630093643.823,-507.324,-35.645,-35.156,-81.543
1630093643.827,-1000.000,-62.500,-53.711,-113.770
1630093643.831,-229.980,-39.062,-35.156,-79.102
1630093643.835,-983.398,-30.273,-33.691,-65.430
1630093643.839,-83.496,-34.180,-53.223,-117.676
1630093643.849,-1000.000,-35.156,-50.781,-130.371
1630093643.853,-551.270,-28.320,-27.344,-87.891
1630093643.857,924.805,-29.297,-16.602,-64.453
1630093643.861,335.938,-33.691,-33.691,-83.008
1630093643.865,-1000.000,-49.316,-45.410,-113.281
1630093643.869,-787.109,0.488,14.160,-49.316
1630093643.873,670.898,21.484,36.133,1.465
1630093643.876,617.676,-44.434,-42.969,-73.730
1630093643.880,-795.898,-47.852,-48.340,-104.980
1630093643.884,-1000.000,-22.949,-10.742,-67.383
1630093643.888,107.422,-33.691,-16.602,-49.805
1630093643.892,916.016,-42.969,-36.621,-52.734
1630093643.893,-343.750,-40.527,-45.898,-80.078
1630093643.897,-1000.000,-41.504,-36.133,-76.172
1630093643.901,-257.324,-44.922,-32.715,-49.316
1630093643.905,-939.453,-42.480,-41.504,-34.180
1630093643.909,50.781,-39.551,-44.434,-61.523
1630093643.913,-1000.000,-41.016,-41.992,-87.402
1630093643.917,-633.789,-38.574,-34.180,-74.219
1630093643.920,832.520,-48.828,-41.016,-53.223
1630093643.924,497.559,-4.395,-4.395,-20.996
1630093643.928,-911.621,34.668,42.969,-0.488
1630093643.932,-1000.000,-36.133,-20.508,-69.336
1630093643.936,333.984,-52.734,-40.039,-64.453
1630093643.938,719.238,-43.457,-46.387,-51.758
1630093643.942,-671.875,-50.781,-57.129,-91.309
1630093643.946,-1000.000,-55.176,-52.246,-92.773
1630093643.950,12.695,-51.758,-40.527,-61.035
1630093643.954,956.543,-25.391,-20.996,-26.367
1630093643.958,-289.062,-30.273,-33.691,-59.570
1630093643.962,-1000.000,-55.176,-48.340,-92.285
1630093643.965,-238.770,-47.852,-37.109,-71.777
1630093643.969,-903.320,-4.883,0.000,-10.254
1630093643.973,166.504,-18.555,-23.438,-45.898
1630093643.977,-1000.000,-60.547,-61.523,-111.328
1630093643.981,-634.766,-41.016,-33.691,-77.637
1630093643.984,860.840,-19.043,-4.395,-15.137
1630093643.988,546.387,-44.434,-41.992,-41.992
1630093643.992,-909.180,-53.711,-52.734,-80.566
1630093643.996,-972.168,-50.781,-39.551,-72.754
1630093644.000,388.184,-49.805,-35.156,-46.387
1630093644.004,812.500,-42.480,-37.109,-41.504
1630093644.008,-556.641,-55.664,-52.246,-83.984
1630093644.011,-1000.000,-34.180,-26.367,-71.777
1630093644.015,43.945,-4.395,3.418,-33.203
1630093644.019,-951.660,-30.762,-31.738,-52.734
1630093644.023,-138.672,-42.969,-50.781,-84.473
1630093644.027,-1000.000,-43.457,-42.969,-88.379
1630093644.028,-303.223,-40.039,-34.668,-66.406
1630093644.032,-894.043,-31.738,-35.156,-40.039
1630093644.036,236.816,-50.781,-60.059,-74.219
1630093644.040,-1000.000,-20.996,-23.926,-58.594
1630093644.044,-675.293,-2.441,-8.301,-39.062
1630093644.048,790.039,-42.480,-43.945,-57.129
1630093644.052,591.309,-42.969,-51.758,-70.801
1630093644.055,-867.676,-18.066,-18.555,-62.012
1630093644.059,-969.727,-30.762,-12.695,-54.199
1630093644.063,358.887,-54.688,-36.133,-54.199
1630093644.067,890.625,-47.363,-41.016,-44.434
1630093644.071,-416.992,-52.246,-52.246,-82.520
1630093644.074,-1000.000,-55.664,-51.270,-99.121
1630093644.078,-65.430,-45.898,-39.551,-75.684
1630093644.082,-918.457,-37.598,-36.621,-49.805
1630093644.086,-41.504,-43.945,-48.828,-73.730
1630093644.090,-1000.000,-48.340,-48.828,-90.332
1630093644.094,-513.672,-52.246,-45.410,-82.520
1630093644.098,990.234,-22.949,-17.090,-30.762
1630093644.101,337.891,5.859,3.418,-16.602
1630093644.105,-1000.000,-42.480,-29.785,-79.590
1630093644.109,-880.859,-65.430,-39.062,-85.449
1630093644.113,580.078,-48.340,-26.367,-44.434
1630093644.117,627.441,-45.410,-41.504,-48.828
1630093644.118,-829.590,-53.223,-55.664,-88.379
1630093644.122,-1000.000,-52.734,-53.223,-93.750
1630093644.126,186.035,-26.855,-18.555,-36.621
1630093644.130,919.922,-24.414,-23.438,-26.855
1630093644.134,-375.488,-51.758,-56.641,-86.914
1630093644.138,-1000.000,-53.223,-53.223,-92.285
1630093644.142,-161.133,-21.484,-19.043,-38.086
1630093644.145,-890.625,-14.160,-7.812,-1.953
1630093644.149,55.664,-45.898,-45.898,-47.852
1630093644.153,-1000.000,-46.387,-40.527,-61.035
1630093644.157,-497.070,-26.855,-7.812,-29.297
1630093644.161,986.816,-32.227,-19.043,-24.902
1630093644.163,359.863,-50.293,-51.270,-65.918
1630093644.167,-1000.000,-51.758,-46.875,-83.984
1630093644.171,-947.754,-44.922,-31.738,-67.871
1630093644.175,442.871,-41.992,-25.391,-34.668
1630093644.179,719.238,-44.922,-43.945,-36.133
1630093644.183,-685.547,-27.832,-27.344,-50.293
1630093644.187,-1000.000,-16.602,-4.883,-35.645
1630093644.190,21.484,-41.504,-30.762,-43.945
1630093644.194,978.516,-40.527,-41.992,-38.574
1630093644.198,-266.602,-33.203,-40.039,-60.547
1630093644.202,-1000.000,-38.086,-32.715,-79.590
1630093644.206,-295.898,-40.039,-32.715,-61.035
1630093644.223,-907.227,-38.086,-35.156,-35.156
1630093644.227,125.000,-19.043,-24.902,-41.504
1630093644.231,-1000.000,-14.160,-17.578,-59.082
1630093644.235,-743.164,-41.016,-36.621,-72.266
1630093644.239,762.695,-36.133,-31.250,-42.969
1630093644.243,462.402,-32.227,-30.273,-46.387
1630093644.247,-980.957,-38.574,-32.715,-75.195
1630093644.250,-1000.000,-43.945,-35.645,-63.965
1630093644.254,233.398,-41.504,-16.602,-23.926
1630093644.258,731.445,-31.738,-9.766,-6.348
1630093644.262,-654.785,-51.758,-30.273,-48.828
1630093644.266,-1000.000,-72.266,-34.180,-66.895
1630093644.269,-135.742,-67.383,-20.508,-25.391
1630093644.273,980.957,-63.965,-24.414,-12.207
1630093644.277,-211.914,-64.453,-41.016,-54.199
1630093644.281,-1000.000,-77.637,-48.828,-68.359
1630093644.285,-445.801,-62.500,-22.949,-31.738
1630093644.289,-974.609,-39.062,-3.418,5.371
1630093644.293,221.680,-60.059,-38.086,-31.738
1630093644.296,-1000.000,-79.590,-54.688,-77.148
1630093644.300,-781.738,-38.086,-8.789,-38.086
1630093644.304,710.449,-11.230,21.484,15.625
1630093644.308,545.410,-57.129,-37.598,-41.016
1630093644.312,-898.926,-61.523,-52.246,-87.402
1630093644.313,-1000.000,-56.152,-43.945,-77.148
1630093644.317,162.109,-52.246,-35.645,-41.992
1630093644.321,868.652,-47.852,-42.480,-31.738
1630093644.325,-460.449,-62.012,-59.570,-70.801
1630093644.329,-1000.000,-46.875,-36.133,-53.223
1630093644.333,-127.441,-40.527,-23.926,-21.973
1630093644.337,-933.105,-53.223,-42.969,-20.020
1630093644.340,-54.688,-65.430,-66.406,-54.688
1630093644.344,-1000.000,-15.137,-7.812,-18.555
1630093644.348,-559.082,2.930,19.043,10.254
1630093644.352,924.805,-46.387,-30.762,-16.602
1630093644.356,314.453,-49.316,-49.316,-39.551
1630093644.358,-1000.000,-48.828,-48.340,-69.824
1630093644.362,-943.848,-47.852,-38.574,-58.594
1630093644.366,463.379,-41.992,-35.156,-35.156
1630093644.370,636.719,-34.180,-43.457,-35.645
1630093644.374,-793.945,-41.016,-45.898,-62.012
1630093644.378,-1000.000,-46.387,-37.109,-60.059
1630093644.382,41.992,-50.781,-36.621,-38.574
1630093644.385,949.707,-19.531,-14.648,-0.977
1630093644.389,-287.598,-4.395,-3.906,-10.254
1630093644.393,-1000.000,-47.363,-41.016,-63.965
1630093644.397,-332.031,-52.734,-41.504,-60.059
1630093644.401,-949.707,-36.621,-24.414,-28.809
1630093644.403,60.547,-44.922,-38.574,-58.594
1630093644.407,-1000.000,-51.758,-41.016,-82.520
1630093644.411,-679.199,-47.363,-25.879,-57.129
1630093644.415,820.801,-28.320,-6.348,-8.301
1630093644.419,411.133,-33.691,-26.855,-25.391
1630093644.423,-1000.000,-56.152,-47.363,-77.637
1630093644.427,-1000.000,-50.293,-33.691,-70.312
1630093644.430,338.379,-21.484,-3.418,-15.625
1630093644.434,714.355,-24.414,-22.461,-24.902
1630093644.438,-678.711,-54.199,-55.176,-83.496
1630093644.442,-1000.000,-50.781,-42.480,-84.961
1630093644.446,-34.668,-45.898,-36.133,-56.152
1630093644.448,990.234,-47.852,-47.852,-39.551
1630093644.452,-232.910,-55.664,-64.941,-82.520
1630093644.456,-1000.000,-43.945,-45.410,-78.125
1630093644.460,-332.520,-28.809,-25.879,-50.781
1630093644.464,-925.781,-33.691,-44.434,-42.969
1630093644.468,214.355,-41.992,-57.617,-60.059
1630093644.472,-1000.000,-34.668,-25.879,-48.828
1630093644.475,-755.371,-22.949,-6.348,-18.555
1630093644.479,731.934,-45.410,-31.250,-18.555
1630093644.483,549.316,-55.664,-50.293,-28.809
1630093644.487,-899.902,-65.918,-53.223,-51.270
1630093644.491,-1000.000,-68.359,-52.246,-48.828
1630093644.493,238.281,-59.082,-42.969,-19.043
1630093644.497,841.797,-64.941,-57.129,-27.344
1630093644.501,-494.141,-33.691,-35.645,-36.621
1630093644.505,-1000.000,-21.484,-14.160,-27.832
1630093644.509,-69.824,-57.129,-36.133,-34.180
1630093644.513,-909.668,-53.711,-43.457,-18.066
1630093644.517,-2.930,-21.973,-20.020,-16.602
1630093644.520,-1000.000,-36.133,-16.602,-37.598
1630093644.524,-380.371,-65.918,-42.480,-46.387
1630093644.528,-911.621,-53.711,-35.645,-12.695
1630093644.532,308.105,-56.641,-46.387,-36.133
1630093644.536,-1000.000,-64.941,-51.758,-64.453
1630093644.539,-707.031,-59.082,-44.922,-50.293
1630093644.543,782.227,-49.805,-25.879,-11.719
1630093644.547,633.301,-48.340,-32.715,-18.066
1630093644.551,-821.289,-49.805,-38.574,-57.617
1630093644.555,-1000.000,-53.223,-38.086,-66.406
1630093644.559,297.363,-30.273,-16.602,-16.113
1630093644.563,945.312,-19.531,-7.812,9.766
1630093644.566,-373.535,-47.363,-36.621,-34.668
1630093644.570,-1000.000,-56.152,-40.527,-47.852
1630093644.574,-56.641,-28.809,-4.395,0.488
1630093644.578,-875.488,-14.648,6.836,30.762
1630093644.582,0.488,-45.410,-38.086,-38.574
1630093644.598,-1000.000,-52.246,-47.363,-66.895
1630093644.602,-329.102,-43.457,-32.715,-47.363
1630093644.606,-890.137,-35.645,-26.367,-26.855
1630093644.610,424.805,-40.039,-44.922,-49.805
1630093644.614,-1000.000,-53.223,-52.246,-76.172
1630093644.618,-555.664,-20.508,-5.371,-24.414
1630093644.622,919.922,-10.254,9.277,10.742
1630093644.625,734.863,-54.688,-49.805,-38.086
1630093644.629,-679.199,-56.152,-52.734,-60.547
1630093644.633,-928.711,-28.809,-18.555,-27.344
1630093644.637,356.934,-34.668,-21.484,-16.113
1630093644.641,-946.289,-44.434,-39.551,-28.320
1630093644.643,-177.734,-40.527,-43.457,-53.223
1630093644.647,-1000.000,-43.457,-38.086,-65.430
1630093644.651,-8.301,-41.992,-26.855,-46.387
1630093644.655,-837.402,-37.598,-32.715,-22.461
1630093644.659,189.453,-32.715,-46.387,-40.527
1630093644.663,-1000.000,-32.715,-41.992,-59.082
1630093644.667,-459.961,-38.086,-38.086,-47.852
1630093644.670,-988.281,-38.086,-35.645,-28.809
1630093644.674,549.316,-8.789,-18.555,-15.625
1630093644.678,-895.508,-1.953,-6.836,-26.367
1630093644.682,-917.480,-40.527,-39.062,-66.406
1630093644.686,513.672,-36.621,-39.062,-43.945
1630093644.688,846.191,-17.578,-35.156,-27.832
1630093644.692,-555.664,-27.344,-40.039,-58.105
1630093644.696,-1000.000,-45.410,-38.086,-69.336
1630093644.700,99.609,-41.504,-31.738,-43.457
1630093644.704,-928.223,-6.836,-19.043,-20.996
1630093644.708,-105.957,-11.230,-29.297,-78.125
1630093644.712,-1000.000,-45.898,-50.781,-111.816
1630093644.715,-299.805,-39.062,-38.086,-73.730
1630093644.719,-877.441,3.418,2.441,-10.742
1630093644.723,222.168,-6.348,-20.508,-50.781
1630093644.727,-1000.000,-37.598,-61.035,-122.559
1630093644.731,-676.270,-28.320,-50.293,-104.980
1630093644.733,841.797,-18.066,-31.250,-62.012
1630093644.737,549.805,-20.996,-43.457,-76.172
1630093644.741,-919.922,-34.668,-55.176,-112.305
1630093644.745,-994.629,-20.020,-32.715,-90.820
1630093644.749,337.891,-8.301,-15.137,-48.828
1630093644.753,912.598,-21.484,-35.156,-56.641
1630093644.757,-435.547,-31.250,-55.176,-100.098
1630093644.760,-1000.000,-7.324,-28.809,-81.055
1630093644.764,32.715,15.137,-1.953,-36.133
1630093644.768,-895.020,-12.207,-30.273,-36.621
1630093644.772,-25.879,-25.879,-50.293,-68.359
1630093644.776,-1000.000,-28.320,-43.945,-82.520
1630093644.778,-376.953,-30.762,-32.227,-56.641
1630093644.782,-916.016,-25.391,-28.320,-22.949
1630093644.786,364.258,-27.344,-41.992,-41.504
1630093644.790,-1000.000,-21.484,-32.227,-49.316
1630093644.794,-793.457,-24.414,-29.785,-48.828
1630093644.798,694.824,-31.738,-34.180,-41.504
1630093644.802,691.895,-34.180,-49.805,-56.641
1630093644.805,-750.488,-12.695,-24.414,-48.340
1630093644.809,-1000.000,-13.184,-11.230,-36.133
1630093644.813,198.242,-47.363,-44.922,-58.105
1630093644.817,978.027,-37.109,-51.270,-43.457
1630093644.821,-313.477,-34.180,-56.641,-67.871
1630093644.824,-1000.000,-37.109,-50.293,-78.613
1630093644.828,-73.242,-36.621,-40.039,-51.270
1630093644.832,-857.422,-29.785,-34.180,-22.949
1630093644.836,108.887,-33.691,-46.387,-54.688
1630093644.840,-1000.000,-42.969,-47.852,-81.543
1630093644.844,-406.738,-48.340,-42.969,-72.266
1630093644.848,-926.270,-20.508,-13.672,-11.719
1630093644.851,475.098,-7.812,-9.277,-4.883
1630093644.855,-999.023,-44.922,-43.945,-62.500
1630093644.859,-826.172,-58.105,-52.734,-71.777
1630093644.863,656.250,-38.574,-26.367,-27.344
1630093644.867,766.113,-30.273,-22.949,-16.602
1630093644.868,-664.551,-48.828,-45.410,-65.430
1630093644.872,-1000.000,-53.223,-45.410,-73.242
1630093644.876,204.102,-27.344,-11.230,-20.020
1630093644.880,997.559,-30.273,-16.602,-5.371
1630093644.884,-282.715,-56.152,-56.152,-61.523
1630093644.888,-1000.000,-51.270,-53.711,-74.219
1630093644.892,-129.883,-25.879,-20.508,-26.855
1630093644.895,-861.328,-25.879,-17.578,-0.977
1630093644.899,118.164,-56.641,-56.152,-51.758
1630093644.903,-1000.000,-59.570,-59.082,-69.336
1630093644.907,-613.281,-50.293,-44.434,-52.246
1630093644.911,926.270,-40.039,-33.691,-24.414
1630093644.916,448.730,-48.340,-59.570,-46.387
1630093644.920,-1000.000,-43.945,-54.688,-70.801
1630093644.924,-990.723,-34.668,-32.227,-54.199
1630093644.928,390.625,-48.828,-40.527,-39.551
1630093644.932,796.387,-48.828,-49.805,-39.062
1630093644.936,-595.703,-40.039,-39.551,-56.152
1630093644.940,-1000.000,-36.621,-30.762,-56.641
1630093644.943,-41.992,-44.434,-40.527,-52.246
1630093644.947,-969.238,-44.434,-43.945,-37.598
1630093644.951,-174.316,-35.156,-40.039,-48.828
1630093644.955,-1000.000,-30.762,-33.203,-62.500
1630093644.959,-375.488,-40.039,-39.551,-57.617
1630093644.973,-918.945,-34.668,-39.062,-29.297
1630093644.977,243.164,-28.809,-37.109,-37.598
1630093644.981,-1000.000,-41.016,-37.598,-69.824
1630093644.985,-810.059,-52.246,-38.574,-71.289
1630093644.989,672.363,-52.734,-37.109,-45.898
1630093644.993,636.230,-15.137,-8.789,-16.113
1630093644.997,-809.570,-0.488,3.418,-25.879
1630093645.000,-1000.000,-47.852,-41.504,-68.848
1630093645.004,150.391,-48.828,-41.504,-41.504
1630093645.008,851.074,-38.086,-42.480,-27.832
1630093645.012,-479.492,-45.898,-52.734,-68.359
1630093645.016,-1000.000,-54.688,-47.852,-81.543
1630093645.019,-174.805,-50.781,-38.086,-59.570
1630093645.023,-937.500,-43.945,-39.551,-39.551
1630093645.027,-51.758,-51.270,-56.152,-69.824
1630093645.031,-1000.000,-57.129,-56.152,-88.379
1630093645.035,-501.953,-52.734,-43.945,-66.895
1630093645.039,997.559,-49.316,-36.133,-34.668
1630093645.043,344.727,-51.758,-47.852,-56.152
1630093645.046,-1000.000,-68.848,-62.988,-98.145
1630093645.050,-857.422,-47.363,-30.762,-57.129
1630093645.054,607.422,-16.602,19.043,10.254
1630093645.058,680.664,-49.316,-25.879,-37.598
1630093645.062,-754.883,-65.430,-55.664,-81.055
1630093645.063,-1000.000,-64.453,-41.016,-63.477
1630093645.067,122.070,-60.059,-36.621,-45.410
1630093645.071,971.191,-57.617,-46.387,-36.621
1630093645.075,-297.363,-69.824,-57.617,-71.289
1630093645.079,-1000.000,-55.176,-36.621,-60.547
1630093645.083,-195.801,-43.457,-20.996,-28.809
1630093645.087,-874.023,-50.293,-37.109,-25.879
1630093645.090,147.949,-56.152,-57.129,-60.547
1630093645.094,-1000.000,-21.973,-11.719,-38.574
1630093645.098,-528.320,-19.531,5.859,-17.578
1630093645.102,948.730,-53.223,-31.250,-31.738
1630093645.106,467.773,-52.246,-48.340,-42.969
1630093645.108,-979.980,-62.012,-57.617,-77.637
1630093645.112,-941.406,-60.059,-48.340,-69.824
1630093645.116,457.520,-48.828,-34.180,-29.785
1630093645.120,798.828,-45.898,-47.852,-26.855
1630093645.124,-591.797,-51.270,-60.059,-57.129
1630093645.128,-1000.000,-51.270,-48.828,-51.758
1630093645.132,48.828,-50.293,-41.504,-25.879
1630093645.135,-932.617,-26.367,-22.949,6.348
1630093645.139,-91.309,-13.184,-13.184,-10.254
1630093645.143,-1000.000,-51.758,-40.039,-53.711
1630093645.147,-327.637,-57.617,-46.875,-49.316
1630093645.151,-898.926,-44.434,-44.922,-20.508
1630093645.155,211.426,-46.387,-48.828,-39.551
1630093645.159,-1000.000,-54.688,-47.852,-63.477
1630093645.163,-719.238,-61.523,-49.316,-61.035
1630093645.167,779.785,-21.484,-7.812,-0.488
1630093645.171,563.477,-10.742,-7.812,0.488
1630093645.175,-891.602,-56.152,-55.664,-69.824
1630093645.179,-1000.000,-62.012,-60.059,-73.730
1630093645.182,275.879,-26.367,-16.113,-15.137
1630093645.186,839.355,-25.879,-21.973,-10.254
1630093645.190,-514.160,-62.988,-59.570,-71.289
1630093645.194,-1000.000,-59.082,-43.457,-68.359
1630093645.198,-71.289,-45.898,-35.645,-41.016
1630093645.198,-924.805,-46.387,-39.062,-27.832
1630093645.202,-64.453,-54.688,-48.828,-63.477
1630093645.206,-1000.000,-39.551,-34.180,-62.988
1630093645.210,-381.836,-35.156,-19.043,-27.344
1630093645.214,-939.453,-47.852,-27.344,-23.438
1630093645.218,320.801,-53.711,-49.805,-64.941
1630093645.222,-1000.000,-45.410,-40.527,-70.801
1630093645.225,-779.785,-30.762,-14.160,-36.621
1630093645.229,696.777,-42.480,-20.508,-27.832
1630093645.233,642.578,-51.270,-41.504,-45.898
1630093645.237,-795.410,-54.688,-47.852,-77.637
1630093645.241,-1000.000,-54.688,-37.109,-75.195
1630093645.243,179.199,-50.781,-29.785,-48.828
1630093645.247,946.777,-50.293,-38.574,-44.434
1630093645.251,-332.031,-34.668,-25.879,-50.293
1630093645.255,-1000.000,-36.133,-20.996,-55.176
1630093645.259,-166.992,-54.199,-30.273,-50.293
1630093645.263,-895.020,-52.246,-34.180,-34.180
1630093645.267,86.914,-21.484,-23.438,-40.039
1630093645.270,-1000.000,-19.531,-16.602,-51.270
1630093645.274,-546.387,-55.664,-47.363,-69.824
1630093645.278,969.238,-46.875,-40.527,-44.434
1630093645.282,417.969,-48.340,-44.434,-57.129
1630093645.286,-1000.000,-59.570,-48.828,-83.496
1630093645.289,-879.883,-57.129,-38.574,-73.242
1630093645.293,559.570,-47.363,-25.391,-46.387
1630093645.297,718.262,-45.898,-37.598,-53.711
1630093645.301,-696.289,-53.711,-46.875,-78.613
1630093645.305,-1000.000,-61.035,-42.969,-74.707
1630093645.309,97.656,-28.320,-16.602,-26.855
1630093645.313,-997.559,-3.906,-4.395,-2.930
1630093645.316,-247.070,-36.621,-39.062,-64.453
1630093645.320,-1000.000,-47.852,-42.480,-82.520
1630093645.324,-190.430,-26.855,-14.160,-36.621
1630093645.328,-879.883,-17.578,-17.090,-4.883
1630093645.332,160.156,-34.668,-46.387,-53.711
1630093645.348,-1000.000,-44.922,-37.109,-77.148
1630093645.352,-589.844,-42.969,-23.438,-56.152
1630093645.356,917.969,-37.598,-23.926,-35.156
1630093645.360,488.281,-46.387,-46.387,-58.105
1630093645.364,-977.539,-59.570,-59.570,-91.797
1630093645.368,-919.434,-19.531,-12.695,-46.387
1630093645.372,486.816,-1.953,8.301,0.977
1630093645.375,770.020,-50.293,-45.410,-40.527
1630093645.379,-592.773,-63.477,-63.965,-83.008
1630093645.383,-1000.000,-56.641,-55.176,-72.266
1630093645.387,-53.223,-48.828,-39.551,-37.109
1630093645.391,-964.844,-46.387,-48.340,-30.273
1630093645.393,-153.809,-39.551,-50.293,-50.781
1630093645.397,-1000.000,-29.785,-26.367,-46.387
1630093645.401,-355.469,-40.527,-31.738,-43.945
1630093645.405,-914.062,-38.574,-42.480,-25.879
1630093645.409,217.773,-32.227,-51.758,-41.016
1630093645.413,-1000.000,-33.203,-45.410,-63.477
1630093645.417,-734.863,-37.598,-38.574,-55.176
1630093645.420,750.000,-37.598,-36.133,-26.855
1630093645.424,608.887,-5.859,-20.020,-9.766
1630093645.428,-827.148,2.930,-9.766,-30.762
1630093645.432,-1000.000,-34.668,-41.504,-66.895
1630093645.436,233.887,-36.621,-39.062,-40.527
1630093645.438,874.023,-32.227,-43.457,-30.762
1630093645.442,-471.191,-35.156,-56.152,-74.219
1630093645.446,-1000.000,-34.668,-50.293,-87.402
1630093645.450,-70.801,-36.621,-43.457,-63.965
1630093645.454,-915.527,-10.254,-20.508,-13.672
1630093645.458,-45.410,-8.301,-22.461,-28.809
1630093645.462,-1000.000,-43.457,-46.387,-70.801
1630093645.465,-402.832,-45.898,-40.527,-49.316
1630093645.469,-923.828,-25.391,-15.137,1.953
1630093645.473,312.988,-35.156,-30.762,-27.344
1630093645.477,-1000.000,-62.012,-51.758,-73.730
1630093645.481,-754.395,-57.617,-37.598,-61.035
1630093645.484,745.605,-42.969,-25.879,-33.203
1630093645.488,661.133,-47.363,-41.992,-41.016
1630093645.492,-815.430,-59.570,-47.852,-71.777
1630093645.496,-997.559,-52.246,-34.668,-65.430
1630093645.500,336.426,-45.898,-24.902,-31.250
1630093645.504,951.660,-44.434,-27.832,-17.578
1630093645.508,-364.746,-52.246,-45.898,-51.270
1630093645.511,-1000.000,-39.062,-31.738,-41.016
1630093645.515,-43.945,-13.672,5.371,10.254
1630093645.519,-874.512,-28.809,-17.090,0.000
1630093645.523,18.066,-46.875,-48.340,-54.199
1630093645.527,-1000.000,-48.828,-44.434,-70.312
1630093645.528,-462.891,-42.480,-37.598,-50.293
1630093645.532,-942.383,-33.691,-29.785,-14.160
1630093645.536,303.223,-34.180,-39.551,-32.227
1630093645.540,-1000.000,-22.949,-30.273,-47.363
1630093645.544,-939.453,-26.855,-24.902,-41.992
1630093645.548,555.176,-39.062,-32.715,-32.227
1630093645.552,578.125,-42.969,-46.387,-34.668
1630093645.555,-890.625,-29.297,-27.344,-44.434
1630093645.559,-1000.000,-26.855,-15.137,-43.457
1630093645.563,60.059,-48.828,-34.180,-43.945
1630093645.567,917.480,-40.039,-33.691,-27.344
1630093645.571,-386.230,-40.039,-29.297,-49.316
1630093645.573,-1000.000,-55.664,-40.527,-75.195
1630093645.577,-261.230,-49.316,-40.527,-59.082
1630093645.581,-900.391,-37.598,-27.832,-20.508
1630093645.585,65.430,-42.480,-38.086,-38.574
1630093645.589,-1000.000,-48.340,-38.574,-62.012
1630093645.593,-546.387,-50.293,-30.273,-59.082
1630093645.597,988.770,-23.926,-2.441,-8.789
1630093645.600,388.184,-11.230,0.488,-4.395
1630093645.604,-1000.000,-49.805,-34.668,-65.918
1630093645.608,-964.355,-48.828,-37.109,-65.918
1630093645.612,452.148,-33.691,-23.926,-27.832
1630093645.616,763.184,-31.738,-34.180,-26.855
1630093645.619,-667.480,-42.969,-44.434,-63.477
1630093645.623,-1000.000,-52.246,-46.387,-70.312
1630093645.627,12.207,-18.555,-10.254,-16.113
1630093645.631,989.258,-4.395,2.930,12.207
1630093645.635,-271.973,-39.551,-39.551,-49.805
1630093645.639,-1000.000,-50.781,-43.457,-69.336
1630093645.643,-279.297,-24.414,-9.277,-25.879
1630093645.646,-878.906,-22.461,-12.695,-7.812
1630093645.650,146.973,-52.246,-58.594,-67.871
1630093645.654,-1000.000,-51.270,-57.129,-86.914
1630093645.658,-660.156,-49.316,-45.410,-66.895
1630093645.662,889.648,-45.410,-33.203,-37.109
1630093645.664,438.965,-43.457,-40.039,-42.969
1630093645.668,-1000.000,-52.734,-47.363,-72.754
1630093645.672,-1000.000,-48.340,-41.992,-65.918
1630093645.676,327.637,-38.086,-31.250,-36.133
1630093645.680,748.535,-45.898,-41.992,-36.621
1630093645.684,-681.641,-34.668,-39.062,-57.129
1630093645.688,-1000.000,-3.906,-6.348,-40.039
1630093645.691,-118.652,-27.832,-22.949,-44.434
1630093645.695,-964.355,-47.363,-46.875,-47.363
1630093645.699,-162.109,-39.062,-54.688,-73.730
1630093645.703,-1000.000,-41.504,-52.246,-87.402
1630093645.707,-383.301,-44.434,-43.457,-69.824
1630093645.723,-907.227,-41.016,-38.574,-35.645
1630093645.727,224.121,-39.062,-46.387,-47.852
1630093645.731,-1000.000,-43.945,-48.828,-75.195
1630093645.735,-858.887,-53.711,-42.480,-66.406
1630093645.739,658.203,-56.641,-37.598,-39.551
1630093645.743,567.871,-12.207,-13.184,-2.441
1630093645.747,-890.137,-4.395,-8.301,-22.461
1630093645.750,-1000.000,-51.270,-48.340,-72.754
1630093645.754,62.500,-45.898,-37.109,-42.480
1630093645.758,887.207,-20.508,-16.602,-7.812
1630093645.762,-471.191,-35.645,-41.504,-51.270
1630093645.766,-1000.000,-53.223,-53.711,-71.777
1630093645.768,-211.914,-47.363,-33.691,-34.180
1630093645.772,-908.691,-38.086,-28.809,-15.625
1630093645.776,9.766,-36.133,-40.527,-49.316
1630093645.780,-1000.000,-46.387,-36.621,-62.988
1630093645.784,-525.879,-48.340,-25.391,-41.016
1630093645.788,-994.629,-41.504,-23.438,-17.578
1630093645.792,321.777,-50.781,-44.434,-35.156
1630093645.795,-1000.000,-67.383,-56.152,-71.777
1630093645.799,-860.840,-31.738,-14.648,-42.969
1630093645.803,620.605,10.742,25.391,26.855
1630093645.807,672.852,-29.297,-26.367,-15.625
1630093645.811,-783.203,-51.270,-55.176,-71.289
1630093645.813,-1000.000,-40.527,-44.922,-65.430
1630093645.817,62.988,-39.062,-33.691,-34.668
1630093645.821,-988.770,-40.039,-41.016,-23.438
1630093645.825,-251.465,-46.387,-55.176,-58.105
1630093645.829,-1000.000,-26.367,-23.926,-41.016
1630093645.833,-206.543,-29.297,-19.043,-26.367
1630093645.837,-865.234,-45.898,-43.945,-30.273
1630093645.840,145.996,-52.246,-58.594,-55.176
1630093645.844,-1000.000,-33.691,-30.273,-44.922
1630093645.848,-581.543,-28.320,-18.066,-28.320
1630093645.852,956.055,-49.316,-37.598,-25.879
1630093645.856,486.328,-42.480,-41.504,-28.809
1630093645.858,-978.027,-38.086,-40.039,-53.223
1630093645.862,-997.559,-41.992,-42.480,-49.805
1630093645.866,411.621,-34.668,-39.062,-26.367
1630093645.870,811.523,-25.879,-36.133,-16.602
1630093645.874,-599.121,-33.203,-38.086,-42.969
1630093645.878,-1000.000,-38.574,-43.945,-63.965
1630093645.882,-23.438,-39.551,-40.039,-42.969
1630093645.885,-902.344,-11.230,-14.648,3.418
1630093645.889,-58.105,9.277,-1.953,-6.348
1630093645.893,-1000.000,-31.738,-35.645,-65.430
1630093645.897,-307.129,-34.668,-31.250,-52.246
1630093645.901,-869.629,-23.438,-20.020,-14.160
1630093645.903,214.355,-28.809,-42.969,-48.340
1630093645.907,-1000.000,-34.668,-39.551,-72.266
1630093645.911,-690.918,-39.062,-29.297,-62.988
1630093645.915,866.699,4.395,10.742,5.371
1630093645.919,464.844,13.184,3.906,12.695
1630093645.923,-983.887,-38.574,-43.945,-65.430
1630093645.927,-1000.000,-40.527,-44.434,-69.824
1630093645.930,225.586,-4.395,-0.488,-4.395
1630093645.934,809.082,-8.789,-6.348,3.418
1630093645.938,-595.215,-47.852,-50.781,-66.895
1630093645.942,-1000.000,-49.805,-45.410,-71.777
1630093645.946,-144.531,-46.875,-32.227,-36.621
1630093645.949,-964.355,-47.852,-36.621,-19.043
1630093645.953,-148.438,-53.223,-50.781,-55.176
1630093645.957,-1000.000,-50.293,-40.039,-65.918
1630093645.961,-443.359,-39.062,-28.809,-47.363
1630093645.965,-944.824,-33.203,-24.414,-16.113
1630093645.969,232.422,-47.852,-44.434,-46.875
1630093645.973,-1000.000,-37.598,-31.250,-56.641
1630093645.976,-860.352,-3.906,10.742,-4.883
1630093645.980,657.715,-27.344,-11.719,-3.418
1630093645.984,492.676,-48.340,-50.293,-31.250
1630093645.988,-958.008,-44.922,-46.875,-63.477
1630093645.992,-1000.000,-41.504,-38.574,-68.848
1630093645.995,54.199,-41.016,-33.203,-35.645
1630093645.999,857.422,-44.922,-42.480,-28.809
1630093646.003,-513.184,-28.809,-33.203,-43.945
1630093646.007,-1000.000,-26.855,-23.926,-45.898
1630093646.011,-237.793,-41.992,-38.086,-41.992
1630093646.015,-931.641,-41.016,-40.527,-20.020
1630093646.019,-13.672,-16.113,-28.809,-19.531
1630093646.022,-1000.000,-19.043,-26.367,-39.551
1630093646.026,-563.477,-45.898,-42.969,-61.035
1630093646.030,976.562,-35.156,-33.691,-29.297
1630093646.034,310.547,-28.320,-37.598,-29.785
1630093646.038,-1000.000,-43.945,-52.246,-67.871
1630093646.038,-974.121,-52.246,-53.223,-71.777
1630093646.042,491.211,-43.945,-40.039,-33.691
1630093646.046,599.609,-40.527,-41.992,-23.438
1630093646.050,-865.234,-48.340,-51.270,-62.012
1630093646.054,-1000.000,-55.664,-56.641,-80.566
1630093646.058,-14.648,-26.855,-20.020,-32.227
1630093646.062,951.172,-12.207,-7.324,3.906
1630093646.065,-350.586,-49.316,-53.223,-59.570
1630093646.069,-1000.000,-54.688,-56.152,-80.566
1630093646.073,-270.508,-39.551,-37.109,-40.039
1630093646.077,-888.672,-35.645,-30.762,-7.812
1630093646.081,111.328,-48.828,-51.758,-51.270
1630093646.098,-1000.000,-64.453,-60.547,-86.426
1630093646.102,-617.676,-18.555,-12.207,-33.203
1630093646.106,932.129,14.160,18.555,20.996
1630093646.110,411.133,-40.527,-40.527,-41.504
1630093646.114,-1000.000,-54.199,-54.688,-91.797
1630093646.118,-1000.000,-40.039,-42.480,-76.660
1630093646.122,352.539,-40.039,-38.086,-37.109
1630093646.125,791.504,-47.852,-41.504,-35.156
1630093646.129,-619.629,-50.293,-49.316,-69.336
1630093646.133,-1000.000,-25.879,-23.926,-59.082
1630093646.137,-72.754,-26.367,-11.230,-35.156
1630093646.141,-940.918,-37.109,-31.250,-29.297
1630093646.143,-122.559,-37.109,-42.480,-59.570
1630093646.147,-1000.000,-42.480,-38.574,-72.754
1630093646.151,-391.113,-40.039,-28.809,-54.688
1630093646.155,-913.086,-44.434,-35.645,-35.156
1630093646.159,246.094,-30.273,-34.668,-31.738
1630093646.163,-1000.000,-25.879,-23.926,-41.992
1630093646.167,-792.969,-51.270,-36.133,-51.270
1630093646.170,713.867,-54.688,-34.180,-25.879
1630093646.174,603.027,-32.715,-22.461,-7.812
1630093646.178,-848.633,-23.926,-4.883,-21.484
1630093646.182,-1000.000,-55.664,-30.273,-58.594
1630093646.186,137.695,-56.152,-41.992,-46.875
1630093646.188,895.508,-40.039,-44.434,-30.762
1630093646.192,-434.570,-45.898,-55.176,-60.547
1630093646.196,-1000.000,-53.223,-54.199,-69.824
1630093646.200,-195.801,-54.199,-41.504,-46.387
1630093646.204,-901.367,-32.227,-19.043,-0.977
1630093646.208,17.090,-35.645,-30.273,-30.273
1630093646.212,-1000.000,-59.082,-53.711,-66.895
1630093646.215,-513.672,-61.035,-52.246,-50.293
1630093646.219,-988.770,-14.160,-3.418,19.043
1630093646.223,333.496,-13.184,-11.230,8.301
1630093646.227,-1000.000,-62.500,-59.082,-68.848
1630093646.231,-930.664,-60.547,-53.223,-67.383
1630093646.233,526.855,-53.711,-36.621,-26.855
1630093646.237,682.129,-53.711,-45.410,-18.066
1630093646.241,-765.625,-62.500,-53.711,-58.594
1630093646.245,-1000.000,-61.035,-40.039,-59.570
1630093646.249,41.504,-54.199,-26.367,-27.344
1630093646.253,985.352,-47.363,-32.715,-19.043
1630093646.257,-313.477,-54.199,-52.246,-58.594
1630093646.260,-1000.000,-37.109,-32.227,-46.875
1630093646.264,-127.930,-12.207,-1.465,-6.836
1630093646.268,-893.555,-38.086,-22.461,-12.207
1630093646.272,96.680,-55.664,-47.363,-44.434
1630093646.276,-1000.000,-39.551,-30.762,-39.551
1630093646.278,-624.023,-32.715,-19.043,-20.508
1630093646.282,909.668,-40.527,-29.297,-13.184
1630093646.286,432.617,-44.922,-46.875,-36.621
1630093646.290,-1000.000,-26.855,-29.297,-44.434
1630093646.294,-1000.000,-24.414,-25.391,-38.086
1630093646.298,364.258,-44.434,-41.016,-31.738
1630093646.302,744.629,-41.992,-41.016,-27.832
1630093646.305,-659.668,-18.066,-16.602,-31.738
1630093646.309,-1000.000,-23.926,-13.184,-38.574
1630093646.313,-94.727,-50.293,-38.574,-39.062
1630093646.317,995.117,-44.434,-39.062,-19.043
1630093646.321,-218.262,-45.898,-41.992,-43.945
1630093646.325,-1000.000,-52.246,-40.527,-61.035
1630093646.329,-394.531,-59.082,-36.621,-45.898
1630093646.333,-926.758,-33.691,-15.625,-1.953
1630093646.337,208.984,-20.020,-10.742,-15.625
1630093646.341,-1000.000,-49.316,-32.715,-56.152
1630093646.345,-797.852,-58.594,-38.574,-52.734
1630093646.349,726.074,-27.832,-3.906,6.836
1630093646.352,482.910,-13.184,7.812,20.020
1630093646.356,-974.121,-54.688,-35.156,-52.734
1630093646.360,-1000.000,-58.105,-34.668,-53.711
1630093646.364,173.828,-40.039,-21.484,-17.090
1630093646.368,809.570,-38.086,-41.016,-24.902
1630093646.368,-572.266,-51.270,-52.734,-71.289
1630093646.372,-1000.000,-55.176,-48.828,-79.590
1630093646.376,-107.422,-21.484,-8.789,-18.555
1630093646.380,-956.055,-20.508,-9.766,-0.488
1630093646.384,-127.441,-52.734,-54.199,-68.848
1630093646.388,-1000.000,-62.012,-55.664,-89.355
1630093646.392,-433.594,-18.555,0.488,-11.719
1630093646.395,-945.312,4.395,21.484,34.180
1630093646.399,234.375,-50.781,-46.875,-50.781
1630093646.403,-1000.000,-59.082,-51.758,-82.520
1630093646.407,-882.324,-49.316,-36.133,-66.406
1630093646.411,586.426,-46.387,-35.645,-41.016
1630093646.414,619.629,-48.340,-51.758,-45.898
1630093646.418,-832.520,-51.270,-54.688,-69.824
1630093646.422,-1000.000,-51.270,-49.805,-70.801
1630093646.426,82.031,-48.828,-42.969,-43.945
1630093646.430,910.645,-55.176,-52.246,-33.691
1630093646.434,-395.020,-36.133,-41.016,-46.875
1630093646.438,-1000.000,-18.066,-15.625,-34.180
1630093646.441,-220.703,-41.992,-30.762,-27.832
1630093646.445,-917.969,-45.410,-45.410,-30.762
1630093646.449,5.371,-19.531,-29.297,-53.223
1630093646.453,-1000.000,-13.184,-12.695,-49.316
1630093646.457,-592.285,-47.363,-37.598,-59.570
1630093646.473,930.664,-48.828,-33.203,-46.875
1630093646.477,380.859,-43.945,-42.969,-67.871
1630093646.481,-1000.000,-49.805,-54.688,-102.051
1630093646.485,-980.957,-55.176,-49.805,-101.562
1630093646.489,432.617,-53.711,-42.480,-82.520
1630093646.493,746.582,-20.508,-28.809,-55.664
1630093646.497,-678.711,-15.625,-26.367,-70.801
1630093646.500,-1000.000,-54.688,-46.387,-100.586
1630093646.504,16.113,-50.781,-38.574,-68.359
1630093646.508,989.746,-37.598,-41.504,-47.852
1630093646.512,-255.371,-49.316,-58.594,-82.031
1630093646.516,-1000.000,-61.035,-55.664,-95.215
1630093646.519,-306.641,-49.805,-40.039,-69.824
1630093646.523,-903.320,-38.086,-31.250,-33.691
1630093646.527,123.047,-53.223,-49.805,-67.871
1630093646.531,-1000.000,-62.500,-54.688,-94.238
1630093646.535,-647.461,-50.781,-40.527,-72.754
1630093646.539,878.906,-43.945,-29.785,-34.668
1630093646.543,482.422,-46.387,-45.410,-41.504
1630093646.546,-1000.000,-56.152,-57.129,-77.148
1630093646.550,-965.820,-35.156,-21.973,-46.387
1630093646.554,441.895,-12.207,4.883,0.000
1630093646.558,813.965,-40.527,-34.668,-32.715
1630093646.562,-583.008,-49.805,-52.246,-71.289
1630093646.564,-1000.000,-42.480,-40.039,-61.523
1630093646.568,0.488,-40.527,-30.762,-29.785
1630093646.572,-947.754,-38.086,-40.527,-19.043
1630093646.576,-140.137,-37.109,-51.270,-47.363
1630093646.580,-1000.000,-31.250,-39.551,-46.875
1630093646.584,-318.359,-26.855,-24.414,-27.344
1630093646.588,-886.230,-32.227,-33.691,-11.719
1630093646.591,202.637,-44.922,-55.176,-38.574
1630093646.595,-1000.000,-32.715,-33.691,-48.340
1630093646.599,-777.832,-30.273,-27.344,-41.992
1630093646.603,734.375,-42.480,-36.133,-26.367
1630093646.607,559.570,-42.480,-45.898,-40.527
1630093646.608,-914.551,-48.828,-50.781,-77.637
1630093646.612,-1000.000,-43.945,-40.527,-64.941
1630093646.616,241.211,-43.457,-35.156,-35.645
1630093646.620,908.691,-36.133,-39.062,-23.438
1630093646.624,-421.387,-31.738,-40.527,-42.969
1630093646.628,-1000.000,-40.527,-46.875,-56.641
1630093646.632,-107.422,-38.574,-41.504,-39.062
1630093646.635,-877.930,-24.902,-22.461,-5.371
1630093646.639,29.297,-13.672,-24.414,-22.949
1630093646.643,-1000.000,-34.668,-46.387,-67.383
1630093646.647,-381.836,-36.621,-38.574,-51.270
1630093646.651,-898.926,-27.344,-34.180,-19.043
1630093646.653,331.055,-25.391,-49.805,-38.086
1630093646.657,-1000.000,-30.273,-44.922,-57.617
1630093646.661,-811.035,-39.062,-37.598,-56.152
1630093646.665,708.008,-25.391,-20.996,-21.973
1630093646.669,614.746,-22.949,-28.809,-27.832
1630093646.673,-858.398,-42.480,-47.363,-75.684
1630093646.677,-1000.000,-44.922,-44.922,-75.195
1630093646.680,178.223,-23.926,-21.973,-25.879
1630093646.684,925.293,-15.137,-24.414,-13.672
1630093646.688,-386.719,-41.992,-52.734,-67.871
1630093646.692,-1000.000,-49.805,-52.246,-82.031
1630093646.696,-208.008,-40.527,-38.574,-54.199
1630093646.698,-893.555,-33.203,-36.133,-32.227
1630093646.702,44.922,-35.156,-48.340,-65.918
1630093646.706,-1000.000,-39.551,-44.434,-81.055
1630093646.710,-531.250,-45.410,-38.086,-59.570
1630093646.714,995.117,-42.969,-28.320,-30.273
1630093646.718,401.855,-43.457,-39.062,-52.734
1630093646.722,-1000.000,-40.527,-39.551,-63.477
1630093646.725,-935.547,-27.832,-21.973,-40.039
1630093646.729,515.625,-32.227,-29.297,-31.250
1630093646.733,731.445,-40.039,-50.781,-43.945
1630093646.737,-700.195,-36.621,-45.410,-63.965
1630093646.741,-1000.000,-39.551,-37.109,-68.359
1630093646.743,22.461,-45.898,-34.668,-52.734
1630093646.747,993.652,-40.527,-41.016,-42.480
1630093646.751,-265.137,-29.785,-44.922,-67.383
1630093646.755,-1000.000,-35.156,-35.645,-74.219
1630093646.759,-245.117,-54.199,-41.016,-60.547
1630093646.763,-875.488,-54.199,-42.969,-39.551
1630093646.767,132.324,-28.320,-27.832,-39.551
1630093646.770,-1000.000,-26.367,-23.438,-57.617
1630093646.774,-591.797,-56.152,-41.504,-71.289
1630093646.778,966.797,-45.410,-30.762,-38.574
1630093646.782,374.512,-43.945,-42.480,-51.270
1630093646.786,-1000.000,-52.734,-44.434,-83.496
1630093646.795,-1000.000,-55.176,-41.992,-86.426
1630093646.799,419.434,-40.527,-21.484,-41.992
1630093646.803,630.371,-24.414,-17.578,-24.902
1630093646.807,-832.031,-44.922,-45.898,-82.520
1630093646.811,-1000.000,-61.035,-52.734,-98.145
1630093646.815,-78.125,-34.668,-23.926,-40.527
1630093646.819,951.172,-11.719,-8.301,-1.465
1630093646.822,-354.980,-46.387,-48.340,-63.477
1630093646.826,-1000.000,-55.176,-50.781,-75.684
1630093646.830,-294.922,-30.762,-24.902,-35.645
1630093646.834,-886.719,-26.367,-23.438,-10.742
1630093646.838,145.996,-45.898,-54.199,-46.875
1630093646.848,-1000.000,-47.852,-53.711,-71.289
1630093646.852,-571.289,-41.504,-33.691,-50.781
1630093646.856,971.680,-40.039,-28.320,-24.414
1630093646.860,470.703,-40.039,-46.875,-34.668
1630093646.864,-1000.000,-54.199,-62.500,-68.848
1630093646.868,-908.691,-19.531,-12.695,-35.645
1630093646.872,521.973,17.578,34.180,26.855
1630093646.875,866.211,-30.762,-23.926,-19.531
1630093646.879,-543.457,-54.688,-52.734,-77.148
1630093646.883,-1000.000,-52.246,-42.480,-76.660
1630093646.887,-50.781,-51.758,-38.574,-55.176
1630093646.891,-879.395,-45.410,-46.387,-40.039
1630093646.893,-18.555,-45.410,-55.664,-70.312
1630093646.897,-1000.000,-45.410,-43.457,-75.684
1630093646.901,-304.199,-41.992,-38.574,-55.664
1630093646.905,-859.863,-38.574,-36.133,-29.297
1630093646.909,323.730,-47.852,-46.387,-45.410
1630093646.913,-1000.000,-58.105,-46.875,-74.707
1630093646.917,-696.777,-57.129,-37.109,-61.035
1630093646.920,831.055,-53.711,-29.297,-24.902
1630093646.924,681.152,-28.809,-19.531,-14.160
1630093646.928,-760.742,-5.371,-10.742,-21.973
1630093646.932,-1000.000,-40.039,-33.203,-46.875
1630093646.936,192.383,-52.734,-39.062,-35.156
1630093646.938,974.121,-47.852,-45.410,-22.461
1630093646.942,-340.332,-56.152,-62.012,-69.824
1630093646.946,-1000.000,-56.641,-55.664,-77.148
1630093646.950,-179.688,-58.105,-40.039,-40.039
1630093646.954,-868.164,-40.527,-26.367,-10.254
1630093646.958,69.824,-44.922,-41.504,-46.875
1630093646.962,-1000.000,-67.871,-56.641,-87.891
1630093646.965,-484.863,-58.594,-42.480,-69.336
1630093646.969,-958.496,-30.762,-14.160,-15.625
1630093646.973,401.855,-36.133,-30.273,-29.297
1630093646.977,-1000.000,-56.641,-51.758,-70.801
1630093646.981,-890.137,-49.805,-38.574,-54.688
1630093646.984,580.078,-35.156,-20.508,-6.348
1630093646.988,778.320,-44.434,-35.156,-16.113
1630093646.992,-662.109,-59.082,-46.387,-61.523
1630093646.996,-1000.000,-55.664,-45.410,-62.988
1630093647.000,57.129,-49.805,-30.762,-32.715
1630093647.004,-938.477,-44.922,-20.996,-13.672
1630093647.008,-149.902,-51.270,-41.504,-44.434
1630093647.011,-1000.000,-50.781,-33.203,-51.758
1630093647.015,-243.164,-40.527,-13.672,-25.879
1630093647.019,-858.398,-43.457,-27.832,-16.602
1630093647.023,178.711,-46.387,-46.387,-50.781
1630093647.027,-1000.000,-44.922,-39.062,-64.941
1630093647.030,-649.902,-42.969,-29.297,-48.828
1630093647.034,896.973,-38.086,-23.438,-22.461
1630093647.038,488.770,-47.852,-40.527,-46.387
1630093647.042,-967.773,-29.297,-20.020,-54.199
1630093647.046,-1000.000,-11.719,-2.441,-37.109
1630093647.050,296.387,-40.039,-30.762,-40.527
1630093647.054,812.988,-41.992,-42.480,-43.457
1630093647.057,-591.309,-28.320,-32.715,-60.059
1630093647.061,-1000.000,-38.086,-36.133,-66.895
1630093647.065,-101.562,-49.316,-38.574,-46.875
1630093647.069,-936.523,-40.039,-35.645,-27.344
1630093647.073,-106.445,-46.875,-50.781,-64.453
1630093647.073,-1000.000,-48.340,-46.387,-74.219
1630093647.077,-388.184,-45.410,-33.203,-49.316
