timestamps,TP9,AF7,AF8,TP10
1630094591.876,-453.613,-39.551,-17.090,-59.570
1630094591.880,-540.527,-42.480,-57.617,-66.406
1630094591.884,-101.562,-31.738,-57.617,-46.387
1630094591.888,94.727,-22.461,-4.395,-28.809
1630094591.892,-342.285,-36.133,-9.766,-50.781
1630094591.896,-589.844,-35.156,-38.086,-69.824
1630094591.900,-235.352,-18.555,-54.199,-75.195
1630094591.903,102.539,-20.020,-7.324,-56.152
1630094591.907,-203.125,-27.344,13.184,-69.824
1630094591.911,-551.270,-20.996,-22.461,-104.004
1630094591.915,-335.449,-14.160,-43.945,-115.723
1630094591.919,62.988,-28.809,-21.973,-138.184
1630094591.921,-95.703,-31.738,16.602,-161.133
1630094591.925,-498.535,-22.949,5.371,-181.641
1630094591.929,-461.426,-16.113,-26.367,-218.750
1630094591.933,-30.273,-22.461,-18.066,-236.328
1630094591.937,21.973,-21.973,33.691,-217.773
1630094591.941,-443.848,-20.020,21.484,-284.668
1630094591.945,-566.895,-17.090,-12.207,-337.402
1630094591.948,-138.672,-1.953,-8.789,-304.199
1630094591.952,46.875,-0.488,28.320,-329.102
1630094591.956,-322.266,-17.578,13.672,-361.816
1630094591.960,-520.508,-15.625,-7.812,-333.984
1630094591.964,-187.988,-3.906,-26.855,-323.242
1630094591.966,194.336,-5.371,0.977,-317.383
1630094591.970,-43.945,-0.488,15.625,-307.617
1630094591.974,-372.559,0.000,-20.508,-305.664
1630094591.978,-154.297,-7.812,-51.270,-292.969
1630094591.982,345.703,-10.742,-35.156,-262.695
1630094591.986,324.707,-5.371,-4.395,-228.027
1630094591.990,5.859,-1.465,-17.090,-224.609
1630094591.993,95.215,-16.113,-45.410,-219.727
1630094591.997,550.293,-27.832,-55.664,-180.664
1630094592.001,620.605,-27.344,-18.555,-163.086
1630094592.005,196.777,-34.668,-31.250,-172.852
1630094592.009,90.820,-40.039,-66.895,-159.668
1630094592.012,545.410,-36.621,-76.172,-108.887
1630094592.016,856.934,-40.039,-28.320,-65.918
1630094592.020,530.273,-49.805,-20.508,-63.965
1630094592.024,270.996,-56.152,-52.246,-62.012
1630094592.028,551.270,-53.711,-71.777,-41.992
1630094592.032,948.730,-50.293,-42.480,-7.812
1630094592.036,723.145,-49.805,-19.043,-3.418
1630094592.039,318.359,-56.152,-52.246,-34.668
1630094592.043,455.566,-57.617,-76.660,-17.090
1630094592.047,898.926,-47.363,-50.781,26.367
1630094592.051,825.195,-46.387,-11.719,37.598
1630094592.055,348.145,-56.641,-38.574,20.996
1630094592.071,245.605,-53.223,-77.637,6.836
1630094592.075,606.445,-57.617,-77.148,32.227
1630094592.079,674.316,-64.453,-29.297,46.387
1630094592.083,199.219,-65.430,-35.156,18.066
1630094592.087,-30.762,-63.965,-66.895,18.066
1630094592.091,310.547,-52.734,-70.801,42.480
1630094592.095,545.410,-48.828,-35.645,51.270
1630094592.098,138.672,-52.734,-37.109,14.648
1630094592.102,-200.195,-54.199,-62.500,2.930
1630094592.106,24.902,-56.152,-81.055,35.645
1630094592.110,400.391,-53.223,-59.082,42.969
1630094592.114,200.195,-52.246,-36.133,28.809
1630094592.116,-231.445,-56.641,-54.688,23.926
1630094592.120,-193.848,-57.617,-78.125,42.480
1630094592.124,205.078,-54.688,-64.941,72.754
1630094592.128,148.926,-49.805,-25.879,56.152
1630094592.132,-293.945,-48.340,-41.992,21.484
1630094592.136,-351.074,-52.246,-74.219,29.785
1630094592.140,70.801,-57.129,-76.660,57.129
1630094592.143,259.277,-54.688,-29.785,67.871
1630094592.147,-144.531,-49.805,-27.832,44.434
1630094592.151,-371.094,-44.434,-47.363,49.316
1630094592.155,-52.734,-44.922,-65.918,60.059
1630094592.159,247.559,-49.805,-40.039,57.617
1630094592.161,-57.617,-50.781,-23.926,45.898
1630094592.165,-395.508,-53.223,-52.734,31.738
1630094592.169,-200.195,-57.129,-81.543,33.203
1630094592.173,223.145,-45.898,-50.781,57.129
1630094592.177,82.520,-40.527,-8.789,56.152
1630094592.181,-330.566,-46.387,-30.273,30.762
1630094592.185,-292.480,-41.016,-72.754,19.531
1630094592.188,140.137,-44.922,-63.965,42.480
1630094592.192,196.289,-38.086,-4.883,55.176
1630094592.196,-238.281,-42.480,-26.855,25.879
1630094592.200,-375.488,-54.199,-67.871,18.066
1630094592.204,22.461,-47.852,-63.477,39.062
1630094592.206,240.723,-37.109,-14.648,59.570
1630094592.210,-151.367,-37.598,-21.973,28.320
1630094592.214,-414.062,-44.434,-55.176,-1.465
1630094592.218,-95.703,-41.504,-67.871,16.602
1630094592.222,261.230,-32.715,-29.297,36.133
1630094592.226,-13.184,-30.762,-14.160,32.227
1630094592.230,-369.629,-35.645,-48.340,11.230
1630094592.233,-212.891,-41.504,-76.172,0.977
1630094592.237,233.398,-41.504,-45.410,28.809
1630094592.241,112.305,-44.434,-10.254,29.297
1630094592.245,-323.242,-51.758,-34.180,2.441
1630094592.249,-296.387,-35.645,-61.523,20.996
1630094592.252,119.629,-28.320,-63.477,27.832
1630094592.256,188.477,-45.410,-19.043,15.625
1630094592.260,-228.516,-45.410,-23.926,18.555
1630094592.264,-358.398,-41.992,-55.664,16.602
1630094592.268,41.016,-40.039,-62.012,33.691
1630094592.272,295.898,-32.715,-18.555,36.621
1630094592.276,-81.543,-42.480,-19.531,-0.488
1630094592.279,-369.629,-51.758,-52.734,-21.973
1630094592.283,-86.426,-36.621,-66.895,-3.906
1630094592.287,266.602,-33.203,-37.598,13.184
1630094592.291,14.648,-47.363,-17.578,10.742
1630094592.295,-348.145,-48.828,-43.945,0.488
1630094592.296,-208.496,-48.828,-77.637,-8.301
1630094592.300,223.145,-49.805,-59.570,-0.977
1630094592.304,173.340,-41.992,-19.043,-4.883
1630094592.308,-253.906,-40.039,-37.109,-27.344
1630094592.312,-263.672,-41.992,-65.430,-15.137
1630094592.316,183.594,-41.992,-63.965,14.160
1630094592.320,329.590,-28.320,-20.020,30.273
1630094592.323,-23.438,-22.949,-15.137,43.945
1630094592.327,-230.469,-42.969,-47.852,7.812
1630094592.331,77.637,-55.176,-66.895,-11.230
1630094592.335,395.020,-54.199,-29.297,11.230
1630094592.339,75.195,-58.594,-29.785,-12.695
1630094592.341,-241.699,-68.359,-55.176,-33.203
1630094592.345,29.785,-70.312,-62.500,3.418
1630094592.349,438.965,-72.754,-27.832,37.598
1630094592.353,235.352,-71.777,-7.812,12.695
1630094592.357,-120.605,-67.383,-29.297,0.000
1630094592.361,-27.832,-73.730,-63.965,-2.441
1630094592.365,383.789,-60.059,-31.738,30.762
1630094592.368,383.789,-50.781,17.090,46.875
1630094592.372,-89.844,-63.965,-27.832,-3.418
1630094592.376,-186.035,-67.383,-58.105,-20.996
1630094592.380,242.676,-66.895,-48.340,11.719
1630094592.384,379.395,-67.871,-2.441,19.531
1630094592.386,-57.617,-77.637,-17.090,-12.695
1630094592.390,-279.785,-82.031,-50.293,-20.508
1630094592.394,43.457,-69.824,-53.223,15.625
1630094592.398,341.797,-62.012,-17.090,26.855
1630094592.402,26.367,-64.941,-10.742,-9.277
1630094592.406,-320.801,-62.500,-26.367,-5.859
1630094592.410,-120.605,-52.734,-41.504,13.672
1630094592.413,248.047,-60.547,-32.715,-8.789
1630094592.417,32.715,-66.895,-11.719,-2.930
1630094592.421,-339.844,-51.270,-20.508,11.230
1630094592.425,-247.559,-42.969,-48.340,-1.953
1630094592.429,151.855,-53.223,-46.875,1.465
1630094592.446,165.039,-52.246,-7.812,-14.160
1630094592.450,-270.020,-53.711,-29.785,-33.203
1630094592.454,-394.043,-55.664,-61.523,-29.297
1630094592.458,-0.488,-53.711,-59.082,-15.625
1630094592.462,195.312,-45.898,-2.441,10.742
1630094592.466,-182.129,-37.598,-2.930,-13.184
1630094592.470,-433.105,-42.480,-47.852,-51.270
1630094592.473,-157.715,-49.316,-61.523,-25.879
1630094592.477,190.918,-52.734,-13.184,19.531
1630094592.481,-40.039,-41.504,-0.977,26.855
1630094592.485,-409.180,-23.926,-37.598,-32.227
1630094592.489,-283.203,-25.879,-54.199,-67.871
1630094592.491,126.953,-28.320,-36.621,-47.852
1630094592.495,12.207,-24.902,-14.160,-45.898
1630094592.499,-404.785,-20.020,-37.598,-57.617
1630094592.503,-393.555,-9.766,-69.824,-73.242
1630094592.507,54.199,-6.348,-64.941,-66.895
1630094592.511,126.465,7.324,-16.113,-45.410
1630094592.515,-296.387,8.301,-32.227,-64.941
1630094592.518,-408.691,0.488,-65.430,-56.641
1630094592.522,-14.648,-4.883,-76.172,-29.785
1630094592.526,219.727,-10.254,-40.039,-42.480
1630094592.530,-140.137,-8.301,-27.344,-62.012
1630094592.534,-402.344,-4.395,-52.734,-75.684
1630094592.536,-104.004,-2.441,-67.871,-60.547
1630094592.540,263.184,-5.859,-32.227,-16.602
1630094592.544,47.852,-12.695,-11.719,-12.695
1630094592.548,-268.555,-18.555,-42.480,-49.805
1630094592.552,-135.742,-19.043,-80.078,-47.852
1630094592.556,291.016,-15.137,-56.152,-18.066
1630094592.560,250.977,-4.883,-16.602,-19.531
1630094592.563,-168.457,-15.625,-41.992,-28.809
1630094592.567,-205.566,-34.668,-83.008,-33.691
1630094592.571,228.516,-20.996,-78.613,-14.648
1630094592.575,340.820,-11.719,-17.090,12.695
1630094592.579,-77.637,-21.484,-18.066,-1.465
1630094592.581,-254.883,-22.949,-59.082,-41.992
1630094592.585,70.312,-27.344,-78.613,-34.180
1630094592.589,331.055,-22.949,-28.809,-1.953
1630094592.593,-10.742,-11.230,-20.020,-25.879
1630094592.597,-285.645,-18.555,-55.664,-49.805
1630094592.601,-41.992,-28.809,-75.195,-47.363
1630094592.605,272.461,-33.203,-35.645,-20.996
1630094592.608,54.688,-39.551,-8.789,-16.113
1630094592.612,-363.281,-50.293,-51.270,-61.035
1630094592.616,-291.504,-40.039,-82.520,-62.500
1630094592.620,108.398,-24.902,-53.711,-37.598
1630094592.624,45.898,-29.297,-7.812,-45.898
1630094592.626,-388.672,-34.180,-32.715,-66.895
1630094592.630,-452.148,-41.992,-61.035,-65.918
1630094592.634,-51.758,-42.969,-55.176,-40.039
1630094592.638,112.305,-28.809,-9.277,-34.668
1630094592.642,-271.973,-30.762,-20.508,-59.082
1630094592.646,-469.727,-47.363,-43.457,-53.711
1630094592.650,-123.535,-36.621,-55.664,-35.645
1630094592.653,185.059,-20.996,-24.414,-35.156
1630094592.657,-121.094,-30.762,-15.625,-49.316
1630094592.661,-445.801,-37.598,-44.434,-68.848
1630094592.665,-242.188,-37.598,-64.941,-62.012
1630094592.669,164.062,-37.109,-41.504,-34.180
1630094592.671,18.066,-34.668,-2.441,-37.109
1630094592.675,-361.328,-32.227,-27.344,-64.941
1630094592.679,-292.969,-31.738,-68.359,-64.453
1630094592.683,151.367,-30.762,-51.758,-35.156
1630094592.687,167.969,-35.156,-8.301,-30.762
1630094592.691,-247.070,-37.598,-24.414,-49.805
1630094592.695,-312.988,-33.691,-62.988,-46.387
1630094592.698,48.828,-42.480,-78.125,-42.969
1630094592.702,233.398,-40.527,-23.438,-15.625
1630094592.706,-126.465,-36.621,-21.484,-25.879
1630094592.710,-357.422,-37.598,-50.781,-59.570
1630094592.714,-52.246,-32.227,-63.477,-44.434
1630094592.717,282.715,-24.414,-24.414,-31.738
1630094592.721,26.367,-30.762,-5.859,-30.273
1630094592.725,-324.707,-41.992,-38.086,-23.438
1630094592.729,-153.809,-33.691,-64.941,-28.809
1630094592.733,252.441,-25.879,-43.945,-39.551
1630094592.737,133.301,-30.762,-14.648,-47.852
1630094592.741,-265.625,-35.156,-37.109,-31.250
1630094592.744,-250.977,-42.480,-62.500,-20.996
1630094592.748,184.082,-34.668,-62.500,-20.996
1630094592.752,214.355,-30.273,-23.438,-33.691
1630094592.756,-214.844,-37.109,-26.367,-41.992
1630094592.760,-324.219,-38.574,-61.523,-50.293
1630094592.761,45.410,-34.668,-72.266,-38.574
1630094592.765,286.133,-33.203,-23.926,-5.371
1630094592.769,-67.383,-36.133,-16.602,-12.695
1630094592.773,-325.684,-30.762,-54.688,-42.480
1630094592.777,-42.480,-31.250,-72.266,-33.203
1630094592.781,305.664,-27.344,-42.969,-14.160
1630094592.785,55.176,-39.062,-30.273,-19.531
1630094592.788,-306.641,-46.875,-49.805,-26.855
1630094592.792,-170.898,-33.203,-62.988,-30.273
1630094592.796,245.117,-28.809,-43.457,-13.672
1630094592.800,152.344,-34.180,-12.695,-26.367
1630094592.804,-270.020,-35.156,-29.297,-43.945
1630094592.821,-288.574,-39.551,-58.594,-30.762
1630094592.825,129.395,-43.457,-66.406,-27.344
1630094592.829,240.723,-37.109,-24.902,-26.367
1630094592.833,-184.082,-41.992,-35.156,-39.551
1630094592.837,-316.406,-50.293,-67.871,-53.711
1630094592.841,39.062,-52.246,-77.148,-43.457
1630094592.845,265.625,-46.387,-42.969,-18.066
1630094592.848,-58.594,-44.922,-37.598,-55.176
1630094592.852,-362.305,-53.223,-61.035,-85.938
1630094592.856,-121.582,-58.594,-77.637,-60.059
1630094592.860,247.070,-56.641,-54.688,-47.852
1630094592.864,56.152,-47.852,-30.762,-46.387
1630094592.866,-312.988,-45.898,-49.316,-57.129
1630094592.870,-215.332,-49.805,-75.195,-60.547
1630094592.874,217.285,-40.039,-56.641,-34.668
1630094592.878,203.125,-37.598,-12.695,-3.906
1630094592.882,-234.863,-45.898,-38.574,-42.969
1630094592.886,-315.430,-44.922,-77.148,-79.102
1630094592.890,109.863,-44.922,-73.242,-36.621
1630094592.893,279.297,-29.297,-21.973,-24.414
1630094592.897,-121.582,-40.527,-26.367,-56.641
1630094592.901,-326.172,-56.152,-62.500,-71.777
1630094592.905,9.766,-45.898,-68.359,-49.316
1630094592.909,303.711,-45.898,-17.578,-6.348
1630094592.911,-9.277,-42.480,-8.301,-15.137
1630094592.915,-309.570,-38.086,-41.992,-50.293
1630094592.919,-92.773,-41.016,-67.871,-59.570
1630094592.923,296.875,-37.109,-43.457,-52.734
1630094592.927,133.789,-39.551,-12.207,-52.246
1630094592.931,-264.160,-50.293,-26.367,-43.457
1630094592.935,-183.105,-41.992,-58.594,-32.227
1630094592.938,240.234,-32.227,-48.340,-18.066
1630094592.942,255.371,-27.344,-2.441,-25.879
1630094592.946,-166.992,-32.227,-21.484,-60.547
1630094592.950,-271.973,-37.109,-56.152,-62.012
1630094592.954,121.582,-41.504,-57.129,-30.273
1630094592.956,299.805,-42.480,-11.719,-20.020
1630094592.960,-120.117,-42.480,-22.461,-62.988
1630094592.964,-347.168,-43.457,-56.152,-77.148
1630094592.968,-22.949,-42.969,-63.477,-45.898
1630094592.972,282.715,-42.480,-22.949,-27.344
1630094592.976,16.602,-36.133,-8.301,-42.480
1630094592.980,-322.754,-36.133,-33.691,-66.406
1630094592.983,-152.832,-39.551,-59.570,-43.945
1630094592.987,237.305,-42.969,-37.109,-22.949
1630094592.991,93.750,-41.016,4.395,-35.645
1630094592.995,-292.969,-41.992,-13.184,-47.852
1630094592.999,-270.020,-36.133,-42.969,-47.852
1630094593.001,118.164,-27.832,-39.062,-32.227
1630094593.005,183.105,-24.902,-5.859,-36.133
1630094593.009,-212.402,-29.297,-18.555,-55.176
1630094593.013,-352.539,-43.945,-49.805,-61.035
1630094593.017,1.465,-47.852,-64.941,-52.246
1630094593.021,230.957,-35.156,-16.113,-34.180
1630094593.025,-101.562,-26.367,-6.836,-40.039
1630094593.028,-364.746,-37.109,-42.969,-55.176
1630094593.032,-99.121,-47.363,-63.477,-30.762
1630094593.036,250.000,-38.574,-27.832,-14.648
1630094593.040,-2.441,-38.574,-4.883,-28.809
1630094593.044,-350.586,-37.109,-27.344,-55.176
1630094593.046,-188.477,-36.621,-55.664,-47.363
1630094593.050,213.379,-38.574,-40.039,-28.320
1630094593.054,115.234,-30.762,-7.812,-42.480
1630094593.058,-274.902,-34.668,-21.973,-41.504
1630094593.062,-287.109,-37.109,-51.270,-33.691
1630094593.066,114.746,-39.551,-52.734,-37.109
1630094593.070,244.629,-36.621,1.953,-33.691
1630094593.073,-149.902,-29.297,0.488,-32.715
1630094593.077,-313.477,-40.039,-41.992,-43.457
1630094593.081,26.367,-43.457,-61.523,-37.109
1630094593.085,273.438,-35.156,-22.461,-23.926
1630094593.089,-31.250,-36.621,-13.672,-32.227
1630094593.091,-289.062,-33.691,-34.180,-43.457
1630094593.095,-46.387,-34.180,-55.176,-36.133
1630094593.099,297.363,-36.133,-28.320,-23.926
1630094593.103,112.305,-32.227,-4.883,-25.391
1630094593.107,-250.000,-37.598,-30.762,-44.434
1630094593.111,-147.949,-38.574,-58.594,-41.504
1630094593.115,276.367,-41.016,-47.363,-23.438
1630094593.118,255.371,-34.180,-4.883,-21.973
1630094593.122,-141.602,-24.414,-29.785,-36.133
1630094593.126,-207.520,-33.691,-57.129,-42.969
1630094593.130,183.105,-40.039,-52.246,-22.949
1630094593.134,299.805,-39.062,-8.789,-24.902
1630094593.136,-116.699,-39.062,-13.672,-46.875
1630094593.140,-311.523,-40.039,-45.410,-64.941
1630094593.144,16.113,-37.598,-62.012,-53.223
1630094593.148,282.715,-34.668,-27.344,-27.832
1630094593.152,-38.574,-36.133,-5.859,-46.387
1630094593.156,-351.074,-41.016,-29.297,-53.711
1630094593.160,-128.418,-39.551,-54.688,-30.762
1630094593.163,227.539,-42.480,-31.250,-17.090
1630094593.167,50.293,-41.504,1.953,-20.996
1630094593.171,-312.500,-36.133,-23.926,-50.293
1630094593.175,-253.906,-37.109,-59.570,-50.781
1630094593.179,162.109,-36.133,-40.527,-12.207
1630094593.196,165.527,-37.598,-2.441,-17.090
1630094593.200,-248.535,-34.180,-26.855,-47.363
1630094593.204,-329.590,-31.250,-50.293,-43.945
1630094593.208,50.293,-36.133,-63.965,-17.578
1630094593.212,232.422,-41.992,-33.691,2.441
1630094593.216,-135.742,-47.852,-12.207,-2.930
1630094593.220,-365.234,-46.387,-36.621,-42.969
1630094593.223,-72.266,-50.293,-62.500,-54.199
1630094593.227,245.605,-58.594,-17.090,-18.555
1630094593.231,-19.531,-45.898,-3.418,-26.367
1630094593.235,-359.375,-38.574,-29.785,-51.270
1630094593.239,-176.270,-40.039,-45.410,-48.828
1630094593.241,221.191,-42.480,-31.250,-36.621
1630094593.245,84.473,-54.688,-7.324,-31.250
1630094593.249,-307.129,-60.547,-25.391,-41.992
1630094593.253,-272.949,-55.176,-52.246,-46.875
1630094593.257,157.227,-44.434,-45.898,-16.113
1630094593.261,221.680,-40.039,-0.977,-10.742
1630094593.265,-201.660,-52.246,-19.043,-29.785
1630094593.268,-332.520,-52.734,-48.828,-33.203
1630094593.272,43.945,-45.898,-58.594,-16.113
1630094593.276,259.277,-47.852,-22.461,-14.648
1630094593.280,-110.352,-50.781,-13.184,-39.551
1630094593.284,-357.910,-47.852,-38.086,-41.992
1630094593.286,-81.055,-45.410,-58.594,-40.039
1630094593.290,232.422,-48.828,-26.367,-20.996
1630094593.294,-6.348,-50.293,-4.395,-18.555
1630094593.298,-349.609,-49.316,-30.273,-47.363
1630094593.302,-222.168,-52.734,-59.082,-53.711
1630094593.306,198.242,-50.293,-43.945,-39.062
1630094593.310,133.789,-45.898,-12.695,-40.039
1630094593.313,-289.062,-51.758,-32.715,-51.758
1630094593.317,-296.875,-50.781,-63.477,-51.758
1630094593.321,123.535,-42.969,-57.617,-39.062
1630094593.325,210.938,-44.922,-7.324,-25.879
1630094593.329,-208.008,-47.363,-20.996,-28.320
1630094593.331,-379.395,-51.758,-55.664,-50.293
1630094593.335,-27.832,-54.688,-68.848,-45.410
1630094593.339,235.352,-49.316,-29.297,-31.738
1630094593.343,-103.027,-53.223,-12.207,-41.992
1630094593.347,-377.441,-52.734,-33.691,-33.691
1630094593.351,-119.141,-53.223,-54.199,-28.320
1630094593.355,228.516,-47.852,-28.809,-27.344
1630094593.358,26.855,-34.180,-12.207,-27.832
1630094593.362,-327.148,-36.133,-32.715,-39.551
1630094593.366,-229.980,-50.293,-58.594,-32.227
1630094593.370,172.852,-53.711,-41.992,-4.883
1630094593.374,140.137,-49.805,-7.324,-11.230
1630094593.376,-268.066,-42.969,-32.227,-48.828
1630094593.380,-314.941,-37.109,-62.500,-50.781
1630094593.384,99.609,-37.598,-56.152,-30.762
1630094593.388,244.141,-32.715,-6.836,-35.156
1630094593.392,-151.367,-31.738,-11.719,-50.293
1630094593.396,-337.891,-41.016,-42.480,-53.711
1630094593.400,-10.742,-45.898,-66.406,-41.504
1630094593.403,271.484,-46.387,-28.809,-28.320
1630094593.407,-28.320,-40.527,-15.137,-32.227
1630094593.411,-337.891,-37.109,-41.016,-38.574
1630094593.415,-121.094,-43.945,-57.129,-40.039
1630094593.419,265.137,-42.480,-36.133,-31.738
1630094593.422,102.051,-39.062,-1.953,-34.180
1630094593.426,-274.414,-42.969,-17.090,-45.898
1630094593.430,-200.195,-43.457,-60.547,-45.410
1630094593.434,209.961,-43.945,-54.688,-30.762
1630094593.438,196.777,-39.551,-6.348,-23.926
1630094593.442,-206.055,-37.109,-26.855,-50.781
1630094593.446,-278.809,-44.434,-64.453,-56.152
1630094593.449,101.562,-52.734,-74.707,-31.738
1630094593.453,255.371,-46.875,-24.902,-21.484
1630094593.457,-111.816,-40.527,-23.926,-37.109
1630094593.461,-319.824,-35.645,-56.641,-57.617
1630094593.465,-12.695,-36.621,-69.824,-30.273
1630094593.466,300.781,-36.621,-32.715,1.953
1630094593.470,0.488,-41.992,-17.090,-28.320
1630094593.474,-327.148,-41.504,-51.270,-56.641
1630094593.478,-117.676,-34.180,-69.824,-38.086
1630094593.482,293.457,-41.504,-37.598,-9.277
1630094593.486,157.227,-44.434,-9.277,-16.113
1630094593.490,-245.117,-35.645,-28.809,-35.645
1630094593.493,-239.746,-41.016,-64.453,-62.012
1630094593.497,163.086,-39.551,-65.918,-46.875
1630094593.501,217.285,-33.203,-27.344,-34.180
1630094593.505,-189.453,-34.180,-41.504,-48.828
1630094593.509,-309.570,-39.062,-73.242,-60.059
1630094593.511,66.406,-41.016,-75.195,-42.480
1630094593.515,295.410,-34.180,-30.273,-30.762
1630094593.519,-83.008,-40.527,-28.320,-59.570
1630094593.523,-344.727,-45.410,-55.664,-68.359
1630094593.527,-50.781,-38.086,-70.801,-41.992
1630094593.531,296.875,-33.691,-34.668,-24.414
1630094593.535,62.012,-35.156,-18.066,-53.223
1630094593.538,-281.250,-39.062,-50.293,-62.012
1630094593.542,-144.531,-45.410,-76.660,-54.199
1630094593.546,225.098,-55.176,-60.547,-63.477
1630094593.550,135.742,-54.688,-32.227,-72.754
1630094593.554,-234.863,-51.270,-43.457,-62.988
1630094593.571,-243.652,-43.457,-59.082,-46.387
1630094593.575,154.297,-37.109,-53.711,-36.133
1630094593.579,245.605,-35.156,-13.184,-17.090
1630094593.583,-140.137,-30.273,-25.879,-29.297
1630094593.587,-288.086,-35.645,-61.523,-58.105
1630094593.591,67.383,-35.645,-67.871,-36.133
1630094593.595,314.941,-26.367,-26.367,-22.461
1630094593.598,-10.742,-28.320,-21.973,-31.250
1630094593.602,-280.762,-29.785,-46.875,-48.340
1630094593.606,-39.551,-30.273,-62.500,-42.480
1630094593.610,320.801,-28.320,-37.598,-14.648
1630094593.614,101.074,-20.508,-14.648,-31.738
1630094593.617,-285.156,-27.344,-41.992,-61.523
1630094593.621,-162.598,-39.551,-71.289,-49.316
1630094593.625,257.812,-31.738,-46.875,-22.949
1630094593.629,207.031,-27.344,-3.906,-10.254
1630094593.633,-195.801,-32.715,-25.391,-41.992
1630094593.637,-244.141,-34.180,-55.176,-64.941
1630094593.641,150.879,-33.203,-52.246,-44.922
1630094593.644,278.320,-34.180,-14.648,-47.363
1630094593.648,-124.023,-32.715,-19.043,-70.312
1630094593.652,-314.453,-33.691,-43.457,-82.031
1630094593.656,15.625,-44.922,-66.895,-61.035
1630094593.660,296.387,-46.387,-30.762,-39.551
1630094593.661,-19.043,-39.551,-16.602,-58.105
1630094593.665,-332.520,-41.016,-44.922,-73.242
1630094593.669,-107.910,-38.086,-58.105,-47.852
1630094593.673,274.902,-31.738,-24.414,-12.695
1630094593.677,102.051,-40.527,2.441,-22.949
1630094593.681,-272.949,-42.969,-23.926,-42.969
1630094593.685,-208.008,-34.668,-59.082,-46.387
1630094593.688,196.777,-33.691,-44.434,-9.766
1630094593.692,208.496,-25.879,7.812,0.000
1630094593.696,-215.820,-29.297,-19.531,-36.133
1630094593.700,-319.824,-41.504,-63.477,-49.805
1630094593.704,43.457,-45.898,-59.082,-38.086
1630094593.706,199.707,-41.016,-15.625,-42.969
1630094593.710,-169.434,-36.621,-16.113,-50.781
1630094593.714,-381.348,-43.457,-41.504,-51.270
1630094593.718,-73.730,-39.062,-51.758,-33.691
1630094593.722,240.234,-32.227,-12.695,-25.879
1630094593.726,-53.223,-37.598,-14.160,-42.480
1630094593.730,-412.109,-43.945,-38.574,-53.711
1630094593.733,-211.914,-39.062,-52.246,-63.477
1630094593.737,205.566,-32.227,-22.949,-21.484
1630094593.741,50.293,-35.156,3.906,-28.809
1630094593.745,-341.309,-43.457,-26.367,-59.570
1630094593.749,-292.969,-45.410,-57.129,-43.457
1630094593.751,135.742,-44.434,-45.410,-22.461
1630094593.755,191.895,-42.480,-1.953,-13.672
1630094593.759,-228.516,-39.062,-19.043,-31.250
1630094593.763,-345.215,-46.387,-53.711,-33.691
1630094593.767,37.598,-40.039,-61.035,-11.230
1630094593.771,256.836,-27.832,-7.812,-2.930
1630094593.775,-105.469,-32.715,-8.301,-21.484
1630094593.778,-358.887,-37.109,-47.852,-48.828
1630094593.782,-65.918,-34.668,-56.641,-6.348
1630094593.786,275.391,-24.902,-16.113,12.207
1630094593.790,1.953,-36.133,-7.324,-35.156
1630094593.794,-352.051,-44.922,-44.922,-49.805
1630094593.796,-187.988,-37.109,-68.359,-51.270
1630094593.800,225.586,-38.086,-43.945,-37.598
1630094593.804,139.160,-36.133,-8.301,-23.438
1630094593.808,-270.996,-39.062,-34.180,-49.316
1630094593.812,-285.645,-48.340,-66.406,-69.824
1630094593.816,139.160,-50.293,-48.828,-36.621
1630094593.820,239.746,-43.457,-16.602,-18.555
1630094593.823,-123.047,-40.527,-33.203,0.977
1630094593.827,-282.227,-51.270,-44.434,-14.648
1630094593.831,11.230,-61.035,-52.734,-45.410
1630094593.835,234.863,-54.688,-20.020,-39.551
1630094593.839,-118.164,-61.523,-16.113,-59.570
1630094593.841,-400.879,-74.219,-45.898,-92.285
1630094593.845,-147.949,-78.125,-62.988,-77.148
1630094593.849,207.520,-85.449,-25.391,-64.941
1630094593.853,-24.902,-94.238,-6.836,-96.680
1630094593.857,-391.113,-98.633,-31.250,-110.352
1630094593.861,-269.531,-105.469,-50.781,-97.656
1630094593.865,139.160,-117.188,-32.227,-80.078
1630094593.868,72.266,-117.188,-0.977,-81.543
1630094593.872,-343.262,-117.676,-21.484,-79.590
1630094593.876,-363.281,-112.793,-48.340,-77.637
1630094593.880,53.223,-104.980,-43.457,-54.199
1630094593.884,200.195,-91.309,6.348,-35.156
1630094593.887,-191.406,-88.867,-9.277,-66.406
1630094593.891,-377.441,-94.727,-43.457,-81.543
1630094593.895,-41.504,-88.379,-49.316,-55.664
1630094593.899,235.840,-83.984,-7.812,-36.133
1630094593.903,-79.590,-88.867,-2.441,-54.199
1630094593.907,-368.652,-86.914,-29.785,-64.941
1630094593.911,-137.695,-80.566,-46.875,-49.805
1630094593.914,217.773,-82.520,-21.973,-41.992
1630094593.918,43.457,-74.707,-5.859,-41.016
1630094593.922,-330.566,-65.430,-31.250,-50.781
1630094593.926,-248.535,-70.312,-52.246,-40.039
1630094593.930,177.246,-74.219,-47.852,-19.531
1630094593.946,158.691,-75.195,-10.742,-31.250
1630094593.950,-251.465,-69.824,-28.320,-56.641
1630094593.954,-312.012,-57.129,-55.664,-59.570
1630094593.958,87.891,-53.711,-53.223,-22.461
1630094593.962,245.605,-62.988,-12.695,-20.508
1630094593.966,-135.254,-61.523,-19.043,-48.340
1630094593.970,-344.238,-63.477,-50.293,-45.410
1630094593.973,-51.270,-62.500,-59.570,-29.297
1630094593.977,256.836,-54.688,-20.508,-23.438
1630094593.981,-11.230,-56.152,-12.695,-41.992
1630094593.985,-333.984,-54.199,-34.668,-49.316
1630094593.989,-130.371,-52.734,-52.246,-31.250
1630094593.991,251.953,-49.316,-29.785,-16.602
1630094593.995,112.305,-45.410,-5.859,-31.250
1630094593.999,-277.344,-57.617,-41.016,-51.270
1630094594.003,-250.977,-65.918,-70.801,-53.711
1630094594.007,164.062,-58.594,-52.734,-28.320
1630094594.011,219.238,-51.758,-4.395,-29.297
1630094594.015,-172.363,-51.758,-19.043,-50.781
1630094594.018,-284.180,-56.152,-54.688,-43.945
1630094594.022,69.336,-55.664,-57.617,-25.391
1630094594.026,275.879,-42.969,-3.906,-18.066
1630094594.030,-80.566,-42.480,-6.836,-34.180
1630094594.034,-335.938,-50.293,-44.434,-43.945
1630094594.036,-39.551,-48.828,-58.594,-39.551
1630094594.040,279.297,-41.992,-20.996,-35.645
1630094594.044,10.742,-43.457,-3.906,-54.199
1630094594.048,-322.266,-41.992,-37.109,-69.336
1630094594.052,-168.457,-36.133,-58.594,-74.707
1630094594.056,225.586,-39.062,-37.598,-52.734
1630094594.060,112.793,-41.016,-16.602,-41.016
1630094594.063,-295.898,-41.992,-35.645,-65.430
1630094594.067,-282.227,-36.133,-62.012,-73.730
1630094594.071,122.070,-41.504,-54.688,-62.500
1630094594.075,196.289,-40.527,-11.719,-62.012
1630094594.079,-211.426,-42.969,-29.785,-79.590
1630094594.081,-351.562,-49.316,-51.758,-85.938
1630094594.085,6.836,-46.875,-54.199,-74.219
1630094594.089,228.516,-41.504,-18.555,-71.289
1630094594.093,-118.652,-34.668,-14.160,-99.121
1630094594.097,-405.273,-42.969,-31.738,-122.070
1630094594.101,-148.926,-45.898,-48.828,-111.328
1630094594.105,192.383,-43.457,-23.926,-119.141
1630094594.108,-49.316,-43.457,-0.488,-146.484
1630094594.112,-441.895,-45.898,-22.461,-169.922
1630094594.116,-352.051,-46.387,-42.480,-200.684
1630094594.120,53.711,-37.109,-16.113,-195.801
1630094594.124,-4.395,-25.391,29.785,-194.824
1630094594.127,-428.711,-35.645,7.812,-228.516
1630094594.131,-508.789,-48.828,-20.020,-253.906
1630094594.135,-139.160,-50.781,-13.672,-265.137
1630094594.139,-23.438,-49.805,37.109,-266.113
1630094594.143,-428.223,-54.199,31.738,-288.086
1630094594.147,-602.051,-61.523,-0.488,-300.781
1630094594.151,-270.508,-72.754,-12.207,-285.156
1630094594.154,23.926,-69.824,32.227,-259.277
1630094594.158,-273.926,-62.500,29.297,-262.695
1630094594.162,-570.801,-65.430,-7.812,-284.180
1630094594.166,-323.242,-67.871,-32.227,-255.371
1630094594.170,89.355,-70.312,-6.348,-198.242
1630094594.171,-65.918,-73.730,21.484,-176.270
1630094594.175,-425.781,-81.055,-20.508,-162.598
1630094594.179,-312.500,-80.078,-53.711,-147.949
1630094594.183,136.230,-67.383,-33.203,-104.492
1630094594.187,150.391,-59.082,-0.977,-69.336
1630094594.191,-247.070,-57.617,-19.043,-85.449
1630094594.195,-271.484,-50.781,-49.805,-78.125
1630094594.198,156.250,-47.363,-59.082,-28.809
1630094594.202,300.293,-42.480,-17.090,5.371
1630094594.206,-71.777,-41.504,-21.973,-4.395
1630094594.210,-262.207,-53.711,-59.082,-26.367
1630094594.214,52.246,-53.711,-74.219,2.930
1630094594.216,358.887,-51.270,-42.969,31.250
1630094594.220,63.477,-54.688,-44.922,25.391
1630094594.224,-242.188,-49.805,-72.754,20.020
1630094594.228,-45.410,-48.340,-92.773,20.508
1630094594.232,321.777,-51.270,-66.895,48.828
1630094594.236,181.152,-55.176,-42.480,35.156
1630094594.240,-164.551,-35.645,-51.758,30.273
1630094594.243,-112.793,-33.691,-74.707,52.246
1630094594.247,261.719,-47.852,-88.867,47.852
1630094594.251,288.086,-41.992,-47.363,40.527
1630094594.255,-113.281,-43.945,-63.477,19.531
1630094594.259,-193.359,-42.480,-98.633,23.438
1630094594.261,198.242,-37.109,-97.656,61.035
1630094594.265,372.070,-31.250,-46.387,67.383
1630094594.269,-8.789,-45.410,-48.828,38.574
1630094594.273,-239.258,-49.805,-73.730,27.832
1630094594.277,60.547,-40.039,-88.867,34.180
1630094594.281,390.625,-39.062,-52.734,71.289
1630094594.285,130.371,-36.133,-33.691,73.242
1630094594.288,-214.844,-43.457,-69.336,43.945
1630094594.292,-82.520,-47.363,-95.215,35.156
1630094594.296,305.176,-37.598,-59.570,67.871
1630094594.300,211.914,-32.227,-20.508,72.266
1630094594.304,-194.824,-41.992,-53.223,38.086
1630094594.321,-194.336,-44.434,-86.914,34.180
1630094594.325,220.215,-35.156,-75.684,54.688
1630094594.329,292.969,-24.414,-25.391,47.852
1630094594.333,-113.281,-30.273,-34.668,27.344
1630094594.337,-238.770,-37.598,-71.289,27.832
1630094594.341,118.164,-35.645,-83.984,40.527
1630094594.345,352.539,-35.645,-35.156,49.316
1630094594.348,12.207,-40.039,-22.949,38.574
1630094594.352,-259.277,-36.621,-57.129,35.156
1630094594.356,-0.977,-23.926,-74.707,34.668
1630094594.360,327.637,-29.785,-46.875,41.504
1630094594.364,90.332,-48.340,-36.621,20.996
1630094594.366,-245.605,-44.434,-53.223,-6.836
1630094594.370,-117.188,-39.551,-76.660,-9.277
1630094594.374,271.973,-42.480,-61.035,0.488
1630094594.378,217.773,-34.180,-22.461,3.418
1630094594.382,-170.410,-31.250,-38.086,8.301
1630094594.386,-204.102,-35.645,-66.406,17.578
1630094594.390,195.801,-29.297,-67.871,32.227
1630094594.393,312.012,-25.391,-21.484,26.855
1630094594.397,-77.637,-31.738,-14.160,34.180
1630094594.401,-236.816,-23.438,-36.621,50.781
1630094594.405,42.480,-23.926,-71.289,-16.602
1630094594.409,267.090,-26.367,-34.668,-48.340
1630094594.411,-31.250,-26.855,-19.531,-37.598
1630094594.415,-315.918,-31.250,-51.758,-48.828
1630094594.419,-75.195,-30.273,-79.590,-41.504
1630094594.423,306.641,-20.508,-53.711,-9.277
1630094594.427,108.887,-12.207,-20.996,-19.531
1630094594.431,-265.625,-16.602,-42.480,-43.457
1630094594.435,-161.133,-24.902,-75.684,-36.621
1630094594.438,240.723,-22.461,-62.988,-11.719
1630094594.442,216.797,-11.230,-11.719,6.348
1630094594.446,-180.176,-17.090,-32.227,-4.395
1630094594.450,-248.535,-25.879,-73.730,-25.391
1630094594.454,139.648,-24.902,-70.312,-9.277
1630094594.456,283.691,-25.391,-24.902,-1.465
1630094594.460,-115.234,-28.809,-29.785,-39.551
1630094594.464,-297.363,-25.879,-61.523,-44.434
1630094594.468,24.902,-26.367,-76.172,-25.879
1630094594.472,309.570,-31.250,-30.273,-7.812
1630094594.476,25.879,-28.320,-8.301,-11.230
1630094594.480,-290.039,-32.715,-41.016,-27.832
1630094594.483,-104.980,-35.156,-62.012,-30.273
1630094594.487,299.805,-8.789,-9.277,18.555
1630094594.491,154.785,-5.859,2.930,7.812
1630094594.495,-273.926,-34.668,-47.852,-42.969
1630094594.499,-221.191,-40.527,-73.242,-24.902
1630094594.501,204.590,-31.250,-52.734,-5.371
1630094594.505,227.539,-33.203,-9.277,-15.625
1630094594.509,-193.848,-39.062,-39.062,-38.086
1630094594.513,-299.316,-33.203,-77.637,-34.668
1630094594.517,109.863,-29.785,-72.754,-0.977
1630094594.521,300.293,-28.320,-23.438,-2.441
1630094594.525,-82.520,-34.668,-32.227,-34.668
1630094594.528,-303.711,-30.762,-50.781,-20.508
1630094594.532,-9.766,-27.344,-62.500,-23.926
1630094594.536,303.711,-32.227,-41.504,-35.156
1630094594.540,27.344,-29.785,-19.531,-33.203
1630094594.544,-323.242,-36.133,-35.645,-29.785
1630094594.546,-152.344,-43.945,-66.895,-35.645
1630094594.550,235.352,-43.945,-54.199,-37.109
1630094594.554,132.324,-32.227,-14.160,-26.855
1630094594.558,-260.254,-31.738,-35.156,-40.527
1630094594.562,-267.090,-40.039,-73.242,-47.363
1630094594.566,161.621,-45.410,-66.406,-41.016
1630094594.570,243.164,-35.645,-9.766,-31.738
1630094594.573,-150.879,-20.996,1.465,-11.719
1630094594.577,-282.227,-27.832,-40.039,-30.273
1630094594.581,63.477,-38.574,-70.312,-30.762
1630094594.585,291.016,-42.969,-20.020,-7.324
1630094594.589,-48.340,-37.109,-16.602,-20.020
1630094594.592,-280.273,-35.645,-54.688,-19.043
1630094594.596,-35.156,-46.875,-58.594,-24.902
1630094594.600,238.281,-40.527,-14.160,-53.711
1630094594.604,-3.418,-41.504,-1.953,-66.406
1630094594.608,-333.984,-58.594,-35.645,-50.781
1630094594.612,-195.801,-63.965,-57.617,-58.594
1630094594.616,212.402,-57.129,-24.902,-62.988
1630094594.619,123.047,-60.059,6.836,-51.270
1630094594.623,-295.410,-75.195,-26.367,-62.012
1630094594.627,-304.199,-75.195,-56.152,-66.406
1630094594.631,90.820,-77.148,-49.805,-59.570
1630094594.635,191.895,-72.266,-3.906,-53.223
1630094594.636,-188.477,-60.547,-21.973,-59.082
1630094594.640,-346.680,-63.965,-63.477,-53.223
1630094594.644,4.883,-60.547,-68.848,-49.805
1630094594.648,262.695,-52.734,-17.090,-38.086
1630094594.652,-66.895,-57.129,-16.113,-37.598
1630094594.656,-350.586,-61.523,-46.387,-46.387
1630094594.660,-90.820,-42.480,-40.527,-25.391
1630094594.663,274.902,-36.133,-17.090,-20.508
1630094594.667,38.086,-59.570,-17.090,-41.992
1630094594.671,-327.637,-59.570,-36.621,-46.875
1630094594.675,-215.332,-57.129,-62.012,-41.016
1630094594.679,203.613,-53.223,-49.805,-36.621
1630094594.696,178.711,-41.016,-5.371,-41.504
1630094594.700,-232.422,-43.457,-21.484,-34.180
1630094594.704,-286.133,-57.129,-62.988,-49.805
1630094594.708,113.281,-55.664,-67.383,-44.922
1630094594.712,237.793,-47.363,-19.043,-30.762
1630094594.716,-148.926,-50.293,-18.555,-43.457
1630094594.720,-313.965,-50.293,-57.617,-56.152
1630094594.723,10.742,-46.387,-76.660,-41.992
1630094594.727,288.086,-53.711,-32.715,-20.508
1630094594.731,13.184,-31.250,0.488,-17.578
1630094594.735,-299.316,-30.273,-23.926,-40.527
1630094594.739,-126.953,-60.059,-69.824,-57.617
1630094594.741,258.789,-52.734,-43.457,-26.367
1630094594.745,92.773,-50.781,-10.254,-35.645
1630094594.749,-283.203,-53.223,-37.598,-59.570
1630094594.753,-214.355,-54.688,-70.801,-51.270
1630094594.757,191.895,-59.082,-61.523,-36.621
1630094594.761,202.148,-59.082,-18.555,-42.969
1630094594.765,-207.031,-58.105,-33.203,-57.617
1630094594.768,-305.664,-58.105,-68.848,-73.242
1630094594.772,92.773,-46.875,-63.965,-48.828
1630094594.776,325.195,-18.555,12.207,3.906
1630094594.780,-78.613,-33.691,-6.836,-33.203
1630094594.784,-352.051,-48.340,-59.570,-76.172
1630094594.786,-61.523,-52.734,-70.312,-65.430
1630094594.790,271.973,-57.617,-43.457,-39.551
1630094594.794,9.277,-59.082,-29.785,-41.992
1630094594.798,-344.727,-62.012,-54.688,-66.895
1630094594.802,-168.945,-62.012,-77.637,-70.312
1630094594.806,237.305,-57.129,-55.664,-60.547
1630094594.810,109.863,-51.270,-24.902,-50.781
1630094594.813,-286.133,-53.711,-41.504,-42.969
1630094594.817,-270.996,-42.969,-59.570,-39.551
1630094594.821,147.461,-48.340,-44.434,-30.273
1630094594.825,211.426,-55.176,-7.812,-38.574
1630094594.829,-217.773,-57.129,-33.203,-57.129
1630094594.832,-350.586,-56.641,-66.895,-63.965
1630094594.836,36.621,-53.223,-67.871,-41.992
1630094594.840,257.324,-57.617,-20.508,-18.066
1630094594.844,-103.027,-52.246,-13.672,-36.133
1630094594.848,-349.609,-41.992,-44.434,-52.246
1630094594.852,-33.203,-41.016,-68.359,-8.789
1630094594.856,321.289,-46.875,-32.227,1.953
1630094594.859,31.738,-46.875,-4.883,-39.551
1630094594.863,-344.727,-44.434,-28.809,-33.691
1630094594.867,-212.402,-56.152,-62.988,-34.668
1630094594.871,215.820,-67.383,-40.039,-35.156
1630094594.875,159.668,-69.824,0.000,-35.645
1630094594.876,-271.484,-68.359,-24.414,-58.594
1630094594.880,-306.152,-83.008,-56.641,-42.480
1630094594.884,139.648,-96.680,-49.316,-1.465
1630094594.888,256.348,-93.262,-1.953,-0.977
1630094594.892,-177.734,-98.633,-11.719,-23.926
1630094594.896,-342.285,-104.492,-39.551,-13.672
1630094594.900,22.949,-112.305,-48.828,9.766
1630094594.903,291.992,-102.051,11.230,37.109
1630094594.907,-22.461,-100.098,22.461,45.898
1630094594.911,-322.266,-112.305,-27.344,19.531
1630094594.915,-67.383,-113.770,-46.387,38.086
1630094594.919,318.359,-114.258,-8.301,71.777
1630094594.921,112.305,-112.793,19.043,59.570
1630094594.925,-272.461,-111.328,-13.672,35.645
1630094594.929,-192.871,-111.328,-41.992,35.156
1630094594.933,242.188,-107.422,-20.508,48.828
1630094594.937,226.074,-104.004,20.508,61.035
1630094594.941,-202.637,-105.469,2.441,41.016
1630094594.945,-255.371,-107.422,-29.785,34.668
1630094594.948,157.715,-103.027,-16.602,73.730
1630094594.952,296.387,-97.168,25.879,66.895
1630094594.956,-106.445,-96.680,5.371,38.086
1630094594.960,-296.875,-96.680,-18.066,26.855
1630094594.964,34.180,-100.098,-34.180,38.086
1630094594.966,333.008,-96.191,3.418,54.688
1630094594.970,19.043,-86.426,7.324,34.668
1630094594.974,-309.082,-88.379,-28.320,12.207
1630094594.978,-112.305,-93.262,-46.875,16.113
1630094594.982,280.273,-91.309,-20.020,38.086
1630094594.986,128.418,-81.055,6.836,24.902
1630094594.990,-263.184,-69.336,-7.324,9.277
1630094594.993,-209.961,-70.801,-34.668,16.602
1630094594.997,202.637,-76.660,-30.273,29.785
1630094595.001,212.402,-71.289,8.789,22.949
1630094595.005,-215.332,-71.289,-12.207,5.371
1630094595.009,-309.082,-75.195,-49.316,-4.395
1630094595.011,79.102,-70.801,-56.152,-0.977
1630094595.015,266.113,-61.523,-4.883,8.789
1630094595.019,-104.492,-61.523,-10.254,-5.371
1630094595.023,-344.727,-64.941,-54.199,-26.367
1630094595.027,-52.734,-56.641,-66.895,-20.996
1630094595.031,297.852,-47.852,-15.137,16.602
1630094595.035,56.152,-50.781,6.836,17.090
1630094595.038,-297.363,-55.176,-32.227,-5.859
1630094595.042,-164.062,-56.152,-65.430,-7.812
1630094595.046,227.539,-63.477,-47.852,-3.418
1630094595.050,120.605,-60.059,-16.602,-26.855
1630094595.054,-245.605,-45.898,-34.180,-40.039
1630094595.057,-235.840,-49.805,-66.406,-24.902
1630094595.061,134.766,-55.176,-61.035,-14.648
1630094595.065,199.707,-52.246,-17.578,-12.207
1630094595.069,-192.383,-50.293,-24.414,-28.809
1630094595.073,-304.199,-44.922,-53.223,-35.645
1630094595.077,48.340,-38.086,-56.152,-16.113
1630094595.081,255.859,-34.668,-7.324,-20.996
1630094595.084,-69.336,-32.227,8.301,-39.062
1630094595.088,-331.055,-59.082,-17.090,-33.203
1630094595.092,-71.777,-69.336,-38.574,-6.836
1630094595.096,240.723,-46.387,-16.602,-25.879
1630094595.100,-46.387,-36.133,0.977,-96.191
1630094595.116,-410.645,-32.715,-6.348,-137.695
1630094595.120,-311.523,-40.527,-26.367,-169.434
1630094595.124,23.926,-36.133,-5.859,-187.988
1630094595.128,-88.379,-26.855,24.414,-235.840
1630094595.132,-488.281,-20.508,-1.465,-285.645
1630094595.136,-519.043,-17.090,-34.180,-315.918
1630094595.140,-189.453,-19.043,-39.551,-335.938
1630094595.143,-124.512,-11.230,-0.977,-361.816
1630094595.147,-513.184,1.465,-5.371,-411.621
1630094595.151,-669.922,13.672,-43.457,-438.965
1630094595.155,-345.215,20.508,-68.359,-428.711
1630094595.159,-101.562,30.762,-30.762,-397.949
1630094595.161,-382.324,44.922,-30.273,-405.273
1630094595.165,-617.676,46.387,-73.242,-403.320
1630094595.169,-371.094,38.086,-101.074,-363.770
1630094595.173,19.043,43.945,-74.707,-313.965
1630094595.177,-119.629,58.594,-53.223,-279.785
1630094595.181,-451.660,60.547,-80.566,-287.598
1630094595.185,-322.754,59.082,-111.816,-256.836
1630094595.188,83.984,45.898,-97.656,-202.637
1630094595.192,67.383,37.109,-55.176,-187.012
1630094595.196,-282.227,28.809,-71.777,-161.621
1630094595.200,-291.016,20.020,-109.863,-130.859
1630094595.204,106.445,19.531,-107.910,-101.074
1630094595.206,247.559,18.555,-61.523,-88.379
1630094595.210,-104.980,20.020,-70.312,-86.426
1630094595.214,-272.461,15.625,-100.098,-70.312
1630094595.218,54.199,13.184,-113.770,-36.133
1630094595.222,329.590,15.137,-70.801,-4.395
1630094595.226,52.246,11.230,-58.105,-0.977
1630094595.230,-239.746,3.418,-86.426,-29.297
1630094595.233,-41.504,-1.953,-107.910,-25.391
1630094595.237,320.801,-5.371,-84.961,1.465
1630094595.241,149.414,-6.348,-54.688,5.371
1630094595.245,-201.172,-6.836,-78.125,0.488
1630094595.249,-113.281,-5.859,-104.980,6.348
1630094595.251,282.227,-5.371,-89.844,35.156
1630094595.255,254.395,-11.230,-42.969,25.879
1630094595.259,-140.625,-20.020,-60.059,-5.371
1630094595.263,-204.102,-17.578,-94.238,7.812
1630094595.267,179.688,-10.254,-94.238,43.945
1630094595.271,347.656,-11.719,-48.828,36.133
1630094595.275,-35.156,-10.742,-46.387,21.484
1630094595.278,-243.164,-15.625,-75.684,16.113
1630094595.282,63.965,-22.461,-86.914,16.602
1630094595.286,359.375,-15.625,-48.340,40.039
1630094595.290,79.102,-10.742,-34.180,25.879
1630094595.294,-236.328,-14.648,-63.477,12.207
1630094595.297,-42.480,-22.461,-82.031,27.832
1630094595.301,346.191,-26.855,-57.617,40.039
1630094595.305,179.199,-24.414,-35.645,39.062
1630094595.309,-229.980,-23.926,-55.176,17.090
1630094595.313,-182.129,-30.273,-78.613,0.000
1630094595.317,248.535,-26.855,-75.684,6.836
1630094595.321,282.715,-18.066,-33.691,24.414
1630094595.324,-142.578,-31.250,-41.504,24.902
1630094595.328,-255.371,-38.574,-75.684,4.395
1630094595.332,149.902,-32.715,-78.125,21.484
1630094595.336,372.559,-26.367,-25.879,57.617
1630094595.340,-16.602,-23.438,-26.367,46.875
1630094595.341,-289.551,-38.574,-60.547,-1.953
1630094595.345,45.898,-40.039,-68.359,5.859
1630094595.349,349.609,-27.344,-37.109,25.391
1630094595.353,37.109,-22.949,-21.484,16.602
1630094595.357,-278.809,-30.273,-42.969,6.836
1630094595.361,-99.609,-31.738,-66.406,3.906
1630094595.365,332.520,-30.273,-49.316,24.902
1630094595.368,187.988,-35.156,-16.602,15.625
1630094595.372,-268.555,-34.668,-41.992,-7.812
1630094595.376,-251.465,-38.574,-71.289,-17.578
1630094595.380,223.633,-39.551,-54.688,21.484
1630094595.384,302.734,-30.762,-12.207,40.039
1630094595.387,-168.945,-31.738,-24.414,-20.996
1630094595.391,-319.824,-33.691,-52.734,-26.855
1630094595.395,112.305,-30.762,-58.105,1.953
1630094595.399,351.074,-34.180,-22.949,9.766
1630094595.403,-74.707,-32.227,-27.344,-16.602
1630094595.407,-338.867,-27.344,-53.223,-25.879
1630094595.411,20.020,-30.273,-59.570,16.113
1630094595.414,389.160,-28.320,-26.855,23.926
1630094595.418,44.922,-33.691,-15.137,-34.668
1630094595.422,-385.254,-44.434,-42.969,-48.340
1630094595.426,-173.340,-48.340,-58.594,-16.602
1630094595.430,301.270,-46.875,-36.621,-0.488
1630094595.446,169.922,-46.875,-12.695,-20.996
1630094595.450,-325.195,-52.734,-34.668,-59.570
1630094595.454,-333.008,-50.781,-53.711,-51.758
1630094595.458,193.359,-44.922,-52.246,-17.090
1630094595.462,314.941,-41.504,-20.020,-7.324
1630094595.466,-210.938,-45.898,-32.227,-41.504
1630094595.470,-402.832,-57.617,-62.012,-62.988
1630094595.473,61.523,-62.500,-65.918,-37.598
1630094595.477,373.047,-53.711,-36.621,-7.324
1630094595.481,-28.320,-38.574,-24.902,-20.020
1630094595.485,-374.512,-41.016,-42.480,-37.598
1630094595.489,-78.125,-45.898,-55.664,-10.254
1630094595.491,387.207,-40.039,-24.902,2.441
1630094595.495,115.234,-43.457,-16.602,-37.598
1630094595.499,-385.254,-52.734,-46.875,-51.270
1630094595.503,-240.234,-53.711,-62.500,-39.551
1630094595.507,316.406,-42.969,-45.410,-17.578
1630094595.511,260.254,-36.133,-13.672,-6.836
1630094595.515,-286.621,-43.945,-29.785,-30.762
1630094595.518,-348.633,-46.387,-53.223,-39.551
1630094595.522,190.430,-41.016,-52.246,-12.695
1630094595.526,338.379,-42.480,-20.996,-2.441
1630094595.530,-187.012,-47.852,-28.809,-20.020
1630094595.534,-408.691,-47.363,-44.922,-24.902
1630094595.537,37.598,-38.574,-50.293,1.953
1630094595.541,401.855,-38.086,-28.809,9.766
1630094595.545,-17.090,-41.992,-28.320,-30.273
1630094595.549,-408.691,-38.086,-47.852,-41.992
1630094595.553,-103.516,-34.180,-54.199,-19.531
1630094595.557,410.645,-26.855,-30.273,2.930
1630094595.561,162.109,-30.762,-20.020,-10.742
1630094595.564,-352.051,-37.598,-41.016,-37.109
1630094595.568,-229.492,-32.227,-47.363,-32.715
1630094595.572,329.102,-31.250,-33.691,-1.953
1630094595.576,301.758,-20.996,-7.812,-6.348
1630094595.580,-270.020,-23.926,-23.926,-32.227
1630094595.581,-370.117,-33.203,-45.898,-37.109
1630094595.585,167.480,-31.250,-49.316,-21.973
1630094595.589,383.301,-32.715,-11.719,-4.395
1630094595.593,-131.348,-35.645,-16.113,-24.902
1630094595.597,-411.621,-41.504,-50.293,-56.152
1630094595.601,6.348,-45.410,-57.129,-33.203
1630094595.605,415.527,-44.922,-25.391,-11.230
1630094595.608,36.621,-36.621,-15.137,-30.762
1630094595.612,-391.602,-38.574,-40.039,-45.410
1630094595.616,-160.156,-37.598,-52.734,-40.039
1630094595.620,355.469,-33.203,-33.691,-23.926
1630094595.624,180.664,-30.762,-11.230,-31.250
1630094595.626,-349.609,-34.668,-31.738,-58.105
1630094595.630,-301.758,-47.363,-52.734,-55.664
1630094595.634,260.742,-46.875,-37.109,-19.043
1630094595.638,295.410,-43.945,-6.836,-21.973
1630094595.642,-276.855,-46.387,-20.996,-57.617
1630094595.646,-408.203,-47.852,-42.969,-59.082
1630094595.650,124.512,-41.504,-48.828,-36.133
1630094595.653,385.254,-45.410,-24.414,-31.738
1630094595.657,-122.559,-51.758,-29.785,-54.688
1630094595.661,-445.312,-49.316,-41.992,-67.871
1630094595.665,-53.223,-45.898,-49.805,-46.875
1630094595.669,398.926,-41.504,-26.367,-13.672
1630094595.671,48.828,-43.457,-10.254,-35.645
1630094595.675,-429.688,-43.457,-33.691,-52.734
1630094595.679,-218.262,-42.969,-54.688,-53.223
1630094595.683,354.492,-38.574,-39.062,-41.016
1630094595.687,199.707,-36.133,-19.531,-50.781
1630094595.691,-371.094,-39.551,-38.086,-75.195
1630094595.695,-327.148,-37.109,-52.246,-57.617
1630094595.698,255.859,-35.645,-45.898,-31.250
1630094595.702,328.125,-42.969,-17.578,-32.715
1630094595.706,-237.305,-49.316,-31.250,-43.457
1630094595.710,-415.039,-50.781,-53.223,-47.852
1630094595.714,86.426,-45.898,-53.711,-26.855
1630094595.716,400.391,-45.898,-27.344,-15.625
1630094595.720,-81.543,-53.711,-23.438,-49.316
1630094595.724,-443.848,-52.734,-43.457,-71.289
1630094595.728,-79.590,-51.270,-59.082,-51.758
1630094595.732,406.250,-49.805,-38.086,-22.949
1630094595.736,93.262,-40.039,-16.113,-27.832
1630094595.740,-399.414,-36.133,-30.273,-48.340
1630094595.743,-250.488,-46.387,-63.965,-64.941
1630094595.747,301.270,-52.246,-55.664,-40.527
1630094595.751,232.422,-47.852,-14.160,-30.273
1630094595.755,-315.918,-41.992,-27.832,-58.594
1630094595.759,-345.703,-38.574,-50.781,-58.105
1630094595.762,207.520,-37.598,-52.734,-38.574
1630094595.766,346.680,-35.156,-19.043,-33.691
1630094595.770,-194.824,-40.039,-25.391,-55.664
1630094595.774,-430.176,-40.039,-44.434,-59.082
1630094595.778,57.617,-38.574,-46.387,-32.715
1630094595.782,413.574,-37.109,-20.020,-30.762
1630094595.786,-42.480,-39.551,-14.648,-53.223
1630094595.789,-439.941,-44.434,-36.133,-67.383
1630094595.793,-130.371,-41.992,-52.734,-46.387
1630094595.797,393.555,-41.504,-31.250,-23.438
1630094595.801,108.887,-45.410,-14.648,-38.086
1630094595.805,-413.086,-51.758,-41.016,-56.152
1630094595.821,-274.414,-52.246,-63.477,-52.246
1630094595.825,302.246,-47.363,-46.387,-18.555
1630094595.829,278.809,-41.504,-15.625,-20.508
1630094595.833,-291.992,-45.898,-28.320,-44.434
1630094595.837,-384.277,-55.664,-51.270,-57.617
1630094595.841,185.059,-35.645,-46.875,-24.902
1630094595.845,395.508,-25.879,-8.789,-7.324
1630094595.848,-168.457,-52.246,-31.250,-55.176
1630094595.852,-453.125,-58.105,-57.617,-75.195
1630094595.856,-4.395,-49.805,-66.895,-60.547
1630094595.860,422.852,-36.133,-34.668,-37.598
1630094595.864,10.742,-42.480,-18.555,-29.297
1630094595.866,-448.242,-50.293,-42.969,-53.223
1630094595.870,-168.457,-45.410,-59.082,-65.918
1630094595.874,377.930,-47.363,-37.109,-29.785
1630094595.878,152.832,-44.922,-20.020,-32.715
1630094595.882,-395.508,-47.363,-41.016,-62.988
1630094595.886,-305.176,-46.387,-56.152,-55.176
1630094595.890,279.785,-40.039,-49.805,-27.832
1630094595.893,285.645,-45.410,-20.508,-26.367
1630094595.897,-281.738,-56.641,-34.180,-57.129
1630094595.901,-414.551,-49.805,-48.340,-57.129
1630094595.905,120.605,-42.480,-48.828,-14.160
1630094595.909,382.812,-39.062,-20.996,-23.438
1630094595.911,-130.859,-43.457,-24.414,-57.129
1630094595.915,-462.891,-52.734,-54.199,-67.871
1630094595.919,-75.195,-56.641,-62.988,-50.293
1630094595.923,387.695,-56.152,-33.691,-21.484
1630094595.927,37.598,-55.176,-29.297,-41.504
1630094595.931,-436.035,-52.246,-40.039,-48.340
1630094595.935,-202.148,-45.898,-47.363,-25.391
1630094595.938,370.117,-47.363,-34.180,-2.930
1630094595.942,199.707,-37.598,-8.301,-22.949
1630094595.946,-362.305,-38.086,-29.297,-51.758
1630094595.950,-347.656,-49.805,-58.594,-55.664
1630094595.954,236.816,-46.875,-61.523,-27.832
1630094595.956,330.078,-46.387,-30.762,-20.996
1630094595.960,-257.812,-53.711,-41.992,-45.898
1630094595.964,-447.754,-56.641,-64.941,-53.711
1630094595.968,75.684,-51.758,-67.871,-39.062
1630094595.972,379.883,-47.852,-26.855,-10.254
1630094595.976,-128.906,-46.387,-21.973,-26.855
1630094595.980,-469.238,-49.805,-48.340,-65.918
1630094595.983,-99.609,-54.688,-59.082,-58.105
1630094595.987,396.484,-43.945,-32.227,-16.113
1630094595.991,79.590,-42.480,-18.555,-25.879
1630094595.995,-437.012,-47.363,-39.551,-49.316
1630094595.999,-235.840,-40.527,-55.176,-28.809
1630094596.002,355.957,-37.109,-44.922,-8.789
1630094596.006,236.816,-45.410,-19.531,-15.625
1630094596.010,-348.145,-55.664,-37.598,-45.898
1630094596.014,-373.047,-53.223,-61.523,-63.965
1630094596.018,207.520,-45.898,-54.688,-29.785
1630094596.022,361.328,-37.598,-15.625,-20.996
1630094596.026,-188.477,-41.016,-35.156,-33.691
1630094596.029,-431.152,-46.875,-57.617,-38.574
1630094596.033,48.828,-42.969,-56.152,-39.062
1630094596.037,421.387,-40.039,-28.809,-22.949
1630094596.041,-44.922,-41.504,-25.879,-41.992
1630094596.045,-452.148,-44.434,-47.363,-54.688
1630094596.046,-125.977,-49.805,-58.594,-34.180
1630094596.050,384.766,-53.223,-44.922,-25.391
1630094596.054,99.609,-53.223,-33.691,-49.316
1630094596.058,-409.668,-50.293,-51.758,-64.453
1630094596.062,-238.281,-44.434,-63.965,-39.551
1630094596.066,336.426,-38.574,-49.805,-22.461
1630094596.070,268.555,-44.434,-25.391,-46.387
1630094596.073,-297.852,-41.016,-34.180,-62.988
1630094596.077,-368.164,-35.645,-51.270,-43.457
1630094596.081,174.805,-36.621,-59.570,-25.879
1630094596.085,358.887,-41.016,-22.949,-38.086
1630094596.089,-179.199,-43.457,-24.414,-56.641
1630094596.091,-443.359,-39.551,-42.480,-56.641
1630094596.095,10.742,-42.969,-50.293,-36.133
1630094596.099,428.223,-48.828,-28.320,-25.391
1630094596.103,1.953,-50.293,-20.508,-39.551
1630094596.107,-442.383,-48.828,-42.480,-50.781
1630094596.111,-147.949,-45.898,-63.477,-46.387
1630094596.115,380.859,-45.410,-41.504,-25.879
1630094596.118,140.625,-52.246,-15.625,-25.391
1630094596.122,-408.691,-63.965,-45.898,-61.035
1630094596.126,-312.012,-56.641,-66.895,-72.754
1630094596.130,292.969,-37.598,-49.805,-21.484
1630094596.134,298.828,-41.992,-18.555,-12.695
1630094596.136,-282.715,-42.480,-31.738,-49.316
1630094596.140,-394.043,-36.133,-54.199,-57.129
1630094596.144,129.395,-43.945,-62.500,-38.574
1630094596.148,386.719,-45.410,-23.926,-40.039
1630094596.152,-133.789,-42.480,-21.484,-47.363
1630094596.156,-457.031,-44.434,-46.875,-46.387
1630094596.160,-20.020,-43.457,-57.617,-22.949
1630094596.163,441.406,-42.480,-24.414,-8.301
1630094596.167,42.969,-48.340,-10.254,-47.852
1630094596.171,-443.848,-51.758,-33.691,-59.570
1630094596.175,-174.805,-43.945,-52.246,-46.387
1630094596.179,396.484,-37.598,-40.039,-31.250
1630094596.196,193.848,-39.551,-15.625,-16.602
1630094596.200,-373.535,-37.598,-34.180,-40.039
1630094596.204,-331.543,-40.527,-52.246,-58.105
1630094596.208,259.277,-45.410,-55.176,-33.203
1630094596.212,334.473,-41.992,-22.461,-25.879
1630094596.216,-252.441,-41.504,-31.738,-60.547
1630094596.220,-433.594,-41.992,-53.711,-62.500
1630094596.223,106.934,-36.621,-50.781,-28.320
1630094596.227,433.105,-32.227,-19.531,-14.160
1630094596.231,-93.750,-43.945,-19.531,-38.574
1630094596.235,-460.938,-45.410,-35.645,-48.828
1630094596.239,-56.641,-29.297,-46.875,-27.344
1630094596.241,417.969,-30.273,-26.855,-22.461
1630094596.245,63.477,-36.621,-10.254,-36.133
1630094596.249,-437.012,-44.922,-37.598,-58.594
1630094596.253,-238.770,-46.387,-60.059,-57.617
1630094596.257,350.098,-44.434,-42.480,-25.391
1630094596.261,240.723,-41.504,-10.742,-24.414
1630094596.265,-334.473,-39.551,-33.691,-43.945
1630094596.268,-351.074,-43.457,-64.941,-43.945
1630094596.272,228.516,-43.457,-54.688,-28.809
1630094596.276,372.070,-41.504,-13.672,-13.184
1630094596.280,-217.285,-39.551,-26.855,-41.992
1630094596.284,-456.543,-45.410,-50.293,-68.359
1630094596.286,30.762,-49.805,-62.500,-42.480
1630094596.290,384.766,-47.363,-39.062,-33.691
1630094596.294,-64.941,-44.922,-33.203,-49.316
1630094596.298,-477.051,-44.922,-50.781,-71.289
1630094596.302,-131.836,-43.945,-59.570,-56.641
1630094596.306,408.203,-40.039,-31.250,-12.695
1630094596.310,104.004,-41.992,-18.555,-24.414
1630094596.313,-420.898,-40.527,-40.039,-40.527
1630094596.317,-263.672,-36.133,-48.828,-29.785
1630094596.321,306.152,-39.551,-52.246,-36.133
1630094596.325,236.328,-52.246,-27.344,-48.828
1630094596.329,-339.355,-60.059,-38.086,-44.922
1630094596.331,-396.484,-46.875,-60.059,-54.199
1630094596.335,190.918,-34.180,-59.082,-34.180
1630094596.339,381.836,-32.715,-28.809,-26.855
1630094596.343,-187.012,-36.133,-36.133,-60.547
1630094596.347,-465.332,-39.062,-58.594,-59.570
1630094596.351,17.090,-35.156,-63.965,-30.762
1630094596.355,442.871,-36.621,-35.645,-11.230
1630094596.358,9.766,-37.109,-27.832,-31.738
1630094596.362,-426.758,-41.016,-50.293,-42.969
1630094596.366,-141.602,-49.316,-61.035,-29.785
1630094596.370,401.367,-43.945,-41.016,-7.812
1630094596.374,154.785,-39.551,-23.926,-17.090
1630094596.376,-408.691,-45.410,-40.527,-35.645
1630094596.380,-296.387,-43.945,-57.617,-31.738
1630094596.384,309.082,-35.156,-50.781,-29.297
1630094596.388,304.199,-43.457,-26.855,-35.156
1630094596.392,-291.016,-51.270,-46.387,-60.547
1630094596.396,-399.902,-43.945,-60.059,-59.082
1630094596.400,168.945,-40.527,-51.270,-24.414
1630094596.403,408.203,-45.410,-23.926,-16.113
1630094596.407,-142.578,-49.316,-28.809,-37.598
1630094596.411,-465.332,-46.387,-45.410,-55.664
1630094596.415,-30.273,-44.922,-59.082,-47.852
1630094596.419,432.617,-45.410,-43.457,-19.531
1630094596.421,37.109,-40.527,-33.691,-34.180
1630094596.425,-444.824,-41.992,-46.387,-64.941
1630094596.429,-176.270,-45.410,-56.152,-44.922
1630094596.433,405.273,-39.062,-41.016,-7.324
1630094596.437,202.637,-40.039,-21.484,-24.414
1630094596.441,-375.000,-48.828,-38.574,-49.805
1630094596.445,-326.172,-42.480,-59.570,-42.480
1630094596.448,285.156,-41.504,-57.617,-18.555
1630094596.452,345.215,-50.781,-24.902,-12.695
1630094596.456,-259.766,-52.734,-32.227,-37.598
1630094596.460,-417.480,-49.316,-49.805,-40.527
1630094596.464,143.555,-44.434,-54.688,-28.809
1630094596.467,445.312,-43.945,-29.297,-24.414
1630094596.471,-93.262,-40.039,-27.832,-32.715
1630094596.475,-456.055,-36.133,-41.504,-19.043
1630094596.479,-37.598,-37.109,-54.199,-17.090
1630094596.483,454.102,-37.598,-41.504,-22.461
1630094596.487,80.566,-40.039,-32.715,-37.109
1630094596.491,-415.527,-46.875,-42.969,-21.973
1630094596.494,-186.035,-49.805,-55.664,-2.441
1630094596.498,416.992,-34.668,-52.246,-28.320
1630094596.502,252.441,-27.344,-25.391,-42.969
1630094596.506,-359.863,-31.738,-45.898,-49.316
1630094596.510,-348.633,-33.203,-69.824,-40.527
1630094596.511,289.062,-26.367,-62.012,-15.137
1630094596.515,438.477,-14.648,-33.203,5.371
1630094596.519,-178.711,-11.719,-45.898,-20.508
1630094596.523,-411.133,-10.742,-73.242,-29.785
1630094596.527,152.832,-0.488,-79.102,0.977
1630094596.531,530.273,-0.977,-53.711,12.207
1630094596.535,5.371,-6.836,-43.457,-2.441
1630094596.538,-415.039,-8.301,-49.805,-11.230
1630094596.542,-57.617,-14.160,-71.289,-12.695
1630094596.546,481.934,-17.090,-55.664,5.371
1630094596.550,152.832,-18.066,-44.922,-0.977
1630094596.554,-408.203,-19.043,-61.035,-23.438
1630094596.571,-229.004,-13.672,-70.801,-15.625
1630094596.575,412.109,0.488,-57.129,12.207
1630094596.579,312.500,5.859,-28.809,6.348
1630094596.583,-323.242,1.953,-48.828,-8.301
1630094596.587,-367.188,-7.812,-65.918,-8.789
1630094596.591,244.629,-10.742,-62.500,0.000
1630094596.595,406.250,-12.695,-34.668,-4.395
1630094596.598,-193.359,-20.996,-36.621,-26.855
1630094596.602,-455.566,-24.902,-62.012,-37.598
1630094596.606,62.500,-9.766,-56.152,-8.301
1630094596.610,454.102,-8.301,-27.344,10.742
1630094596.614,-49.316,-23.926,-33.691,-21.973
1630094596.619,-488.281,-30.273,-54.199,-40.039
1630094596.623,-139.160,-30.273,-71.777,-24.414
1630094596.627,415.039,-23.926,-54.199,-5.859
1630094596.631,104.980,-28.320,-31.250,-8.789
1630094596.635,-422.363,-28.320,-45.898,-18.555
1630094596.639,-262.695,-28.809,-62.012,-31.738
1630094596.643,336.426,-31.738,-57.617,-19.043
1630094596.646,255.371,-32.227,-35.645,-17.090
1630094596.650,-359.375,-35.156,-38.086,-29.785
1630094596.654,-417.969,-38.086,-52.246,-33.691
1630094596.658,178.711,-38.086,-62.988,-17.090
1630094596.662,345.703,-35.156,-33.691,-9.766
1630094596.661,-248.535,-40.527,-29.785,-29.297
1630094596.665,-492.188,-42.480,-47.363,-38.574
1630094596.669,-10.742,-41.504,-55.664,-17.578
1630094596.673,389.648,-37.109,-38.574,-5.859
1630094596.677,-53.223,-36.133,-22.461,-29.297
1630094596.681,-483.887,-42.480,-33.203,-44.922
1630094596.685,-186.035,-45.410,-47.852,-28.320
1630094596.688,355.957,-44.434,-39.551,-28.320
1630094596.692,85.938,-42.969,-20.020,-42.480
1630094596.696,-469.238,-45.410,-30.762,-32.715
1630094596.700,-355.469,-37.598,-41.992,-24.902
1630094596.704,251.953,-30.762,-42.969,-15.137
1630094596.707,236.816,-32.715,-23.438,-19.043
1630094596.711,-344.238,-36.133,-27.832,-31.738
1630094596.715,-454.102,-40.039,-51.758,-41.016
1630094596.719,109.863,-41.016,-54.199,-20.508
1630094596.723,364.258,-39.551,-29.297,-1.953
1630094596.727,-193.848,-41.504,-31.250,-25.391
1630094596.731,-490.234,-41.992,-42.969,-33.203
1630094596.734,-33.203,-31.250,-49.316,-23.926
1630094596.738,439.453,-18.066,-19.531,-7.324
1630094596.742,-7.324,-24.902,-10.742,-17.578
1630094596.746,-498.047,-40.527,-36.621,-41.504
1630094596.750,-201.660,-45.410,-50.781,-30.273
1630094596.751,388.672,-39.062,-41.992,-1.953
1630094596.755,162.598,-40.039,-20.996,-24.414
1630094596.759,-419.922,-45.898,-32.715,-50.293
1630094596.763,-355.957,-43.457,-45.410,-41.504
1630094596.767,287.598,-33.691,-41.016,-19.531
1630094596.771,331.543,-28.809,-22.949,-25.391
1630094596.775,-305.176,-37.109,-31.738,-42.480
1630094596.778,-424.805,-27.832,-26.855,-31.250
1630094596.782,152.344,-17.090,-28.320,-20.020
1630094596.786,412.109,-37.598,-37.109,-24.902
1630094596.790,-140.137,-41.504,-33.203,-36.133
1630094596.794,-484.863,-34.668,-36.133,-42.969
1630094596.796,-45.898,-40.039,-41.992,-31.250
1630094596.800,464.844,-43.945,-35.645,-20.020
1630094596.804,52.246,-40.527,-28.809,-46.875
1630094596.808,-465.820,-48.828,-39.551,-52.734
1630094596.812,-222.168,-54.199,-45.410,-41.504
1630094596.816,432.617,-42.969,-42.969,-27.344
1630094596.820,250.488,-42.480,-24.902,-26.855
1630094596.823,-357.910,-30.762,-11.719,-30.762
1630094596.827,-328.613,-27.832,-21.973,-28.320
1630094596.831,291.504,-39.062,-41.504,-17.090
1630094596.835,393.555,-43.457,-32.715,-29.785
1630094596.839,-270.508,-50.781,-37.109,-70.801
1630094596.841,-480.957,-50.293,-45.898,-74.707
1630094596.845,111.816,-42.969,-39.551,-44.434
1630094596.849,478.516,-41.016,-30.273,-31.250
1630094596.853,-95.215,-42.480,-30.273,-48.340
1630094596.857,-507.324,-49.316,-46.875,-67.871
1630094596.861,-66.895,-40.527,-44.922,-48.340
1630094596.865,520.508,-31.250,-33.203,-22.461
1630094596.868,73.730,-46.387,-37.598,-48.340
1630094596.872,-508.301,-50.781,-44.434,-71.289
1630094596.876,-266.602,-39.551,-46.875,-49.805
1630094596.880,448.242,-33.691,-41.992,-3.418
1630094596.884,315.918,-40.039,-41.504,-12.695
1630094596.886,-414.551,-38.574,-51.758,-73.242
1630094596.890,-444.824,-32.715,-54.199,-76.660
1630094596.894,258.789,-32.715,-50.781,-29.785
1630094596.898,444.824,-26.855,-32.227,-26.855
1630094596.902,-216.309,-25.879,-38.086,-45.410
1630094596.906,-459.473,-22.461,-41.504,-21.973
1630094596.910,141.113,-6.836,-33.203,12.207
1630094596.913,570.312,-10.254,-35.645,3.906
1630094596.917,-3.418,-18.066,-42.480,-10.742
1630094596.921,-450.684,-11.230,-43.457,2.930
1630094596.925,-43.457,-10.742,-38.086,27.832
1630094596.929,581.543,-9.766,-38.574,33.203
1630094596.946,211.426,-6.836,-35.156,10.742
1630094596.950,-397.949,-12.207,-40.039,4.883
1630094596.954,-234.375,-11.719,-53.711,25.879
1630094596.958,478.027,-11.719,-51.270,47.852
1630094596.962,414.062,-17.090,-35.156,27.832
1630094596.966,-264.160,-14.648,-30.273,23.438
1630094596.970,-342.773,-10.254,-38.086,30.762
1630094596.973,294.922,-16.113,-53.223,24.414
1630094596.977,519.043,-23.438,-42.969,23.438
1630094596.981,-166.992,-25.879,-39.551,9.277
1630094596.985,-472.656,-25.391,-45.898,-2.441
1630094596.989,79.102,-20.020,-52.734,5.371
1630094596.991,567.383,-14.648,-39.062,28.320
1630094596.995,28.320,-18.555,-28.320,13.184
1630094596.999,-483.887,-27.832,-46.875,-7.812
1630094597.003,-132.812,-34.180,-59.570,2.930
1630094597.007,536.621,-29.297,-47.852,27.344
1630094597.011,234.863,-22.949,-32.227,8.789
1630094597.015,-406.250,-27.832,-39.062,-7.324
1630094597.018,-305.664,-28.809,-54.199,-10.742
1630094597.022,403.320,-22.461,-54.688,4.883
1630094597.026,426.758,-12.695,-27.832,22.461
1630094597.030,-303.223,-23.926,-26.855,-9.766
1630094597.034,-458.008,-38.574,-51.270,-27.832
1630094597.036,211.426,-35.156,-61.523,-6.348
1630094597.040,527.344,-29.297,-42.969,-6.348
1630094597.044,-134.766,-31.250,-38.574,-22.461
1630094597.048,-501.465,-32.715,-41.992,-32.227
1630094597.052,26.855,-26.367,-44.434,-16.602
1630094597.056,571.777,-20.996,-37.109,2.441
1630094597.060,37.598,-32.227,-26.367,-12.695
1630094597.063,-539.551,-40.527,-38.086,-30.273
1630094597.067,-226.074,-37.109,-43.945,-9.277
1630094597.071,480.469,-38.086,-36.621,8.789
1630094597.075,217.773,-37.109,-39.551,-37.598
1630094597.079,-476.074,-39.062,-45.898,-47.363
1630094597.081,-402.344,-42.969,-52.734,-23.438
1630094597.085,333.008,-36.133,-55.176,-10.742
1630094597.089,409.180,-32.715,-41.992,-19.043
1630094597.093,-320.801,-37.598,-42.480,-33.203
1630094597.097,-526.367,-40.527,-47.363,-32.227
1630094597.101,131.836,-34.668,-44.922,-13.672
1630094597.105,534.180,-29.297,-36.133,-10.254
1630094597.108,-131.836,-40.527,-36.621,-44.922
1630094597.112,-544.922,-46.387,-40.039,-37.598
1630094597.116,-48.828,-35.645,-41.504,-1.465
1630094597.120,519.531,-28.809,-42.969,-24.414
1630094597.124,49.316,-30.273,-40.527,-58.105
1630094597.126,-526.367,-33.691,-48.828,-56.152
1630094597.130,-237.793,-31.738,-54.688,-30.762
1630094597.134,535.156,-26.367,-50.781,8.301
1630094597.138,312.988,-38.574,-38.086,-15.625
1630094597.142,-441.895,-41.016,-42.480,-42.480
1630094597.146,-423.828,-33.203,-48.828,-37.598
1630094597.150,345.215,-27.832,-50.781,-9.277
1630094597.153,502.441,-24.902,-49.316,-9.277
1630094597.157,-273.926,-34.180,-49.805,-39.551
1630094597.161,-537.598,-41.992,-56.152,-36.621
1630094597.165,126.953,-38.574,-51.758,-9.766
1630094597.169,618.164,-34.668,-39.551,-3.906
1630094597.172,-52.734,-42.480,-40.527,-35.645
1630094597.176,-557.617,-46.875,-46.875,-39.551
1630094597.180,-65.918,-33.691,-42.480,-7.812
1630094597.184,621.582,-31.738,-38.086,6.836
1630094597.188,157.227,-40.527,-37.598,-27.344
1630094597.192,-510.742,-36.133,-41.016,-48.340
1630094597.196,-287.598,-32.715,-46.387,-28.809
1630094597.199,533.203,-23.926,-36.133,9.277
1630094597.203,406.250,-29.785,-36.133,-2.441
1630094597.207,-423.340,-41.016,-44.434,-45.410
1630094597.211,-488.770,-40.527,-36.133,-47.363
1630094597.215,309.570,-37.598,-28.320,-5.859
1630094597.216,557.617,-31.738,-32.227,-6.836
1630094597.220,-246.094,-39.551,-35.645,-39.062
1630094597.224,-579.590,-42.969,-40.527,-38.086
1630094597.228,77.637,-34.668,-42.480,-8.789
1630094597.232,653.320,-35.156,-36.133,9.766
1630094597.236,-9.277,-42.969,-33.691,-21.484
1630094597.240,-594.727,-48.828,-38.574,-41.504
1630094597.243,-150.879,-45.898,-34.668,-15.625
1630094597.247,633.301,-33.203,-28.809,17.578
1630094597.251,207.031,-41.992,-39.551,-22.949
1630094597.255,-558.105,-51.270,-42.480,-57.617
1630094597.259,-390.137,-45.898,-39.062,-41.016
1630094597.261,492.676,-33.691,-31.738,-9.766
1630094597.265,450.684,-35.156,-40.039,-21.973
1630094597.269,-436.523,-47.363,-52.734,-45.898
1630094597.273,-574.707,-45.898,-48.828,-49.316
1630094597.277,257.812,-34.668,-30.273,-7.812
1630094597.281,609.863,-33.691,-37.598,-11.719
1630094597.285,-242.188,-48.340,-55.664,-65.430
1630094597.288,-655.762,-41.992,-47.363,-47.852
1630094597.292,16.113,-24.902,-29.297,-3.418
1630094597.296,662.598,-28.809,-35.645,1.465
1630094597.300,-41.016,-49.316,-58.594,-49.316
1630094597.304,-683.105,-45.898,-45.898,-50.781
1630094597.321,-248.047,-29.785,-24.414,-20.020
1630094597.325,627.930,-23.438,-26.367,2.441
1630094597.329,257.812,-31.738,-42.480,-24.902
1630094597.333,-605.469,-41.992,-51.270,-50.781
1630094597.337,-490.723,-43.945,-42.480,-26.367
1630094597.341,462.402,-43.945,-30.273,2.441
1630094597.345,518.066,-41.016,-45.410,-17.090
1630094597.348,-414.551,-41.504,-44.434,-43.457
1630094597.352,-627.441,-42.969,-38.086,-41.016
1630094597.356,204.590,-41.992,-28.320,-10.742
1630094597.360,670.410,-33.203,-32.715,-5.859
1630094597.364,-190.430,-34.668,-43.457,-48.828
1630094597.366,-695.801,-44.434,-43.945,-51.270
1630094597.370,-72.266,-45.410,-33.203,-21.484
1630094597.374,677.246,-32.715,-26.855,-1.465
1630094597.378,40.527,-37.598,-49.316,-48.828
1630094597.382,-691.895,-48.340,-50.293,-51.758
1630094597.386,-313.477,-44.434,-32.715,-22.949
1630094597.390,642.578,-31.738,-44.434,10.254
1630094597.393,378.418,-41.504,-56.641,14.160
1630094597.397,-572.754,-60.547,-45.898,-59.570
1630094597.401,-611.328,-68.359,-46.875,-105.469
1630094597.405,312.500,-59.570,-28.320,-75.195
1630094597.409,466.309,-63.965,-48.340,-101.074
1630094597.412,-520.508,-83.496,-73.730,-161.133
1630094597.416,-825.195,-89.355,-77.637,-167.969
1630094597.420,-16.602,-89.355,-80.078,-155.273
1630094597.424,501.953,-93.262,-91.797,-175.781
1630094597.428,-367.676,-112.305,-114.746,-239.746
1630094597.432,-925.781,-112.793,-112.305,-253.906
1630094597.436,-328.125,-99.121,-88.867,-227.051
1630094597.439,499.023,-89.844,-87.891,-190.918
1630094597.443,-69.336,-103.027,-115.234,-214.355
1630094597.447,-858.887,-108.887,-115.234,-231.445
1630094597.451,-537.109,-92.285,-95.703,-182.617
1630094597.455,443.848,-78.613,-87.402,-126.953
1630094597.456,263.672,-78.613,-103.516,-134.277
1630094597.460,-656.250,-89.844,-105.469,-161.133
1630094597.464,-692.871,-90.332,-89.355,-163.086
1630094597.468,248.535,-80.078,-69.824,-104.004
1630094597.472,533.203,-74.219,-85.449,-96.191
1630094597.476,-391.113,-81.055,-96.191,-130.371
1630094597.480,-749.023,-86.426,-86.914,-123.535
1630094597.483,23.438,-75.195,-70.312,-89.355
1630094597.487,648.926,-72.266,-81.543,-62.500
1630094597.491,-166.992,-80.078,-98.633,-98.633
1630094597.495,-783.691,-71.289,-83.496,-113.281
1630094597.499,-234.863,-59.082,-66.406,-75.195
1630094597.501,642.578,-46.387,-63.965,-34.180
1630094597.505,155.273,-48.340,-85.449,-70.801
1630094597.509,-672.852,-56.152,-78.613,-78.125
1630094597.513,-466.309,-53.711,-58.594,-52.246
1630094597.517,497.070,-40.527,-55.664,-29.785
1630094597.521,438.965,-38.574,-75.684,-41.992
1630094597.525,-503.906,-43.945,-75.684,-74.219
1630094597.528,-642.578,-63.477,-75.684,-80.566
1630094597.532,232.910,-64.453,-65.430,-39.062
1630094597.536,607.422,-38.086,-60.547,-26.855
1630094597.540,-285.645,-41.504,-64.941,-80.078
1630094597.544,-717.285,-53.711,-61.035,-79.590
1630094597.546,-8.301,-48.340,-42.969,-21.484
1630094597.550,671.875,-37.109,-41.504,0.977
1630094597.554,-41.016,-37.598,-57.617,-54.199
1630094597.558,-685.547,-41.016,-52.734,-55.176
1630094597.562,-226.562,-36.133,-36.621,-26.855
1630094597.566,654.297,-30.273,-41.016,-10.742
1630094597.570,249.023,-37.598,-68.359,-47.363
1630094597.573,-604.980,-47.852,-67.871,-76.660
1630094597.577,-470.703,-47.363,-52.734,-47.852
1630094597.581,460.938,-44.922,-38.086,-13.672
1630094597.585,490.234,-41.504,-53.711,-40.039
1630094597.589,-448.242,-43.945,-69.336,-83.496
1630094597.592,-627.441,-46.387,-58.105,-66.895
1630094597.596,221.680,-39.062,-37.109,-20.020
1630094597.600,654.297,-45.898,-52.734,-5.859
1630094597.604,-213.867,-49.805,-66.406,-58.594
1630094597.608,-712.402,-44.434,-57.129,-80.566
1630094597.612,-38.574,-40.039,-33.691,-22.461
1630094597.616,722.656,-43.945,-52.246,-17.090
1630094597.619,43.945,-48.340,-78.125,-69.824
1630094597.623,-669.922,-39.062,-57.129,-79.102
1630094597.627,-300.293,-32.715,-43.945,-58.105
1630094597.631,626.953,-29.785,-33.203,-15.137
1630094597.635,322.754,-40.527,-53.223,-58.105
1630094597.651,-576.172,-37.598,-57.617,-87.402
1630094597.655,-520.996,-33.203,-42.969,-61.035
1630094597.659,412.598,-31.738,-30.762,-8.789
1630094597.663,568.848,-26.855,-51.270,-13.672
1630094597.667,-397.949,-34.668,-57.129,-86.426
1630094597.671,-690.918,-45.410,-41.504,-107.910
1630094597.675,72.754,-62.012,-46.387,-89.355
1630094597.678,580.566,-49.805,-48.340,-73.730
1630094597.682,-206.543,-38.086,-42.969,-98.145
1630094597.686,-758.301,-53.711,-40.527,-108.398
1630094597.690,-177.246,-45.898,-32.227,-87.891
1630094597.694,633.301,-33.691,-25.391,-52.734
1630094597.696,81.055,-41.016,-42.969,-80.566
1630094597.700,-658.691,-46.387,-49.316,-103.027
1630094597.704,-367.188,-42.969,-37.109,-68.359
1630094597.708,530.762,-42.480,-29.785,-34.668
1630094597.712,328.613,-49.805,-47.363,-60.059
1630094597.716,-552.734,-56.641,-50.781,-91.309
1630094597.720,-565.430,-55.664,-36.133,-72.754
1630094597.723,320.801,-40.527,-25.391,-25.391
1630094597.727,546.875,-33.691,-47.852,-37.598
1630094597.731,-360.840,-48.828,-58.105,-80.078
1630094597.735,-691.895,-50.293,-45.410,-74.219
1630094597.739,53.711,-38.574,-35.156,-45.410
1630094597.741,645.020,-37.598,-42.969,-31.738
1630094597.745,-108.398,-43.457,-54.199,-79.590
1630094597.749,-691.895,-43.945,-53.223,-95.215
1630094597.753,-174.805,-35.645,-36.133,-58.105
1630094597.757,644.043,-31.250,-23.438,-25.391
1630094597.761,157.715,-37.109,-41.016,-52.734
1630094597.765,-627.441,-38.086,-46.387,-68.359
1630094597.768,-408.203,-36.621,-32.715,-59.082
1630094597.772,514.648,-27.344,-29.297,-22.949
1630094597.776,431.641,-13.672,-40.527,-24.902
1630094597.780,-491.699,-30.273,-40.039,-65.918
1630094597.784,-608.887,-37.598,-43.945,-85.449
1630094597.790,256.836,-25.391,-20.020,-32.227
1630094597.794,578.125,-29.785,-25.879,-14.160
1630094597.798,-302.734,-37.598,-48.828,-76.660
1630094597.802,-686.523,-37.598,-44.434,-88.379
1630094597.806,5.859,-29.785,-27.344,-47.363
1630094597.810,646.484,-28.320,-30.273,-31.250
1630094597.814,-55.664,-41.016,-44.922,-65.918
1630094597.817,-679.688,-41.016,-41.992,-84.473
1630094597.821,-234.375,-31.738,-20.508,-62.988
1630094597.825,619.629,-24.414,-21.973,-25.879
1630094597.829,216.309,-29.785,-47.363,-64.941
1630094597.833,-620.117,-34.180,-42.969,-92.773
1630094597.831,-475.098,-27.832,-36.621,-73.242
1630094597.835,422.363,-25.391,-33.203,-24.414
1630094597.839,431.641,-34.180,-49.805,-40.039
1630094597.843,-468.262,-31.738,-56.152,-86.914
1630094597.847,-654.297,-28.809,-46.875,-73.730
1630094597.851,165.527,-31.738,-30.762,-29.297
1630094597.855,583.984,-29.297,-37.598,-41.992
1630094597.858,-243.652,-37.598,-50.781,-81.543
1630094597.862,-678.711,-30.762,-41.504,-62.500
1630094597.866,-81.055,-34.180,-38.086,-52.246
1630094597.870,613.281,-34.668,-44.922,-39.062
1630094597.874,30.273,-27.832,-56.641,-58.594
1630094597.877,-636.230,-36.133,-56.641,-83.008
1630094597.881,-290.527,-34.668,-45.410,-67.383
1630094597.885,560.547,-29.297,-37.109,-16.602
1630094597.889,278.320,-31.738,-51.270,-27.832
1630094597.893,-542.480,-41.504,-51.758,-70.801
1630094597.897,-488.281,-44.922,-40.527,-77.148
1630094597.901,397.949,-33.203,-29.297,-27.344
1630094597.904,518.066,-32.715,-44.434,-24.414
1630094597.908,-383.301,-43.457,-53.223,-71.777
1630094597.912,-630.859,-42.480,-46.387,-78.125
1630094597.916,149.414,-29.785,-22.949,-24.902
1630094597.920,631.348,-26.855,-32.227,-14.160
1630094597.922,-152.832,-33.203,-49.805,-53.711
1630094597.926,-662.598,-33.691,-42.480,-61.523
1630094597.930,-113.281,-34.180,-32.715,-27.344
1630094597.934,637.695,-38.574,-33.691,3.906
1630094597.938,96.680,-42.969,-47.852,-45.410
1630094597.942,-612.305,-42.969,-47.852,-60.547
1630094597.946,-324.219,-41.016,-37.598,-38.086
1630094597.949,519.531,-47.363,-45.410,-24.414
1630094597.953,332.520,-47.852,-64.453,-41.992
1630094597.957,-497.070,-41.992,-49.316,-61.523
1630094597.961,-530.762,-38.574,-41.992,-45.898
1630094597.965,327.637,-33.691,-24.902,3.418
1630094597.966,571.289,-28.809,-29.785,-10.742
1630094597.970,-301.758,-32.227,-44.922,-45.898
1630094597.974,-630.859,-41.504,-34.668,-47.363
1630094597.978,90.332,-33.691,-28.320,-17.578
1630094597.982,652.832,-30.273,-36.133,1.953
1630094597.986,-89.355,-35.645,-41.992,-41.992
1630094597.990,-626.465,-41.504,-51.270,-57.129
1630094597.993,-120.605,-37.109,-39.062,-33.203
1630094597.997,629.883,-28.809,-25.879,-4.395
1630094598.001,156.250,-35.645,-48.340,-39.062
1630094598.005,-602.539,-37.109,-52.246,-74.219
1630094598.009,-377.930,-37.109,-37.598,-50.781
1630094598.011,508.301,-25.391,-24.414,0.977
1630094598.015,397.949,-26.367,-45.898,-31.738
1630094598.019,-476.074,-38.574,-52.734,-65.430
1630094598.023,-565.430,-27.832,-38.086,-50.781
1630094598.027,275.879,-13.184,-17.578,-3.906
1630094598.031,595.215,-21.484,-33.691,3.418
1630094598.035,-274.414,-44.922,-54.199,-57.617
1630094598.038,-673.828,-44.922,-39.551,-71.777
1630094598.042,22.949,-24.902,-18.066,-13.184
1630094598.046,653.809,-29.785,-29.785,3.418
1630094598.050,-56.641,-41.504,-53.711,-52.734
1630094598.054,-671.387,-38.086,-57.617,-68.848
1630094598.071,-231.934,-29.297,-48.340,-39.551
1630094598.075,603.516,-30.273,-40.039,-4.395
1630094598.079,210.449,-43.457,-47.363,-38.086
1630094598.083,-592.285,-43.457,-50.781,-68.848
1630094598.087,-449.219,-42.480,-44.434,-57.129
1630094598.091,443.848,-36.133,-29.785,-11.719
1630094598.095,445.801,-32.227,-57.617,-16.113
1630094598.098,-424.805,-37.598,-64.941,-62.500
1630094598.102,-592.773,-38.574,-48.828,-69.336
1630094598.106,215.820,-36.621,-40.039,-16.602
1630094598.110,620.605,-36.133,-41.504,-0.488
1630094598.114,-222.168,-41.016,-48.828,-49.316
1630094598.117,-668.945,-50.293,-47.852,-47.852
1630094598.121,-30.273,-41.504,-25.879,-10.254
1630094598.125,659.180,-31.738,-30.273,12.695
1630094598.129,34.668,-37.598,-47.852,-25.879
1630094598.133,-633.789,-44.434,-41.504,-45.410
1630094598.137,-233.887,-44.434,-35.645,-8.301
1630094598.141,628.418,-34.180,-28.809,25.879
1630094598.144,297.363,-35.156,-41.992,-15.137
1630094598.148,-535.645,-47.363,-55.664,-42.480
1630094598.152,-482.422,-54.688,-55.176,-25.391
1630094598.156,409.180,-33.203,-33.203,21.973
1630094598.160,536.133,-23.438,-36.621,18.555
1630094598.161,-333.496,-38.574,-41.016,-28.809
1630094598.165,-562.988,-39.551,-30.762,-33.691
1630094598.169,187.988,-29.785,-19.531,21.484
1630094598.173,653.809,-32.715,-26.855,33.691
1630094598.177,-124.512,-41.016,-42.969,-31.250
1630094598.181,-620.605,-35.645,-47.363,-51.270
1630094598.185,-63.477,-34.668,-32.715,-25.391
1630094598.188,654.785,-33.203,-23.438,18.066
1630094598.192,119.629,-28.320,-41.016,-6.836
1630094598.196,-574.707,-32.715,-41.016,-36.133
1630094598.200,-290.527,-32.227,-27.832,-11.719
1630094598.204,572.266,-22.949,-27.344,29.297
1630094598.206,395.020,-29.785,-45.898,9.766
1630094598.210,-450.195,-39.062,-31.738,-40.039
1630094598.214,-491.699,-41.992,-16.113,-32.715
1630094598.218,334.961,-45.898,-14.648,19.043
1630094598.222,540.527,-46.387,-27.344,14.648
1630094598.226,-279.297,-51.270,-35.645,-24.902
1630094598.230,-575.684,-49.805,-34.668,-31.738
1630094598.233,97.656,-46.387,-25.391,3.418
1630094598.237,607.910,-57.617,-32.715,16.113
1630094598.241,-74.707,-63.965,-49.805,-23.926
1630094598.245,-579.102,-55.664,-42.480,-33.203
1630094598.249,-114.258,-50.781,-25.879,0.000
1630094598.251,624.512,-41.992,-24.902,28.320
1630094598.255,186.523,-37.109,-33.691,-1.953
1630094598.259,-527.344,-46.387,-32.227,-20.020
1630094598.263,-324.219,-55.664,-30.762,-8.301
1630094598.267,489.258,-53.223,-22.949,26.367
1630094598.271,408.691,-46.387,-30.273,10.254
1630094598.275,-403.809,-54.199,-41.992,-33.691
1630094598.278,-496.582,-64.453,-31.250,-21.484
1630094598.282,288.086,-53.223,-16.602,21.973
1630094598.286,560.059,-46.387,-29.785,2.930
1630094598.290,-244.629,-47.852,-39.551,-47.363
1630094598.294,-593.750,-45.410,-33.203,-46.875
1630094598.296,49.316,-45.410,-24.414,-15.137
1630094598.300,632.324,-43.457,-29.785,2.441
1630094598.304,-24.902,-48.828,-41.992,-37.109
1630094598.308,-611.328,-51.758,-41.992,-62.012
1630094598.312,-190.918,-41.992,-31.250,-29.785
1630094598.316,614.258,-26.367,-21.973,14.648
1630094598.320,239.258,-38.574,-41.504,-26.855
1630094598.323,-556.641,-61.523,-51.758,-66.406
1630094598.327,-425.293,-61.035,-43.457,-52.734
1630094598.331,418.945,-48.828,-26.367,-18.066
1630094598.335,432.617,-47.852,-35.645,-19.043
1630094598.339,-403.809,-52.734,-46.387,-49.805
1630094598.342,-569.824,-49.316,-35.645,-54.688
1630094598.346,206.055,-41.992,-26.855,-17.090
1630094598.350,578.125,-43.457,-35.645,-6.348
1630094598.354,-203.125,-45.410,-42.969,-39.062
1630094598.358,-633.301,-44.922,-37.598,-53.223
1630094598.362,-38.574,-43.457,-26.367,-20.996
1630094598.366,612.793,-48.828,-22.949,-7.812
1630094598.369,18.066,-56.152,-39.062,-48.828
1630094598.373,-621.582,-47.852,-48.828,-63.965
1630094598.377,-283.203,-37.109,-38.574,-49.316
1630094598.381,540.527,-27.832,-27.832,-14.160
1630094598.385,267.578,-38.086,-44.434,-27.832
1630094598.386,-535.645,-47.852,-45.898,-58.594
1630094598.390,-479.980,-48.340,-41.016,-52.246
1630094598.394,374.023,-38.574,-30.762,-14.160
1630094598.398,446.289,-30.273,-31.250,-13.672
1630094598.402,-398.438,-36.621,-43.945,-47.852
1630094598.406,-569.336,-35.156,-39.551,-50.781
1630094598.410,154.785,-34.180,-25.391,-14.648
1630094598.413,593.750,-43.457,-31.250,-11.719
1630094598.417,-146.973,-53.711,-44.434,-54.199
1630094598.421,-626.465,-57.617,-41.016,-63.965
1630094598.425,-85.938,-53.711,-29.297,-23.926
1630094598.429,615.234,-40.039,-36.133,4.883
1630094598.446,90.820,-47.852,-40.527,-35.156
1630094598.450,-583.008,-62.012,-41.016,-52.734
1630094598.454,-295.898,-52.246,-42.969,-39.551
1630094598.458,514.160,-42.480,-30.273,-18.066
1630094598.462,305.176,-40.039,-42.480,-35.645
1630094598.466,-485.840,-43.457,-54.688,-60.547
1630094598.470,-470.215,-40.039,-45.410,-44.434
1630094598.473,331.055,-32.227,-29.785,-4.395
1630094598.477,517.578,-35.645,-34.668,-18.066
1630094598.481,-288.086,-45.898,-39.062,-42.480
1630094598.485,-588.867,-52.246,-34.668,-44.434
1630094598.489,94.238,-40.527,-30.762,-31.738
1630094598.491,617.188,-30.273,-28.809,-12.695
1630094598.495,-78.125,-39.551,-34.668,-42.969
1630094598.499,-620.117,-42.969,-40.527,-56.641
1630094598.503,-121.582,-36.133,-37.598,-18.555
1630094598.507,581.543,-37.598,-34.668,2.441
1630094598.511,92.773,-48.828,-41.504,-45.410
1630094598.515,-585.938,-51.270,-48.340,-73.730
1630094598.518,-369.141,-47.852,-46.875,-47.363
1630094598.522,473.633,-45.898,-35.645,-1.953
1630094598.526,367.188,-46.875,-43.457,-23.926
1630094598.530,-450.684,-50.781,-47.852,-61.035
1630094598.534,-513.184,-46.875,-38.574,-60.059
1630094598.536,272.461,-43.457,-31.250,-27.832
1630094598.540,537.109,-41.504,-35.645,-15.137
1630094598.544,-257.812,-48.340,-44.434,-40.527
1630094598.548,-614.258,-50.293,-40.527,-57.129
1630094598.552,15.137,-44.434,-35.156,-33.203
1630094598.556,612.793,-38.574,-35.645,-11.230
1630094598.560,-14.648,-40.039,-45.410,-51.270
1630094598.563,-601.074,-39.551,-51.758,-62.500
1630094598.567,-198.730,-40.039,-46.387,-34.180
1630094598.571,571.289,-35.156,-36.621,-10.742
1630094598.575,203.125,-38.574,-41.504,-34.668
1630094598.579,-546.387,-54.688,-43.945,-54.688
1630094598.581,-416.992,-51.758,-32.715,-42.969
1630094598.585,422.363,-38.574,-30.762,-7.812
1630094598.589,412.109,-42.480,-42.480,-26.367
1630094598.593,-412.109,-47.363,-44.922,-66.895
1630094598.597,-558.594,-44.434,-46.875,-52.246
1630094598.601,190.918,-37.598,-37.598,-19.043
1630094598.605,554.199,-40.527,-41.504,-26.855
1630094598.608,-216.797,-49.316,-50.293,-57.617
1630094598.612,-639.648,-56.152,-57.129,-72.754
1630094598.616,-55.664,-44.922,-45.898,-45.898
1630094598.620,583.496,-26.855,-30.762,-22.461
1630094598.624,4.395,-30.273,-32.227,-53.711
1630094598.626,-604.492,-37.109,-38.086,-57.617
1630094598.630,-249.023,-38.086,-43.945,-33.691
1630094598.634,536.621,-32.227,-33.691,-13.672
1630094598.638,251.465,-30.273,-29.785,-30.273
1630094598.642,-533.691,-35.156,-38.574,-70.801
1630094598.646,-459.961,-33.203,-35.645,-65.918
1630094598.650,373.047,-28.809,-27.832,-22.949
1630094598.653,450.195,-37.109,-39.062,-30.273
1630094598.657,-366.211,-49.316,-40.039,-53.711
1630094598.661,-582.520,-37.598,-30.762,-49.805
1630094598.665,132.812,-30.273,-22.461,-18.555
1630094598.669,564.941,-33.203,-24.902,-12.695
1630094598.671,-168.457,-37.109,-33.203,-54.199
1630094598.675,-627.441,-45.410,-39.551,-56.152
1630094598.679,-78.613,-42.969,-33.203,-29.785
1630094598.683,615.723,-36.133,-23.438,6.836
1630094598.687,84.473,-42.969,-28.320,-37.598
1630094598.691,-587.402,-46.875,-27.832,-77.637
1630094598.695,-270.508,-45.898,-29.297,-45.410
1630094598.698,534.180,-44.434,-32.715,-11.719
1630094598.702,309.082,-40.527,-34.180,-27.344
1630094598.706,-473.145,-42.969,-35.156,-51.758
1630094598.710,-491.699,-51.270,-33.691,-50.293
1630094598.714,299.316,-45.410,-34.668,-33.203
1630094598.716,471.680,-40.527,-36.621,-35.645
1630094598.720,-328.125,-48.340,-41.016,-59.082
1630094598.724,-598.633,-50.781,-49.316,-73.242
1630094598.728,81.055,-37.109,-45.410,-36.133
1630094598.732,575.195,-36.133,-41.992,-13.184
1630094598.736,-94.727,-39.551,-35.645,-58.594
1630094598.740,-602.051,-45.410,-42.480,-70.801
1630094598.743,-145.508,-41.992,-41.992,-41.016
1630094598.747,576.172,-31.250,-28.320,-12.207
1630094598.751,131.836,-45.410,-33.691,-45.898
1630094598.755,-564.453,-55.664,-40.527,-70.801
1630094598.759,-336.914,-40.039,-37.598,-43.457
1630094598.762,469.238,-30.273,-33.691,-8.789
1630094598.766,360.840,-37.109,-34.668,-23.926
1630094598.770,-417.480,-37.109,-34.668,-51.758
1630094598.774,-498.047,-35.645,-41.504,-57.617
1630094598.778,244.629,-37.109,-41.016,-27.832
1630094598.782,514.648,-33.691,-35.156,-12.207
1630094598.786,-226.074,-42.969,-32.715,-43.945
1630094598.789,-575.195,-54.199,-35.156,-55.176
1630094598.793,29.785,-45.410,-40.527,-32.227
1630094598.797,582.520,-39.551,-41.504,-24.902
1630094598.801,-40.039,-42.969,-41.504,-56.641
1630094598.805,-597.168,-45.898,-49.316,-70.801
1630094598.821,-205.078,-46.387,-49.805,-47.852
1630094598.825,538.086,-44.922,-42.969,-20.996
1630094598.829,193.359,-44.434,-46.387,-45.898
1630094598.833,-531.250,-47.363,-46.387,-67.383
1630094598.837,-407.227,-44.922,-43.457,-47.852
1630094598.841,412.598,-24.902,-32.227,-7.812
1630094598.845,402.344,-29.297,-32.715,-29.297
1630094598.848,-394.043,-43.945,-44.922,-48.828
1630094598.852,-526.855,-54.688,-46.875,-47.363
1630094598.856,183.105,-73.730,-38.086,-35.645
1630094598.860,524.414,-75.684,-32.715,-19.043
1630094598.864,-199.707,-73.242,-34.180,-51.270
1630094598.866,-591.309,-80.566,-38.086,-66.895
1630094598.870,-35.645,-78.613,-39.062,-38.574
1630094598.874,565.918,-76.660,-33.691,-23.926
1630094598.878,18.555,-79.102,-33.691,-54.199
1630094598.882,-566.895,-81.055,-38.086,-64.453
1630094598.886,-230.469,-79.102,-38.086,-50.293
1630094598.890,534.180,-60.547,-33.203,-29.297
1630094598.893,254.395,-53.711,-28.809,-52.246
1630094598.897,-500.977,-68.359,-35.645,-76.660
1630094598.901,-440.918,-72.754,-41.016,-53.711
1630094598.905,342.285,-62.500,-39.551,-30.273
1630094598.909,430.664,-54.688,-37.109,-44.434
1630094598.911,-336.426,-56.152,-38.574,-62.988
1630094598.915,-556.641,-62.988,-46.875,-65.918
1630094598.919,140.625,-55.664,-36.621,-18.066
1630094598.923,573.730,-52.734,-32.715,-6.348
1630094598.927,-129.395,-63.965,-41.016,-43.945
1630094598.931,-571.777,-59.082,-46.387,-50.781
1630094598.935,-73.730,-52.734,-40.039,-46.875
1630094598.938,575.684,-48.340,-35.645,-19.043
1630094598.942,94.727,-54.688,-37.598,-19.043
1630094598.946,-520.996,-66.406,-39.062,-25.391
1630094598.950,-239.746,-56.641,-48.340,-0.977
1630094598.954,543.457,-41.016,-40.039,28.809
1630094598.956,369.141,-41.992,-35.156,5.859
1630094598.960,-398.438,-55.176,-45.410,-14.160
1630094598.964,-409.668,-56.152,-47.363,0.000
1630094598.968,354.004,-42.480,-35.156,16.113
1630094598.972,519.531,-43.457,-28.320,9.277
1630094598.976,-245.605,-51.758,-32.715,-23.926
1630094598.980,-517.578,-49.805,-39.062,-26.855
1630094598.983,125.488,-47.363,-43.457,-2.930
1630094598.987,608.398,-47.363,-36.133,11.719
1630094598.991,-61.523,-50.781,-31.250,-12.695
1630094598.995,-567.871,-51.758,-32.227,-20.508
1630094598.999,-101.074,-44.922,-31.738,4.883
1630094599.001,591.797,-41.016,-39.551,14.160
1630094599.005,146.973,-45.410,-41.992,-13.184
1630094599.009,-530.762,-52.246,-38.086,-21.484
1630094599.013,-321.289,-47.852,-40.039,-20.020
1630094599.017,463.379,-40.039,-38.574,-1.953
1630094599.021,363.770,-39.062,-31.250,-10.742
1630094599.025,-413.086,-41.016,-33.203,-34.668
1630094599.028,-468.750,-37.109,-31.738,-26.367
1630094599.032,285.156,-28.320,-28.320,-2.930
1630094599.036,502.441,-35.156,-38.086,-3.906
1630094599.040,-263.672,-49.316,-40.039,-34.668
1630094599.044,-590.332,-47.852,-43.945,-47.852
1630094599.046,40.039,-37.109,-37.109,-11.230
1630094599.050,577.148,-35.645,-29.785,-4.395
1630094599.054,-37.598,-41.504,-32.227,-35.156
1630094599.058,-578.613,-41.016,-35.645,-28.320
1630094599.062,-189.941,-30.762,-39.551,-17.090
1630094599.066,551.758,-27.344,-36.621,-9.766
1630094599.070,190.918,-37.109,-33.203,-38.574
1630094599.073,-517.090,-33.691,-30.273,-52.734
1630094599.077,-379.395,-35.156,-34.180,-36.133
1630094599.081,408.691,-33.691,-35.645,-6.348
1630094599.085,380.371,-29.785,-33.203,-26.855
1630094599.089,-412.598,-39.551,-36.621,-57.617
1630094599.091,-536.621,-42.480,-47.363,-43.457
1630094599.095,196.289,-41.504,-46.387,-9.766
1630094599.099,537.598,-35.156,-34.668,-10.254
1630094599.103,-193.359,-37.109,-34.180,-29.297
1630094599.107,-590.820,-47.363,-45.898,-32.715
1630094599.111,-19.043,-48.828,-51.270,-31.738
1630094599.115,611.816,-32.715,-32.715,-5.859
1630094599.118,30.273,-31.250,-30.762,-30.762
1630094599.122,-597.656,-39.551,-41.504,-59.570
1630094599.126,-246.094,-32.715,-37.109,-40.527
1630094599.130,540.527,-29.297,-38.574,-8.301
1630094599.134,252.930,-40.527,-40.039,-20.996
1630094599.136,-502.441,-40.039,-42.969,-45.410
1630094599.140,-427.246,-28.320,-39.062,-48.340
1630094599.144,389.648,-27.832,-28.320,-10.742
1630094599.148,459.961,-40.039,-33.203,-10.742
1630094599.152,-344.727,-42.480,-37.598,-39.062
1630094599.156,-528.320,-41.016,-32.227,-28.320
1630094599.160,192.871,-35.156,-33.691,7.324
1630094599.163,582.520,-27.832,-36.133,8.301
1630094599.167,-153.809,-41.016,-40.039,-39.551
1630094599.171,-594.727,-48.340,-42.969,-45.898
1630094599.175,-56.152,-41.504,-42.969,-18.555
1630094599.179,604.980,-34.668,-49.316,-3.906
1630094599.196,74.707,-47.363,-50.293,-36.621
1630094599.200,-571.289,-52.734,-51.758,-54.199
1630094599.204,-270.020,-42.480,-52.246,-36.133
1630094599.208,516.602,-39.551,-52.734,-13.672
1630094599.212,288.086,-49.316,-47.363,-30.762
1630094599.216,-459.961,-49.316,-41.016,-35.645
1630094599.220,-439.453,-46.875,-49.316,-27.832
1630094599.223,339.355,-45.410,-47.363,-22.461
1630094599.227,484.375,-46.875,-38.086,-25.879
1630094599.231,-305.664,-48.828,-39.062,-58.105
1630094599.235,-560.547,-45.898,-40.039,-56.641
1630094599.239,117.676,-38.574,-34.180,-16.113
1630094599.241,597.656,-34.668,-33.203,-14.648
1630094599.245,-91.309,-41.016,-37.598,-40.527
1630094599.249,-590.332,-46.875,-43.945,-38.574
1630094599.253,-110.352,-39.551,-39.551,-16.602
1630094599.257,595.215,-21.973,-38.086,-8.789
1630094599.261,138.184,-26.367,-41.016,-45.410
1630094599.265,-549.316,-39.551,-40.527,-55.176
1630094599.268,-343.262,-41.504,-42.480,-43.945
1630094599.272,468.750,-36.621,-42.969,-20.996
1630094599.276,363.281,-30.762,-40.527,-26.367
1630094599.280,-449.707,-41.504,-47.363,-47.852
1630094599.284,-523.926,-53.223,-45.410,-52.246
1630094599.286,261.719,-46.387,-34.180,-35.645
1630094599.290,500.000,-46.875,-38.086,-41.016
1630094599.294,-268.555,-54.199,-40.527,-60.059
1630094599.298,-579.102,-51.270,-47.852,-42.969
1630094599.302,44.434,-46.387,-42.480,-22.461
1630094599.306,580.566,-45.410,-37.109,-25.879
1630094599.310,-77.637,-49.316,-40.039,-58.105
1630094599.313,-609.375,-50.293,-38.574,-63.965
1630094599.317,-165.039,-41.992,-40.527,-36.621
1630094599.321,556.641,-39.062,-37.109,-13.184
1630094599.325,172.852,-41.504,-41.992,-40.527
1630094599.329,-536.621,-41.016,-46.387,-62.988
1630094599.331,-374.023,-41.992,-40.039,-50.781
1630094599.335,435.547,-35.645,-33.691,-18.066
1630094599.339,400.879,-36.621,-35.156,-22.949
1630094599.343,-398.926,-49.805,-42.480,-42.969
1630094599.347,-532.227,-49.805,-44.434,-46.875
1630094599.351,232.422,-33.203,-32.715,-18.555
1630094599.355,554.688,-34.180,-23.926,-19.043
1630094599.358,-219.238,-46.875,-29.785,-57.129
1630094599.362,-605.957,-50.293,-45.898,-62.500
1630094599.366,-23.926,-42.969,-46.875,-31.738
1630094599.370,573.730,-41.504,-36.621,-12.695
1630094599.374,-4.395,-50.781,-39.551,-39.062
1630094599.376,-592.285,-51.758,-45.898,-61.035
1630094599.380,-235.352,-47.363,-41.016,-46.875
1630094599.384,552.734,-41.992,-36.621,-0.488
1630094599.388,240.723,-42.480,-39.062,-25.879
1630094599.392,-531.738,-49.805,-47.363,-70.312
1630094599.396,-437.500,-40.527,-45.410,-42.480
1630094599.400,375.488,-29.785,-35.645,-6.836
1630094599.403,427.246,-34.668,-38.574,-16.113
1630094599.407,-375.488,-37.598,-33.691,-47.363
1630094599.411,-570.801,-42.969,-40.039,-51.270
1630094599.415,149.902,-37.598,-39.551,-19.531
1630094599.419,555.664,-28.809,-29.297,-7.324
1630094599.421,-168.945,-41.016,-35.156,-43.457
1630094599.425,-604.004,-43.945,-43.945,-62.500
1630094599.429,-75.684,-33.203,-39.551,-29.297
1630094599.433,583.496,-29.297,-31.250,-7.812
1630094599.437,56.152,-44.434,-41.992,-49.316
1630094599.441,-585.938,-53.711,-54.688,-67.383
1630094599.445,-275.879,-39.062,-47.363,-49.805
1630094599.448,523.438,-30.273,-32.715,-17.578
1630094599.452,297.852,-39.551,-39.062,-21.973
1630094599.456,-492.188,-44.922,-43.457,-54.199
1630094599.460,-476.074,-44.922,-41.504,-53.711
1630094599.464,322.266,-41.504,-36.133,-19.043
1630094599.467,469.727,-39.551,-34.668,-32.715
1630094599.471,-326.660,-47.363,-42.969,-72.266
1630094599.475,-582.520,-43.457,-41.992,-64.941
1630094599.479,97.168,-38.086,-39.062,-36.621
1630094599.483,564.941,-44.434,-46.387,-34.668
1630094599.487,-119.629,-50.781,-47.363,-55.664
1630094599.491,-596.680,-46.387,-41.504,-56.152
1630094599.494,-125.977,-43.945,-40.527,-43.945
1630094599.498,557.617,-43.945,-42.480,-27.344
1630094599.502,105.469,-41.016,-40.527,-50.781
1630094599.506,-575.195,-50.293,-41.504,-67.871
1630094599.510,-345.703,-51.758,-44.922,-56.152
1630094599.511,446.777,-34.668,-41.992,-33.203
1630094599.515,323.730,-30.273,-35.156,-46.875
1630094599.519,-439.941,-42.480,-38.574,-69.336
1630094599.523,-491.699,-41.992,-46.387,-48.340
1630094599.527,275.391,-38.086,-43.457,-20.020
1630094599.531,500.488,-44.922,-41.504,-37.109
1630094599.535,-256.836,-35.645,-38.086,-57.617
1630094599.538,-562.500,-35.645,-39.551,-58.105
1630094599.542,34.180,-37.598,-52.734,-40.039
1630094599.546,553.223,-29.297,-50.781,-26.855
1630094599.550,-78.125,-42.969,-46.387,-57.129
1630094599.554,-608.398,-42.969,-49.316,-67.871
1630094599.571,-181.641,-36.621,-51.758,-41.016
1630094599.575,538.086,-34.668,-55.664,-23.926
1630094599.579,157.715,-36.133,-45.898,-50.781
1630094599.583,-536.133,-43.945,-50.293,-73.242
1630094599.587,-380.371,-44.922,-60.059,-64.941
1630094599.591,423.340,-40.527,-40.527,-20.020
1630094599.595,393.555,-41.992,-38.574,-26.367
1630094599.598,-398.926,-48.340,-48.828,-68.848
1630094599.602,-531.738,-47.363,-51.270,-70.801
1630094599.606,215.820,-31.250,-42.480,-23.926
1630094599.610,540.527,-34.180,-38.086,-13.184
1630094599.614,-214.844,-48.340,-47.852,-59.082
1630094599.616,-578.613,-40.527,-46.387,-62.012
1630094599.620,9.766,-33.691,-41.992,-31.250
1630094599.624,599.609,-25.879,-40.527,0.977
1630094599.628,11.230,-33.203,-48.340,-38.574
1630094599.632,-572.754,-45.898,-48.340,-71.289
1630094599.636,-212.891,-46.387,-41.504,-39.062
1630094599.640,549.805,-40.527,-33.203,-10.254
1630094599.643,246.582,-44.434,-34.180,-42.480
1630094599.647,-490.234,-48.340,-35.156,-63.965
1630094599.651,-387.207,-27.344,-12.207,-23.926
1630094599.655,379.395,-24.414,-14.160,4.395
1630094599.659,411.133,-46.875,-38.574,-31.250
1630094599.661,-370.117,-54.688,-47.852,-66.895
1630094599.665,-553.711,-51.758,-49.316,-64.941
1630094599.669,154.785,-43.457,-45.898,-30.762
1630094599.673,563.965,-31.738,-39.551,-8.789
1630094599.677,-161.133,-41.504,-30.762,-48.828
1630094599.681,-597.168,-48.828,-25.391,-57.129
1630094599.685,-62.012,-49.316,-28.320,-31.250
1630094599.688,577.637,-44.922,-32.227,-16.602
1630094599.692,62.988,-23.926,-20.508,-32.715
1630094599.696,-574.219,-28.809,-26.855,-58.105
1630094599.700,-274.414,-42.480,-36.133,-45.410
1630094599.704,516.602,-36.133,-25.391,-9.766
1630094599.706,273.438,-37.598,-30.273,-38.086
1630094599.710,-499.512,-52.734,-36.133,-57.617
1630094599.714,-485.352,-48.828,-40.527,-50.781
1630094599.718,301.758,-39.062,-34.668,-31.738
1630094599.722,464.355,-44.922,-31.738,-26.367
1630094599.726,-310.547,-45.898,-34.668,-52.246
1630094599.730,-572.754,-47.363,-39.062,-57.617
1630094599.733,103.516,-38.574,-35.645,-19.043
1630094599.737,592.285,-15.137,-5.371,2.930
1630094599.741,-105.469,-27.344,-20.508,-40.527
1630094599.745,-619.629,-52.734,-46.875,-59.082
1630094599.749,-129.883,-45.898,-34.180,-24.902
1630094599.752,575.195,-39.551,-31.250,-4.883
1630094599.756,102.051,-49.316,-40.039,-44.434
1630094599.760,-565.918,-48.828,-42.969,-58.594
1630094599.764,-300.781,-35.645,-36.621,-38.086
1630094599.768,482.910,-38.086,-32.227,-14.160
1630094599.772,330.078,-51.270,-34.668,-37.109
1630094599.776,-445.312,-57.617,-46.387,-62.012
1630094599.779,-480.469,-48.828,-43.945,-38.086
1630094599.783,279.297,-39.551,-34.180,-5.859
1630094599.787,499.512,-40.527,-39.551,-27.344
1630094599.791,-266.602,-43.457,-42.969,-52.246
1630094599.795,-590.332,-48.340,-47.852,-56.152
1630094599.796,37.598,-46.875,-48.828,-45.410
1630094599.800,562.012,-42.969,-51.270,-20.508
1630094599.804,-62.500,-52.734,-52.734,-39.551
1630094599.808,-598.145,-58.594,-57.617,-59.570
1630094599.812,-173.340,-50.293,-53.711,-42.480
1630094599.816,571.289,-35.156,-41.504,-11.719
1630094599.820,187.500,-30.762,-39.062,-27.832
1630094599.823,-487.793,-16.602,-17.090,-32.227
1630094599.827,-337.891,-14.160,-18.066,-23.438
1630094599.831,416.504,-40.039,-38.574,-12.207
1630094599.835,366.699,-51.270,-42.969,-29.785
1630094599.839,-408.691,-48.340,-40.039,-63.477
1630094599.841,-518.555,-47.852,-41.992,-57.617
1630094599.845,212.402,-41.504,-39.062,-28.809
1630094599.849,515.137,-36.133,-35.156,-28.320
1630094599.853,-226.074,-41.504,-42.969,-55.176
1630094599.857,-595.215,-47.852,-43.457,-53.711
1630094599.861,-11.719,-42.480,-37.109,-27.832
1630094599.865,595.215,-25.879,-24.414,-3.418
1630094599.868,10.254,-26.855,-19.531,-17.090
1630094599.872,-579.590,-33.691,-33.203,-46.387
1630094599.876,-230.469,-31.738,-42.480,-41.504
1630094599.880,525.879,-30.273,-38.086,-16.113
1630094599.884,218.750,-37.109,-33.691,-39.551
1630094599.886,-531.738,-47.363,-42.480,-63.477
1630094599.890,-433.594,-48.340,-46.387,-53.711
1630094599.894,351.562,-35.645,-42.969,-28.809
1630094599.898,385.742,-41.016,-40.039,-37.109
1630094599.902,-387.207,-55.664,-47.852,-68.359
1630094599.906,-555.664,-43.945,-45.410,-61.035
1630094599.910,172.363,-24.414,-24.414,-16.602
1630094599.913,539.551,-31.738,-32.227,-18.066
1630094599.917,-216.797,-47.363,-48.340,-66.895
1630094599.921,-615.723,-41.504,-45.898,-65.918
1630094599.925,-54.688,-35.156,-32.227,-32.227
1630094599.929,571.289,-39.062,-26.855,-25.391
1630094599.946,34.668,-39.551,-39.062,-51.758
1630094599.950,-584.473,-38.086,-44.922,-72.266
1630094599.954,-270.996,-40.527,-45.410,-50.781
1630094599.958,498.535,-41.992,-47.852,-22.949
1630094599.962,259.277,-43.945,-40.527,-45.410
1630094599.966,-478.516,-36.133,-34.180,-61.035
1630094599.970,-470.215,-40.527,-43.457,-50.293
1630094599.973,293.457,-44.434,-41.504,-21.973
1630094599.977,438.477,-38.574,-34.668,-32.715
1630094599.981,-340.820,-42.969,-21.973,-58.105
1630094599.985,-569.824,-40.527,-25.391,-56.641
1630094599.989,109.863,-30.273,-30.762,-36.621
1630094599.991,562.500,-28.809,-21.973,-24.902
1630094599.995,-123.047,-39.062,-31.738,-48.828
1630094599.999,-598.633,-38.086,-39.062,-57.617
1630094600.003,-116.699,-31.738,-38.574,-41.016
1630094600.007,566.895,-25.879,-35.156,-17.578
1630094600.011,110.352,-25.879,-30.762,-35.645
1630094600.015,-560.059,-37.598,-45.410,-66.895
1630094600.018,-344.238,-38.574,-53.223,-53.711
1630094600.022,452.637,-28.809,-34.668,-5.859
1630094600.026,337.891,-18.066,-15.137,-27.832
1630094600.030,-441.406,-34.668,-25.391,-66.895
1630094600.034,-514.648,-50.781,-46.387,-65.430
1630094600.036,253.418,-37.598,-50.781,-33.691
1630094600.040,487.793,-33.203,-51.270,-30.273
1630094600.044,-292.480,-44.922,-54.199,-68.848
1630094600.048,-604.492,-47.852,-48.828,-62.988
1630094600.052,49.316,-35.645,-43.457,-27.832
1630094600.056,560.059,-35.156,-46.387,-21.973
1630094600.060,-84.961,-41.992,-45.410,-52.734
1630094600.063,-584.961,-45.410,-47.852,-60.059
1630094600.067,-135.254,-30.762,-29.785,-13.184
1630094600.071,579.102,-19.531,-19.531,14.648
1630094600.075,142.578,-47.852,-39.551,-50.781
1630094600.079,-558.594,-56.641,-46.387,-62.012
1630094600.081,-344.238,-46.875,-39.551,-18.555
1630094600.085,451.660,-32.715,-37.109,-15.137
1630094600.089,343.750,-30.273,-46.387,-68.848
1630094600.093,-450.195,-42.969,-50.293,-98.145
1630094600.097,-552.246,-47.852,-58.105,-93.750
1630094600.101,192.871,-36.621,-44.922,-53.711
1630094600.105,497.559,-33.203,-36.621,-68.359
1630094600.108,-250.000,-39.551,-44.434,-113.770
1630094600.112,-583.984,-14.160,-13.184,-69.336
1630094600.116,14.160,-8.301,-3.906,-34.668
1630094600.120,576.172,-32.227,-36.133,-47.852
1630094600.124,-17.090,-35.645,-43.457,-74.707
1630094600.126,-603.516,-34.668,-46.387,-89.355
1630094600.130,-228.516,-35.156,-52.734,-64.941
1630094600.134,527.344,-34.668,-43.945,-39.062
1630094600.138,204.590,-35.645,-44.434,-57.129
1630094600.142,-521.973,-36.621,-50.781,-70.312
1630094600.146,-408.203,-34.180,-51.758,-58.105
1630094600.150,376.953,-34.180,-53.711,-40.039
1630094600.153,437.988,-21.973,-35.645,-37.109
1630094600.157,-346.680,-25.391,-30.273,-53.223
1630094600.161,-555.664,-47.363,-52.734,-73.242
1630094600.165,176.758,-34.668,-47.363,-43.945
1630094600.169,560.547,-25.391,-33.691,-28.809
1630094600.172,-169.434,-33.203,-42.969,-61.523
1630094600.176,-595.215,-41.504,-58.594,-71.289
1630094600.180,-53.711,-39.062,-50.781,-45.410
1630094600.184,608.398,-24.414,-33.203,-10.742
1630094600.188,63.965,-34.180,-44.922,-55.664
1630094600.192,-575.684,-49.316,-54.199,-75.684
1630094600.196,-247.559,-40.039,-45.898,-41.992
1630094600.199,564.941,-18.066,-19.043,0.977
1630094600.203,296.875,-30.762,-27.832,-29.785
1630094600.207,-490.234,-49.316,-54.199,-54.688
1630094600.211,-446.777,-41.016,-52.246,-53.711
1630094600.215,343.750,-30.762,-43.945,-34.668
1630094600.216,463.379,-36.621,-42.480,-26.367
1630094600.220,-337.891,-47.852,-48.828,-57.617
1630094600.224,-568.359,-48.828,-46.387,-62.012
1630094600.228,120.605,-41.992,-43.945,-34.180
1630094600.232,563.965,-39.551,-43.457,-26.855
1630094600.236,-142.090,-53.711,-44.922,-66.895
1630094600.240,-584.961,-38.086,-32.227,-57.617
1630094600.243,-72.266,-21.973,-18.555,-19.531
1630094600.247,579.102,-39.551,-39.551,-16.602
1630094600.251,92.285,-49.316,-53.223,-55.664
1630094600.255,-576.660,-51.758,-54.688,-65.918
1630094600.259,-328.613,-45.898,-50.293,-48.828
1630094600.261,458.496,-40.039,-48.340,-22.949
1630094600.265,312.012,-37.109,-46.387,-40.527
1630094600.269,-446.777,-42.969,-43.945,-67.383
1630094600.273,-496.582,-41.992,-46.387,-53.711
1630094600.277,271.973,-38.086,-42.969,-21.484
1630094600.281,511.719,-31.738,-29.785,-13.184
1630094600.285,-246.582,-22.949,-23.926,-40.039
1630094600.288,-567.383,-34.180,-36.133,-53.223
1630094600.292,44.922,-44.922,-44.922,-28.320
1630094600.296,550.781,-23.438,-29.785,0.977
1630094600.300,-70.312,-8.301,-9.277,-11.719
1630094600.304,-605.957,-39.062,-30.762,-41.992
1630094600.321,-194.824,-43.945,-41.504,-44.434
1630094600.325,544.922,-29.297,-34.180,-15.137
1630094600.329,144.043,-31.250,-39.551,-29.297
1630094600.333,-575.195,-39.551,-46.387,-56.641
1630094600.337,-390.137,-36.133,-43.945,-36.621
1630094600.341,421.875,-30.762,-34.180,-3.906
1630094600.345,350.586,-35.645,-38.574,-28.809
1630094600.348,-452.637,-41.016,-44.434,-61.523
1630094600.352,-560.547,-49.316,-43.945,-45.410
1630094600.356,212.402,-36.621,-34.180,0.000
1630094600.360,517.090,-25.391,-28.809,-18.066
1630094600.364,-236.328,-40.527,-36.133,-54.688
1630094600.366,-601.562,-45.410,-38.086,-49.805
1630094600.370,-24.902,-47.852,-34.668,-31.250
1630094600.374,569.824,-43.945,-34.180,-12.207
1630094600.378,-35.645,-48.340,-34.180,-48.828
1630094600.382,-604.492,-53.711,-34.668,-64.453
1630094600.386,-208.008,-46.875,-38.086,-41.504
1630094600.390,534.668,-37.598,-35.156,-25.391
1630094600.393,182.129,-46.875,-39.062,-57.129
1630094600.397,-542.480,-56.152,-42.969,-57.617
1630094600.401,-385.742,-27.344,-22.461,-20.508
1630094600.405,382.324,-25.879,-23.926,-25.391
1630094600.409,375.977,-46.387,-36.621,-51.758
1630094600.411,-392.578,-47.852,-33.203,-66.895
1630094600.415,-562.988,-46.875,-32.715,-64.941
1630094600.419,135.742,-45.898,-32.227,-41.504
1630094600.423,508.301,-40.039,-35.156,-41.016
1630094600.427,-211.914,-47.852,-38.574,-73.242
1630094600.431,-623.047,-48.340,-34.668,-84.961
1630094600.435,-82.520,-40.039,-33.691,-66.895
1630094600.438,516.602,-47.363,-35.156,-64.453
1630094600.442,-22.461,-40.527,-11.230,-83.984
1630094600.446,-641.602,-45.898,-8.789,-107.910
1630094600.450,-364.746,-51.270,-26.367,-137.695
1630094600.454,395.508,-35.156,-20.996,-125.488
1630094600.456,140.137,-46.875,-15.625,-151.855
1630094600.460,-628.418,-61.523,-13.672,-195.312
1630094600.464,-616.211,-62.988,-20.508,-208.008
1630094600.468,127.930,-65.430,-4.395,-208.496
1630094600.472,222.168,-72.754,2.441,-235.840
1630094600.476,-583.008,-81.055,-7.812,-270.020
1630094600.480,-832.031,-82.520,-8.301,-297.852
1630094600.483,-154.785,-75.195,3.906,-296.387
1630094600.487,282.715,-73.242,15.137,-279.785
1630094600.491,-391.113,-92.285,10.742,-299.805
1630094600.495,-849.121,-102.539,5.859,-292.969
1630094600.499,-341.797,-90.332,9.277,-244.141
1630094600.501,359.375,-92.285,10.254,-218.262
1630094600.505,-89.844,-103.027,-3.418,-228.516
1630094600.509,-734.375,-105.957,-16.113,-232.422
1630094600.513,-469.238,-102.051,-16.602,-211.426
1630094600.517,341.309,-95.703,-20.020,-160.645
1630094600.521,208.008,-90.332,-17.578,-148.926
1630094600.525,-534.668,-86.914,-29.785,-155.273
1630094600.528,-527.832,-83.008,-16.113,-112.793
1630094600.532,260.742,-64.941,-10.254,-62.500
1630094600.536,443.848,-67.871,-40.039,-80.078
1630094600.540,-310.059,-77.637,-41.016,-100.098
1630094600.544,-569.824,-67.383,-34.668,-72.754
1630094600.546,82.520,-51.758,-39.551,-27.344
1630094600.550,574.707,-54.199,-48.828,-14.160
1630094600.554,-60.547,-66.895,-49.316,-40.039
1630094600.558,-554.199,-64.453,-56.641,-43.457
1630094600.562,-122.070,-56.152,-57.617,-12.695
1630094600.566,608.398,-54.688,-47.363,15.137
1630094600.570,210.449,-57.129,-49.805,-14.648
1630094600.573,-447.754,-36.621,-30.273,-2.441
1630094600.577,-262.207,-39.062,-28.320,1.953
1630094600.581,486.816,-61.523,-51.270,-5.371
1630094600.585,415.039,-45.410,-42.969,9.766
1630094600.589,-352.051,-46.875,-37.598,18.066
1630094600.591,-444.824,-70.801,-48.828,27.832
1630094600.595,293.945,-52.246,-57.129,40.039
1630094600.599,571.289,-31.738,-63.477,13.672
1630094600.603,-160.156,-34.180,-67.383,-12.695
1630094600.607,-515.137,-33.203,-74.219,2.930
1630094600.611,99.121,-19.531,-83.008,31.250
1630094600.615,718.750,11.719,-63.965,77.148
1630094600.618,122.559,16.113,-63.965,63.477
1630094600.622,-451.660,-3.418,-92.285,38.086
1630094600.626,-53.223,3.906,-98.145,73.730
1630094600.630,661.133,20.996,-94.727,110.352
1630094600.634,343.750,26.367,-89.355,97.168
1630094600.637,-315.430,22.461,-101.562,83.496
1630094600.641,-207.520,30.762,-103.027,116.211
1630094600.645,591.309,51.270,-79.102,162.109
1630094600.649,619.141,43.945,-74.707,145.508
1630094600.653,-179.688,21.973,-90.820,104.004
1630094600.657,-351.562,29.297,-83.496,101.562
1630094600.661,368.652,51.758,-57.129,140.137
1630094600.664,700.195,31.250,-69.824,121.094
1630094600.668,-64.941,8.789,-90.332,60.547
1630094600.672,-431.641,32.227,-67.383,68.848
1630094600.676,132.324,41.504,-48.340,105.469
1630094600.680,688.965,12.207,-65.430,95.215
1630094600.696,142.090,-2.441,-69.336,60.547
1630094600.700,-447.266,-0.488,-70.801,49.316
1630094600.704,-130.371,5.371,-67.383,54.199
1630094600.708,614.746,4.883,-59.570,78.613
1630094600.712,350.098,-5.371,-60.547,53.711
1630094600.716,-339.844,10.254,-41.016,49.316
1630094600.720,-273.438,21.973,-31.738,69.824
1630094600.723,426.758,-0.488,-61.035,60.547
1630094600.727,515.625,0.488,-56.641,44.922
1630094600.731,-221.680,-3.906,-50.781,26.367
1630094600.735,-442.871,-7.324,-66.406,21.973
1630094600.739,192.871,-0.977,-60.547,35.645
1630094600.741,618.164,-4.883,-47.852,54.688
1630094600.745,-39.062,-18.066,-49.316,29.297
1630094600.749,-492.676,-29.297,-55.664,4.883
1630094600.753,-22.949,-28.809,-55.176,15.625
1630094600.757,605.469,-17.090,-43.457,28.809
1630094600.761,158.691,-16.602,-39.551,4.395
1630094600.765,-441.895,-24.902,-46.387,-4.883
1630094600.768,-205.566,-24.414,-54.199,-0.977
1630094600.772,520.996,-11.230,-44.922,24.902
1630094600.776,399.902,15.137,-2.441,41.016
1630094600.780,-315.430,1.465,-14.160,-3.906
1630094600.784,-387.207,-24.414,-57.129,-25.879
1630094600.786,317.871,-17.578,-52.734,0.000
1630094600.790,517.578,-19.043,-45.898,-8.301
1630094600.794,-202.637,-27.344,-49.805,-36.133
1630094600.798,-484.863,-32.227,-57.617,-38.574
1630094600.802,113.770,-37.109,-56.152,-16.602
1630094600.806,570.312,-37.598,-52.246,-13.184
1630094600.810,-26.855,-40.527,-59.082,-31.738
1630094600.813,-504.883,-50.293,-70.801,-47.852
1630094600.817,-83.984,-23.438,-50.293,-15.625
1630094600.821,580.078,-12.207,-36.133,19.531
1630094600.825,173.340,-34.180,-49.316,-28.809
1630094600.829,-471.680,-40.527,-51.270,-54.199
1630094600.831,-291.504,-41.992,-52.246,-40.527
1630094600.835,435.547,-36.133,-52.734,-21.484
1630094600.839,357.422,-33.691,-42.969,-21.973
1630094600.843,-367.676,-37.109,-37.598,-48.828
1630094600.847,-472.168,-41.504,-48.828,-56.641
1630094600.851,239.258,-34.180,-46.387,-6.348
1630094600.855,504.883,-40.527,-45.898,-7.324
1630094600.858,-227.051,-53.223,-51.270,-53.223
1630094600.862,-517.578,-19.531,-18.066,-12.207
1630094600.866,34.668,-14.160,-28.320,3.418
1630094600.870,503.906,-38.086,-52.246,-21.484
1630094600.874,-42.969,-35.156,-41.992,-33.691
1630094600.876,-560.547,-43.457,-45.898,-44.922
1630094600.880,-220.703,-44.922,-51.270,-43.457
1630094600.884,478.027,-32.715,-52.734,-16.602
1630094600.888,175.293,-29.297,-41.992,-28.320
1630094600.892,-522.461,-36.621,-43.457,-62.012
1630094600.896,-417.480,-45.410,-54.199,-60.547
1630094600.900,334.961,-43.457,-56.152,-36.621
1630094600.903,375.000,-9.277,-21.484,-18.066
1630094600.907,-390.625,-10.742,-18.555,-46.387
1630094600.911,-597.656,-49.316,-48.340,-85.938
1630094600.915,136.230,-40.527,-49.805,-38.086
1630094600.919,481.934,-28.320,-42.480,-29.297
1630094600.921,-307.129,-41.504,-33.203,-137.695
1630094600.925,-739.258,-49.316,-44.922,-185.059
1630094600.929,-204.590,-38.086,-29.785,-166.992
1630094600.933,331.543,-44.922,-9.766,-209.473
1630094600.937,-266.602,-76.172,-23.926,-288.574
1630094600.941,-865.234,-79.102,-14.160,-322.266
1630094600.945,-577.148,-71.777,0.488,-331.543
1630094600.948,131.348,-66.895,26.367,-334.961
1630094600.952,-154.785,-89.844,39.062,-369.629
1630094600.956,-911.133,-121.094,21.973,-416.504
1630094600.960,-860.840,-116.699,17.090,-411.621
1630094600.964,-93.262,-118.164,33.691,-380.859
1630094600.966,16.113,-135.254,37.109,-392.090
1630094600.970,-709.473,-141.602,23.438,-378.418
1630094600.974,-929.688,-135.742,19.531,-375.488
1630094600.978,-241.211,-126.953,16.602,-339.844
1630094600.982,233.887,-120.605,16.113,-293.945
1630094600.986,-413.574,-121.094,2.441,-315.430
1630094600.990,-828.125,-114.258,-0.488,-290.039
1630094600.993,-309.082,-97.168,10.254,-234.375
1630094600.997,348.145,-98.633,-1.465,-208.496
1630094601.001,-107.910,-108.398,-15.137,-214.355
1630094601.005,-715.820,-103.027,-26.367,-212.891
1630094601.009,-453.125,-91.309,-35.645,-200.195
1630094601.011,343.750,-74.219,-32.227,-130.371
1630094601.015,224.121,-65.918,-31.250,-124.512
1630094601.019,-516.113,-74.707,-38.086,-158.691
1630094601.023,-541.992,-79.102,-43.457,-124.512
1630094601.027,223.145,-72.266,-41.504,-72.266
1630094601.031,458.008,-62.500,-35.156,-48.828
1630094601.035,-267.578,-61.523,-31.250,-50.293
1630094601.038,-524.414,-71.289,-47.852,-55.176
1630094601.042,95.215,-67.871,-55.664,-31.738
1630094601.046,543.945,-58.594,-47.363,-16.602
1630094601.050,-81.543,-59.570,-53.711,-37.598
1630094601.054,-574.219,-62.500,-61.523,-37.109
1630094601.071,-123.535,-64.453,-67.871,-6.348
1630094601.075,568.359,-54.199,-55.664,25.391
1630094601.079,156.738,-49.316,-42.969,-1.953
1630094601.083,-503.418,-57.617,-53.711,-18.066
1630094601.087,-309.082,-56.152,-58.105,0.488
1630094601.091,470.703,-44.434,-41.992,30.762
1630094601.095,383.301,-45.898,-39.551,20.996
1630094601.098,-391.602,-55.664,-53.711,-10.742
1630094601.102,-477.051,-55.176,-61.035,-9.277
1630094601.106,267.090,-42.480,-42.480,32.715
1630094601.110,552.246,-35.156,-35.645,44.434
1630094601.114,-187.988,-47.852,-51.758,17.578
1630094601.116,-539.062,-54.199,-58.594,6.836
1630094601.120,63.965,-42.480,-47.852,37.109
1630094601.124,604.004,-35.156,-42.969,51.758
1630094601.128,-10.254,-43.457,-52.734,12.207
1630094601.132,-532.715,-54.199,-54.688,5.371
1630094601.136,-134.277,-43.945,-51.758,30.273
1630094601.140,582.520,-30.762,-47.363,56.641
1630094601.143,231.934,-42.969,-50.781,28.320
1630094601.147,-454.102,-42.969,-48.340,12.207
1630094601.151,-284.668,-20.996,-28.809,42.969
1630094601.155,464.355,-26.855,-39.062,59.082
1630094601.159,441.406,-41.992,-53.711,26.367
1630094601.161,-315.430,-42.969,-48.340,4.883
1630094601.165,-421.875,-41.992,-52.246,21.973
1630094601.169,286.621,-31.738,-50.781,41.016
1630094601.173,564.941,-32.715,-44.922,27.832
1630094601.177,-116.211,-40.039,-40.039,4.883
1630094601.181,-485.352,-38.574,-46.387,-2.441
1630094601.185,44.922,-35.156,-53.223,15.625
1630094601.188,616.699,-34.668,-50.781,31.738
1630094601.192,74.707,-31.738,-43.457,8.789
1630094601.196,-499.023,-31.738,-45.410,-12.207
1630094601.200,-182.617,-37.109,-54.688,-6.836
1630094601.204,562.012,-30.762,-51.758,21.973
1630094601.206,296.875,-31.738,-53.711,0.488
1630094601.210,-415.039,-38.574,-54.688,-11.719
1630094601.214,-360.840,-40.039,-48.340,10.254
1630094601.218,394.531,-36.133,-46.387,16.113
1630094601.222,469.238,-45.410,-42.480,16.602
1630094601.226,-281.250,-49.805,-41.016,0.488
1630094601.230,-481.934,-43.457,-56.641,-15.137
1630094601.233,174.805,-39.062,-49.316,19.531
1630094601.237,600.586,-23.926,-19.531,49.316
1630094601.241,-98.145,-27.832,-21.973,18.066
1630094601.245,-551.758,-52.246,-50.781,-10.742
1630094601.249,-49.316,-52.246,-54.688,13.672
1630094601.251,589.844,-39.062,-41.992,25.391
1630094601.255,103.516,-41.016,-42.480,-10.742
1630094601.259,-517.090,-49.316,-48.340,-25.391
1630094601.263,-255.859,-47.852,-51.758,-13.672
1630094601.267,507.812,-41.992,-45.898,16.602
1630094601.271,328.125,-37.109,-36.621,5.859
1630094601.275,-410.156,-38.086,-42.480,-17.578
1630094601.278,-397.949,-36.621,-41.992,-6.836
1630094601.282,336.426,-33.203,-36.133,22.949
1630094601.286,491.211,-31.738,-38.086,17.578
1630094601.290,-253.418,-39.062,-36.621,-10.742
1630094601.294,-519.531,-42.480,-36.621,-18.066
1630094601.296,114.258,-36.621,-36.133,9.277
1630094601.300,583.008,-38.086,-28.809,23.438
1630094601.304,-69.824,-42.969,-31.250,-5.859
1630094601.308,-553.223,-40.527,-36.621,-10.254
1630094601.312,-107.422,-36.621,-38.086,0.000
1630094601.316,578.613,-32.715,-34.668,10.742
1630094601.320,170.898,-36.621,-20.996,-9.277
1630094601.323,-469.727,-41.992,-19.043,-16.602
1630094601.327,-291.016,-45.898,-29.785,-17.090
1630094601.331,444.824,-41.992,-30.273,8.301
1630094601.335,354.004,-44.922,-26.367,2.441
1630094601.339,-396.484,-57.617,-28.809,-39.551
1630094601.342,-463.379,-56.641,-39.062,-29.785
1630094601.346,238.770,-49.316,-44.922,-6.348
1630094601.350,479.980,-41.992,-31.250,-19.043
1630094601.354,-231.934,-46.387,-34.180,-45.898
1630094601.358,-568.359,-51.270,-46.875,-56.641
1630094601.362,23.926,-37.598,-37.598,-29.297
1630094601.366,577.148,-26.855,-30.762,-2.441
1630094601.369,-17.578,-42.480,-41.016,-24.902
1630094601.373,-559.082,-53.711,-52.734,-44.434
1630094601.377,-165.527,-38.574,-40.039,-28.809
1630094601.381,551.270,-35.645,-33.203,-3.418
1630094601.385,193.359,-46.875,-37.109,-30.762
1630094601.386,-495.117,-50.293,-44.922,-56.641
1630094601.390,-363.770,-54.199,-47.363,-46.875
1630094601.394,406.250,-47.363,-35.156,-3.418
1630094601.398,394.043,-44.922,-34.668,-23.438
1630094601.402,-361.816,-51.270,-42.480,-60.059
1630094601.406,-477.051,-42.969,-39.551,-50.781
1630094601.410,244.141,-23.438,-23.926,-7.812
1630094601.413,560.059,-33.203,-29.785,-0.488
1630094601.417,-146.973,-49.316,-38.574,-35.645
1630094601.421,-501.465,-44.434,-40.527,-44.434
1630094601.425,30.762,-41.016,-45.898,-26.855
1630094601.429,608.398,-33.691,-38.574,-5.859
1630094601.446,69.336,-38.086,-43.457,-47.363
1630094601.450,-511.719,-48.828,-53.223,-70.312
1630094601.454,-187.500,-48.828,-54.688,-47.363
1630094601.458,560.547,-41.016,-51.270,-18.066
1630094601.462,301.270,-32.715,-48.340,-27.344
1630094601.466,-412.109,-35.645,-51.270,-56.641
1630094601.470,-339.355,-41.992,-50.293,-56.152
1630094601.473,419.922,-32.715,-43.945,-22.461
1630094601.477,480.469,-31.250,-40.039,-31.250
1630094601.481,-276.855,-41.016,-37.598,-59.082
1630094601.485,-466.797,-47.363,-41.504,-59.570
1630094601.489,187.988,-48.340,-47.852,-45.898
1630094601.491,587.891,-43.457,-42.480,-37.109
1630094601.495,-79.590,-46.387,-39.551,-48.828
1630094601.499,-519.043,-47.852,-46.875,-62.988
1630094601.503,-24.414,-41.016,-45.410,-38.574
1630094601.507,604.492,-39.551,-37.598,-15.625
1630094601.511,111.328,-43.457,-32.227,-47.363
1630094601.515,-494.141,-46.875,-36.133,-43.945
1630094601.518,-238.281,-49.805,-45.410,-31.738
1630094601.522,481.934,-45.898,-37.109,-25.879
1630094601.526,271.484,-49.316,-41.016,-45.410
1630094601.530,-456.543,-53.223,-44.922,-60.059
1630094601.534,-451.660,-46.387,-42.480,-41.504
1630094601.536,297.363,-43.457,-43.945,-15.137
1630094601.540,416.992,-49.805,-31.250,-36.133
1630094601.544,-376.465,-56.641,-24.414,-89.844
1630094601.548,-639.160,-63.965,-35.156,-95.215
1630094601.552,-8.301,-62.500,-33.203,-60.547
1630094601.556,459.473,-55.176,-22.461,-39.062
1630094601.560,-192.871,-62.012,-30.273,-87.402
1630094601.563,-692.383,-66.895,-42.480,-110.840
1630094601.567,-249.023,-68.848,-48.828,-90.332
1630094601.571,438.477,-64.941,-44.434,-61.035
1630094601.575,28.809,-65.918,-35.645,-69.824
1630094601.579,-608.398,-68.848,-34.668,-79.590
1630094601.581,-378.418,-56.152,-38.086,-60.547
1630094601.585,378.418,-50.293,-43.945,-41.504
1630094601.589,261.719,-57.129,-41.504,-49.805
1630094601.593,-466.309,-52.246,-37.109,-63.477
1630094601.597,-521.484,-47.363,-42.480,-58.105
1630094601.601,220.703,-38.574,-36.133,-25.391
1630094601.605,468.262,-35.156,-31.250,-26.367
1630094601.608,-265.625,-49.805,-38.574,-62.500
1630094601.612,-616.211,-73.242,-61.035,-89.355
1630094601.616,-24.902,-69.336,-51.270,-66.895
1630094601.620,533.691,-45.410,-29.785,-30.762
1630094601.624,-62.500,-45.410,-36.133,-57.129
1630094601.626,-576.660,-45.410,-40.039,-56.152
1630094601.630,-187.012,-38.574,-35.645,-38.086
1630094601.634,522.461,-37.598,-27.832,-18.555
1630094601.638,176.270,-43.945,-27.832,-33.203
1630094601.642,-507.324,-42.480,-36.133,-45.898
1630094601.646,-365.234,-37.598,-30.762,-31.250
1630094601.650,391.602,-34.180,-27.344,-10.742
1630094601.653,360.352,-41.504,-41.504,-24.414
1630094601.657,-412.598,-42.969,-46.875,-58.594
1630094601.661,-531.250,-30.273,-41.504,-55.176
1630094601.665,188.965,-26.855,-37.598,-7.812
1630094601.669,498.047,-33.691,-40.039,-1.465
1630094601.671,-221.191,-40.039,-38.086,-42.969
1630094601.675,-579.102,-39.062,-30.273,-44.922
1630094601.679,-16.113,-36.133,-34.668,-23.438
1630094601.683,561.035,-31.738,-32.715,-2.441
1630094601.687,-0.488,-43.457,-23.438,-34.668
1630094601.691,-556.641,-48.828,-28.809,-51.758
1630094601.695,-214.844,-38.086,-39.062,-32.715
1630094601.698,500.000,-41.504,-43.945,-10.742
1630094601.702,211.914,-51.270,-48.828,-40.527
1630094601.706,-498.047,-43.457,-49.316,-70.801
1630094601.710,-410.156,-34.180,-45.410,-49.316
1630094601.714,354.492,-31.738,-36.621,-16.113
1630094601.716,421.387,-34.180,-34.668,-26.367
1630094601.720,-333.496,-44.922,-38.086,-55.664
1630094601.724,-519.043,-49.316,-42.480,-47.852
1630094601.728,154.785,-32.227,-38.574,-16.602
1630094601.732,535.156,-28.320,-31.738,-20.996
1630094601.736,-132.812,-43.945,-31.738,-46.875
1630094601.740,-558.594,-58.105,-54.199,-63.477
1630094601.743,-60.547,-49.316,-58.594,-45.410
1630094601.747,579.102,-34.180,-43.945,-13.184
1630094601.751,83.984,-38.086,-43.457,-43.945
1630094601.755,-526.855,-44.434,-46.387,-65.918
1630094601.759,-242.676,-40.527,-43.457,-23.438
1630094601.761,517.090,-31.250,-38.086,10.742
1630094601.765,302.734,-41.504,-42.480,-35.156
1630094601.769,-428.711,-54.688,-44.922,-63.477
1630094601.773,-404.297,-41.992,-45.898,-51.270
1630094601.777,336.914,-33.203,-44.922,-28.320
1630094601.781,477.539,-34.668,-40.039,-26.367
1630094601.785,-273.926,-45.410,-48.828,-52.246
1630094601.788,-526.855,-47.852,-48.340,-61.035
1630094601.792,118.164,-34.180,-36.133,-34.668
1630094601.796,552.734,-30.762,-37.109,-26.855
1630094601.800,-110.352,-36.133,-42.480,-52.734
1630094601.804,-571.289,-41.504,-41.992,-62.500
1630094601.822,-124.512,-35.156,-41.992,-47.852
1630094601.826,521.484,-37.109,-46.875,-27.344
1630094601.830,81.055,-50.293,-41.992,-41.504
1630094601.834,-541.992,-35.156,-37.109,-53.711
