timestamps,TP9,AF7,AF8,TP10
1630096938.336,175.293,-56.152,150.391,160.156
1630096938.340,-1000.000,-56.152,-1000.000,-1000.000
1630096938.344,-205.566,-37.598,-44.434,-75.195
1630096938.348,-782.227,-36.133,-761.719,-753.906
1630096938.352,440.918,-50.781,370.117,334.473
1630096938.356,-1000.000,-52.246,-1000.000,-1000.000
1630096938.360,-295.410,-21.973,-297.363,-284.668
1630096938.363,-896.973,-10.254,-877.930,-865.234
1630096938.367,919.922,-33.203,844.727,804.688
1630096938.371,-649.414,-49.316,-748.047,-819.824
1630096938.375,-718.262,-36.621,-584.961,-597.656
1630096938.379,858.887,-24.414,917.969,931.641
1630096938.381,-838.867,-23.926,-854.004,-864.258
1630096938.385,28.809,-28.320,-57.617,-84.473
1630096938.389,-1000.000,-40.039,-1000.000,-1000.000
1630096938.393,94.727,-33.691,355.469,276.367
1630096938.397,-744.629,-16.602,-760.254,-752.441
1630096938.401,188.477,-32.227,179.199,181.152
1630096938.405,-1000.000,-57.617,-1000.000,-1000.000
1630096938.408,-278.809,-30.762,-191.895,-249.512
1630096938.412,-815.430,-23.438,-791.992,-795.410
1630096938.416,559.570,-26.855,504.395,452.148
1630096938.420,-1000.000,-39.551,-1000.000,-1000.000
1630096938.424,-375.000,-40.039,-333.496,-309.570
1630096938.426,-944.824,-32.715,-913.086,-898.438
1630096938.430,-982.910,-36.621,953.613,914.062
1630096938.434,-461.426,-40.527,-568.848,-653.809
1630096938.438,-870.117,-40.527,-713.867,-712.402
1630096938.442,689.453,-30.762,811.035,845.215
1630096938.446,-798.828,-27.832,-820.312,-831.055
1630096938.450,136.230,-39.551,46.387,27.832
1630096938.453,-1000.000,-63.477,-1000.000,-1000.000
1630096938.457,25.391,-44.434,249.023,186.523
1630096938.461,-741.211,-26.367,-750.488,-744.629
1630096938.465,190.430,-48.340,206.543,184.082
1630096938.469,-1000.000,-55.176,-1000.000,-1000.000
1630096938.471,-274.414,-36.133,-230.469,-270.508
1630096938.475,-839.355,-26.855,-816.406,-811.523
1630096938.479,674.316,-45.898,615.234,559.082
1630096938.483,-983.887,-60.547,-1000.000,-1000.000
1630096938.487,-459.961,-35.156,-380.859,-339.355
1630096938.491,999.023,-20.508,-960.449,-945.312
1630096938.495,-895.508,-35.156,-942.871,-955.078
1630096938.498,-238.281,-50.781,-353.516,-393.066
1630096938.502,-989.746,-38.086,-819.824,-843.750
1630096938.506,523.438,-21.484,704.102,712.402
1630096938.510,-777.344,-32.715,-805.176,-804.688
1630096938.514,171.875,-45.898,135.742,149.414
1630096938.516,-1000.000,-49.805,-1000.000,-1000.000
1630096938.520,-162.109,-33.691,-10.742,-36.621
1630096938.524,-768.066,-27.344,-755.859,-748.535
1630096938.528,352.051,-40.039,296.387,252.930
1630096938.532,-1000.000,-46.387,-1000.000,-1000.000
1630096938.536,-282.715,-29.785,-261.719,-279.297
1630096938.540,-873.047,-23.438,-852.051,-843.750
1630096938.543,828.613,-27.344,758.789,702.148
1630096938.547,-787.598,-39.551,-856.445,-945.801
1630096938.551,-657.227,-36.621,-506.836,-520.508
1630096938.555,894.531,-24.414,967.285,963.379
1630096938.559,-838.867,-32.715,-867.676,-867.676
1630096938.562,-83.008,-48.828,-175.293,-196.289
1630096938.566,-1000.000,-48.828,-880.371,-938.965
1630096938.570,380.371,-20.508,606.445,568.359
1630096938.574,-755.371,-25.391,-778.809,-776.367
1630096938.578,173.340,-49.316,154.785,165.527
1630096938.582,-1000.000,-42.969,-1000.000,-1000.000
1630096938.586,-200.195,-24.902,-5.371,-89.355
1630096938.589,-783.691,-26.367,-758.789,-755.371
1630096938.593,453.613,-37.598,407.227,334.961
1630096938.597,-1000.000,-44.434,-1000.000,-1000.000
1630096938.601,-331.543,-20.020,-307.617,-284.668
1630096938.605,-908.691,-4.395,-884.766,-863.770
1630096938.606,929.199,-32.715,872.070,799.805
1630096938.610,-648.438,-50.293,-708.496,-827.637
1630096938.614,-706.055,-32.227,-577.637,-583.984
1630096938.618,863.770,-24.414,919.434,932.129
1630096938.622,-836.914,-33.203,-847.656,-858.887
1630096938.626,67.383,-41.992,-0.977,-44.434
1630096938.630,-1000.000,-32.227,-1000.000,-1000.000
1630096938.633,85.938,-8.789,333.984,280.273
1630096938.637,-741.699,-28.809,-752.930,-747.559
1630096938.641,187.988,-53.223,175.293,176.758
1630096938.645,-1000.000,-46.875,-1000.000,-1000.000
1630096938.649,-278.809,-16.602,-166.016,-215.332
1630096938.651,-822.266,-17.578,-794.922,-793.945
1630096938.655,592.773,-40.527,546.387,517.578
1630096938.659,-1000.000,-57.129,-1000.000,-1000.000
1630096938.663,-440.918,-48.828,-351.074,-326.660
1630096938.667,-998.535,-45.898,-949.219,-939.453
1630096938.671,-900.391,-55.176,-953.613,-961.914
1630096938.675,-304.199,-66.406,-407.715,-448.242
1630096938.678,-911.621,-77.637,-713.379,-730.957
1630096938.682,635.742,-69.336,816.406,836.426
1630096938.686,-790.039,-72.754,-819.824,-824.707
1630096938.690,165.527,-83.496,87.402,98.145
1630096938.694,-1000.000,-101.074,-1000.000,-1000.000
1630096938.711,-75.195,-95.215,151.855,86.914
1630096938.715,-752.441,-90.332,-747.070,-741.699
1630096938.719,258.301,-116.699,255.859,200.684
1630096938.723,-1000.000,-133.789,-1000.000,-1000.000
1630096938.727,-282.715,-101.562,-234.863,-280.273
1630096938.731,-836.426,-81.543,-824.707,-816.406
1630096938.735,666.504,-113.281,669.434,554.199
1630096938.738,-987.793,-136.230,-953.125,-1000.000
1630096938.742,-559.082,-111.816,-412.598,-444.336
1630096938.746,951.172,-88.379,-983.887,-981.445
1630096938.750,-885.742,-98.633,-900.879,-962.891
1630096938.754,-216.797,-125.488,-263.672,-393.555
1630096938.756,-1000.000,-117.676,-827.637,-984.863
1630096938.760,388.672,-81.055,687.988,539.062
1630096938.764,-762.207,-83.984,-792.480,-786.133
1630096938.768,172.363,-105.469,123.535,95.215
1630096938.772,-1000.000,-100.586,-1000.000,-1000.000
1630096938.776,-162.598,-82.031,74.707,-67.871
1630096938.780,-767.578,-80.566,-748.535,-759.277
1630096938.783,328.613,-92.773,322.754,228.516
1630096938.787,-1000.000,-96.680,-1000.000,-1000.000
1630096938.791,-285.645,-77.148,-256.348,-278.320
1630096938.795,-854.492,-71.777,-844.727,-829.590
1630096938.799,752.441,-82.031,753.906,614.746
1630096938.802,-885.254,-90.820,-859.375,-1000.000
1630096938.806,-642.090,-66.895,-473.145,-541.016
1630096938.810,901.367,-42.969,983.887,958.496
1630096938.814,-857.910,-52.246,-874.512,-901.367
1630096938.818,-94.727,-67.383,-160.645,-264.648
1630096938.822,-1000.000,-65.430,-898.438,-1000.000
1630096938.826,255.371,-46.875,580.078,431.641
1630096938.829,-752.930,-48.340,-783.203,-772.461
1630096938.833,183.105,-61.035,163.574,166.992
1630096938.837,-1000.000,-63.477,-1000.000,-1000.000
1630096938.841,-278.320,-49.805,-107.910,-203.613
1630096938.845,-802.734,-41.016,-770.020,-780.762
1630096938.846,449.707,-49.316,400.879,332.031
1630096938.850,-1000.000,-65.430,-1000.000,-1000.000
1630096938.854,-309.082,-50.293,-293.457,-277.832
1630096938.858,-915.039,-38.574,-900.391,-872.070
1630096938.862,953.613,-45.898,921.875,815.430
1630096938.866,-574.219,-58.594,-628.418,-789.551
1630096938.870,-816.406,-62.012,-625.000,-691.895
1630096938.873,751.953,-37.598,890.625,859.375
1630096938.877,-816.895,-22.461,-844.727,-848.633
1630096938.881,102.539,-43.457,30.762,-29.297
1630096938.885,-1000.000,-56.152,-1000.000,-1000.000
1630096938.889,3.418,-29.785,220.703,140.137
1630096938.891,-748.047,-24.414,-748.535,-747.070
1630096938.895,194.336,-47.852,192.383,186.523
1630096938.899,-1000.000,-68.359,-1000.000,-1000.000
1630096938.903,-277.832,-35.645,-197.754,-256.836
1630096938.907,-820.312,-10.254,-801.758,-801.758
1630096938.911,600.586,-31.250,572.754,509.766
1630096938.915,-1000.000,-57.617,-1000.000,-1000.000
1630096938.918,-372.559,-30.762,-333.496,-314.453
1630096938.922,-953.125,-7.324,-921.875,-906.738
1630096938.926,-950.684,-28.809,995.117,948.242
1630096938.930,-356.934,-35.645,-470.703,-563.965
1630096938.934,-967.773,-30.762,-782.715,-826.172
1630096938.936,567.871,-14.160,745.117,733.398
1630096938.940,-781.738,-11.719,-813.477,-812.988
1630096938.944,156.250,-30.273,77.148,66.895
1630096938.948,-1000.000,-39.062,-1000.000,-1000.000
1630096938.952,-52.734,-19.531,117.188,63.965
1630096938.956,-748.535,-5.859,-748.047,-744.629
1630096938.960,265.625,-25.391,250.000,200.684
1630096938.963,-1000.000,-36.133,-1000.000,-1000.000
1630096938.967,-275.391,-12.207,-237.305,-272.461
1630096938.971,-868.652,-6.348,-843.262,-836.914
1630096938.975,796.875,-26.367,735.840,661.621
1630096938.979,-833.984,-41.504,-880.859,-986.328
1630096938.982,-613.770,-35.645,-483.887,-496.582
1630096938.986,937.988,-17.578,999.512,998.535
1630096938.990,-874.512,-22.461,-914.062,-929.199
1630096938.994,-202.637,-37.598,-290.039,-346.680
1630096938.998,-1000.000,-35.156,-914.062,-962.891
1630096939.002,381.836,-18.555,585.938,558.105
1630096939.006,-760.254,-22.461,-783.691,-781.250
1630096939.009,171.875,-42.969,132.812,138.672
1630096939.013,-1000.000,-51.270,-1000.000,-1000.000
1630096939.017,-163.574,-35.645,-7.324,-45.898
1630096939.021,-769.043,-26.855,-756.836,-750.977
1630096939.025,379.395,-46.387,333.984,276.367
1630096939.027,-1000.000,-71.777,-1000.000,-1000.000
1630096939.031,-289.062,-57.129,-272.461,-284.668
1630096939.035,-866.699,-24.902,-851.562,-834.961
1630096939.039,817.383,-28.809,769.043,675.781
1630096939.043,-807.129,-52.734,-846.191,-975.098
1630096939.047,-597.168,-37.109,-471.680,-487.305
1630096939.051,933.594,-19.531,984.863,980.469
1630096939.054,-867.676,-24.902,-880.371,-892.090
1630096939.058,-29.785,-31.250,-105.469,-162.598
1630096939.062,-1000.000,-20.020,-1000.000,-1000.000
1630096939.066,157.715,-1.953,400.879,353.027
1630096939.070,-746.094,-9.277,-765.137,-760.742
1630096939.087,185.547,-21.973,171.875,178.223
1630096939.091,-1000.000,-22.461,-1000.000,-1000.000
1630096939.095,-278.809,-0.488,-167.969,-217.285
1630096939.099,-809.570,15.137,-783.203,-785.645
1630096939.103,506.348,11.230,453.613,406.738
1630096939.107,-1000.000,8.301,-1000.000,-1000.000
1630096939.111,-367.676,29.297,-318.359,-304.688
1630096939.114,-937.500,39.551,-911.133,-889.160
1630096939.118,983.887,38.086,945.312,869.629
1630096939.122,-511.719,28.320,-586.914,-707.520
1630096939.126,-893.555,42.969,-685.547,-747.559
1630096939.130,664.062,78.613,841.309,818.359
1630096939.146,-800.293,77.148,-829.102,-836.426
1630096939.150,94.238,65.430,28.809,-30.762
1630096939.154,-1000.000,72.266,-1000.000,-1000.000
1630096939.158,11.719,87.891,248.047,142.578
1630096939.162,-747.559,95.703,-748.535,-747.559
1630096939.166,193.848,83.984,209.961,187.012
1630096939.170,-1000.000,67.383,-1000.000,-1000.000
1630096939.173,-277.832,99.609,-203.125,-269.043
1630096939.177,-823.242,119.141,-802.734,-805.664
1630096939.181,592.773,102.539,572.754,479.004
1630096939.185,-1000.000,92.773,-1000.000,-1000.000
1630096939.189,-472.656,106.445,-373.535,-379.883
1630096939.176,989.258,116.211,-958.008,-954.590
1630096939.180,-902.344,110.840,-951.660,-993.652
1630096939.184,-283.691,94.727,-382.324,-485.840
1630096939.188,-991.699,103.027,-804.688,-863.770
1630096939.192,527.344,115.234,727.051,694.336
1630096939.196,-779.785,101.074,-808.105,-808.594
1630096939.200,174.316,88.867,120.117,104.980
1630096939.203,-1000.000,83.984,-1000.000,-1000.000
1630096939.207,-140.137,96.191,44.922,-21.484
1630096939.211,-822.754,93.262,-809.082,-810.547
1630096939.215,209.473,78.613,187.012,139.160
1630096939.219,-1000.000,67.871,-1000.000,-1000.000
1630096939.221,-282.227,85.938,-257.812,-278.809
1630096939.225,-852.051,92.285,-836.426,-828.613
1630096939.229,733.398,71.289,691.406,619.629
1630096939.233,-915.039,49.805,-933.594,-1000.000
1630096939.237,-570.312,57.617,-447.754,-436.523
1630096939.241,953.613,74.707,-988.770,-977.051
1630096939.245,-883.789,58.594,-919.922,-944.336
1630096939.248,-202.637,39.551,-286.621,-354.492
1630096939.252,-1000.000,41.016,-921.875,-965.820
1630096939.256,370.605,52.734,577.637,556.152
1630096939.260,-763.672,46.875,-787.598,-784.180
1630096939.264,178.223,13.672,151.367,152.832
1630096939.267,-1000.000,6.348,-1000.000,-1000.000
1630096939.271,-230.469,34.180,-84.473,-99.609
1630096939.275,-785.645,30.273,-763.184,-758.301
1630096939.279,372.070,2.441,321.777,260.742
1630096939.283,-1000.000,-7.812,-1000.000,-1000.000
1630096939.287,-282.227,13.184,-277.832,-278.320
1630096939.291,-875.977,10.254,-858.887,-847.656
1630096939.294,836.914,0.488,771.973,711.914
1630096939.298,-767.578,-3.418,-835.449,-932.617
1630096939.302,-707.520,6.348,-596.680,-571.777
1630096939.306,860.840,23.926,908.203,941.406
1630096939.310,-847.168,6.348,-861.328,-876.953
1630096939.311,-25.879,-21.973,-109.375,-148.438
1630096939.315,-1000.000,-25.879,-1000.000,-1000.000
1630096939.319,118.164,1.953,335.938,307.617
1630096939.323,-747.070,-2.441,-758.301,-754.395
1630096939.327,187.988,-27.832,172.852,175.781
1630096939.331,-1000.000,-23.926,-1000.000,-1000.000
1630096939.335,-279.297,-0.488,-150.391,-192.871
1630096939.338,-812.500,5.859,-781.250,-781.250
1630096939.342,532.227,-28.320,463.379,423.340
1630096939.346,-1000.000,-51.270,-1000.000,-1000.000
1630096939.350,-383.301,-29.297,-341.797,-314.941
1630096939.354,-934.082,-9.766,-911.621,-890.137
1630096939.359,969.727,-27.344,921.875,872.559
1630096939.363,-517.578,-40.039,-603.516,-699.707
1630096939.367,-940.430,-20.020,-790.527,-772.461
1630096939.371,596.680,-12.207,739.258,789.062
1630096939.375,-789.062,-24.414,-813.477,-824.707
1630096939.379,120.605,-29.785,32.227,-8.301
1630096939.383,-1000.000,-20.508,-1000.000,-1000.000
1630096939.386,6.836,-7.324,187.988,168.457
1630096939.390,-745.605,-23.438,-750.488,-746.094
1630096939.394,193.359,-49.316,190.430,185.059
1630096939.398,-1000.000,-57.617,-1000.000,-1000.000
1630096939.402,-277.832,-43.457,-233.398,-266.113
1630096939.401,-826.172,-31.738,-811.035,-808.105
1630096939.405,601.074,-47.852,560.059,515.625
1630096939.409,-1000.000,-72.266,-1000.000,-1000.000
1630096939.413,-512.695,-50.293,-414.551,-393.066
1630096939.417,968.750,-18.555,-979.492,-960.449
1630096939.421,-897.949,-23.926,-948.242,-979.492
1630096939.425,-239.258,-48.828,-352.051,-436.523
1630096939.428,-1000.000,-40.039,-913.574,-928.711
1630096939.432,400.879,-12.695,594.238,612.305
1630096939.436,-764.648,-21.973,-791.016,-792.969
1630096939.440,172.852,-51.270,120.117,117.676
1630096939.444,-1000.000,-67.383,-1000.000,-1000.000
1630096939.461,-167.480,-53.711,-27.832,-38.574
1630096939.465,-769.531,-45.898,-758.301,-752.930
1630096939.469,285.645,-79.590,264.160,213.379
1630096939.473,-1000.000,-98.145,-1000.000,-1000.000
1630096939.477,-277.832,-58.594,-270.996,-276.367
1630096939.481,-856.934,-42.480,-843.262,-832.520
1630096939.485,750.977,-68.359,701.660,637.207
1630096939.488,-891.113,-79.102,-927.246,-1000.000
1630096939.492,-623.047,-57.617,-502.441,-498.535
1630096939.496,911.621,-35.645,969.727,978.027
1630096939.500,-852.051,-36.621,-879.883,-891.113
1630096939.504,-131.348,-53.711,-217.773,-285.645
1630096939.506,-1000.000,-59.570,-909.668,-929.199
1630096939.510,400.879,-34.668,591.309,609.863
1630096939.514,-765.137,-29.297,-784.180,-786.133
1630096939.518,177.734,-58.594,154.297,157.715
1630096939.522,-1000.000,-75.195,-1000.000,-1000.000
1630096939.526,-226.074,-47.852,-81.543,-95.703
1630096939.530,-786.133,-35.645,-764.648,-756.836
1630096939.533,401.367,-53.223,353.027,292.969
1630096939.537,-1000.000,-58.594,-1000.000,-1000.000
1630096939.541,-297.852,-30.762,-301.270,-279.785
1630096939.545,-888.672,-23.438,-874.512,-859.375
1630096939.549,873.047,-41.016,814.941,765.625
1630096939.551,-704.590,-54.199,-782.715,-866.699
1630096939.555,-772.949,-48.828,-630.371,-620.117
1630096939.559,796.875,-28.809,884.277,919.434
1630096939.563,-829.102,-19.043,-847.656,-864.258
1630096939.567,-4.883,-37.109,-87.402,-142.578
1630096939.571,-1000.000,-46.875,-1000.000,-1000.000
1630096939.575,126.953,-28.320,368.164,328.125
1630096939.578,-744.141,-38.086,-762.695,-758.789
1630096939.582,186.523,-52.246,177.734,180.176
1630096939.586,-1000.000,-53.711,-1000.000,-1000.000
1630096939.590,-279.297,-50.781,-206.055,-241.699
1630096939.594,-815.430,-36.621,-792.480,-793.945
1630096939.596,541.992,-43.457,484.863,442.383
1630096939.600,-1000.000,-53.223,-1000.000,-1000.000
1630096939.604,-428.711,-20.508,-351.562,-329.102
1630096939.608,-976.074,-5.371,-932.129,-908.203
1630096939.612,-959.473,-25.879,978.516,919.434
1630096939.616,-416.992,-47.363,-527.832,-641.113
1630096939.620,-931.641,-36.133,-757.812,-766.113
1630096939.623,613.770,-24.902,778.809,803.711
1630096939.627,-791.504,-36.133,-821.777,-831.055
1630096939.631,134.766,-51.270,63.477,16.602
1630096939.635,-1000.000,-57.617,-1000.000,-1000.000
1630096939.639,-47.852,-31.250,112.305,82.520
1630096939.641,-751.465,-30.273,-749.023,-748.047
1630096939.645,210.938,-52.734,218.262,190.430
1630096939.649,-1000.000,-63.965,-1000.000,-1000.000
1630096939.653,-274.414,-34.668,-238.770,-271.484
1630096939.657,-843.262,-19.531,-823.242,-813.965
1630096939.661,687.012,-30.273,641.113,559.570
1630096939.665,-969.238,-47.852,-985.352,-1000.000
1630096939.668,-524.414,-37.598,-420.410,-392.090
1630096939.672,971.680,-21.973,-976.562,-963.867
1630096939.676,-887.207,-33.691,-932.129,-950.684
1630096939.680,-239.746,-47.363,-340.332,-407.715
1630096939.684,-1000.000,-59.082,-847.168,-852.051
1630096939.686,492.188,-40.527,678.223,706.055
1630096939.690,-772.949,-27.344,-801.758,-803.223
1630096939.694,170.898,-37.109,125.000,131.348
1630096939.698,-1000.000,-47.363,-1000.000,-1000.000
1630096939.702,-150.391,-30.762,-28.809,-20.508
1630096939.706,-758.301,-18.066,-741.699,-732.910
1630096939.710,270.996,-45.898,225.586,182.617
1630096939.713,-1000.000,-54.199,-1000.000,-1000.000
1630096939.717,-192.383,-21.973,-93.262,-96.680
1630096939.721,-866.699,-27.344,-859.863,-854.004
1630096939.725,740.234,-25.879,679.199,645.996
1630096939.729,-890.137,-13.184,-938.965,-992.676
1630096939.732,-707.520,-27.344,-596.680,-573.730
1630096939.736,860.840,-26.855,924.805,944.336
1630096939.740,-854.492,-14.648,-888.672,-895.020
1630096939.744,-112.793,-14.160,-222.168,-251.953
1630096939.748,-1000.000,-22.461,-1000.000,-1000.000
1630096939.752,184.570,-22.461,368.652,389.160
1630096939.756,-750.488,-14.648,-769.531,-768.066
1630096939.759,185.059,-7.324,162.109,168.457
1630096939.763,-1000.000,-11.230,-1000.000,-1000.000
1630096939.767,-277.832,-5.371,-182.617,-205.566
1630096939.771,-802.734,-10.254,-782.715,-781.250
1630096939.775,437.988,-27.344,364.746,328.125
1630096939.776,-1000.000,-32.227,-1000.000,-1000.000
1630096939.780,-339.844,-8.301,-325.195,-280.762
1630096939.784,-905.273,3.906,-882.324,-859.863
1630096939.788,894.531,-16.113,809.570,771.973
1630096939.792,-682.617,-40.039,-791.992,-856.445
1630096939.796,-780.762,-22.461,-665.039,-637.695
1630096939.800,794.434,2.441,866.699,916.016
1630096939.803,-838.379,-13.184,-864.258,-877.930
1630096939.807,12.207,-27.344,-78.125,-109.863
1630096939.811,-1000.000,-32.227,-1000.000,-1000.000
1630096939.815,-19.531,-22.461,125.000,117.188
1630096939.819,-759.766,-17.578,-761.719,-755.859
1630096939.836,200.195,-44.922,191.406,190.918
1630096939.840,-1000.000,-51.270,-1000.000,-1000.000
1630096939.844,-277.344,-15.137,-235.352,-263.672
1630096939.848,-815.918,-7.812,-799.316,-801.758
1630096939.852,517.578,-30.273,442.871,426.758
1630096939.856,-1000.000,-51.270,-1000.000,-1000.000
1630096939.860,-504.883,-35.645,-423.828,-397.461
1630096939.863,987.305,-9.277,-956.543,-937.988
1630096939.867,-954.590,-23.438,942.871,926.270
1630096939.871,-420.898,-41.504,-580.566,-629.395
1630096939.875,-978.027,-31.250,-863.770,-842.285
1630096939.879,548.340,-29.785,659.668,716.309
1630096939.881,-788.086,-29.785,-816.895,-821.289
1630096939.885,146.484,-35.645,46.875,23.926
1630096939.889,-1000.000,-51.270,-1000.000,-1000.000
1630096939.893,-139.160,-31.738,-28.809,-2.930
1630096939.897,-767.090,-31.738,-765.625,-756.836
1630096939.901,247.559,-45.898,230.469,198.730
1630096939.905,-1000.000,-29.785,-1000.000,-1000.000
1630096939.908,-277.832,-23.438,-273.438,-277.344
1630096939.912,-840.332,-24.902,-823.730,-816.406
1630096939.916,677.734,-22.461,587.402,551.270
1630096939.920,-976.074,-45.410,-1000.000,-1000.000
1630096939.924,-556.641,-34.668,-469.238,-432.617
1630096939.926,965.332,-11.719,-985.352,-965.332
1630096939.930,-911.133,-30.762,-987.793,-995.117
1630096939.934,-225.098,-50.781,-388.184,-418.457
1630096939.938,-1000.000,-44.922,-1000.000,-1000.000
1630096939.942,219.727,-17.090,393.066,433.594
1630096939.946,-756.348,-28.320,-777.344,-772.461
1630096939.950,181.641,-51.758,140.625,149.902
1630096939.953,-1000.000,-46.875,-1000.000,-1000.000
1630096939.957,-230.957,-32.715,-122.070,-89.355
1630096939.961,-785.645,-21.973,-770.508,-756.836
1630096939.965,347.656,-39.551,289.062,247.559
1630096939.969,-1000.000,-56.641,-1000.000,-1000.000
1630096939.971,-290.039,-38.574,-299.316,-276.855
1630096939.975,-880.371,-19.043,-862.305,-846.680
1630096939.979,835.449,-35.156,743.652,703.613
1630096939.983,-776.855,-48.828,-876.953,-941.895
1630096939.987,-695.801,-40.527,-607.910,-574.219
1630096939.991,880.371,-27.832,912.109,947.754
1630096939.995,-852.539,-24.414,-879.395,-883.301
1630096939.998,-98.633,-54.199,-210.938,-238.770
1630096940.002,-1000.000,-51.270,-1000.000,-1000.000
1630096940.006,216.309,-18.555,415.527,451.172
1630096940.010,-750.488,-22.461,-772.461,-770.020
1630096940.014,184.082,-40.527,168.457,172.852
1630096940.017,-1000.000,-41.016,-1000.000,-1000.000
1630096940.021,-278.320,-18.555,-158.691,-166.992
1630096940.025,-804.199,-30.762,-777.344,-771.484
1630096940.029,458.496,-60.547,380.371,348.145
1630096940.033,-1000.000,-67.871,-1000.000,-1000.000
1630096940.037,-335.449,-40.039,-316.406,-284.180
1630096940.041,-906.250,-19.043,-881.348,-864.258
1630096940.044,902.832,-43.945,819.336,791.504
1630096940.048,-626.953,-59.082,-753.906,-817.383
1630096940.052,-893.555,-34.668,-749.512,-703.613
1630096940.056,656.250,-26.367,775.391,844.238
1630096940.060,-805.664,-38.086,-830.566,-843.750
1630096940.061,47.363,-50.293,-29.785,-48.340
1630096940.065,-1000.000,-53.711,-1000.000,-1000.000
1630096940.069,20.996,-38.086,202.148,185.059
1630096940.073,-750.488,-46.875,-751.953,-746.582
1630096940.077,194.336,-61.035,180.176,181.641
1630096940.081,-1000.000,-60.547,-1000.000,-1000.000
1630096940.085,-277.832,-43.945,-182.617,-223.633
1630096940.088,-822.266,-33.691,-796.387,-793.457
1630096940.092,578.613,-39.062,519.531,463.867
1630096940.096,-1000.000,-46.387,-1000.000,-1000.000
1630096940.100,-485.840,-36.133,-407.715,-373.047
1630096940.104,995.605,-22.461,-953.613,-935.059
1630096940.106,-931.152,-36.133,989.258,961.426
1630096940.110,-371.582,-55.176,-505.859,-575.684
1630096940.114,-962.891,-37.598,-822.754,-806.641
1630096940.118,570.312,-6.836,708.496,754.883
1630096940.122,-785.645,-28.809,-808.105,-817.871
1630096940.126,167.969,-50.293,81.055,77.148
1630096940.130,-1000.000,-29.785,-1000.000,-1000.000
1630096940.133,-107.910,-16.113,79.102,37.109
1630096940.137,-758.789,-22.949,-751.953,-747.070
1630096940.141,233.887,-38.574,226.562,192.871
1630096940.145,-1000.000,-54.199,-1000.000,-1000.000
1630096940.149,-275.879,-37.598,-250.488,-277.832
1630096940.159,-845.215,-38.086,-825.684,-818.359
1630096940.163,695.312,-47.852,636.230,571.289
1630096940.167,-958.984,-47.363,-992.188,-1000.000
1630096940.171,-554.688,-39.551,-441.895,-414.062
1630096940.175,953.125,-41.504,-999.512,-983.398
1630096940.179,-887.207,-47.363,-910.645,-930.176
1630096940.183,-149.414,-62.500,-241.211,-295.410
1630096940.186,-1000.000,-71.777,-981.934,-1000.000
1630096940.190,255.859,-59.570,494.629,486.328
1630096940.194,-752.441,-49.805,-772.949,-771.973
1630096940.198,178.223,-57.617,144.043,148.438
1630096940.202,-1000.000,-64.453,-1000.000,-1000.000
1630096940.211,-211.426,-45.410,-46.875,-77.148
1630096940.215,-781.250,-42.969,-759.766,-754.883
1630096940.219,394.531,-54.199,349.609,290.039
1630096940.223,-1000.000,-62.988,-1000.000,-1000.000
1630096940.227,-286.621,-44.434,-278.809,-283.203
1630096940.231,-875.977,-28.320,-860.840,-846.680
1630096940.235,846.191,-31.250,796.387,719.238
1630096940.238,-759.277,-60.059,-808.594,-923.340
1630096940.242,-689.941,-52.734,-558.105,-565.918
1630096940.246,884.277,-22.949,943.848,947.266
1630096940.250,-852.051,-45.410,-870.117,-876.465
1630096940.254,-71.289,-79.590,-145.996,-181.641
1630096940.256,-1000.000,-66.406,-1000.000,-1000.000
1630096940.260,185.059,-40.527,426.270,393.066
1630096940.264,-745.605,-41.992,-762.695,-758.789
1630096940.268,181.641,-55.664,163.574,167.969
1630096940.272,-1000.000,-60.059,-1000.000,-1000.000
1630096940.276,-243.652,-39.062,-79.102,-116.211
1630096940.280,-794.922,-27.832,-766.113,-761.719
1630096940.283,486.816,-41.504,430.176,375.977
1630096940.287,-1000.000,-60.547,-1000.000,-1000.000
1630096940.291,-291.504,-33.691,-293.457,-289.062
1630096940.295,-899.414,-20.996,-887.207,-870.117
1630096940.299,937.012,-34.180,889.648,822.266
1630096940.301,-574.707,-44.922,-659.668,-779.297
1630096940.305,-854.004,-49.316,-696.289,-695.801
1630096940.309,708.008,-39.062,832.031,853.027
1630096940.313,-804.199,-37.598,-829.102,-836.426
1630096940.317,77.148,-38.574,-14.648,-42.480
1630096940.321,-1000.000,-40.527,-1000.000,-1000.000
1630096940.325,87.402,-20.508,305.664,264.160
1630096940.328,-740.723,-19.043,-755.371,-749.512
1630096940.332,187.012,-40.527,189.941,181.641
1630096940.336,-1000.000,-42.480,-1000.000,-1000.000
1630096940.340,-278.809,-37.109,-230.957,-267.090
1630096940.344,-825.195,-33.203,-806.641,-806.641
1630096940.346,592.285,-44.434,536.133,497.070
1630096940.350,-1000.000,-68.848,-1000.000,-1000.000
1630096940.354,-514.648,-46.387,-413.574,-390.625
1630096940.358,980.469,-23.438,-961.426,-948.242
1630096940.362,-921.875,-35.645,-996.582,987.305
1630096940.366,-328.125,-41.992,-467.285,-513.184
1630096940.370,-1000.000,-43.457,-861.816,-879.883
1630096940.373,459.473,-35.156,659.668,672.363
1630096940.377,-771.973,-32.227,-800.293,-802.246
1630096940.381,168.457,-55.176,95.703,94.727
1630096940.385,-1000.000,-67.383,-1000.000,-1000.000
1630096940.389,-116.699,-44.922,49.805,15.625
1630096940.391,-760.254,-38.086,-751.465,-746.582
1630096940.395,242.676,-50.781,227.539,194.336
1630096940.399,-1000.000,-71.777,-1000.000,-1000.000
1630096940.403,-273.926,-50.293,-259.277,-275.391
1630096940.407,-856.934,-24.902,-839.844,-831.543
1630096940.411,739.746,-36.133,683.594,629.395
1630096940.415,-904.297,-44.434,-942.871,-1000.000
1630096940.418,-628.906,-41.504,-504.395,-495.117
1630096940.422,921.875,-34.180,984.375,991.699
1630096940.426,-880.371,-41.992,-921.875,-925.781
1630096940.430,-166.992,-59.082,-272.461,-307.617
1630096940.434,-1000.000,-61.523,-1000.000,-1000.000
1630096940.436,224.121,-39.551,437.988,452.637
1630096940.440,-750.977,-35.156,-769.531,-767.578
1630096940.444,179.199,-48.340,148.926,156.738
1630096940.448,-1000.000,-51.270,-1000.000,-1000.000
1630096940.452,-207.031,-38.086,-59.082,-73.242
1630096940.456,-780.273,-34.180,-761.719,-753.418
1630096940.460,400.391,-53.711,345.215,294.922
1630096940.463,-1000.000,-54.199,-1000.000,-1000.000
1630096940.467,-283.691,-29.785,-283.691,-280.762
1630096940.471,-888.672,-22.949,-869.141,-859.375
1630096940.475,891.113,-29.297,815.430,770.996
1630096940.479,-696.289,-41.504,-783.691,-861.816
1630096940.481,-703.125,-33.691,-591.309,-592.285
1630096940.485,877.930,-24.414,924.316,938.965
1630096940.489,-844.727,-31.738,-867.676,-870.605
1630096940.493,-48.340,-45.898,-141.602,-170.898
1630096940.497,-1000.000,-44.922,-1000.000,-1000.000
1630096940.501,189.453,-25.391,393.066,382.812
1630096940.505,-746.094,-29.297,-765.625,-763.672
1630096940.508,183.594,-40.527,175.781,178.711
1630096940.512,-1000.000,-51.270,-1000.000,-1000.000
1630096940.516,-278.809,-38.574,-181.152,-225.586
1630096940.520,-808.105,-38.574,-784.180,-786.133
1630096940.524,497.559,-61.035,432.129,403.320
1630096940.526,-1000.000,-60.547,-1000.000,-1000.000
1630096940.530,-353.027,-32.715,-324.219,-284.668
1630096940.534,-939.453,-18.555,-910.645,-889.648
1630096940.538,-997.070,-23.438,929.688,895.508
1630096940.542,-510.254,-27.832,-622.559,-690.430
1630096940.546,-804.688,-18.555,-654.785,-655.273
1630096940.550,770.996,-13.672,873.047,904.785
1630096940.553,-815.918,-24.414,-840.332,-851.074
1630096940.557,90.332,-40.039,11.230,-30.762
1630096940.561,-1000.000,-42.969,-1000.000,-1000.000
1630096940.565,43.457,-24.414,232.422,198.242
1630096940.569,-743.652,-15.625,-752.930,-748.535
1630096940.586,190.918,-28.809,191.406,184.570
1630096940.590,-1000.000,-45.898,-1000.000,-1000.000
1630096940.594,-276.367,-34.180,-239.258,-271.484
1630096940.598,-833.496,-23.438,-814.453,-811.035
1630096940.602,645.508,-40.039,585.938,540.039
1630096940.606,-1000.000,-63.965,-1000.000,-1000.000
1630096940.610,-483.887,-44.922,-398.438,-377.441
1630096940.613,-993.652,-31.738,-943.848,-934.570
1630096940.617,-937.012,-32.715,985.352,975.098
1630096940.621,-314.453,-44.922,-452.637,-501.953
1630096940.625,-1000.000,-38.086,-959.473,-933.105
1630096940.629,392.090,-0.488,543.457,605.469
1630096940.631,-770.996,7.324,-798.340,-798.828
1630096940.635,178.223,-19.531,85.938,94.238
1630096940.639,-1000.000,-20.020,-1000.000,-1000.000
1630096940.643,-220.215,26.367,-101.562,-67.383
1630096940.647,-782.715,44.922,-772.461,-760.254
1630096940.651,281.738,32.227,245.117,208.496
1630096940.655,-1000.000,29.297,-1000.000,-1000.000
1630096940.658,-277.344,66.895,-285.156,-275.879
1630096940.662,-851.562,79.590,-835.449,-828.613
1630096940.666,718.262,63.477,619.629,605.957
1630096940.670,-916.016,61.523,-995.605,-1000.000
1630096940.674,-691.895,83.984,-626.465,-545.898
1630096940.676,869.141,98.633,889.160,958.008
1630096940.680,-868.652,97.168,-916.504,-911.621
1630096940.684,-133.301,85.449,-271.484,-263.184
1630096940.688,-1000.000,71.289,-1000.000,-1000.000
1630096940.692,124.023,90.332,267.578,336.914
1630096940.696,-752.930,104.980,-764.648,-758.301
1630096940.700,187.500,84.473,158.691,162.109
1630096940.703,-1000.000,73.730,-1000.000,-1000.000
1630096940.707,-244.629,87.402,-142.090,-104.492
1630096940.711,-792.969,75.195,-774.902,-758.301
1630096940.715,403.809,56.152,320.801,299.316
1630096940.719,-1000.000,44.434,-1000.000,-1000.000
1630096940.721,-337.891,54.688,-326.172,-281.250
1630096940.725,-898.438,47.852,-878.418,-857.910
1630096940.729,865.234,34.180,776.367,761.230
1630096940.733,-725.586,33.691,-831.543,-872.070
1630096940.737,-776.855,37.109,-676.758,-621.094
1630096940.741,785.645,42.480,841.309,914.551
1630096940.745,-824.707,33.203,-842.285,-857.422
1630096940.748,8.301,12.695,-103.516,-129.883
1630096940.752,-1000.000,-2.441,-1000.000,-1000.000
1630096940.756,135.742,12.207,350.098,363.281
1630096940.760,-742.676,15.137,-763.184,-760.254
1630096940.764,185.059,0.488,178.711,178.711
1630096940.767,-1000.000,-5.859,-1000.000,-1000.000
1630096940.771,-278.809,-1.953,-206.543,-232.910
1630096940.775,-809.082,0.000,-789.062,-788.574
1630096940.779,506.836,-13.672,437.500,416.992
1630096940.783,-1000.000,-25.391,-1000.000,-1000.000
1630096940.787,-366.211,-2.930,-326.660,-294.434
1630096940.791,-943.848,11.719,-918.945,-890.137
1630096940.794,-994.629,-12.207,953.125,890.625
1630096940.798,-491.211,-43.945,-583.984,-687.500
1630096940.802,-854.492,-37.109,-683.594,-701.660
1630096940.806,709.473,-10.742,840.820,857.910
1630096940.810,-802.734,-19.043,-825.684,-839.355
1630096940.811,119.141,-33.691,40.039,-10.742
1630096940.815,-1000.000,-30.273,-1000.000,-1000.000
1630096940.819,40.039,-16.113,270.020,183.105
1630096940.823,-741.211,-25.879,-747.070,-745.605
1630096940.827,189.941,-48.828,206.055,183.594
1630096940.831,-1000.000,-50.293,-1000.000,-1000.000
1630096940.835,-273.438,-33.203,-187.012,-256.348
1630096940.838,-843.750,-35.156,-816.895,-808.594
1630096940.842,688.477,-44.434,657.715,548.828
1630096940.846,-967.773,-48.828,-956.055,-1000.000
1630096940.850,-498.535,-35.645,-394.043,-391.113
1630096940.854,991.699,-20.020,-956.055,-946.289
1630096940.857,-904.785,-37.109,-947.754,-997.559
1630096940.861,-267.578,-53.711,-363.281,-483.398
1630096940.865,-1000.000,-53.223,-832.031,-874.023
1630096940.869,464.355,-40.527,690.918,675.293
1630096940.873,-771.973,-40.039,-799.316,-801.758
1630096940.877,171.875,-52.246,140.137,137.207
1630096940.881,-1000.000,-75.195,-1000.000,-1000.000
1630096940.884,-156.250,-58.105,26.367,-33.203
1630096940.888,-766.113,-30.762,-750.000,-749.512
1630096940.892,324.219,-46.387,291.504,230.469
1630096940.896,-1000.000,-52.734,-1000.000,-1000.000
1630096940.900,-280.273,-31.250,-263.184,-278.320
1630096940.901,-868.652,-36.621,-851.562,-835.938
1630096940.905,805.176,-66.406,758.301,661.133
1630096940.909,-820.312,-86.426,-858.887,-989.746
1630096940.913,-640.137,-99.121,-489.746,-501.953
1630096940.917,908.203,-101.562,974.609,978.516
1630096940.921,-854.980,-112.305,-871.582,-895.020
1630096940.925,-88.379,-152.832,-149.902,-238.770
1630096940.928,-1000.000,-160.645,-933.594,-1000.000
1630096940.932,278.809,-138.184,539.062,488.770
1630096940.936,-752.441,-166.504,-776.367,-772.461
1630096940.940,180.664,-202.637,161.133,159.668
1630096940.944,-1000.000,-188.477,-1000.000,-1000.000
1630096940.961,-258.301,-164.062,-105.469,-135.254
1630096940.965,-793.945,-166.504,-766.113,-765.625
1630096940.969,411.133,-183.105,373.047,305.664
1630096940.973,-1000.000,-186.523,-1000.000,-1000.000
1630096940.977,-277.832,-161.133,-281.250,-276.855
1630096940.981,-908.691,-141.113,-899.414,-871.094
1630096940.985,948.730,-141.113,920.898,811.523
1630096940.988,-579.102,-156.250,-630.859,-807.617
1630096940.992,-804.199,-147.461,-637.207,-644.043
1630096940.996,777.344,-128.906,894.043,912.109
1630096941.000,-821.289,-120.117,-844.727,-860.352
1630096941.004,0.488,-117.676,-72.754,-138.672
1630096941.006,-1000.000,-115.234,-1000.000,-1000.000
1630096941.010,126.465,-87.402,363.281,317.871
1630096941.014,-743.652,-79.102,-757.324,-754.395
1630096941.018,186.035,-103.516,170.898,175.781
1630096941.022,-1000.000,-111.328,-1000.000,-1000.000
1630096941.026,-279.297,-73.242,-142.578,-194.336
1630096941.030,-813.965,-64.941,-779.785,-781.250
1630096941.033,538.086,-92.773,476.562,427.734
1630096941.037,-1000.000,-91.797,-1000.000,-1000.000
1630096941.041,-393.066,-81.543,-335.938,-315.430
1630096941.045,-955.566,-73.730,-916.504,-899.414
1630096941.049,-977.539,-65.918,952.637,903.809
1630096941.052,-457.031,-77.148,-574.707,-667.480
1630096941.056,-881.348,-68.848,-716.797,-731.934
1630096941.060,677.246,-53.711,815.430,832.031
1630096941.064,-798.828,-57.129,-824.707,-833.496
1630096941.068,138.184,-68.848,47.852,12.207
1630096941.072,-1000.000,-72.266,-1000.000,-1000.000
1630096941.076,-13.184,-60.059,201.172,141.602
1630096941.079,-746.094,-59.082,-750.000,-745.117
1630096941.083,224.609,-58.105,218.262,186.523
1630096941.087,-1000.000,-54.199,-1000.000,-1000.000
1630096941.091,-280.273,-41.016,-246.094,-275.879
1630096941.095,-833.984,-48.340,-816.895,-813.965
1630096941.096,647.461,-59.082,598.633,539.551
1630096941.100,-1000.000,-55.176,-1000.000,-1000.000
1630096941.104,-545.898,-47.852,-431.152,-410.156
1630096941.108,952.637,-36.621,-992.188,-977.051
1630096941.112,-882.812,-38.086,-923.340,-945.801
1630096941.116,-208.496,-49.316,-305.176,-375.488
1630096941.120,-1000.000,-43.457,-893.555,-926.270
1630096941.123,407.715,-32.715,616.211,614.746
1630096941.127,-763.184,-28.320,-790.039,-789.062
1630096941.131,171.387,-43.457,126.953,125.488
1630096941.135,-1000.000,-59.082,-1000.000,-1000.000
1630096941.139,-155.762,-39.062,-19.043,-25.391
1630096941.141,-767.090,-27.832,-755.859,-749.023
1630096941.145,355.469,-40.527,302.734,248.535
1630096941.149,-1000.000,-54.199,-1000.000,-1000.000
1630096941.153,-283.203,-36.133,-259.766,-279.785
1630096941.157,-875.977,-28.320,-857.910,-843.750
1630096941.161,836.914,-47.363,779.297,695.312
1630096941.165,-770.996,-60.547,-824.219,-950.195
1630096941.168,-695.801,-46.387,-578.613,-567.383
1630096941.172,884.277,-23.926,936.035,956.055
1630096941.176,-857.422,-38.574,-884.277,-897.949
1630096941.180,-104.004,-62.500,-201.172,-254.395
1630096941.184,-1000.000,-43.457,-1000.000,-1000.000
1630096941.186,189.453,-22.949,412.109,401.367
1630096941.190,-750.000,-25.879,-769.043,-768.066
1630096941.194,185.059,-38.574,169.434,176.270
1630096941.198,-1000.000,-45.410,-1000.000,-1000.000
1630096941.202,-279.297,-33.203,-149.902,-197.754
1630096941.206,-806.641,-27.344,-778.809,-778.809
1630096941.210,497.559,-33.203,441.895,371.094
1630096941.213,-1000.000,-47.852,-1000.000,-1000.000
1630096941.217,-331.543,-45.898,-312.988,-287.109
1630096941.221,-904.297,-36.133,-882.324,-862.305
1630096941.225,920.898,-41.992,860.352,793.457
1630096941.229,-623.535,-51.758,-712.891,-826.172
1630096941.231,-818.359,-42.480,-668.945,-652.832
1630096941.235,745.605,-27.344,850.098,889.648
1630096941.239,-813.965,-36.133,-836.426,-850.586
1630096941.243,71.289,-54.688,-11.230,-53.711
1630096941.247,-1000.000,-52.734,-1000.000,-1000.000
1630096941.251,69.824,-33.203,283.203,235.352
1630096941.255,-742.676,-32.227,-751.953,-748.535
1630096941.258,188.965,-43.945,175.781,181.152
1630096941.262,-1000.000,-49.316,-1000.000,-1000.000
1630096941.266,-278.809,-40.039,-182.129,-241.699
1630096941.270,-817.383,-27.832,-790.039,-793.945
1630096941.274,555.176,-33.203,492.188,450.195
1630096941.276,-1000.000,-49.805,-1000.000,-1000.000
1630096941.280,-432.617,-35.156,-357.422,-328.125
1630096941.284,-981.445,-20.020,-936.035,-909.180
1630096941.288,-941.406,-30.273,987.793,928.711
1630096941.292,-409.668,-43.457,-522.461,-635.254
1630096941.296,-871.582,-38.574,-715.820,-736.328
1630096941.300,687.500,-27.832,818.359,828.613
1630096941.303,-802.246,-23.438,-827.637,-833.496
1630096941.307,167.480,-33.203,89.844,62.012
1630096941.311,-1000.000,-43.457,-1000.000,-1000.000
1630096941.315,-79.102,-31.250,95.215,61.035
1630096941.319,-753.906,-29.297,-750.488,-746.582
1630096941.322,220.215,-35.156,221.680,191.406
1630096941.326,-1000.000,-41.992,-1000.000,-1000.000
1630096941.330,-273.438,-23.926,-258.789,-277.344
1630096941.334,-850.586,-14.160,-833.008,-821.289
1630096941.338,714.355,-39.551,655.762,581.543
1630096941.342,-936.523,-58.594,-971.191,-1000.000
1630096941.346,-575.684,-41.504,-465.332,-433.105
1630096941.349,947.266,-35.645,999.512,-985.352
1630096941.353,-879.395,-36.133,-920.410,-931.152
1630096941.357,-208.008,-49.316,-305.176,-354.980
1630096941.361,-1000.000,-39.551,-918.945,-923.828
1630096941.365,401.855,-5.859,583.984,616.211
1630096941.381,-763.672,-25.391,-784.668,-789.062
1630096941.385,173.340,-47.852,131.836,140.625
1630096941.389,-1000.000,-49.805,-1000.000,-1000.000
1630096941.393,-177.246,-35.156,-11.719,-48.340
1630096941.397,-772.949,-28.320,-758.789,-750.977
1630096941.401,391.113,-45.898,347.656,278.320
1630096941.405,-1000.000,-59.570,-1000.000,-1000.000
1630096941.408,-290.039,-24.414,-284.180,-285.156
1630096941.412,-869.141,-14.648,-854.492,-838.867
1630096941.416,815.918,-48.828,760.742,678.711
1630096941.420,-776.367,-65.918,-843.262,-966.797
1630096941.424,-764.648,-53.223,-615.234,-593.262
1630096941.426,797.363,-40.527,891.602,924.316
1630096941.430,-833.984,-59.082,-861.328,-871.582
1630096941.434,-20.020,-80.566,-117.188,-154.297
1630096941.438,-1000.000,-80.078,-1000.000,-1000.000
1630096941.442,112.305,-66.895,343.750,315.918
1630096941.446,-746.582,-70.801,-761.230,-757.324
1630096941.450,187.988,-77.637,175.781,178.711
1630096941.453,-1000.000,-76.660,-1000.000,-1000.000
1630096941.457,-278.320,-71.289,-179.199,-219.238
1630096941.461,-805.664,-56.152,-782.227,-783.203
1630096941.465,478.516,-73.242,415.039,359.863
1630096941.469,-1000.000,-80.078,-1000.000,-1000.000
1630096941.471,-335.449,-44.434,-308.105,-279.785
1630096941.475,-920.898,-37.598,-895.508,-874.512
1630096941.479,958.984,-45.898,893.066,835.938
1630096941.483,-575.195,-53.223,-667.969,-773.926
1630096941.487,-805.664,-48.828,-665.039,-645.508
1630096941.491,768.066,-34.668,860.840,906.738
1630096941.495,-815.918,-46.875,-837.402,-851.562
1630096941.498,43.945,-74.219,-35.645,-82.031
1630096941.502,-1000.000,-62.988,-1000.000,-1000.000
1630096941.506,104.492,-24.414,322.754,296.387
1630096941.510,-742.188,-32.715,-757.324,-753.906
1630096941.514,187.012,-60.547,184.082,181.152
1630096941.516,-1000.000,-70.801,-1000.000,-1000.000
1630096941.520,-278.809,-38.574,-218.262,-261.230
1630096941.524,-820.312,-28.809,-803.711,-802.246
1630096941.528,596.680,-44.434,548.828,507.812
1630096941.532,-1000.000,-48.828,-1000.000,-1000.000
1630096941.536,-387.207,-41.504,-345.215,-317.871
1630096941.540,-957.520,-39.551,-928.223,-907.715
1630096941.543,-954.102,-51.758,988.281,945.312
1630096941.547,-344.727,-60.547,-473.633,-563.477
1630096941.551,-1000.000,-39.551,-843.262,-847.656
1630096941.555,494.629,-35.156,682.617,708.008
1630096941.559,-775.879,-43.945,-803.223,-809.570
1630096941.561,167.480,-44.922,94.727,86.914
1630096941.565,-1000.000,-42.480,-1000.000,-1000.000
1630096941.569,-111.328,-18.555,65.430,29.785
1630096941.573,-758.789,-18.066,-750.488,-746.094
1630096941.577,265.137,-36.133,245.605,192.871
1630096941.581,-1000.000,-41.504,-1000.000,-1000.000
1630096941.585,-278.320,-29.297,-244.629,-273.438
1630096941.588,-852.539,-29.785,-835.449,-826.172
1630096941.592,733.887,-52.246,689.453,604.980
1630096941.596,-913.086,-52.246,-932.617,-1000.000
1630096941.600,-592.773,-31.738,-485.840,-469.727
1630096941.604,941.406,-27.832,996.094,-995.117
1630096941.606,-874.512,-28.320,-918.457,-932.129
1630096941.610,-222.656,-51.270,-325.684,-383.789
1630096941.614,-1000.000,-50.293,-873.535,-891.113
1630096941.618,449.219,-25.879,641.113,656.250
1630096941.622,-771.484,-33.203,-794.922,-797.363
1630096941.626,176.758,-41.992,150.879,154.785
1630096941.630,-1000.000,-46.387,-1000.000,-1000.000
1630096941.633,-215.820,-29.297,-60.059,-83.008
1630096941.637,-781.738,-23.926,-761.719,-755.371
1630096941.641,376.953,-45.410,322.754,259.277
1630096941.645,-1000.000,-48.828,-1000.000,-1000.000
1630096941.649,-278.320,-20.020,-284.180,-274.414
1630096941.652,-891.602,-16.602,-874.023,-860.352
1630096941.656,894.043,-31.250,822.754,765.137
1630096941.660,-691.406,-38.086,-776.367,-871.582
1630096941.664,-703.613,-32.715,-578.125,-572.266
1630096941.668,867.188,-22.461,916.504,942.871
1630096941.672,-841.797,-33.691,-855.469,-872.559
1630096941.676,36.133,-52.734,-36.621,-98.633
1630096941.679,-1000.000,-50.781,-1000.000,-1000.000
1630096941.683,86.426,-32.715,321.289,268.555
1630096941.687,-744.629,-48.828,-755.371,-750.488
1630096941.691,188.477,-57.129,174.805,177.734
1630096941.695,-1000.000,-41.992,-1000.000,-1000.000
1630096941.696,-278.809,-21.973,-175.781,-206.543
1630096941.700,-811.035,-26.855,-785.156,-783.691
1630096941.704,512.207,-49.805,451.660,411.621
1630096941.708,-1000.000,-59.082,-1000.000,-1000.000
1630096941.712,-393.555,-38.086,-338.379,-311.523
1630096941.716,-959.961,-27.832,-919.922,-897.949
1630096941.720,-971.680,-28.320,950.195,900.879
1630096941.723,-481.445,-47.363,-593.262,-689.941
1630096941.727,-798.828,-54.688,-659.668,-651.367
1630096941.731,778.320,-30.273,873.535,908.203
1630096941.735,-815.430,-30.762,-839.844,-852.051
1630096941.739,82.520,-37.598,0.977,-44.434
1630096941.756,-1000.000,-41.016,-1000.000,-1000.000
1630096941.760,62.500,-28.809,243.164,216.309
1630096941.764,-742.188,-27.344,-750.977,-749.023
1630096941.768,188.965,-50.781,199.219,183.105
1630096941.772,-1000.000,-58.105,-1000.000,-1000.000
1630096941.776,-278.320,-38.574,-208.984,-257.324
1630096941.780,-823.730,-35.156,-801.758,-803.223
1630096941.783,593.750,-55.176,545.898,492.188
1630096941.787,-1000.000,-58.105,-1000.000,-1000.000
1630096941.791,-479.980,-53.711,-392.090,-368.652
1630096941.795,983.398,-50.293,-968.262,-951.660
1630096941.799,-897.949,-36.133,-953.125,-983.398
1630096941.804,-271.973,-53.711,-388.184,-469.727
1630096941.808,-992.188,-60.547,-831.543,-846.191
1630096941.812,523.926,-33.691,696.777,714.844
1630096941.816,-776.367,-28.809,-802.246,-807.129
1630096941.820,167.969,-39.062,104.980,101.074
1630096941.824,-1000.000,-45.898,-1000.000,-1000.000
1630096941.828,-115.723,-37.109,57.129,21.484
1630096941.831,-759.766,-34.180,-750.488,-745.605
1630096941.835,258.789,-54.199,247.070,193.359
1630096941.839,-1000.000,-57.129,-1000.000,-1000.000
1630096941.843,-273.438,-32.227,-262.207,-274.414
1630096941.847,-866.699,-27.344,-843.750,-835.449
1630096941.846,782.227,-34.180,706.543,645.508
1630096941.850,-852.051,-41.992,-917.480,-1000.000
1630096941.854,-634.277,-32.715,-493.164,-503.418
1630096941.858,916.504,-20.996,984.375,985.840
1630096941.862,-865.723,-22.949,-904.297,-913.086
1630096941.866,-137.207,-41.992,-242.676,-303.711
1630096941.870,-1000.000,-38.086,-957.520,-992.676
1630096941.873,286.133,-15.625,519.531,516.602
1630096941.877,-756.348,-37.109,-782.227,-779.785
1630096941.881,181.641,-52.734,150.391,149.902
1630096941.885,-1000.000,-38.086,-1000.000,-1000.000
1630096941.889,-262.695,-7.812,-128.906,-134.277
1630096941.891,-796.875,4.883,-772.461,-766.602
1630096941.895,398.438,-3.906,324.707,283.691
1630096941.899,-1000.000,-17.578,-1000.000,-1000.000
1630096941.903,-323.242,-8.301,-318.848,-272.949
1630096941.907,-893.555,6.836,-893.066,-871.582
1630096941.911,856.445,-3.906,728.027,720.215
1630096941.915,-716.797,-13.672,-829.590,-880.371
1630096941.918,-829.590,-1.953,-745.117,-662.109
1630096941.922,743.652,12.207,791.992,888.672
1630096941.926,-833.984,8.301,-872.070,-870.605
1630096941.930,-53.711,-16.602,-161.133,-151.855
1630096941.934,-1000.000,-23.926,-1000.000,-1000.000
1630096941.938,32.227,5.859,129.883,212.891
1630096941.942,-757.812,10.742,-765.625,-755.859
1630096941.946,196.777,-10.742,187.988,185.059
1630096941.950,-1000.000,-18.555,-1000.000,-1000.000
1630096941.954,-277.832,-7.324,-238.770,-251.953
1630096941.958,-810.547,0.000,-796.875,-793.945
1630096941.962,503.906,-19.043,413.086,404.785
1630096941.965,-1000.000,-37.598,-1000.000,-1000.000
1630096941.969,-404.297,-16.602,-365.234,-311.035
1630096941.973,-946.777,-7.324,-916.016,-894.043
1630096941.977,972.168,-27.344,880.371,875.488
1630096941.981,-516.602,-43.945,-656.250,-691.406
1630096941.981,-959.473,-36.133,-852.539,-791.504
1630096941.985,575.195,-27.832,670.898,771.973
1630096941.989,-789.062,-26.367,-814.941,-826.172
1630096941.993,91.797,-33.203,-10.742,-27.344
1630096941.997,-1000.000,-38.086,-1000.000,-1000.000
1630096942.001,-7.324,-24.902,122.559,147.461
1630096942.005,-750.000,-34.668,-756.348,-747.559
1630096942.008,200.195,-56.152,198.242,191.895
1630096942.012,-1000.000,-50.781,-1000.000,-1000.000
1630096942.016,-241.211,-20.996,-227.051,-241.699
1630096942.020,-932.129,-13.184,-912.109,-917.969
1630096942.024,424.805,-37.598,377.930,342.285
1630096942.027,-1000.000,-56.152,-1000.000,-1000.000
1630096942.031,-543.457,-40.527,-456.543,-412.598
1630096942.035,942.871,-30.273,995.605,-978.516
1630096942.039,-880.859,-39.551,-950.195,-960.449
1630096942.043,-250.000,-46.387,-401.855,-439.941
1630096942.047,-1000.000,-41.016,-856.934,-858.887
1630096942.051,502.441,-33.203,666.992,699.707
1630096942.054,-774.414,-33.691,-802.734,-804.688
1630096942.058,170.898,-37.109,114.746,116.699
1630096942.062,-1000.000,-54.688,-1000.000,-1000.000
1630096942.066,-147.461,-35.645,-21.973,-17.090
1630096942.070,-764.648,-16.602,-757.324,-749.512
1630096942.086,291.016,-36.133,260.742,215.820
1630096942.090,-1000.000,-43.945,-1000.000,-1000.000
1630096942.094,-277.832,-26.367,-271.484,-277.344
1630096942.098,-860.840,-25.391,-840.332,-832.520
1630096942.102,773.926,-39.062,690.430,644.531
1630096942.106,-866.211,-55.664,-937.012,-1000.000
1630096942.110,-590.332,-52.246,-478.516,-468.750
1630096942.113,944.824,-22.949,994.629,-998.047
1630096942.117,-880.859,-37.598,-918.457,-921.875
1630096942.121,-136.719,-52.246,-254.395,-289.062
1630096942.125,-1000.000,-40.527,-1000.000,-1000.000
1630096942.129,239.258,-30.273,449.219,468.262
1630096942.131,-752.930,-30.762,-772.949,-770.508
1630096942.135,181.152,-43.945,153.320,157.715
1630096942.139,-1000.000,-46.875,-1000.000,-1000.000
1630096942.143,-246.582,-25.879,-105.469,-107.422
1630096942.147,-797.852,-30.762,-772.461,-759.766
1630096942.151,478.516,-50.293,408.691,347.168
1630096942.155,-1000.000,-58.105,-1000.000,-1000.000
1630096942.158,-349.609,-41.016,-321.777,-286.621
1630096942.162,-915.527,-32.227,-886.230,-863.281
1630096942.166,933.594,-50.781,855.469,795.410
1630096942.170,-619.141,-75.684,-727.051,-827.637
1630096942.174,-796.875,-69.336,-656.738,-629.395
1630096942.176,781.738,-34.180,870.117,920.410
1630096942.180,-827.637,-38.574,-852.539,-868.652
1630096942.184,-0.488,-59.570,-80.566,-130.371
1630096942.188,-1000.000,-61.035,-1000.000,-1000.000
1630096942.192,78.613,-41.504,266.113,253.906
1630096942.196,-748.047,-43.457,-756.348,-753.418
1630096942.200,190.430,-67.383,178.711,180.664
1630096942.203,-1000.000,-65.918,-1000.000,-1000.000
1630096942.207,-278.809,-57.129,-188.965,-230.957
1630096942.211,-814.941,-54.688,-790.039,-790.527
1630096942.215,543.457,-55.664,488.770,429.688
1630096942.219,-1000.000,-74.219,-1000.000,-1000.000
1630096942.225,-413.574,-72.266,-342.285,-316.895
1630096942.229,-963.867,-62.500,-925.781,-902.344
1630096942.233,-973.145,-72.754,972.168,909.668
1630096942.237,-445.801,-95.215,-541.504,-659.180
1630096942.241,-905.762,-96.680,-735.352,-738.281
1630096942.245,643.555,-71.289,799.316,824.219
1630096942.249,-791.504,-65.430,-816.406,-828.125
1630096942.252,140.137,-78.125,50.781,22.949
1630096942.256,-1000.000,-90.332,-1000.000,-1000.000
1630096942.260,14.160,-68.359,239.258,166.504
1630096942.264,-742.188,-60.547,-750.488,-743.652
1630096942.268,191.406,-84.473,208.496,184.570
1630096942.266,-1000.000,-86.426,-1000.000,-1000.000
1630096942.270,-273.926,-56.641,-239.258,-271.973
1630096942.274,-839.844,-41.504,-818.848,-811.035
1630096942.278,675.293,-56.152,622.070,552.246
1630096942.282,-982.910,-61.035,-1000.000,-1000.000
1630096942.286,-465.820,-37.598,-377.930,-342.285
1630096942.290,-999.023,-35.645,-955.566,-937.012
1630096942.293,-904.297,-47.852,-950.195,-979.004
1630096942.297,-244.629,-57.617,-357.422,-437.988
1630096942.301,-1000.000,-46.387,-859.863,-869.629
1630096942.305,462.402,-37.598,663.574,688.477
1630096942.309,-770.508,-44.922,-798.340,-802.246
1630096942.311,170.898,-57.129,121.094,118.164
1630096942.315,-1000.000,-57.129,-1000.000,-1000.000
1630096942.319,-150.391,-36.133,0.977,-6.836
1630096942.323,-765.625,-48.340,-754.395,-746.582
1630096942.327,338.867,-72.754,293.457,236.328
1630096942.331,-1000.000,-64.453,-1000.000,-1000.000
1630096942.335,-282.715,-42.969,-259.766,-279.785
1630096942.338,-870.605,-46.387,-852.539,-839.355
1630096942.342,813.477,-54.688,759.277,674.805
1630096942.346,-804.199,-60.547,-853.027,-975.586
1630096942.350,-682.129,-52.734,-558.594,-542.969
1630096942.354,883.789,-40.527,940.918,955.078
1630096942.356,-849.121,-43.945,-871.582,-877.441
1630096942.360,-87.402,-64.453,-169.434,-216.797
1630096942.364,-1000.000,-62.012,-987.305,-1000.000
1630096942.368,250.000,-38.086,468.262,480.469
1630096942.372,-750.977,-38.086,-768.555,-769.531
1630096942.376,181.152,-51.270,166.992,169.434
1630096942.380,-1000.000,-55.664,-1000.000,-1000.000
1630096942.383,-259.277,-41.992,-109.863,-131.836
1630096942.387,-796.387,-41.504,-769.043,-763.672
1630096942.391,421.875,-58.105,370.605,311.523
1630096942.395,-1000.000,-74.707,-1000.000,-1000.000
1630096942.399,-314.941,-55.176,-302.734,-278.809
1630096942.401,-914.062,-39.062,-892.090,-868.652
1630096942.405,936.035,-54.199,873.535,804.199
1630096942.409,-604.492,-67.383,-697.266,-817.871
1630096942.413,-815.918,-49.805,-678.711,-644.531
1630096942.417,756.348,-35.645,849.609,905.273
1630096942.421,-822.754,-51.758,-845.215,-861.328
1630096942.425,56.152,-69.336,0.000,-55.664
1630096942.428,-1000.000,-68.848,-1000.000,-1000.000
1630096942.432,-8.301,-61.035,160.645,152.832
1630096942.436,-753.906,-55.664,-752.441,-749.023
1630096942.440,197.754,-54.688,185.059,187.012
1630096942.444,-1000.000,-57.617,-1000.000,-1000.000
1630096942.461,-277.832,-53.223,-220.703,-259.766
1630096942.465,-819.824,-49.805,-800.293,-799.316
1630096942.469,572.266,-60.059,516.602,458.496
1630096942.473,-1000.000,-78.613,-1000.000,-1000.000
1630096942.477,-447.266,-54.199,-365.723,-333.984
1630096942.481,-987.305,-36.621,-941.406,-911.621
1630096942.485,-938.965,-56.641,996.094,928.711
1630096942.488,-375.488,-69.336,-490.234,-623.535
1630096942.492,-950.684,-60.547,-787.598,-781.250
1630096942.496,586.914,-43.945,747.559,783.203
1630096942.500,-782.715,-45.410,-808.594,-818.848
1630096942.504,149.902,-65.430,65.430,40.527
1630096942.506,-1000.000,-65.918,-1000.000,-1000.000
1630096942.510,-17.090,-39.062,172.852,135.254
1630096942.514,-745.605,-36.133,-747.070,-742.188
1630096942.518,198.242,-52.246,211.426,185.547
1630096942.522,-1000.000,-63.477,-1000.000,-1000.000
1630096942.526,-272.461,-43.945,-229.980,-270.508
1630096942.530,-849.609,-32.227,-825.195,-814.453
1630096942.533,708.496,-48.340,648.926,559.082
1630096942.537,-944.824,-59.570,-973.633,-1000.000
1630096942.541,-552.734,-42.969,-442.871,-414.062
1630096942.545,955.078,-27.344,-988.770,-977.539
1630096942.549,-870.117,-33.203,-920.898,-935.059
1630096942.551,-253.906,-52.246,-343.262,-412.598
1630096942.555,-952.148,-50.781,-841.309,-833.984
1630096942.559,597.656,-30.762,710.449,764.160
1630096942.563,-779.785,-24.902,-793.945,-802.734
1630096942.567,165.039,-42.480,127.930,130.371
1630096942.571,-1000.000,-54.199,-1000.000,-1000.000
1630096942.575,-112.305,-32.227,51.270,8.789
1630096942.578,-758.301,-26.367,-749.023,-743.164
1630096942.582,332.031,-51.270,283.691,230.469
1630096942.586,-1000.000,-54.688,-1000.000,-1000.000
1630096942.590,-281.250,-21.484,-273.438,-278.809
1630096942.594,-875.488,-15.137,-856.445,-840.820
1630096942.596,830.078,-28.809,760.254,681.641
1630096942.600,-779.785,-46.875,-850.586,-965.332
1630096942.604,-689.453,-30.762,-573.242,-552.246
1630096942.608,922.363,-18.555,972.168,994.629
1630096942.612,-949.707,-38.574,-970.703,-982.910
1630096942.616,-233.887,-46.875,-332.031,-387.695
1630096942.620,-1000.000,-44.922,-964.355,-999.512
1630096942.623,247.070,-34.668,472.168,468.750
1630096942.627,-754.395,-44.434,-776.367,-773.926
1630096942.631,181.152,-60.547,165.039,170.898
1630096942.635,-1000.000,-66.895,-1000.000,-1000.000
1630096942.639,-265.137,-41.016,-140.625,-151.855
1630096942.641,-802.246,-17.578,-774.902,-768.066
1630096942.645,468.262,-30.273,394.531,340.332
1630096942.649,-1000.000,-39.551,-1000.000,-1000.000
1630096942.653,-348.145,-13.184,-320.801,-278.809
1630096942.657,-931.152,4.883,-910.156,-877.930
1630096942.661,975.098,-8.789,918.945,845.703
1630096942.665,-558.594,-24.414,-633.789,-762.695
1630096942.668,-797.852,-4.883,-685.059,-643.066
1630096942.672,775.879,8.789,844.238,909.180
1630096942.676,-817.383,-0.977,-834.961,-855.957
1630096942.680,73.242,-15.137,-16.113,-60.547
1630096942.684,-1000.000,-15.625,-1000.000,-1000.000
1630096942.686,67.383,-1.953,268.555,222.168
1630096942.690,-742.676,-11.230,-755.371,-750.000
1630096942.694,188.965,-31.250,180.176,183.105
1630096942.698,-1000.000,-39.551,-1000.000,-1000.000
1630096942.702,-278.809,-20.508,-208.496,-254.395
1630096942.706,-817.383,-7.324,-797.363,-796.387
1630096942.710,572.266,-18.555,518.066,449.707
1630096942.713,-1000.000,-48.828,-1000.000,-1000.000
1630096942.717,-379.883,-27.832,-340.820,-319.336
1630096942.721,-959.473,-2.441,-931.641,-904.785
1630096942.725,-947.266,-27.344,998.047,917.969
1630096942.729,-372.070,-39.062,-490.234,-634.277
1630096942.732,-933.105,-23.926,-740.723,-784.180
1630096942.736,611.328,-13.672,790.527,781.250
1630096942.740,-788.086,-18.555,-815.918,-825.684
1630096942.744,162.598,-33.203,97.168,50.293
1630096942.748,-1000.000,-38.574,-1000.000,-1000.000
1630096942.752,-50.781,-13.672,149.414,50.781
1630096942.756,-748.047,-12.207,-744.629,-747.070
1630096942.759,251.465,-32.715,247.070,192.383
1630096942.763,-1000.000,-41.504,-1000.000,-1000.000
1630096942.767,-278.809,-38.086,-233.887,-277.832
1630096942.771,-847.656,-38.086,-829.102,-815.918
1630096942.775,724.121,-32.227,690.430,566.895
1630096942.776,-930.176,-48.828,-931.641,-1000.000
1630096942.780,-479.492,-43.945,-380.859,-371.094
1630096942.784,982.422,-21.484,-974.609,-968.750
1630096942.788,-870.605,-31.250,-892.578,-923.828
1630096942.792,-160.156,-52.734,-233.398,-340.332
1630096942.796,-949.219,-53.711,-758.301,-846.680
1630096942.800,557.617,-29.297,753.906,708.008
1630096942.803,-774.414,-38.086,-799.805,-798.340
1630096942.807,166.992,-56.641,143.066,149.902
1630096942.811,-1000.000,-56.152,-1000.000,-1000.000
1630096942.815,-121.094,-36.133,80.566,0.000
1630096942.819,-761.230,-38.574,-750.000,-742.676
1630096942.836,388.672,-41.992,346.191,270.020
1630096942.840,-1000.000,-45.898,-1000.000,-1000.000
1630096942.844,-282.227,-44.434,-270.996,-279.785
1630096942.848,-894.043,-32.715,-871.094,-853.516
1630096942.852,917.969,-38.574,851.074,755.859
1630096942.856,-666.016,-46.387,-739.258,-884.766
1630096942.860,-597.656,-38.574,-464.844,-493.164
1630096942.863,943.848,-25.879,998.047,995.605
1630096942.867,-867.188,-32.227,-882.324,-905.273
1630096942.871,-24.414,-58.594,-105.957,-189.453
1630096942.875,-1000.000,-61.523,-1000.000,-1000.000
1630096942.879,159.180,-42.969,401.855,333.984
1630096942.881,-745.605,-44.922,-763.672,-760.742
1630096942.885,185.059,-49.316,171.387,178.223
1630096942.889,-1000.000,-53.223,-1000.000,-1000.000
1630096942.893,-279.297,-34.180,-147.949,-217.285
1630096942.897,-815.430,-37.598,-785.156,-786.133
1630096942.901,563.477,-56.641,507.812,417.480
1630096942.905,-1000.000,-58.594,-1000.000,-1000.000
1630096942.908,-359.375,-42.969,-321.289,-300.781
1630096942.912,-942.871,-35.645,-910.645,-888.184
1630096942.916,-973.145,-55.664,961.426,878.906
1630096942.920,-448.242,-71.289,-554.199,-701.660
1630096942.924,-844.238,-44.434,-703.125,-718.750
1630096942.926,725.098,-26.367,829.102,843.262
1630096942.930,-802.246,-36.621,-826.172,-835.449
1630096942.934,114.258,-47.852,17.578,-32.227
1630096942.938,-1000.000,-40.039,-1000.000,-1000.000
1630096942.942,62.012,-28.809,258.789,214.355
1630096942.946,-739.258,-40.527,-750.488,-747.559
1630096942.950,195.801,-42.480,202.637,182.129
1630096942.953,-1000.000,-48.340,-1000.000,-1000.000
1630096942.957,-277.832,-56.641,-203.613,-252.441
1630096942.961,-831.055,-41.504,-803.223,-802.246
1630096942.965,644.043,-29.297,570.312,519.531
1630096942.969,-1000.000,-44.922,-1000.000,-1000.000
1630096942.971,-434.570,-40.527,-357.910,-330.566
1630096942.975,-993.164,-35.156,-951.172,-936.035
1630096942.979,-898.438,-36.621,-955.078,-980.469
1630096942.983,-257.812,-36.621,-384.766,-456.543
1630096942.987,-954.590,-30.762,-798.340,-823.242
1630096942.991,573.730,-20.020,735.352,745.117
1630096942.995,-777.832,-24.414,-802.734,-809.570
1630096942.998,161.133,-41.016,89.355,86.914
1630096943.002,-1000.000,-44.922,-1000.000,-1000.000
1630096943.006,-53.223,-28.809,138.184,65.918
1630096943.010,-748.047,-26.855,-748.535,-743.652
1630096943.014,272.949,-30.762,257.324,191.406
1630096943.016,-1000.000,-38.574,-1000.000,-1000.000
1630096943.020,-282.227,-32.715,-261.719,-277.832
1630096943.024,-851.074,-32.715,-836.914,-822.754
1630096943.028,724.609,-38.574,690.430,575.684
1630096943.032,-916.016,-51.270,-934.570,-1000.000
1630096943.036,-649.902,-45.898,-491.211,-530.762
1630096943.040,916.504,-23.926,-996.094,996.582
1630096943.043,-894.531,-45.410,-950.684,-992.188
1630096943.047,-196.777,-63.965,-309.082,-408.203
1630096943.051,-1000.000,-47.852,-1000.000,-1000.000
1630096943.055,135.254,-36.133,384.277,314.941
1630096943.059,-758.301,-20.996,-778.809,-775.879
1630096943.061,189.941,-22.949,134.277,114.258
1630096943.065,-1000.000,-28.809,-1000.000,-1000.000
1630096943.069,-271.484,0.977,-177.246,-238.281
1630096943.073,-804.688,15.137,-784.180,-801.270
1630096943.077,308.594,4.883,289.062,230.469
1630096943.081,-1000.000,12.695,-1000.000,-1000.000
1630096943.085,-439.453,23.926,-339.355,-354.492
1630096943.088,-934.570,31.250,-879.395,-869.629
1630096943.092,812.012,38.574,736.328,647.461
1630096943.096,-750.977,14.160,-853.516,-964.355
1630096943.100,-985.352,33.691,-786.621,-812.500
1630096943.104,522.949,48.828,734.863,725.098
1630096943.106,-813.477,25.391,-861.816,-870.117
1630096943.110,-56.641,30.762,-143.555,-200.195
1630096943.114,-1000.000,40.527,-1000.000,-1000.000
1630096943.118,-88.379,53.223,97.168,48.828
1630096943.122,-778.320,45.410,-765.625,-766.113
1630096943.126,210.449,23.438,192.871,197.754
1630096943.130,-1000.000,-1.953,-1000.000,-1000.000
1630096943.133,-275.391,-3.906,-223.145,-261.719
1630096943.137,-812.988,12.695,-794.434,-797.852
1630096943.141,486.328,3.906,419.434,372.070
1630096943.145,-1000.000,-25.391,-1000.000,-1000.000
1630096943.149,-479.492,-20.508,-381.348,-354.004
1630096943.151,-979.492,-3.418,-929.688,-907.227
1630096943.155,977.051,-15.137,908.203,858.398
1630096943.159,-531.738,-38.574,-640.625,-731.445
1630096943.163,-970.703,-34.668,-778.320,-778.320
1630096943.167,553.711,-19.531,743.164,778.809
1630096943.171,-793.457,-27.344,-825.195,-834.473
1630096943.175,114.746,-57.617,42.480,-7.812
1630096943.178,-1000.000,-66.895,-1000.000,-1000.000
1630096943.182,-118.652,-39.062,77.637,49.805
1630096943.186,-767.578,-33.203,-753.418,-752.930
1630096943.190,208.496,-47.363,202.148,194.824
1630096943.194,-1000.000,-46.387,-1000.000,-1000.000
1630096943.197,-275.879,-33.691,-247.070,-276.855
1630096943.201,-825.195,-39.062,-811.035,-810.059
1630096943.205,572.266,-51.758,539.551,474.609
1630096943.209,-1000.000,-59.570,-1000.000,-1000.000
1630096943.213,-598.633,-44.434,-440.430,-451.172
1630096943.217,947.754,-43.945,-971.191,-955.566
1630096943.221,-951.172,-56.641,998.535,931.641
1630096943.224,-367.188,-51.758,-468.750,-598.145
1630096943.228,-1000.000,-47.852,-905.273,-936.035
1630096943.232,300.781,-28.809,601.562,587.891
1630096943.236,-768.066,-31.738,-800.293,-800.781
1630096943.240,182.617,-62.988,109.863,92.285
1630096943.256,-1000.000,-66.895,-1000.000,-1000.000
1630096943.260,-258.301,-48.340,-54.688,-86.914
1630096943.264,-792.480,-45.898,-763.672,-763.184
1630096943.268,310.547,-56.152,288.574,233.887
1630096943.272,-1000.000,-66.406,-1000.000,-1000.000
1630096943.276,-280.762,-63.965,-268.066,-278.809
1630096943.280,-848.145,-52.246,-833.984,-826.660
1630096943.283,708.496,-51.758,670.898,606.934
1630096943.287,-916.992,-70.312,-951.660,-1000.000
1630096943.291,-721.680,-72.754,-524.902,-524.414
1630096943.295,843.262,-49.805,964.844,973.145
1630096943.299,-873.047,-44.434,-915.039,-921.875
1630096943.301,-151.367,-76.660,-243.164,-273.438
1630096943.305,-1000.000,-79.102,-1000.000,-1000.000
1630096943.309,62.988,-55.664,377.930,338.867
1630096943.313,-762.695,-59.082,-770.996,-762.695
1630096943.317,196.289,-69.336,161.133,170.898
1630096943.321,-1000.000,-72.754,-1000.000,-1000.000
1630096943.325,-275.879,-60.547,-132.324,-176.758
1630096943.328,-806.641,-50.781,-774.902,-774.414
1630096943.332,421.875,-68.359,362.305,338.867
1630096943.336,-1000.000,-88.867,-1000.000,-1000.000
1630096943.340,-435.547,-76.660,-328.613,-279.297
1630096943.344,-956.543,-59.570,-894.531,-874.023
1630096943.346,935.547,-63.965,846.191,829.102
1630096943.350,-607.422,-67.383,-735.840,-785.156
1630096943.354,-911.621,-58.594,-680.664,-634.277
1630096943.358,625.488,-54.688,836.914,904.297
1630096943.362,-797.363,-46.875,-835.938,-842.285
1630096943.366,86.426,-51.758,-34.180,-42.969
1630096943.370,-1000.000,-50.781,-1000.000,-1000.000
1630096943.373,14.648,-27.344,299.316,334.961
1630096943.377,-748.047,-27.344,-757.812,-750.977
1630096943.381,193.848,-36.621,192.383,174.805
1630096943.385,-1000.000,-37.109,-1000.000,-1000.000
1630096943.389,-276.367,-26.855,-193.848,-202.637
1630096943.391,-825.684,-28.320,-795.898,-791.016
1630096943.395,630.859,-28.320,532.715,534.180
1630096943.399,-1000.000,-31.738,-1000.000,-1000.000
1630096943.403,-344.238,-20.508,-314.941,-283.691
1630096943.407,-973.145,-20.996,-939.941,-939.453
1630096943.411,-891.113,-38.086,-959.473,-923.340
1630096943.415,-184.082,-45.898,-383.301,-359.375
1630096943.418,-904.297,-55.176,-715.332,-647.461
1630096943.422,620.605,-46.875,802.246,890.137
1630096943.426,-774.414,-32.715,-808.105,-811.523
1630096943.430,148.926,-42.480,71.289,93.262
1630096943.434,-1000.000,-41.504,-1000.000,-990.234
1630096943.437,41.016,-28.809,263.184,365.234
1630096943.441,-741.211,-29.785,-750.488,-744.141
1630096943.445,411.133,-38.086,286.621,292.480
1630096943.449,-1000.000,-49.805,-1000.000,-1000.000
1630096943.453,-283.691,-40.527,-212.402,-178.711
1630096943.457,-905.762,-39.551,-844.238,-854.492
1630096943.461,980.957,-44.434,780.273,864.746
1630096943.464,-561.523,-67.871,-813.477,-705.078
1630096943.468,-432.617,-61.523,-377.441,-338.867
1630096943.472,-992.676,-27.344,-962.402,-950.195
1630096943.476,-855.469,-40.039,-897.461,-873.047
1630096943.480,-37.598,-51.758,-221.680,-185.547
1630096943.481,-899.414,-43.457,-776.367,-639.160
1630096943.485,581.055,-37.598,723.145,872.559
1630096943.489,-763.184,-42.969,-788.086,-808.594
1630096943.493,150.879,-55.176,123.535,129.395
1630096943.497,-1000.000,-59.570,-1000.000,-1000.000
1630096943.501,2.930,-49.316,188.965,233.887
1630096943.505,-753.418,-44.922,-747.559,-738.770
1630096943.508,507.812,-51.758,362.305,370.117
1630096943.512,-1000.000,-45.410,-1000.000,-1000.000
1630096943.516,-301.270,-30.273,-238.770,-262.695
1630096943.520,-906.738,-38.086,-860.352,-854.492
1630096943.524,990.234,-51.758,839.844,826.660
1630096943.526,-544.922,-61.523,-735.352,-777.832
1630096943.530,-596.191,-55.176,-462.402,-433.105
1630096943.534,939.453,-51.270,992.188,-978.027
1630096943.538,-845.703,-66.895,-867.676,-895.020
1630096943.542,-3.418,-77.637,-129.883,-196.289
1630096943.546,-1000.000,-65.430,-841.309,-969.727
1630096943.550,321.289,-46.875,630.859,542.480
1630096943.553,-751.465,-49.805,-794.434,-790.527
1630096943.557,179.688,-57.617,173.828,125.977
1630096943.561,-1000.000,-61.523,-1000.000,-1000.000
1630096943.565,-270.020,-56.641,-177.734,-255.859
1630096943.569,-812.012,-53.223,-787.109,-818.848
1630096943.571,271.484,-65.430,378.906,199.219
1630096943.575,-1000.000,-65.918,-1000.000,-1000.000
1630096943.579,-756.348,-51.758,-441.895,-607.910
1630096943.583,904.785,-50.293,-912.598,-978.516
1630096943.587,533.691,-60.547,732.422,270.020
1630096943.591,-961.426,-65.918,-803.223,-1000.000
1630096943.595,-1000.000,-63.965,-965.820,-1000.000
1630096943.598,16.113,-59.570,504.395,230.469
1630096943.602,-936.035,-53.711,-875.977,671.875
1630096943.606,-324.707,-51.270,-187.012,-860.352
1630096943.610,-1000.000,-54.688,-1000.000,-1000.000
1630096943.614,-216.309,-47.852,-72.266,-195.801
1630096943.631,-837.891,-40.039,-795.410,-876.465
1630096943.635,241.699,-56.152,191.406,-6.348
1630096943.639,-1000.000,-65.918,-1000.000,-1000.000
1630096943.643,-435.547,-54.199,-287.598,-298.340
1630096943.647,-878.418,-51.270,-823.730,-850.098
1630096943.651,521.973,-67.871,460.938,247.559
1630096943.655,-987.305,-68.359,-1000.000,-1000.000
1630096943.658,-1000.000,-60.059,-658.691,-866.699
1630096943.662,460.449,-54.199,890.625,740.234
1630096943.666,947.266,-59.082,882.812,600.586
1630096943.670,-600.586,-75.195,-664.551,-960.449
1630096943.674,-1000.000,-70.801,-1000.000,-1000.000
1630096943.676,45.410,-51.270,443.359,223.633
1630096943.680,-829.102,-40.039,-839.355,959.473
1630096943.684,-102.051,-43.945,-79.590,-523.926
1630096943.688,-1000.000,-58.594,-1000.000,-1000.000
1630096943.692,-228.027,-58.105,-125.000,-208.984
1630096943.696,-833.984,-41.504,-799.316,-857.422
1630096943.700,234.375,-51.270,231.445,154.785
1630096943.703,-1000.000,-61.035,-1000.000,-1000.000
1630096943.707,-783.691,-63.965,-419.922,-580.078
1630096943.711,860.840,-54.688,-876.953,-969.238
1630096943.715,324.707,-49.316,428.711,247.070
1630096943.719,-1000.000,-53.711,-1000.000,-1000.000
1630096943.721,-1000.000,-53.711,-828.613,-1000.000
1630096943.725,121.094,-50.781,692.871,314.453
1630096943.729,639.648,-44.434,863.281,450.684
1630096943.733,-874.512,-42.480,-627.441,-998.047
1630096943.737,-1000.000,-36.621,-1000.000,-1000.000
1630096943.741,-128.418,-29.785,124.512,-65.918
1630096943.745,926.270,-27.832,-915.527,702.637
1630096943.748,-433.594,-39.551,-172.852,-725.098
1630096943.752,-1000.000,-51.270,-1000.000,-1000.000
1630096943.756,-676.758,-41.992,-282.715,-465.820
1630096943.760,881.836,-25.879,-853.516,-968.262
1630096943.764,282.227,-43.945,211.426,184.082
1630096943.766,-1000.000,-37.598,-1000.000,-1000.000
1630096943.770,-1000.000,-17.578,-616.699,-944.336
1630096943.774,291.504,-19.531,937.988,592.773
1630096943.778,458.008,-29.785,488.770,347.656
1630096943.782,-1000.000,-33.203,-1000.000,-1000.000
1630096943.786,-1000.000,-25.879,-874.023,-1000.000
1630096943.790,68.359,-22.949,618.652,307.129
1630096943.793,890.137,-27.832,914.551,720.703
1630096943.797,-604.004,-41.992,-521.973,-830.566
1630096943.801,-1000.000,-36.133,-1000.000,-1000.000
1630096943.805,-236.328,-21.484,-37.109,-200.195
1630096943.809,-860.352,-17.090,-871.582,-871.094
1630096943.811,216.797,-26.367,9.277,16.602
1630096943.815,-1000.000,-32.715,-1000.000,-1000.000
1630096943.819,-536.621,-20.996,-283.691,-293.457
1630096943.823,-948.242,-11.719,-834.473,-846.191
1630096943.827,634.766,-19.531,398.926,443.848
1630096943.831,-994.141,-24.414,-1000.000,-1000.000
1630096943.835,-899.414,-22.461,-500.000,-560.059
1630096943.838,574.707,-26.855,996.094,941.895
1630096943.842,-829.102,-33.203,873.047,-964.355
1630096943.846,-79.590,-34.668,-622.070,-375.488
1630096943.850,-1000.000,-32.715,-970.703,-1000.000
1630096943.854,-96.680,-31.250,489.746,310.059
1630096943.856,-784.180,-24.902,-851.074,-769.531
1630096943.860,212.891,-31.738,-118.164,68.359
1630096943.864,-1000.000,-40.039,-1000.000,-1000.000
1630096943.868,-187.500,-24.902,39.062,-20.508
1630096943.872,-991.211,-16.602,-782.715,-895.996
1630096943.876,-998.047,-15.137,313.477,939.941
1630096943.880,762.207,-26.367,-1000.000,-453.125
1630096943.883,-524.414,-38.086,-298.828,-479.980
1630096943.887,-1000.000,-26.367,-851.562,-980.957
1630096943.891,-369.629,-25.391,650.391,982.422
1630096943.895,868.652,-32.227,-922.363,928.223
1630096943.899,-887.695,-23.438,-440.430,897.949
1630096943.902,286.621,-10.254,-971.191,-834.473
1630096943.906,-1000.000,-18.555,980.469,179.199
1630096943.910,-858.887,-28.320,-423.828,-823.730
1630096943.914,729.492,-21.973,-777.344,585.449
1630096943.918,829.590,-21.973,646.484,-852.051
1630096943.922,-748.047,-25.391,-798.828,825.195
1630096943.926,-1000.000,-27.832,108.887,-457.031
1630096943.929,194.824,-28.320,-1000.000,61.035
1630096943.933,-779.785,-17.090,167.969,-809.082
1630096943.937,13.184,-19.043,-766.602,897.949
1630096943.941,-1000.000,-37.598,285.156,-491.211
1630096943.945,-31.250,-30.273,-1000.000,-113.281
1630096943.946,-762.207,-30.762,-127.441,-886.719
1630096943.950,178.711,-46.875,-846.680,-924.316
1630096943.954,-1000.000,-66.895,731.934,-166.992
1630096943.958,-246.582,-68.848,-740.723,-260.254
1630096943.962,-793.945,-74.707,-323.242,-952.148
1630096943.966,355.957,-93.262,-937.012,-863.770
1630096943.970,-1000.000,-108.398,993.652,-105.957
1630096943.973,-294.434,-102.539,-250.488,-316.406
1630096943.977,-800.781,-97.656,-424.805,-985.352
1630096943.981,507.812,-112.305,910.645,-839.844
1630096943.985,-1000.000,-115.723,-896.973,-68.359
1630096943.989,-380.371,-97.656,333.008,-365.234
1630096944.006,-864.746,-86.914,70.801,-991.699
1630096944.010,739.258,-90.332,879.395,-865.234
1630096944.014,-872.559,-86.426,-907.715,-261.719
1630096944.018,-742.676,-83.008,569.336,-705.078
1630096944.022,882.324,-71.289,102.051,905.273
1630096944.026,-962.402,-58.594,763.184,-907.227
1630096944.030,-458.008,-67.383,-935.059,-358.887
1630096944.033,-1000.000,-70.801,748.047,-1000.000
1630096944.037,415.527,-49.316,731.445,498.535
1630096944.041,-806.152,-60.059,965.820,-814.941
1630096944.045,-77.637,-72.754,-977.539,-102.051
1630096944.049,-1000.000,-60.059,777.344,-1000.000
1630096944.051,-187.988,-52.246,500.977,-116.211
1630096944.055,-803.711,-51.270,876.953,-787.598
1630096944.059,225.098,-54.688,-982.422,215.820
1630096944.063,-1000.000,-60.547,914.062,-1000.000
1630096944.067,-272.461,-45.898,805.664,-272.461
1630096944.071,-815.430,-33.691,931.152,-812.012
1630096944.075,470.215,-45.410,984.863,442.871
1630096944.078,-1000.000,-46.875,965.332,-1000.000
1630096944.082,-588.867,-40.039,901.367,-527.344
1630096944.086,988.281,-38.086,917.969,-968.262
1630096944.090,909.668,-40.039,970.215,853.027
1630096944.094,-578.613,-40.039,989.258,-660.156
1630096944.096,-1000.000,-34.668,874.512,-1000.000
1630096944.100,268.555,-33.203,818.848,376.465
1630096944.104,-791.992,-40.527,962.402,-808.105
1630096944.108,-1.465,-46.387,-997.559,-51.758
1630096944.112,-1000.000,-46.875,866.211,-1000.000
1630096944.116,-242.188,-27.344,766.602,-200.195
1630096944.120,-819.824,-16.602,958.984,-813.965
1630096944.123,239.746,-42.969,970.215,208.008
1630096944.127,-1000.000,-58.105,-996.094,-1000.000
1630096944.131,-431.641,-39.551,584.473,-399.414
1630096944.135,-871.582,-17.578,604.980,-863.281
1630096944.139,362.793,-33.203,992.188,282.715
1630096944.142,-1000.000,-40.039,-966.309,-1000.000
1630096944.146,-902.832,-25.879,545.410,-894.531
1630096944.150,658.203,-17.578,253.418,692.383
1630096944.154,874.512,-27.832,806.641,726.074
1630096944.158,-663.574,-53.223,-931.641,-833.008
1630096944.162,-1000.000,-47.363,619.629,-1000.000
1630096944.166,-65.918,-12.695,-1.953,-30.273
1630096944.169,-824.219,-13.672,436.523,-855.469
1630096944.173,27.832,-37.598,-975.098,-112.305
1630096944.177,-1000.000,-42.480,570.801,-1000.000
1630096944.181,-238.770,-32.715,-450.195,-225.586
1630096944.185,-825.195,-30.273,-187.988,-832.520
1630096944.186,242.676,-45.898,659.180,233.398
1630096944.190,-1000.000,-46.875,863.770,-1000.000
1630096944.194,-585.938,-41.016,12.207,-555.664
1630096944.198,-962.891,-36.621,-29.785,-939.941
1630096944.202,617.188,-36.621,800.781,524.902
1630096944.206,-935.547,-34.180,-923.828,-994.141
1630096944.210,-1000.000,-42.480,533.691,-1000.000
1630096944.213,265.137,-62.500,-311.523,338.379
1630096944.217,-830.566,-53.711,303.711,-917.480
1630096944.221,-170.898,-42.480,-881.836,-348.145
1630096944.225,-1000.000,-43.457,498.535,-1000.000
1630096944.229,-225.098,-39.551,-517.578,-186.523
1630096944.231,-825.684,-30.762,62.012,-828.125
1630096944.235,235.840,-41.504,-989.258,176.758
1630096944.239,-1000.000,-46.875,797.363,-1000.000
1630096944.243,-318.359,-31.250,-235.352,-295.410
1630096944.247,-829.102,-20.508,-250.000,-829.102
1630096944.251,324.707,-34.180,757.812,266.113
1630096944.255,-1000.000,-63.965,-933.594,-1000.000
1630096944.258,-771.484,-62.012,73.242,-726.562
1630096944.262,888.184,-30.762,-433.594,927.246
1630096944.266,633.301,-23.926,488.770,509.277
1630096944.270,-933.105,-29.297,-983.887,-998.535
1630096944.274,-1000.000,-25.391,224.609,-1000.000
1630096944.276,149.414,-16.113,-374.023,210.449
1630096944.280,-846.680,-21.484,334.473,-968.750
1630096944.284,-202.637,-30.762,946.777,-429.688
1630096944.288,-1000.000,-21.973,557.617,-1000.000
1630096944.292,-222.168,-3.906,-446.777,-208.984
1630096944.296,-833.496,-5.859,114.746,-848.633
1630096944.300,242.676,-24.414,-918.457,152.832
1630096944.303,-1000.000,-35.645,621.582,-1000.000
1630096944.307,-438.477,-20.996,-473.633,-416.016
1630096944.311,-875.977,-4.883,-328.613,-879.395
1630096944.315,238.770,-23.926,378.906,242.676
1630096944.319,-1000.000,-32.715,551.758,-1000.000
1630096944.336,-983.398,-25.391,-300.781,-957.520
1630096944.340,532.715,-15.625,-1000.000,604.004
1630096944.344,805.664,-25.391,-216.309,663.086
1630096944.348,-771.973,-37.109,728.516,-896.973
1630096944.352,-1000.000,-24.902,-34.180,-1000.000
1630096944.356,-46.875,-14.160,-822.754,8.301
1630096944.360,-854.980,-18.555,-161.621,-961.426
1630096944.363,-122.559,-32.715,586.426,-351.074
1630096944.367,-1000.000,-32.715,297.363,-1000.000
1630096944.371,-223.145,-24.414,-788.574,-211.914
1630096944.375,-835.938,-17.578,-901.855,-847.656
1630096944.379,244.629,-27.832,212.402,202.148
1630096944.381,-1000.000,-34.180,740.723,-1000.000
1630096944.385,-616.699,-26.367,-314.453,-601.562
1630096944.389,-967.285,-13.672,-1000.000,-969.727
1630096944.393,466.309,-14.648,-133.301,339.355
1630096944.397,-1000.000,-33.203,692.383,-1000.000
1630096944.401,-1000.000,-32.227,-186.035,-1000.000
1630096944.405,354.004,-17.090,-1000.000,375.488
1630096944.408,814.453,-23.926,-687.988,679.199
1630096944.412,-745.605,-33.691,599.609,-869.141
1630096944.416,-1000.000,-44.922,385.742,-1000.000
1630096944.420,-180.664,-38.574,-927.246,-134.766
1630096944.424,-896.973,-24.414,-986.328,990.723
1630096944.426,-124.023,-41.504,128.418,-348.633
1630096944.430,-1000.000,-49.805,432.617,-1000.000
1630096944.434,-261.230,-45.898,-776.855,-256.836
1630096944.438,-851.562,-34.180,-1000.000,-859.863
1630096944.442,238.281,-37.109,132.324,235.840
1630096944.446,-1000.000,-44.434,856.445,-1000.000
1630096944.450,-829.590,-33.203,-214.844,-820.801
1630096944.453,803.711,-21.484,-1000.000,805.176
1630096944.457,373.047,-38.086,-641.602,313.965
1630096944.461,-1000.000,-55.664,187.500,-1000.000
1630096944.465,-1000.000,-45.410,-349.121,-1000.000
1630096944.469,181.152,-29.785,-1000.000,215.332
1630096944.471,953.613,-14.648,-759.766,795.410
1630096944.475,-558.594,-28.320,251.953,-745.605
1630096944.479,-1000.000,-48.828,66.406,-1000.000
1630096944.483,-206.055,-33.203,-981.934,-194.336
1630096944.487,-854.004,-22.461,-995.605,-881.836
1630096944.491,128.418,-39.551,188.477,-13.184
1630096944.495,-1000.000,-52.246,522.461,-1000.000
1630096944.498,-407.227,-41.504,-721.680,-379.395
1630096944.502,-880.859,-45.898,-1000.000,-885.254
1630096944.506,252.441,-69.336,-175.293,255.371
1630096944.510,-1000.000,-59.570,196.289,-1000.000
1630096944.514,-863.281,-44.434,-633.789,-829.590
1630096944.516,754.395,-33.203,-1000.000,798.340
1630096944.520,599.121,-36.133,-638.672,474.121
1630096944.524,-957.031,-42.480,312.500,-1000.000
1630096944.528,-1000.000,-42.480,-155.762,-1000.000
1630096944.532,41.016,-33.691,-1000.000,86.914
1630096944.536,-838.379,-29.297,-723.145,-917.480
1630096944.540,-137.695,-40.039,526.855,-313.965
1630096944.543,-1000.000,-54.688,227.539,-1000.000
1630096944.547,-224.609,-44.434,-1000.000,-217.285
1630096944.551,-830.078,-23.438,-882.324,-836.426
1630096944.555,242.188,-42.969,321.777,224.121
1630096944.559,-1000.000,-46.387,402.344,-1000.000
1630096944.561,-442.871,-27.832,-816.406,-409.180
1630096944.565,-877.930,-30.273,-1000.000,-868.164
1630096944.569,300.781,-45.410,-197.266,261.719
1630096944.573,-1000.000,-52.734,339.355,-1000.000
1630096944.577,-891.113,-49.316,-596.191,-844.238
1630096944.581,690.918,-33.691,-812.988,768.555
1630096944.585,776.855,-41.016,54.199,646.484
1630096944.588,-795.410,-70.801,365.234,-906.738
1630096944.592,-1000.000,-66.406,-353.516,-1000.000
1630096944.596,47.363,-54.688,-780.273,102.051
1630096944.600,-868.652,-64.453,-163.086,-975.098
1630096944.604,-216.309,-73.730,206.055,-409.180
1630096944.607,-1000.000,-68.359,-198.242,-1000.000
1630096944.611,-217.773,-56.641,-965.820,-204.590
1630096944.615,-835.449,-60.547,-688.477,-851.074
1630096944.619,222.656,-75.195,7.812,115.723
1630096944.623,-1000.000,-66.895,-225.098,-1000.000
1630096944.627,-425.781,-35.645,-582.520,-381.348
1630096944.631,-870.605,-41.016,180.176,-869.141
1630096944.634,289.551,-70.312,489.746,238.281
1630096944.638,-1000.000,-72.754,-79.590,-1000.000
1630096944.642,-1000.000,-67.871,-804.688,-958.496
1630096944.646,551.270,-55.664,-654.297,619.141
1630096944.650,664.551,-65.918,-203.613,573.730
1630096944.651,-916.016,-72.754,-135.254,-968.750
1630096944.655,-1000.000,-54.199,-511.719,-1000.000
1630096944.659,-65.430,-43.945,-686.523,0.000
1630096944.663,-852.051,-48.828,71.777,-899.414
1630096944.667,-101.562,-53.711,329.590,-244.141
1630096944.671,-1000.000,-57.617,64.941,-1000.000
1630096944.675,-225.098,-62.012,-638.672,-215.332
1630096944.678,-833.496,-66.895,-264.160,-841.309
1630096944.682,244.629,-78.613,131.348,199.707
1630096944.686,-1000.000,-70.801,-237.305,-1000.000
1630096944.690,-579.590,-51.758,-863.281,-509.277
1630096944.694,-944.336,-39.062,-308.105,-916.504
1630096944.711,327.637,-60.547,62.988,274.902
1630096944.715,-1000.000,-71.777,-348.145,-1000.000
1630096944.719,-1000.000,-55.664,-789.062,-999.512
1630096944.723,363.770,-57.617,-570.801,506.836
1630096944.727,920.410,-68.359,180.664,793.457
1630096944.731,-626.953,-69.824,166.504,-774.414
1630096944.735,-1000.000,-72.754,-377.441,-1000.000
1630096944.738,-119.141,-67.383,-430.664,-45.898
1630096944.742,-851.562,-51.270,456.543,-883.301
1630096944.746,-41.992,-58.105,90.820,-184.570
1630096944.750,-1000.000,-64.941,-729.004,-1000.000
1630096944.754,-228.516,-49.316,-835.938,-219.727
1630096944.756,-832.031,-38.574,248.047,-837.891
1630096944.760,240.234,-51.270,645.996,244.629
1630096944.764,-1000.000,-50.781,-124.512,-1000.000
1630096944.768,-706.055,-45.898,-905.273,-628.418
1630096944.772,942.383,-36.133,-4.883,-979.492
1630096944.776,599.121,-42.969,996.094,467.773
1630096944.780,-942.871,-57.617,273.926,-1000.000
1630096944.783,-1000.000,-51.758,-883.789,-1000.000
1630096944.787,186.523,-43.457,-241.211,294.434
1630096944.791,-947.266,-61.035,-998.535,914.551
1630096944.795,-399.902,-72.266,239.746,-610.352
1630096944.799,-1000.000,-55.176,-898.926,-1000.000
1630096944.801,-203.125,-44.922,-686.035,-173.828
1630096944.805,-850.098,-46.875,536.621,-869.141
1630096944.809,87.402,-53.223,129.395,-40.527
1630096944.813,-1000.000,-64.453,-947.266,-1000.000
1630096944.817,-311.035,-50.781,-746.094,-252.930
1630096944.821,-847.656,-28.809,685.059,-840.332
1630096944.825,242.676,-44.922,710.938,243.652
1630096944.828,-1000.000,-51.270,-577.148,-1000.000
1630096944.832,-803.223,-50.781,-1000.000,-715.332
1630096944.836,833.496,-36.133,130.371,936.523
1630096944.840,606.445,-31.738,825.195,485.840
1630096944.844,-947.266,-46.387,-395.508,-1000.000
1630096944.847,-1000.000,-40.527,-1000.000,-1000.000
1630096944.851,104.980,-35.156,-170.898,215.820
1630096944.855,-891.602,-48.340,-984.863,983.398
1630096944.859,-283.691,-59.570,-112.793,-510.254
1630096944.863,-1000.000,-57.129,-1000.000,-1000.000
1630096944.867,-215.332,-40.527,-417.969,-201.172
1630096944.871,-839.355,-28.320,-990.723,-857.422
1630096944.874,213.867,-54.199,289.551,78.125
1630096944.878,-1000.000,-74.707,-1000.000,-1000.000
1630096944.882,-440.430,-53.223,-934.082,-365.723
1630096944.886,-883.789,-29.297,509.277,-870.117
1630096944.890,251.465,-47.363,457.031,251.465
1630096944.891,-1000.000,-54.199,-941.895,-1000.000
1630096944.895,-892.090,-39.551,-1000.000,-815.430
1630096944.899,692.871,-37.109,86.914,812.988
1630096944.903,721.680,-39.551,839.355,585.938
1630096944.907,-854.980,-43.457,-309.082,-954.590
1630096944.911,-1000.000,-51.270,-1000.000,-1000.000
1630096944.915,25.391,-30.273,-196.289,108.398
1630096944.918,-867.676,-27.832,973.145,-964.844
1630096944.922,-207.520,-67.871,-208.984,-400.879
1630096944.926,-1000.000,-71.777,-1000.000,-1000.000
1630096944.930,-219.238,-41.016,-540.039,-210.938
1630096944.934,-837.891,-35.156,917.969,-845.703
1630096944.936,244.629,-58.594,273.438,185.547
1630096944.940,-1000.000,-57.129,-1000.000,-1000.000
1630096944.944,-537.109,-36.621,-930.664,-458.984
1630096944.948,-920.898,-24.414,498.047,-894.043
1630096944.952,396.484,-44.434,698.242,294.434
1630096944.956,-1000.000,-52.734,-714.355,-1000.000
1630096944.960,-1000.000,-40.039,-1000.000,-938.477
1630096944.963,496.582,-26.855,97.168,619.141
1630096944.967,912.109,-32.715,994.629,766.113
1630096944.971,-624.512,-51.758,-298.340,-800.293
1630096944.975,-1000.000,-47.852,-1000.000,-1000.000
1630096944.979,-133.789,-41.992,-300.781,-36.133
1630096944.981,-847.168,-31.738,-931.641,-862.305
1630096944.985,-3.906,-48.828,52.734,-140.137
1630096944.989,-1000.000,-58.105,-1000.000,-1000.000
1630096944.993,-232.422,-32.227,-649.902,-223.145
1630096944.997,-829.102,-34.180,810.059,-834.473
1630096945.001,243.164,-48.828,609.863,244.629
1630096945.005,-1000.000,-54.199,-819.824,-1000.000
1630096945.008,-637.695,-46.875,-1000.000,-578.613
1630096945.012,-978.516,-32.715,383.301,-945.312
1630096945.016,441.895,-49.805,665.527,341.797
1630096945.020,-1000.000,-57.617,-743.652,-1000.000
1630096945.024,-1000.000,-54.199,-1000.000,-1000.000
1630096945.026,238.770,-43.457,-76.660,379.395
1630096945.030,-965.820,-46.387,-990.234,900.391
1630096945.034,-448.242,-60.059,-222.168,-642.578
1630096945.038,-1000.000,-47.363,-1000.000,-1000.000
1630096945.042,-211.426,-36.621,-338.867,-170.898
1630096945.046,-841.309,-34.668,-886.719,-849.609
1630096945.050,180.664,-57.617,272.461,51.270
1630096945.053,-1000.000,-74.707,-1000.000,-1000.000
1630096945.057,-321.777,-53.711,-683.594,-266.113
1630096945.061,-831.055,-43.457,889.648,-821.777
1630096945.065,222.656,-65.918,278.809,214.355
1630096945.069,-1000.000,-78.613,-1000.000,-1000.000
1630096945.072,-671.387,-59.082,-1000.000,-549.805
1630096945.076,864.746,-36.621,260.254,944.824
1630096945.080,567.383,-41.504,627.930,464.844
1630096945.084,-963.867,-48.340,-820.801,-1000.000
1630096945.088,-1000.000,-46.387,-1000.000,-1000.000
1630096945.092,156.250,-32.227,-75.684,251.465
1630096945.096,-958.008,-26.855,867.676,937.012
1630096945.099,-415.527,-39.551,-455.078,-578.613
1630096945.103,-1000.000,-36.133,-1000.000,-1000.000
1630096945.107,-209.961,-17.578,-459.961,-199.707
1630096945.111,-846.680,-10.254,888.672,-860.840
1630096945.115,172.363,-33.691,-31.250,58.105
1630096945.131,-1000.000,-34.668,-1000.000,-1000.000
1630096945.135,-425.781,-5.859,-894.531,-347.168
1630096945.139,-882.812,-4.883,566.895,-864.746
1630096945.143,250.977,-27.344,387.695,248.047
1630096945.147,-1000.000,-39.062,-1000.000,-1000.000
1630096945.151,-892.578,-27.832,-1000.000,-824.707
1630096945.155,700.195,-17.578,179.688,803.223
1630096945.158,695.312,-34.180,717.773,580.566
1630096945.162,-879.883,-47.363,-683.594,-958.496
1630096945.166,-1000.000,-43.945,-1000.000,-1000.000
1630096945.170,-16.602,-37.109,-201.660,78.613
1630096945.174,-852.539,-38.086,994.141,-915.039
1630096945.176,-137.695,-56.152,-155.762,-312.988
1630096945.180,-1000.000,-50.781,-1000.000,-1000.000
1630096945.184,-223.145,-25.879,-491.699,-213.379
1630096945.188,-834.473,-25.391,999.512,-842.285
1630096945.192,244.629,-44.434,207.031,202.148
1630096945.196,-1000.000,-49.316,-1000.000,-1000.000
1630096945.200,-543.945,-36.133,-917.480,-478.516
1630096945.203,-923.340,-31.738,562.988,-900.879
1630096945.207,356.934,-59.570,556.641,283.691
1630096945.211,-1000.000,-69.824,-896.484,-1000.000
1630096945.215,-1000.000,-54.688,-1000.000,-963.379
1630096945.219,424.805,-38.574,-9.766,569.824
1630096945.221,929.199,-41.016,984.375,794.434
1630096945.225,-607.422,-53.711,-291.504,-769.531
1630096945.229,-1000.000,-48.828,-1000.000,-1000.000
1630096945.233,-161.133,-38.574,-297.363,-79.102
1630096945.237,-843.750,-37.598,-892.578,-850.586
1630096945.241,54.199,-60.547,201.660,-72.754
1630096945.245,-1000.000,-64.453,-1000.000,-1000.000
1630096945.248,-238.281,-48.340,-557.617,-226.562
1630096945.252,-825.684,-35.645,-992.188,-831.543
1630096945.256,242.188,-41.992,333.008,239.258
1630096945.260,-1000.000,-54.688,-1000.000,-1000.000
1630096945.264,-643.555,-49.805,-1000.000,-583.984
1630096945.266,-981.445,-41.992,366.211,-948.730
1630096945.270,438.965,-59.570,580.566,346.191
1630096945.274,-1000.000,-56.152,-854.004,-1000.000
1630096945.278,-1000.000,-30.273,-1000.000,-1000.000
1630096945.282,196.289,2.930,-160.645,336.426
1630096945.286,-911.621,18.555,-940.430,967.773
1630096945.290,-352.051,6.348,-77.148,-548.828
1630096945.293,-1000.000,16.113,-1000.000,-1000.000
1630096945.297,-211.914,32.715,-383.301,-177.246
1630096945.301,-839.355,48.828,-925.781,-850.586
1630096945.305,170.410,42.969,218.750,48.828
1630096945.309,-1000.000,31.738,-1000.000,-1000.000
1630096945.312,-327.148,46.387,-701.172,-272.949
1630096945.316,-845.703,57.129,827.637,-838.867
1630096945.320,249.512,36.133,482.422,247.559
1630096945.324,-1000.000,23.438,-1000.000,-1000.000
1630096945.328,-749.023,46.387,-993.164,-691.406
1630096945.332,921.875,63.477,368.164,977.539
1630096945.336,630.859,51.270,913.574,522.949
1630096945.339,-925.781,39.062,-393.555,-985.840
1630096945.343,-1000.000,36.621,-1000.000,-1000.000
1630096945.347,73.242,47.363,-150.879,166.016
1630096945.351,-844.238,54.688,-886.719,-924.805
1630096945.355,-168.945,32.227,37.109,-356.445
1630096945.356,-1000.000,8.789,-1000.000,-1000.000
1630096945.360,-222.656,19.043,-375.488,-212.891
1630096945.364,-831.543,36.621,-889.648,-839.355
1630096945.368,241.699,11.719,420.410,187.500
1630096945.372,-1000.000,2.930,-1000.000,-1000.000
1630096945.376,-429.199,16.602,-648.926,-359.863
1630096945.380,-869.629,22.461,905.273,-853.027
1630096945.383,320.312,-0.488,693.848,251.953
1630096945.387,-1000.000,-21.973,-692.383,-1000.000
1630096945.391,-943.359,-11.230,-1000.000,-865.234
1630096945.395,589.844,-5.859,107.910,729.492
1630096945.399,873.535,-15.625,-951.660,723.633
1630096945.401,-677.734,-25.391,-218.750,-842.773
1630096945.405,-1000.000,-30.762,-1000.000,-1000.000
1630096945.409,-50.293,-26.855,-206.543,31.250
1630096945.413,-836.426,-18.555,-870.605,-866.211
1630096945.417,-50.781,-30.273,89.844,-187.988
1630096945.421,-1000.000,-32.227,-1000.000,-1000.000
1630096945.425,-230.469,-11.719,-470.703,-221.191
1630096945.428,-830.566,-17.578,-985.840,-834.961
1630096945.432,243.652,-41.016,574.707,239.746
1630096945.436,-1000.000,-46.875,-874.023,-1000.000
1630096945.440,-584.473,-33.203,-973.633,-519.531
1630096945.444,-948.730,-18.066,534.180,-912.598
1630096945.446,483.887,-35.156,798.828,374.512
1630096945.450,-1000.000,-50.781,-636.719,-1000.000
1630096945.454,-1000.000,-41.016,-1000.000,-1000.000
1630096945.458,365.234,-27.832,-2.930,511.719
1630096945.462,967.773,-32.227,982.910,833.984
1630096945.466,-549.805,-45.410,-278.809,-722.168
1630096945.470,-1000.000,-47.852,-1000.000,-1000.000
1630096945.473,-175.781,-29.297,-267.090,-108.887
1630096945.477,-843.262,-23.438,-889.160,-852.051
1630096945.481,77.637,-45.410,111.328,-46.875
1630096945.485,-1000.000,-44.922,-1000.000,-1000.000
1630096945.489,-248.047,-28.320,-709.473,-228.516
1630096945.506,-826.660,-22.949,821.289,-831.055
1630096945.510,239.258,-39.062,466.797,242.676
1630096945.514,-1000.000,-40.039,-1000.000,-1000.000
1630096945.518,-713.379,-23.438,-1000.000,-643.066
1630096945.522,934.570,-15.625,300.293,-993.164
1630096945.526,602.539,-33.691,874.512,490.723
1630096945.530,-943.359,-59.082,-500.000,-1000.000
1630096945.533,-1000.000,-43.457,-1000.000,-1000.000
1630096945.537,165.039,-22.461,-113.281,268.555
1630096945.541,-894.531,-39.062,-937.012,987.793
1630096945.545,-305.176,-56.641,-140.137,-510.742
1630096945.549,-1000.000,-52.734,-1000.000,-1000.000
1630096945.552,-215.820,-40.527,-361.816,-189.453
1630096945.556,-835.938,-31.738,-896.973,-846.680
1630096945.560,213.379,-47.852,218.262,96.191
1630096945.564,-1000.000,-57.129,-1000.000,-1000.000
1630096945.568,-360.352,-44.434,-734.375,-300.293
1630096945.572,-849.121,-29.297,820.801,-841.797
1630096945.576,241.211,-47.363,517.578,243.164
1630096945.579,-1000.000,-57.617,-927.734,-1000.000
1630096945.583,-841.797,-55.176,-1000.000,-764.648
1630096945.587,757.812,-48.340,143.555,875.977
1630096945.591,721.680,-44.922,859.375,588.867
1630096945.595,-851.562,-57.129,-508.301,-953.125
1630096945.596,-1000.000,-46.387,-1000.000,-1000.000
1630096945.600,52.246,-22.461,-162.109,132.324
1630096945.604,-840.820,-27.344,-918.945,-912.598
1630096945.608,-143.066,-42.480,-47.363,-323.242
1630096945.612,-1000.000,-41.992,-1000.000,-1000.000
1630096945.616,-224.609,-25.391,-354.492,-212.891
1630096945.620,-832.031,-15.137,-876.465,-841.309
1630096945.623,243.164,-34.180,264.648,190.918
1630096945.627,-1000.000,-43.945,-1000.000,-1000.000
1630096945.631,-483.398,-24.414,-901.367,-420.898
1630096945.635,-895.020,0.977,612.305,-876.953
1630096945.639,326.660,-13.184,521.973,256.836
1630096945.641,-1000.000,-36.621,-946.289,-1000.000
1630096945.645,-958.984,-29.785,-1000.000,-892.578
1630096945.649,570.801,-10.254,79.102,693.848
1630096945.653,858.398,-12.207,933.594,698.242
1630096945.657,-702.148,-28.320,-388.672,-869.629
1630096945.661,-1000.000,-21.973,-1000.000,-1000.000
1630096945.665,-49.316,-2.441,-192.383,11.719
1630096945.668,-831.543,-5.371,-877.441,-864.258
1630096945.672,-26.855,-25.391,69.824,-174.805
1630096945.676,-1000.000,-28.809,-1000.000,-1000.000
1630096945.680,-232.910,-10.254,-512.207,-221.680
1630096945.684,-828.613,-9.766,972.656,-834.961
1630096945.693,243.652,-28.809,583.008,240.234
1630096945.697,-1000.000,-25.391,-875.977,-1000.000
1630096945.701,-575.684,-11.719,-940.918,-526.855
1630096945.705,-944.824,-5.859,544.922,-916.992
1630096945.709,492.676,-25.879,861.328,367.188
1630096945.713,-1000.000,-31.250,-531.250,-1000.000
1630096945.717,-1000.000,-19.531,-1000.000,-1000.000
1630096945.720,391.113,-24.902,46.387,512.207
1630096945.724,-986.328,-37.109,-878.906,850.586
1630096945.728,-474.121,-39.551,-65.918,-700.195
1630096945.732,-1000.000,-25.391,-1000.000,-1000.000
1630096945.736,-184.082,-8.301,-280.273,-120.605
1630096945.731,-840.820,-2.441,-851.074,-854.004
1630096945.735,92.773,-24.414,207.520,-42.480
1630096945.739,-1000.000,-34.180,-1000.000,-1000.000
1630096945.743,-242.188,-12.207,-620.117,-228.516
1630096945.747,-823.242,-3.906,876.953,-830.566
1630096945.751,237.305,-10.742,677.734,243.164
1630096945.755,-1000.000,-14.648,-746.582,-1000.000
1630096945.758,-713.867,-9.766,-1000.000,-640.137
1630096945.762,937.988,-4.395,367.188,-989.746
1630096945.766,561.035,-18.555,865.234,442.871
1630096945.770,-974.121,-28.809,-524.414,-1000.000
1630096945.774,-1000.000,-16.113,-1000.000,-1000.000
1630096945.777,186.035,8.789,-57.129,298.828
1630096945.781,-884.766,-0.977,-865.234,982.422
1630096945.785,-294.434,-29.785,-6.836,-522.949
1630096945.789,-1000.000,-16.602,-1000.000,-1000.000
1630096945.793,-216.797,8.789,-317.871,-188.965
1630096945.797,-834.961,16.602,-855.469,-848.145
1630096945.801,217.773,-6.348,293.457,84.961
1630096945.804,-1000.000,-11.230,-1000.000,-1000.000
1630096945.808,-354.492,20.508,-638.184,-293.457
1630096945.812,-846.680,33.203,931.641,-841.309
1630096945.816,242.188,11.230,541.504,244.629
1630096945.820,-1000.000,1.953,-913.574,-1000.000
1630096945.821,-819.336,17.578,-1000.000,-740.723
1630096945.825,787.109,36.133,310.059,906.738
1630096945.829,717.773,20.020,972.656,574.707
1630096945.833,-851.562,-6.348,-386.719,-959.473
1630096945.837,-1000.000,0.488,-1000.000,-1000.000
1630096945.841,63.477,17.090,-108.398,149.902
1630096945.845,-845.703,17.090,-888.672,-928.711
1630096945.848,-167.480,-5.859,-41.016,-356.445
1630096945.852,-1000.000,-10.254,-1000.000,-1000.000
1630096945.856,-222.656,13.184,-429.688,-212.891
1630096945.860,-833.008,13.184,-927.734,-841.309
1630096945.864,243.164,-10.742,303.223,192.871
1630096945.881,-1000.000,-20.996,-1000.000,-1000.000
1630096945.885,-465.332,-4.883,-768.066,-402.344
1630096945.889,-885.254,6.348,777.832,-869.141
1630096945.893,327.637,-9.766,627.930,258.301
1630096945.897,-1000.000,-8.789,-848.145,-1000.000
1630096945.901,-944.336,1.465,-1000.000,-868.164
1630096945.905,590.820,5.859,221.191,729.004
1630096945.908,864.746,-8.301,-968.262,705.078
1630096945.912,-683.105,-24.902,-251.465,-854.980
1630096945.916,-1000.000,-26.855,-1000.000,-1000.000
1630096945.920,-67.383,-13.184,-212.402,10.742
1630096945.924,-852.539,-12.207,-946.289,-895.996
1630096945.926,-102.051,-28.320,-77.148,-241.699
1630096945.930,-1000.000,-30.273,-1000.000,-1000.000
1630096945.934,-224.609,-14.160,-504.395,-218.262
1630096945.938,-833.496,-11.230,-999.023,-837.402
1630096945.942,244.629,-34.180,477.539,240.234
1630096945.946,-1000.000,-33.691,-1000.000,-1000.000
1630096945.950,-573.730,-26.855,-878.906,-514.648
1630096945.953,-939.453,-17.090,656.250,-910.156
1630096945.957,454.102,-37.598,745.605,339.355
1630096945.961,-1000.000,-56.152,-691.895,-1000.000
1630096945.965,-1000.000,-35.156,-1000.000,-1000.000
1630096945.969,307.617,-13.184,-21.973,463.867
1630096945.971,994.629,-27.344,-967.773,841.309
1630096945.975,-508.789,-49.805,-194.824,-715.332
1630096945.979,-1000.000,-36.621,-1000.000,-1000.000
1630096945.983,-204.102,-27.832,-281.250,-129.395
1630096945.987,-847.168,-38.574,-868.652,-855.469
1630096945.991,103.516,-46.875,228.027,-38.574
1630096945.995,-1000.000,-41.992,-1000.000,-1000.000
1630096945.998,-258.301,-34.180,-631.348,-229.004
1630096946.002,-828.125,-29.785,943.848,-830.078
1630096946.006,239.746,-43.945,419.434,243.652
1630096946.010,-1000.000,-56.641,-1000.000,-1000.000
1630096946.014,-712.402,-48.828,-1000.000,-624.023
1630096946.018,933.594,-27.832,335.938,-974.121
1630096946.022,613.281,-36.621,924.316,489.258
1630096946.026,-937.500,-58.594,-476.074,-1000.000
1630096946.030,-1000.000,-66.406,-1000.000,-1000.000
1630096946.034,164.551,-49.316,-85.449,282.715
1630096946.038,-879.883,-30.762,-877.441,988.281
1630096946.042,-277.832,-40.527,-20.020,-510.254
1630096946.045,-1000.000,-58.594,-1000.000,-1000.000
1630096946.049,-213.867,-49.805,-342.773,-190.430
1630096946.053,-837.891,-29.297,-889.648,-853.027
1630096946.057,181.152,-52.734,170.410,56.641
1630096946.061,-1000.000,-58.594,-1000.000,-1000.000
1630096946.061,-357.910,-34.180,-653.320,-289.062
1630096946.065,-852.539,-27.344,876.953,-842.773
1630096946.069,262.695,-42.969,615.723,245.605
1630096946.073,-1000.000,-54.688,-888.672,-1000.000
1630096946.077,-788.574,-51.270,-989.746,-726.562
1630096946.081,830.566,-32.227,477.051,920.410
1630096946.085,715.332,-36.133,937.012,574.707
1630096946.088,-843.262,-67.871,-449.219,-954.102
1630096946.092,-1000.000,-54.199,-1000.000,-1000.000
1630096946.096,49.316,-17.578,-114.746,138.184
1630096946.100,-849.121,-27.832,-905.762,-935.547
1630096946.104,-171.387,-53.711,-72.754,-364.258
1630096946.106,-1000.000,-57.129,-1000.000,-1000.000
1630096946.110,-222.168,-43.945,-391.602,-210.938
1630096946.114,-833.496,-38.574,-903.320,-843.262
1630096946.118,243.164,-52.246,252.441,176.758
1630096946.122,-1000.000,-39.062,-1000.000,-1000.000
1630096946.126,-464.355,-22.461,-697.266,-401.855
1630096946.130,-883.301,-30.762,855.957,-870.117
1630096946.133,357.910,-53.711,637.695,265.625
1630096946.137,-1000.000,-70.801,-800.293,-1000.000
1630096946.141,-997.070,-58.105,-1000.000,-910.156
1630096946.145,550.781,-50.781,113.770,686.523
1630096946.149,795.410,-70.801,852.051,649.902
1630096946.151,-776.855,-89.355,-549.316,-913.086
1630096946.155,-1000.000,-84.473,-1000.000,-1000.000
1630096946.159,-67.871,-60.547,-174.316,14.648
1630096946.163,-851.562,-62.988,-921.875,-900.879
1630096946.167,-94.238,-87.891,-56.152,-255.371
1630096946.171,-1000.000,-77.148,-1000.000,-1000.000
1630096946.175,-225.586,-58.105,-477.051,-217.773
1630096946.178,-833.496,-54.199,-989.258,-838.379
1630096946.182,244.141,-72.266,539.551,245.117
1630096946.186,-1000.000,-77.637,-957.520,-1000.000
1630096946.190,-583.496,-63.965,-911.621,-520.508
1630096946.194,-945.312,-54.199,675.293,-912.598
1630096946.197,425.781,-68.848,615.234,305.664
1630096946.201,-1000.000,-76.660,-837.891,-1000.000
1630096946.205,-1000.000,-65.430,-1000.000,-1000.000
1630096946.209,322.754,-43.457,-3.906,474.121
1630096946.213,967.773,-46.875,968.262,807.617
1630096946.217,-551.270,-67.871,-315.430,-755.859
1630096946.221,-1000.000,-62.500,-1000.000,-1000.000
1630096946.224,-195.801,-35.645,-264.648,-128.418
1630096946.228,-849.609,-30.273,-887.695,-860.840
1630096946.232,81.055,-63.477,90.820,-61.035
1630096946.236,-1000.000,-61.523,-1000.000,-1000.000
1630096946.240,-260.254,-29.785,-587.402,-226.562
1630096946.257,-831.055,-16.602,961.426,-832.031
1630096946.261,239.746,-36.621,411.133,243.164
1630096946.265,-1000.000,-52.246,-1000.000,-1000.000
1630096946.269,-734.375,-40.039,-1000.000,-643.555
1630096946.273,911.133,-29.297,368.164,-993.164
1630096946.277,607.910,-49.316,908.203,476.074
1630096946.281,-942.383,-60.059,-504.395,-1000.000
1630096946.284,-1000.000,-44.434,-1000.000,-1000.000
1630096946.288,188.965,-27.832,-30.273,299.316
1630096946.292,-956.543,-37.598,-979.004,906.738
1630096946.296,-417.969,-50.293,-264.160,-625.488
1630096946.300,-1000.000,-39.062,-1000.000,-1000.000
1630096946.301,-213.867,-19.531,-301.758,-192.871
1630096946.305,-839.844,-10.742,-868.652,-852.539
1630096946.309,214.844,-28.320,236.328,76.660
1630096946.313,-1000.000,-48.828,-1000.000,-1000.000
1630096946.317,-356.445,-42.969,-550.781,-293.945
1630096946.321,-847.168,-20.020,-986.328,-841.797
1630096946.325,238.281,-38.086,495.117,241.211
1630096946.328,-1000.000,-46.875,-936.035,-1000.000
1630096946.332,-875.000,-44.922,-1000.000,-786.133
1630096946.336,736.328,-40.527,283.203,855.957
1630096946.340,645.996,-22.949,754.395,519.043
1630096946.344,-927.734,-24.414,-694.824,-996.094
1630096946.346,-1000.000,-21.973,-1000.000,-1000.000
1630096946.350,41.504,-4.395,-119.629,141.113
1630096946.354,-847.656,-6.348,-898.438,-936.523
1630096946.358,-165.039,-38.086,-50.781,-370.605
1630096946.362,-1000.000,-43.945,-1000.000,-1000.000
1630096946.366,-222.656,-17.578,-316.406,-210.449
1630096946.370,-833.984,-15.137,-864.258,-844.238
1630096946.373,243.164,-38.086,260.254,170.898
1630096946.377,-1000.000,-50.781,-1000.000,-1000.000
1630096946.381,-490.234,-36.621,-762.207,-413.086
1630096946.385,-896.973,-9.766,787.109,-875.000
1630096946.389,361.816,-29.785,630.859,268.066
1630096946.391,-1000.000,-53.711,-846.680,-1000.000
1630096946.395,-990.234,-37.598,-1000.000,-901.855
1630096946.399,541.016,-19.531,195.801,689.453
1630096946.403,846.191,-30.273,958.984,684.082
1630096946.407,-716.309,-42.969,-406.250,-882.324
1630096946.411,-1000.000,-34.668,-1000.000,-1000.000
1630096946.415,-74.219,-14.648,-146.973,2.441
1630096946.418,-841.797,-25.879,-898.926,-880.371
1630096946.422,-47.363,-44.434,-20.020,-207.031
1630096946.426,-1000.000,-41.504,-1000.000,-1000.000
1630096946.430,-229.980,-25.879,-372.559,-219.238
1630096946.434,-831.055,-16.113,-889.160,-837.402
1630096946.436,243.652,-31.250,398.438,239.746
1630096946.440,-1000.000,-36.133,-1000.000,-1000.000
1630096946.444,-618.652,-21.973,-939.941,-546.875
1630096946.448,-967.285,-5.859,592.285,-928.711
1630096946.452,429.199,-30.762,652.344,309.082
1630096946.456,-1000.000,-45.410,-813.965,-1000.000
1630096946.460,-1000.000,-34.180,-1000.000,-1000.000
1630096946.463,282.715,-31.250,-10.742,437.988
1630096946.467,-955.078,-35.645,-873.535,888.672
1630096946.471,-432.617,-47.363,-60.547,-656.250
1630096946.475,-1000.000,-49.805,-1000.000,-1000.000
1630096946.479,-205.566,-42.480,-261.230,-145.020
1630096946.484,-845.703,-39.551,-850.098,-856.934
1630096946.488,110.352,-46.875,180.176,-28.809
1630096946.492,-1000.000,-55.176,-1000.000,-1000.000
1630096946.496,-284.180,-45.898,-566.895,-229.004
1630096946.500,-835.938,-24.414,964.355,-830.078
1630096946.504,240.723,-28.809,568.359,241.211
1630096946.508,-1000.000,-58.594,-887.695,-1000.000
1630096946.511,-760.254,-55.664,-1000.000,-672.852
1630096946.515,880.859,-20.508,390.137,978.516
1630096946.519,623.047,-44.922,919.922,491.699
1630096946.523,-937.988,-58.594,-460.938,-1000.000
1630096946.527,-1000.000,-39.551,-1000.000,-1000.000
1630096946.526,145.996,-32.715,-66.406,252.441
1630096946.530,-867.676,-35.645,-875.488,996.094
1630096946.534,-252.930,-49.805,-39.551,-496.582
1630096946.538,-1000.000,-44.434,-1000.000,-1000.000
1630096946.542,-219.238,-17.578,-284.668,-201.172
1630096946.546,-833.984,-9.277,-844.238,-848.633
1630096946.550,241.211,-54.688,316.895,113.770
1630096946.553,-1000.000,-65.918,-1000.000,-1000.000
1630096946.557,-405.273,-16.113,-661.621,-322.266
1630096946.561,-864.258,-11.230,941.895,-847.656
1630096946.565,243.652,-45.898,466.309,242.676
1630096946.569,-1000.000,-50.293,-976.074,-1000.000
1630096946.571,-891.113,-40.527,-1000.000,-811.035
1630096946.575,687.500,-31.738,197.754,818.848
1630096946.579,747.559,-49.805,909.668,597.656
1630096946.583,-833.008,-75.195,-495.605,-952.637
1630096946.587,-1000.000,-69.824,-1000.000,-1000.000
1630096946.591,35.156,-65.430,-101.562,118.164
1630096946.595,-839.355,-57.617,-861.816,-910.645
1630096946.598,-129.395,-56.641,16.602,-317.383
1630096946.602,-1000.000,-59.570,-1000.000,-1000.000
1630096946.606,-225.098,-57.129,-420.410,-214.844
1630096946.610,-833.008,-58.594,-911.621,-839.844
1630096946.614,244.141,-59.570,349.121,215.820
1630096946.631,-1000.000,-61.035,-1000.000,-1000.000
1630096946.635,-527.832,-41.016,-817.871,-453.613
1630096946.639,-916.504,-22.461,715.820,-887.695
1630096946.643,402.832,-28.320,711.914,287.598
1630096946.647,-1000.000,-25.391,-765.137,-1000.000
1630096946.651,-1000.000,-20.508,-1000.000,-921.875
1630096946.655,552.734,-14.648,298.828,673.340
1630096946.658,796.875,-21.484,871.094,649.902
1630096946.662,-770.508,-35.156,-554.199,-910.645
1630096946.666,-1000.000,-29.297,-1000.000,-1000.000
1630096946.670,-112.793,-5.371,-199.219,-36.621
1630096946.674,-841.797,1.465,-867.188,-864.746
1630096946.676,-2.441,-31.250,103.027,-153.809
1630096946.680,-1000.000,-38.574,-1000.000,-1000.000
1630096946.684,-233.887,-21.484,-498.047,-221.191
1630096946.688,-828.613,-18.555,-959.473,-834.961
1630096946.692,243.164,-21.484,382.324,237.793
1630096946.696,-1000.000,-25.391,-1000.000,-1000.000
1630096946.700,-619.629,-9.277,-896.484,-556.641
1630096946.703,-968.262,6.348,652.832,-933.594
1630096946.707,452.637,-26.855,642.578,335.938
1630096946.711,-1000.000,-37.598,-835.938,-1000.000
1630096946.715,-1000.000,-25.391,-1000.000,-1000.000
1630096946.719,270.996,-20.508,-0.488,410.156
1630096946.723,-971.680,-17.090,-954.590,868.164
1630096946.727,-458.984,-40.039,-205.566,-682.617
1630096946.731,-1000.000,-42.969,-1000.000,-1000.000
1630096946.735,-209.961,-15.137,-275.391,-164.062
1630096946.739,-843.262,-23.926,-856.934,-855.957
1630096946.743,155.762,-46.387,238.770,9.277
1630096946.747,-1000.000,-35.645,-1000.000,-1000.000
1630096946.750,-316.406,-10.254,-609.375,-250.977
1630096946.754,-841.797,-9.277,958.984,-833.984
1630096946.758,243.164,-30.273,529.785,242.676
1630096946.762,-1000.000,-20.020,-951.172,-1000.000
1630096946.766,-773.438,-5.371,-1000.000,-690.430
1630096946.766,867.676,-0.977,403.320,961.914
1630096946.770,614.746,-13.672,818.359,486.816
1630096946.774,-944.336,-26.855,-628.906,-1000.000
1630096946.778,-1000.000,-21.484,-1000.000,-1000.000
1630096946.782,116.211,-4.395,-103.516,210.938
1630096946.786,-838.379,-2.930,-846.680,-949.707
1630096946.790,-175.781,-21.484,77.637,-404.785
1630096946.793,-1000.000,-27.832,-1000.000,-1000.000
1630096946.797,-222.656,-9.766,-331.055,-206.055
1630096946.801,-831.055,-4.883,-857.422,-847.168
1630096946.805,238.770,-36.133,279.297,117.188
1630096946.809,-1000.000,-32.227,-1000.000,-1000.000
1630096946.811,-416.504,-0.977,-634.277,-333.496
1630096946.815,-868.164,12.207,949.219,-851.562
1630096946.819,275.391,-8.789,507.324,243.652
1630096946.823,-1000.000,-19.043,-961.914,-1000.000
1630096946.827,-898.438,0.000,-1000.000,-825.195
1630096946.831,683.594,20.020,306.152,801.758
1630096946.835,754.395,0.000,935.547,605.957
1630096946.838,-819.336,-34.668,-471.680,-945.312
1630096946.842,-1000.000,-32.227,-1000.000,-1000.000
1630096946.846,-0.488,-14.160,-135.254,80.078
1630096946.850,-841.309,-14.160,-871.094,-894.043
1630096946.854,-111.816,-31.738,21.484,-273.438
1630096946.871,-1000.000,-24.902,-1000.000,-1000.000
1630096946.875,-226.074,-16.602,-388.672,-216.309
1630096946.879,-831.543,-16.113,-890.625,-837.402
1630096946.883,243.652,-24.414,334.961,218.262
1630096946.887,-1000.000,-28.809,-1000.000,-1000.000
1630096946.891,-511.230,-15.137,-680.664,-438.965
1630096946.895,-907.227,-11.230,898.438,-878.906
1630096946.898,391.113,-34.180,613.770,278.320
1630096946.902,-1000.000,-40.039,-834.961,-1000.000
1630096946.906,-1000.000,-25.879,-1000.000,-958.984
1630096946.910,467.773,-13.184,119.629,595.703
1630096946.914,919.922,-22.949,-972.656,748.535
1630096946.901,-622.070,-39.551,-275.391,-824.219
1630096946.905,-1000.000,-28.809,-1000.000,-1000.000
1630096946.909,-112.305,-15.137,-187.988,-41.016
1630096946.913,-839.844,-14.160,-854.492,-863.281
1630096946.917,0.000,-31.250,90.820,-142.578
1630096946.921,-1000.000,-37.598,-1000.000,-1000.000
1630096946.925,-233.887,-21.484,-451.172,-222.656
1630096946.928,-828.613,-13.672,-944.824,-834.961
1630096946.932,243.164,-32.715,510.254,244.629
1630096946.936,-1000.000,-42.969,-974.609,-1000.000
1630096946.940,-637.695,-23.926,-924.316,-581.055
1630096946.944,-983.398,-1.465,603.027,-945.312
1630096946.947,532.715,-17.578,851.074,406.738
1630096946.951,-980.957,-32.227,-596.191,-1000.000
1630096946.955,-1000.000,-30.762,-1000.000,-1000.000
1630096946.959,225.586,-30.273,-38.574,354.492
1630096946.963,-930.664,-26.855,-908.203,926.270
1630096946.967,-383.301,-47.852,-88.867,-606.934
1630096946.971,-1000.000,-57.129,-1000.000,-1000.000
1630096946.974,-213.867,-25.391,-252.930,-167.480
1630096946.978,-838.379,-16.602,-836.914,-849.121
1630096946.982,196.289,-34.180,283.203,45.898
1630096946.986,-1000.000,-26.367,-1000.000,-1000.000
1630096946.990,-333.008,-9.277,-599.121,-268.066
1630096947.006,-842.285,-1.465,987.793,-835.938
1630096947.010,243.164,-24.414,477.051,243.652
1630096947.014,-1000.000,-35.156,-988.281,-1000.000
1630096947.018,-786.621,-30.762,-1000.000,-708.008
1630096947.022,850.098,-15.137,383.789,943.848
1630096947.026,643.066,-18.555,931.641,512.695
1630096947.030,-925.781,-41.992,-476.562,-995.605
1630096947.033,-1000.000,-35.645,-1000.000,-1000.000
1630096947.037,113.770,-14.648,-79.102,208.008
1630096947.041,-855.957,-36.133,-870.605,-978.027
1630096947.045,-217.285,-60.547,-25.879,-451.172
1630096947.049,-1000.000,-47.363,-1000.000,-1000.000
1630096947.051,-220.215,-30.273,-333.496,-207.031
1630096947.055,-833.984,-13.672,-866.699,-847.656
1630096947.059,241.699,-26.855,246.094,134.277
1630096947.063,-1000.000,-32.227,-1000.000,-1000.000
1630096947.067,-428.711,-29.785,-609.863,-348.633
1630096947.071,-870.605,-9.277,930.664,-855.469
1630096947.075,319.824,-20.020,652.832,243.652
1630096947.078,-1000.000,-48.828,-807.617,-1000.000
1630096947.082,-923.828,-52.734,-1000.000,-848.633
1630096947.086,662.598,-49.805,296.387,773.438
1630096947.090,752.930,-42.480,905.273,602.051
1630096947.094,-819.336,-54.688,-520.508,-948.730
1630096947.100,-1000.000,-47.852,-1000.000,-1000.000
1630096947.104,-23.438,-21.973,-143.555,69.336
1630096947.108,-846.191,-21.484,-868.164,-902.832
1630096947.112,-110.352,-36.133,40.527,-286.621
1630096947.116,-1000.000,-37.109,-1000.000,-1000.000
1630096947.120,-225.098,-27.832,-324.707,-213.867
1630096947.124,-833.496,-25.879,-854.980,-842.773
1630096947.127,244.629,-39.062,260.254,196.777
1630096947.131,-1000.000,-64.941,-1000.000,-1000.000
1630096947.135,-569.336,-51.270,-854.492,-496.582
1630096947.139,-936.523,-17.090,712.891,-910.645
1630096947.143,370.605,-45.898,566.406,281.738
1630096947.141,-1000.000,-67.383,-916.504,-1000.000
1630096947.145,-1000.000,-43.457,-1000.000,-983.398
1630096947.149,374.023,-19.043,62.012,561.035
1630096947.153,871.094,-29.785,939.453,729.980
1630096947.157,-687.500,-46.387,-448.242,-846.191
1630096947.161,-1000.000,-33.203,-1000.000,-1000.000
1630096947.165,-141.113,-22.949,-157.227,-43.945
1630096947.168,-857.422,-41.016,-875.000,-873.535
1630096947.172,-30.273,-61.523,37.109,-167.480
1630096947.176,-1000.000,-39.551,-1000.000,-1000.000
1630096947.180,-245.605,-31.250,-521.484,-220.703
1630096947.184,-836.914,-32.227,-972.656,-836.914
1630096947.188,243.164,-41.504,354.004,245.117
1630096947.192,-1000.000,-56.641,-1000.000,-1000.000
1630096947.196,-695.801,-41.992,-936.523,-604.004
1630096947.200,961.426,-37.598,558.594,-958.984
1630096947.204,498.535,-55.664,767.090,382.324
1630096947.208,-1000.000,-56.641,-701.660,-1000.000
1630096947.212,-1000.000,-58.594,-1000.000,-1000.000
1630096947.215,217.285,-51.270,20.020,360.352
1630096947.219,-967.773,-48.340,-914.062,895.996
1630096947.223,-443.848,-64.941,-156.738,-645.508
1630096947.227,-1000.000,-60.547,-1000.000,-1000.000
1630096947.231,-202.637,-33.203,-275.879,-174.316
1630096947.231,-852.051,-24.902,-876.953,-868.652
1630096947.235,91.797,-47.852,110.840,-30.762
1630096947.239,-1000.000,-46.875,-1000.000,-1000.000
1630096947.243,-342.773,-37.109,-612.305,-269.531
1630096947.247,-857.910,-32.227,922.852,-845.215
1630096947.251,244.141,-37.598,579.590,245.117
1630096947.255,-1000.000,-45.898,-879.395,-1000.000
1630096947.258,-843.750,-38.086,-1000.000,-729.492
1630096947.262,779.785,-22.949,338.379,922.852
1630096947.266,616.211,-43.457,762.207,491.699
1630096947.270,-942.871,-72.754,-701.660,-1000.000
1630096947.274,-1000.000,-52.246,-1000.000,-1000.000
1630096947.276,75.195,-22.461,-107.422,196.777
1630096947.280,-886.230,-24.902,-963.867,-999.023
1630096947.284,-263.672,-42.480,-182.617,-485.840
1630096947.288,-1000.000,-43.457,-1000.000,-1000.000
1630096947.292,-218.262,-28.320,-336.426,-208.984
1630096947.296,-836.914,-16.113,-879.395,-847.168
1630096947.300,242.676,-37.598,232.422,157.227
1630096947.303,-1000.000,-47.363,-1000.000,-1000.000
1630096947.307,-449.219,-25.879,-685.547,-369.141
1630096947.311,-880.859,-12.695,908.691,-860.840
1630096947.315,267.090,-32.715,414.062,245.605
1630096947.319,-1000.000,-46.387,-1000.000,-1000.000
1630096947.321,-960.938,-23.926,-1000.000,-855.957
1630096947.325,599.121,-9.277,165.039,763.672
1630096947.329,724.609,-23.438,762.695,597.168
1630096947.333,-858.887,-38.574,-689.941,-954.590
1630096947.337,-1000.000,-31.738,-1000.000,-1000.000
1630096947.341,-34.180,-26.367,-141.602,64.941
1630096947.345,-844.727,-30.762,-896.484,-883.301
1630096947.348,-96.191,-39.062,-22.461,-248.535
1630096947.352,-1000.000,-37.598,-1000.000,-1000.000
1630096947.356,-226.562,-21.484,-396.484,-218.262
1630096947.360,-832.520,-7.812,-892.578,-837.402
1630096947.364,244.629,-22.461,309.570,233.887
1630096947.381,-1000.000,-31.250,-1000.000,-1000.000
1630096947.385,-562.012,-23.926,-888.184,-497.070
1630096947.389,-934.570,-17.090,683.594,-905.273
1630096947.393,412.109,-17.090,520.508,298.340
1630096947.397,-1000.000,-32.227,-992.188,-1000.000
1630096947.401,-1000.000,-27.344,-1000.000,-949.707
1630096947.405,463.867,-8.789,188.965,591.309
1630096947.408,976.562,-27.832,-988.770,796.387
1630096947.412,-529.785,-40.527,-295.410,-761.230
1630096947.416,-1000.000,-37.109,-1000.000,-1000.000
1630096947.420,-170.898,-20.020,-231.934,-90.332
1630096947.424,-843.750,-1.465,-874.023,-856.445
1630096947.427,60.059,-22.949,73.730,-83.984
1630096947.431,-1000.000,-39.551,-1000.000,-1000.000
1630096947.435,-238.281,-24.902,-452.148,-225.586
1630096947.439,-825.684,-14.648,-937.500,-833.008
1630096947.443,240.234,-30.273,451.660,244.629
1630096947.447,-1000.000,-31.250,-1000.000,-1000.000
1630096947.451,-682.617,-26.367,-978.516,-615.723
1630096947.454,969.727,-20.020,516.602,-966.309
1630096947.458,577.148,-16.602,811.523,448.242
1630096947.462,-958.984,-43.457,-658.691,-1000.000
1630096947.466,-1000.000,-37.109,-1000.000,-1000.000
1630096947.470,198.242,5.859,-18.066,328.125
1630096947.471,-908.691,11.719,-938.965,945.312
1630096947.475,-339.355,-13.184,-174.316,-577.637
1630096947.479,-1000.000,-24.902,-1000.000,-1000.000
1630096947.483,-216.309,-2.441,-282.227,-189.941
1630096947.487,-837.891,1.953,-852.539,-849.609
1630096947.491,227.051,-29.785,283.203,90.332
1630096947.495,-1000.000,-34.668,-1000.000,-1000.000
1630096947.498,-390.625,-24.414,-715.332,-306.152
1630096947.502,-860.352,-11.230,889.160,-844.727
1630096947.506,244.629,-22.461,460.938,244.629
1630096947.510,-1000.000,-48.828,-1000.000,-1000.000
1630096947.514,-862.793,-30.273,-1000.000,-766.113
1630096947.516,750.488,-8.789,336.914,880.371
1630096947.520,644.531,-23.926,805.176,518.555
1630096947.524,-926.270,-22.949,-653.809,-993.652
1630096947.528,-1000.000,-20.996,-1000.000,-1000.000
1630096947.532,29.785,3.906,-138.184,125.488
1630096947.536,-841.309,7.324,-846.680,-907.227
1630096947.540,-134.766,-36.133,84.473,-317.871
1630096947.543,-1000.000,-27.344,-1000.000,-1000.000
1630096947.547,-224.609,-21.484,-343.750,-209.961
1630096947.551,-832.520,4.395,-870.117,-844.238
1630096947.555,243.652,26.855,179.199,155.273
1630096947.559,-1000.000,-12.695,-1000.000,-1000.000
1630096947.561,-504.395,-22.949,-803.711,-413.574
1630096947.565,-905.273,-4.395,764.160,-878.418
1630096947.569,332.031,26.367,469.238,262.695
1630096947.573,-1000.000,17.578,-997.070,-1000.000
1630096947.577,-989.258,-18.555,-1000.000,-895.020
1630096947.581,552.734,47.852,179.688,702.637
1630096947.585,786.621,55.176,653.809,661.133
1630096947.588,-786.621,-20.996,-788.574,-903.809
1630096947.592,-1000.000,-41.016,-1000.000,-1000.000
1630096947.596,-61.035,30.273,-268.555,32.715
1630096947.600,-865.234,65.918,619.629,-899.902
1630096947.604,-145.508,37.598,-605.469,-265.625
1630096947.606,-1000.000,53.223,-1000.000,-1000.000
1630096947.610,-221.191,46.387,-705.566,-215.332
1630096947.614,-836.426,36.133,564.941,-839.355
1630096947.618,244.629,69.824,-114.746,221.680
1630096947.622,-1000.000,81.055,-1000.000,-1000.000
1630096947.626,-570.801,107.422,-1000.000,-489.746
1630096947.630,-939.453,174.316,285.645,-903.320
1630096947.633,308.105,131.836,127.930,275.391
1630096947.637,-1000.000,110.840,-1000.000,-1000.000
1630096947.641,-1000.000,184.082,-1000.000,-993.164
1630096947.645,358.887,197.754,-657.227,519.531
1630096947.649,889.648,180.664,-513.672,800.781
1630096947.659,-661.133,199.707,-1000.000,-762.695
1630096947.663,-1000.000,235.352,-1000.000,-1000.000
1630096947.667,-170.898,228.516,-972.168,-97.656
1630096947.671,-860.352,212.402,-954.590,-867.676
1630096947.675,-8.301,195.801,-995.605,-104.492
1630096947.679,-1000.000,200.684,-1000.000,-1000.000
1630096947.683,-243.652,255.859,-997.559,-227.051
1630096947.686,-834.473,274.902,-1000.000,-835.938
1630096947.690,244.629,256.836,-1000.000,235.840
1630096947.694,-1000.000,196.289,-1000.000,-1000.000
1630096947.698,-656.250,196.289,-1000.000,-644.043
1630096947.702,-999.023,278.809,-1000.000,-992.676
1630096947.696,512.207,291.016,-1000.000,370.117
1630096947.700,-990.234,326.172,-1000.000,-1000.000
1630096947.704,-1000.000,321.289,-1000.000,-1000.000
1630096947.708,226.562,332.031,-1000.000,245.605
1630096947.712,-988.281,337.891,-1000.000,704.590
1630096947.716,-475.098,338.867,-1000.000,-805.176
1630096947.720,-1000.000,304.199,-1000.000,-1000.000
1630096947.723,-200.684,244.629,-1000.000,-181.641
1630096947.727,-858.398,256.348,-1000.000,-911.133
1630096947.731,71.777,299.805,-1000.000,-129.395
1630096947.735,-1000.000,312.012,-1000.000,-1000.000
1630096947.739,-390.625,314.453,-1000.000,-361.328
1630096947.756,-879.883,324.707,-1000.000,-890.137
1630096947.760,246.582,370.117,-1000.000,238.770
1630096947.764,-1000.000,508.301,-1000.000,-1000.000
1630096947.768,-912.109,602.539,-1000.000,-871.582
1630096947.772,695.801,527.344,-1000.000,742.676
1630096947.776,466.797,470.215,-1000.000,382.812
1630096947.780,-1000.000,471.680,-1000.000,-1000.000
1630096947.783,-1000.000,478.027,-1000.000,-1000.000
1630096947.787,41.016,615.723,-1000.000,105.469
1630096947.791,885.742,586.914,-1000.000,813.965
1630096947.795,-599.121,444.336,-1000.000,-704.102
1630096947.799,-1000.000,439.941,-1000.000,-1000.000
1630096947.801,-187.500,463.379,-1000.000,-186.035
1630096947.805,-884.766,453.125,-1000.000,-891.113
1630096947.809,-20.996,401.367,-1000.000,-55.664
