timestamps,TP9,AF7,AF8,TP10
1630096836.187,-930.176,-47.363,-479.492,-1000.000
1630096836.191,-878.906,-51.758,-984.863,-665.527
1630096836.195,835.938,-36.621,604.004,952.148
1630096836.199,948.242,-32.715,-778.809,754.395
1630096836.203,-752.930,-51.758,64.453,-901.367
1630096836.207,-1000.000,-50.293,-936.035,-987.793
1630096836.211,678.711,-21.973,413.574,699.707
1630096836.214,-998.047,-30.762,-785.645,987.305
1630096836.218,-677.246,-58.594,559.082,-725.586
1630096836.222,-1000.000,-54.688,-859.375,-1000.000
1630096836.226,465.820,-31.250,-280.273,612.793
1630096836.230,-911.133,-33.691,-894.531,-965.820
1630096836.231,-421.875,-60.059,872.559,-566.406
1630096836.235,-1000.000,-67.383,-727.051,-1000.000
1630096836.239,-227.051,-46.387,-828.613,100.098
1630096836.243,-907.715,-26.855,792.969,-850.586
1630096836.247,589.844,-36.133,-864.258,212.402
1630096836.251,-979.980,-47.363,-313.477,-1000.000
1630096836.255,-944.336,-51.270,-991.699,-771.973
1630096836.258,750.488,-37.598,554.199,868.652
1630096836.262,918.457,-40.527,-783.691,750.000
1630096836.266,-818.359,-59.570,165.527,-926.758
1630096836.270,-1000.000,-62.988,-965.820,-997.559
1630096836.274,680.176,-49.805,220.215,672.852
1630096836.276,991.211,-50.293,-805.176,999.512
1630096836.280,-663.574,-52.734,641.602,-694.336
1630096836.284,-1000.000,-44.434,-826.172,-1000.000
1630096836.288,284.668,-38.086,-451.660,482.422
1630096836.292,-818.848,-36.133,-970.215,-879.395
1630096836.296,43.945,-60.059,965.332,-301.758
1630096836.300,-1000.000,-78.613,-628.418,-1000.000
1630096836.303,-553.223,-52.734,-915.039,-177.246
1630096836.307,-985.840,-28.320,723.145,-904.785
1630096836.311,628.418,-43.457,-833.496,261.230
1630096836.315,-992.188,-51.270,-246.094,-1000.000
1630096836.319,-967.773,-47.852,-1000.000,-816.895
1630096836.321,678.711,-40.527,496.582,794.922
1630096836.325,-985.352,-41.504,-772.949,930.176
1630096836.329,-713.867,-53.711,310.059,-782.227
1630096836.333,-1000.000,-49.805,-916.504,-1000.000
1630096836.337,648.438,-32.715,163.086,666.504
1630096836.341,-908.203,-38.574,-805.176,-963.867
1630096836.345,-465.820,-52.246,741.211,-614.258
1630096836.348,-1000.000,-45.898,-775.391,-1000.000
1630096836.352,174.805,-28.809,-558.105,387.207
1630096836.356,-814.941,-28.320,994.141,-850.586
1630096836.360,229.980,-56.641,991.211,-133.301
1630096836.364,-1000.000,-56.152,-597.168,-1000.000
1630096836.381,-748.047,-32.227,-966.309,-477.051
1630096836.385,910.645,-27.832,643.555,-991.211
1630096836.389,770.508,-36.133,-791.504,487.793
1630096836.393,-924.316,-51.758,-39.062,-1000.000
1630096836.397,-1000.000,-46.387,-952.637,-919.922
1630096836.401,666.992,-30.762,462.891,720.215
1630096836.405,-989.746,-55.664,-775.879,952.637
1630096836.408,-710.938,-69.336,447.754,-785.156
1630096836.412,-1000.000,-56.152,-903.320,-1000.000
1630096836.416,550.781,-22.949,-94.238,645.996
1630096836.420,932.617,-20.996,-866.699,859.375
1630096836.424,-367.188,-47.852,882.812,-576.660
1630096836.426,-1000.000,-45.898,-681.152,-1000.000
1630096836.430,-297.363,-25.879,-824.219,56.152
1630096836.434,-916.992,-38.574,839.355,-871.094
1630096836.438,319.824,-63.965,-928.711,-34.668
1630096836.442,-1000.000,-61.035,-530.273,-1000.000
1630096836.446,-769.531,-48.340,-969.727,-559.570
1630096836.450,851.562,-45.410,612.793,968.750
1630096836.453,919.922,-48.828,-781.250,707.031
1630096836.457,-784.180,-66.406,161.133,-927.734
1630096836.461,-1000.000,-57.129,-936.035,-975.098
1630096836.465,670.898,-30.273,323.242,696.777
1630096836.469,-977.539,-45.410,-781.738,-997.070
1630096836.471,-662.109,-57.129,720.215,-707.031
1630096836.475,-1000.000,-37.598,-770.996,-1000.000
1630096836.479,427.734,-14.160,-294.434,560.547
1630096836.483,-789.551,-19.531,-890.137,-868.164
1630096836.487,56.641,-49.805,904.297,-353.516
1630096836.491,-1000.000,-54.688,-694.824,-1000.000
1630096836.495,-33.203,-43.457,-751.953,153.320
1630096836.498,-864.746,-58.105,852.539,-818.359
1630096836.502,846.680,-88.867,-877.441,501.465
1630096836.506,-752.930,-80.078,-336.426,-997.070
1630096836.510,-813.965,-52.734,-956.543,-681.641
1630096836.514,836.914,-42.480,575.195,942.871
1630096836.516,-866.211,-60.059,-766.602,940.430
1630096836.520,-312.988,-73.730,415.039,-721.191
1630096836.524,-972.656,-63.965,-823.730,-996.094
1630096836.528,548.828,-44.922,295.898,582.031
1630096836.532,-817.871,-52.734,-780.273,-806.641
1630096836.536,759.277,-63.477,791.992,143.066
1630096836.540,-641.113,-68.359,-692.871,-942.871
1630096836.543,93.262,-64.453,-304.199,300.293
1630096836.547,-783.203,-63.965,-896.973,-782.715
1630096836.551,846.680,-62.500,940.918,570.801
1630096836.555,-688.477,-68.359,-621.094,-903.809
1630096836.559,-819.824,-58.594,-858.398,-583.008
1630096836.562,937.988,-38.086,753.418,-956.543
1630096836.566,952.637,-45.410,-821.777,733.398
1630096836.570,-708.984,-70.801,-123.535,-865.723
1630096836.574,-1000.000,-76.172,-948.730,-1000.000
1630096836.578,681.641,-46.875,500.000,685.547
1630096836.582,997.070,-36.621,-772.949,992.188
1630096836.586,-661.133,-60.547,600.586,-692.871
1630096836.589,-1000.000,-71.289,-778.320,-1000.000
1630096836.593,433.594,-44.922,81.543,530.762
1630096836.597,994.629,-46.875,-802.246,994.141
1630096836.601,-588.867,-66.895,834.473,-633.301
1630096836.605,-1000.000,-68.359,-704.590,-1000.000
1630096836.608,-191.895,-61.035,-637.695,118.164
1630096836.612,-943.848,-45.410,955.566,-926.270
1630096836.616,-21.973,-52.734,-970.703,-256.348
1630096836.620,-1000.000,-62.012,-550.293,-1000.000
1630096836.624,-750.000,-66.406,-954.590,-564.453
1630096836.628,849.121,-50.293,661.621,946.289
1630096836.632,759.277,-52.246,-801.758,472.656
1630096836.635,-952.637,-74.707,-55.176,-1000.000
1630096836.639,-997.559,-68.848,-976.074,-950.195
1630096836.643,669.922,-48.828,408.691,669.434
1630096836.647,994.629,-55.664,-781.250,970.215
1630096836.651,-662.109,-75.195,644.531,-736.328
1630096836.653,-1000.000,-68.359,-819.824,-1000.000
1630096836.657,380.859,-38.574,-187.500,551.758
1630096836.661,-902.344,-25.879,-852.051,-959.473
1630096836.665,-419.922,-43.945,868.164,-562.988
1630096836.669,-1000.000,-43.945,-719.727,-1000.000
1630096836.673,-119.141,-28.809,-612.305,151.367
1630096836.677,-887.695,-44.922,974.609,-880.859
1630096836.680,165.527,-66.895,-986.816,-114.258
1630096836.684,-1000.000,-64.453,-551.758,-1000.000
1630096836.688,-847.168,-43.945,-992.676,-691.895
1630096836.692,739.258,-26.855,600.098,871.094
1630096836.696,966.309,-32.715,-786.621,783.691
1630096836.696,-763.184,-57.129,107.910,-896.484
1630096836.700,-1000.000,-74.219,-966.309,-1000.000
1630096836.704,673.828,-61.035,295.898,673.828
1630096836.708,-982.422,-52.734,-795.410,998.047
1630096836.712,-605.957,-67.871,740.234,-679.688
1630096836.716,-1000.000,-64.453,-772.949,-1000.000
1630096836.720,277.344,-50.293,-379.883,460.449
1630096836.723,-873.535,-36.621,-907.715,-929.199
1630096836.727,-273.926,-39.062,876.953,-449.707
1630096836.731,-1000.000,-46.387,-727.539,-1000.000
1630096836.735,-544.922,-40.039,-874.023,-199.219
1630096836.739,967.773,-31.250,766.602,-915.039
1630096836.756,744.629,-49.316,-865.723,410.645
1630096836.760,-919.922,-75.684,-367.188,-1000.000
1630096836.764,-1000.000,-58.105,-989.258,-865.723
1630096836.768,668.945,-26.855,537.109,775.879
1630096836.772,-984.375,-31.250,-762.695,936.035
1630096836.776,-712.402,-47.852,408.203,-778.320
1630096836.780,-1000.000,-51.758,-846.191,-1000.000
1630096836.783,665.527,-47.852,259.277,674.316
1630096836.787,-954.590,-51.758,-779.785,-987.305
1630096836.791,-547.363,-46.875,770.996,-647.461
1630096836.795,-1000.000,-48.340,-738.281,-1000.000
1630096836.799,196.777,-41.016,-386.719,405.762
1630096836.801,-856.934,-45.410,-915.527,-903.809
1630096836.805,-138.184,-64.941,924.805,-359.375
1630096836.809,-1000.000,-67.383,-658.691,-1000.000
1630096836.813,-661.133,-49.316,-932.617,-416.016
1630096836.817,856.934,-33.203,694.824,994.141
1630096836.821,968.262,-50.293,-813.965,751.465
1630096836.825,-712.891,-66.895,-168.457,-868.164
1630096836.828,-1000.000,-53.223,-974.121,-992.188
1630096836.832,679.199,-30.273,501.953,703.125
1630096836.836,-996.094,-44.434,-766.602,989.746
1630096836.840,-689.453,-63.477,355.469,-721.680
1630096836.844,-1000.000,-55.176,-919.922,-1000.000
1630096836.846,417.480,-37.109,112.305,551.758
1630096836.850,-815.918,-34.668,-816.895,-885.254
1630096836.854,127.930,-61.035,827.637,-265.137
1630096836.858,-1000.000,-73.730,-722.168,-1000.000
1630096836.862,-592.773,-57.129,-664.551,-371.094
1630096836.866,965.820,-42.969,952.637,-961.914
1630096836.870,866.699,-51.270,-981.445,578.125
1630096836.873,-799.805,-65.918,-576.660,-984.375
1630096836.877,-1000.000,-48.828,-965.820,-924.805
1630096836.881,685.547,-49.805,627.441,750.488
1630096836.885,-986.816,-54.199,-781.250,934.082
1630096836.889,-710.449,-37.598,74.219,-788.574
1630096836.891,-1000.000,-38.086,-934.082,-1000.000
1630096836.895,643.066,-40.039,408.691,672.852
1630096836.899,-927.246,-37.598,-766.602,-983.887
1630096836.903,-493.164,-46.875,587.402,-624.023
1630096836.907,-1000.000,-46.387,-842.285,-1000.000
1630096836.911,95.703,-20.996,-125.000,273.438
1630096836.915,-829.590,-16.602,-848.633,-830.566
1630096836.918,607.422,-32.715,868.164,110.840
1630096836.922,-966.309,-40.039,-705.566,-1000.000
1630096836.926,-775.391,-38.086,-792.480,-557.129
1630096836.930,928.711,-25.879,861.816,997.070
1630096836.934,900.391,-25.879,-927.734,662.598
1630096836.936,-785.156,-51.270,-507.812,-950.195
1630096836.940,-1000.000,-43.945,-994.629,-939.941
1630096836.944,620.117,-17.090,583.496,704.102
1630096836.948,-842.773,-27.832,-770.508,-952.637
1630096836.952,-413.086,-51.758,154.785,-635.742
1630096836.956,-1000.000,-49.316,-936.035,-1000.000
1630096836.960,494.141,-35.156,347.656,608.887
1630096836.963,-813.477,-27.832,-793.457,-901.855
1630096836.967,-33.203,-42.480,742.188,-395.508
1630096836.971,-1000.000,-72.266,-776.855,-1000.000
1630096836.975,-333.008,-53.223,-487.305,-1.465
1630096836.979,-939.941,-33.691,-956.055,-860.840
1630096836.981,800.293,-43.457,938.477,395.508
1630096836.985,-855.469,-56.152,-679.688,-1000.000
1630096836.989,-889.648,-43.457,-908.203,-708.984
1630096836.993,835.449,-36.133,740.723,918.945
1630096836.997,985.352,-50.781,-850.586,883.789
1630096837.001,-705.078,-53.223,-340.820,-802.246
1630096837.005,-1000.000,-41.992,-972.168,-971.191
1630096837.008,684.570,-34.180,575.195,753.906
1630096837.012,-998.535,-41.016,-783.691,980.957
1630096837.016,-687.500,-28.809,249.023,-725.098
1630096837.020,-1000.000,-17.090,-964.355,-1000.000
1630096837.024,370.117,-15.625,122.559,513.184
1630096837.026,-811.523,-24.414,-817.871,-820.312
1630096837.030,637.695,-33.691,800.781,118.164
1630096837.034,-916.504,-39.062,-750.977,-1000.000
1630096837.038,-450.684,-38.086,-537.598,-104.980
1630096837.042,-928.711,-36.621,-993.652,-858.887
1630096837.046,909.180,-49.805,997.559,685.059
1630096837.050,-685.547,-71.289,-577.148,-851.562
1630096837.053,-1000.000,-80.078,-959.473,-887.695
1630096837.057,747.070,-70.312,689.453,858.887
1630096837.061,983.887,-80.566,-830.078,833.496
1630096837.065,-748.535,-90.332,-261.230,-862.793
1630096837.069,-1000.000,-80.566,-1000.000,-997.070
1630096837.071,604.980,-69.336,465.332,646.973
1630096837.075,-815.918,-64.941,-767.578,-902.832
1630096837.079,-242.188,-70.312,444.824,-532.715
1630096837.083,-1000.000,-62.988,-903.320,-1000.000
1630096837.087,310.059,-38.574,49.316,490.723
1630096837.091,-791.016,-23.926,-825.684,-818.848
1630096837.095,575.684,-33.691,842.285,85.938
1630096837.098,-969.238,-46.387,-708.008,-1000.000
1630096837.102,-666.016,-29.297,-757.812,-242.676
1630096837.106,-975.098,-22.461,900.391,-878.418
1630096837.110,762.207,-42.969,-973.145,473.633
1630096837.114,-919.922,-66.406,-601.074,-1000.000
1630096837.131,-922.852,-43.457,-968.262,-749.023
1630096837.135,776.855,-14.160,641.602,894.043
1630096837.139,997.070,-29.297,-793.945,921.387
1630096837.143,-712.402,-54.199,-55.664,-759.766
1630096837.147,-1000.000,-52.734,-956.055,-1000.000
1630096837.151,637.695,-34.180,446.289,666.016
1630096837.155,-881.348,-41.504,-780.762,-940.918
1630096837.158,-429.199,-67.871,639.648,-594.727
1630096837.162,-1000.000,-65.918,-817.383,-1000.000
1630096837.166,233.398,-37.109,-157.227,422.852
1630096837.170,-811.523,-34.668,-854.004,-813.477
1630096837.174,635.742,-50.781,871.582,236.816
1630096837.176,-932.129,-59.570,-701.172,-1000.000
1630096837.180,-760.742,-47.852,-832.031,-401.855
1630096837.184,930.664,-33.691,832.520,-940.918
1630096837.188,953.613,-55.664,-919.434,774.414
1630096837.192,-705.078,-82.520,-508.301,-837.891
1630096837.196,-1000.000,-51.758,-985.840,-940.918
1630096837.200,680.664,-33.691,589.844,786.133
1630096837.203,-984.863,-49.805,-777.832,943.848
1630096837.207,-718.262,-55.664,207.520,-776.367
1630096837.211,-1000.000,-49.805,-936.035,-1000.000
1630096837.215,562.500,-42.480,274.902,625.000
1630096837.219,-806.152,-39.551,-786.133,-869.141
1630096837.221,58.105,-55.176,723.633,-323.730
1630096837.225,-1000.000,-60.059,-789.062,-1000.000
1630096837.229,-87.402,-41.992,-368.652,210.938
1630096837.233,-830.078,-42.480,-917.969,-810.547
1630096837.237,642.090,-58.105,931.152,288.574
1630096837.241,-948.242,-74.219,-655.273,-1000.000
1630096837.245,-835.938,-56.152,-902.832,-606.934
1630096837.248,889.648,-20.996,779.297,993.164
1630096837.252,889.160,-37.598,-899.902,725.586
1630096837.256,-814.941,-59.570,-477.051,-912.598
1630096837.260,-1000.000,-44.434,-1000.000,-966.309
1630096837.264,635.742,-28.320,549.316,695.801
1630096837.266,-886.230,-44.922,-782.715,-963.379
1630096837.270,-451.172,-76.172,315.918,-628.906
1630096837.274,-1000.000,-66.895,-965.820,-1000.000
1630096837.278,282.227,-40.039,58.105,443.848
1630096837.282,-835.938,-34.180,-832.520,-831.055
1630096837.286,771.484,-34.668,833.496,268.555
1630096837.290,-806.152,-50.293,-722.656,-1000.000
1630096837.293,-649.902,-59.082,-634.277,-272.461
1630096837.297,-988.281,-43.457,971.191,-886.230
1630096837.301,935.547,-44.434,989.746,675.781
1630096837.305,-693.848,-55.176,-622.070,-878.418
1630096837.309,-1000.000,-51.758,-974.121,-878.906
1630096837.311,715.332,-28.809,673.340,832.031
1630096837.315,-988.770,-22.949,-830.078,944.336
1630096837.319,-722.168,-46.387,-282.227,-760.254
1630096837.323,-1000.000,-42.969,-1000.000,-1000.000
1630096837.327,589.844,-31.738,472.168,635.742
1630096837.331,-798.828,-38.574,-780.273,-884.766
1630096837.335,-25.391,-46.875,522.461,-433.105
1630096837.338,-1000.000,-44.434,-897.461,-1000.000
1630096837.342,169.922,-22.461,-101.562,394.531
1630096837.346,-759.277,-25.391,-844.238,-814.941
1630096837.350,400.879,-45.898,860.840,-79.590
1630096837.354,-1000.000,-51.758,-710.938,-1000.000
1630096837.357,-393.555,-41.992,-616.211,-20.508
1630096837.361,-890.137,-50.293,976.562,-837.402
1630096837.365,713.867,-56.641,997.559,397.949
1630096837.369,-897.461,-49.805,-592.285,-1000.000
1630096837.373,-963.379,-37.598,-988.770,-810.059
1630096837.377,630.859,-25.391,611.816,786.621
1630096837.381,-819.336,-33.691,-783.691,-942.383
1630096837.384,-356.445,-49.805,7.812,-583.984
1630096837.388,-1000.000,-36.621,-966.797,-1000.000
1630096837.392,548.828,-14.648,398.438,636.230
1630096837.396,-796.875,-34.180,-780.273,-884.277
1630096837.400,-36.133,-53.223,626.953,-413.086
1630096837.401,-1000.000,-55.176,-850.586,-1000.000
1630096837.405,-20.508,-21.973,-312.500,253.906
1630096837.409,-882.812,-13.184,-906.738,-850.586
1630096837.413,884.766,-37.598,905.273,770.508
1630096837.417,-696.289,-53.711,-702.148,-771.973
1630096837.421,-868.164,-38.086,-795.410,-697.754
1630096837.425,915.039,-16.602,858.398,-974.609
1630096837.428,908.691,-40.527,-924.316,684.570
1630096837.432,-787.598,-68.848,-500.488,-938.477
1630096837.436,-1000.000,-43.457,-993.164,-925.781
1630096837.440,618.164,-13.672,580.566,723.633
1630096837.444,-837.402,-27.344,-771.484,-949.707
1630096837.446,-420.898,-51.758,183.105,-631.348
1630096837.450,-1000.000,-49.805,-932.129,-1000.000
1630096837.454,538.574,-34.180,321.289,632.812
1630096837.458,-794.434,-19.531,-782.715,-881.348
1630096837.462,-33.203,-22.461,729.980,-392.578
1630096837.466,-1000.000,-35.645,-765.137,-1000.000
1630096837.470,25.391,-9.277,-289.062,260.254
1630096837.473,-805.176,-6.836,-884.766,-817.383
1630096837.477,552.246,-44.434,898.438,140.137
1630096837.481,-989.258,-54.688,-676.270,-1000.000
1630096837.485,-816.895,-18.555,-929.199,-576.172
1630096837.489,857.910,-11.230,745.605,958.984
1630096837.506,978.516,-42.969,-882.324,862.793
1630096837.510,-717.773,-49.316,-434.082,-799.316
1630096837.514,-976.074,-36.133,-1000.000,-957.520
1630096837.518,555.664,-22.949,505.859,589.844
1630096837.522,-784.668,-33.691,-779.297,-789.062
1630096837.526,532.227,-40.527,487.793,187.500
1630096837.530,-871.582,-62.988,-878.418,-945.312
1630096837.533,146.484,-63.965,48.340,309.082
1630096837.537,-791.016,-41.992,-815.430,-796.387
1630096837.541,842.773,-33.691,828.613,795.898
1630096837.545,-699.219,-45.410,-720.703,-749.512
1630096837.549,-686.035,-37.598,-592.285,-417.480
1630096837.552,-925.781,-41.992,-993.652,-848.633
1630096837.556,651.367,-71.289,951.660,261.719
1630096837.560,-1000.000,-71.777,-672.852,-1000.000
1630096837.564,-851.074,-51.758,-954.590,-667.480
1630096837.568,807.129,-52.734,675.293,898.926
1630096837.572,-979.980,-65.430,-816.406,940.918
1630096837.576,-659.180,-55.176,-211.426,-728.516
1630096837.579,-1000.000,-46.875,-999.023,-1000.000
1630096837.583,630.859,-23.926,475.098,667.969
1630096837.587,-860.840,-26.855,-763.672,-948.242
1630096837.591,-447.266,-60.059,418.457,-639.160
1630096837.595,-1000.000,-51.270,-883.789,-1000.000
1630096837.596,429.199,-26.367,128.906,562.500
1630096837.600,-796.387,-39.062,-812.500,-863.770
1630096837.604,168.945,-64.453,827.148,-251.465
1630096837.608,-1000.000,-74.219,-713.867,-1000.000
1630096837.612,-395.508,-44.434,-712.402,-73.242
1630096837.616,-971.191,-21.973,921.387,-880.859
1630096837.620,914.062,-36.133,-970.215,690.918
1630096837.623,-700.195,-60.059,-568.359,-878.418
1630096837.627,-996.582,-46.387,-979.492,-864.258
1630096837.631,649.902,-20.996,602.051,818.848
1630096837.635,-820.312,-38.574,-774.902,-981.934
1630096837.639,-350.098,-63.965,159.180,-643.555
1630096837.641,-1000.000,-61.523,-925.781,-1000.000
1630096837.645,623.535,-32.227,357.422,666.992
1630096837.649,-880.859,-27.344,-768.066,-956.543
1630096837.653,-461.914,-37.598,676.758,-623.047
1630096837.657,-1000.000,-36.133,-783.691,-1000.000
1630096837.661,228.516,-30.273,-134.277,406.738
1630096837.665,-801.758,-26.855,-837.891,-813.477
1630096837.668,569.824,-28.809,865.234,120.117
1630096837.672,-981.445,-35.156,-708.008,-1000.000
1630096837.676,-642.578,-28.320,-776.367,-293.945
1630096837.680,-996.582,-15.137,865.234,-898.926
1630096837.684,871.582,-24.902,-916.992,642.090
1630096837.687,-772.461,-48.340,-456.543,-919.922
1630096837.691,-1000.000,-49.316,-1000.000,-930.664
1630096837.695,674.316,-20.996,568.848,757.324
1630096837.699,-987.793,-17.090,-772.949,975.098
1630096837.703,-706.543,-26.367,158.691,-742.188
1630096837.707,-1000.000,-8.301,-945.801,-1000.000
1630096837.711,571.777,-0.977,311.035,654.297
1630096837.714,-863.770,0.488,-793.457,-934.570
1630096837.718,-292.480,-2.441,744.629,-493.164
1630096837.722,-1000.000,-18.066,-775.879,-1000.000
1630096837.726,-153.809,-5.859,-461.426,136.230
1630096837.730,-879.395,5.859,-937.500,-865.234
1630096837.731,319.336,-4.883,912.109,-25.879
1630096837.735,-1000.000,-10.742,-704.590,-1000.000
1630096837.739,-818.848,9.277,-917.480,-651.367
1630096837.743,842.285,11.719,725.098,923.828
1630096837.747,828.613,8.789,-847.168,594.238
1630096837.751,-891.602,20.508,-301.270,-1000.000
1630096837.755,-1000.000,23.438,-999.023,-966.797
1630096837.758,677.246,36.133,507.812,682.129
1630096837.762,987.305,27.344,-777.832,963.867
1630096837.766,-650.391,5.371,401.855,-706.055
1630096837.770,-1000.000,-0.488,-943.359,-1000.000
1630096837.774,283.203,7.812,-32.715,423.828
1630096837.776,-889.160,7.324,-828.125,-962.891
1630096837.780,-314.941,-16.113,769.043,-496.582
1630096837.784,-1000.000,-18.555,-791.016,-1000.000
1630096837.788,-536.133,-13.672,-660.156,-305.664
1630096837.792,975.098,-6.348,945.801,-965.820
1630096837.796,702.148,-1.465,998.047,240.723
1630096837.800,-947.266,-10.742,-603.027,-1000.000
1630096837.803,-1000.000,-30.273,-1000.000,-941.895
1630096837.807,688.477,-22.949,651.367,690.430
1630096837.811,919.434,-19.531,-881.836,730.469
1630096837.815,-808.594,-37.598,-447.754,-958.008
1630096837.819,-1000.000,-30.762,-1000.000,-923.828
1630096837.824,547.363,-17.090,425.781,642.090
1630096837.828,-889.648,-22.461,-796.875,996.582
1630096837.832,-408.203,-45.410,406.250,-610.352
1630096837.836,-1000.000,-49.316,-972.168,-1000.000
1630096837.840,16.602,-23.438,-228.516,179.199
1630096837.844,-847.168,-13.672,-894.531,-847.168
1630096837.848,646.484,-27.344,854.980,71.777
1630096837.851,-949.219,-41.504,-746.582,-1000.000
1630096837.855,-778.809,-36.621,-837.891,-566.406
1630096837.859,892.578,-30.762,834.961,937.012
1630096837.863,-992.676,-44.434,-947.754,934.082
1630096837.867,-649.414,-54.688,-580.078,-725.586
1630096837.882,-997.559,-47.363,-990.723,-994.141
1630096837.886,562.012,-40.527,586.914,604.492
1630096837.890,-755.859,-37.598,-769.043,-789.062
1630096837.894,182.617,-46.875,149.414,-145.020
1630096837.898,-896.973,-59.570,-913.574,-965.820
1630096837.902,424.805,-44.434,392.090,500.000
1630096837.906,-783.203,-33.691,-780.762,-778.320
1630096837.909,714.844,-43.457,701.660,525.879
1630096837.913,-815.918,-60.059,-798.828,-918.457
1630096837.917,-354.004,-55.664,-324.219,-130.371
1630096837.921,-888.672,-53.711,-899.414,-847.168
1630096837.925,911.621,-57.129,914.551,876.953
1630096837.926,-679.688,-69.336,-675.293,-703.125
1630096837.930,-914.551,-61.035,-861.328,-833.008
1630096837.934,760.254,-43.945,793.945,856.934
1630096837.938,-845.215,-55.176,-879.395,-908.203
1630096837.942,-393.066,-74.707,-416.504,-495.117
1630096837.946,-999.512,-67.383,-986.328,-1000.000
1630096837.950,545.898,-37.598,567.871,563.965
1630096837.953,-756.348,-30.273,-768.066,-753.906
1630096837.957,421.387,-48.828,291.504,240.234
1630096837.961,-887.207,-60.059,-922.363,-883.789
1630096837.965,258.301,-43.945,244.141,399.902
1630096837.969,-791.016,-42.969,-796.387,-786.621
1630096837.971,829.590,-41.992,792.969,778.320
1630096837.975,-694.824,-53.223,-728.516,-697.754
1630096837.979,-467.285,-46.875,-449.219,-174.316
1630096837.983,-941.406,-29.785,-952.637,-844.238
1630096837.987,994.141,-39.062,975.098,911.133
1630096837.991,-552.734,-57.129,-595.703,-634.766
1630096837.995,-973.145,-59.570,-930.176,-889.648
1630096837.998,647.461,-41.504,698.242,765.137
1630096838.002,-774.902,-39.062,-806.641,-824.219
1630096838.006,-81.055,-54.688,-154.785,-263.184
1630096838.010,-936.523,-58.105,-948.242,-977.539
1630096838.014,510.254,-34.180,518.555,539.551
1630096838.016,-751.953,-39.062,-759.277,-748.047
1630096838.020,531.738,-56.641,459.961,373.535
1630096838.024,-875.488,-68.359,-878.418,-885.742
1630096838.028,132.324,-59.082,123.535,288.574
1630096838.032,-795.898,-50.781,-809.570,-798.828
1630096838.036,847.168,-45.898,838.867,831.055
1630096838.040,-693.848,-47.363,-698.242,-695.801
1630096838.043,-797.363,-57.129,-667.969,-561.523
1630096838.047,916.016,-42.480,953.125,-961.426
1630096838.051,-958.008,-49.805,-987.793,964.355
1630096838.055,-577.148,-68.848,-596.680,-654.297
1630096838.059,-1000.000,-56.641,-957.520,-922.852
1630096838.062,586.426,-49.805,652.832,701.172
1630096838.066,-762.695,-52.734,-792.480,-796.387
1630096838.070,15.137,-48.828,-59.082,-137.207
1630096838.074,-943.359,-50.293,-969.727,-946.777
1630096838.078,462.402,-32.715,437.012,523.926
1630096838.082,-792.480,-38.086,-782.715,-781.250
1630096838.086,730.469,-52.246,670.410,650.391
1630096838.089,-763.672,-47.852,-783.203,-782.715
1630096838.093,-149.414,-35.645,-107.422,57.129
1630096838.097,-824.219,-37.109,-838.867,-792.969
1630096838.101,870.117,-44.922,878.418,849.609
1630096838.105,-700.684,-62.012,-685.547,-700.684
1630096838.106,-856.445,-47.852,-755.371,-714.355
1630096838.110,825.195,-28.809,881.348,935.059
1630096838.114,-872.070,-42.480,-918.457,-933.105
1630096838.118,-423.828,-55.176,-468.750,-496.582
1630096838.122,-1000.000,-53.223,-980.469,-990.723
1630096838.126,550.781,-45.898,591.797,588.867
1630096838.130,-758.301,-41.992,-770.508,-759.277
1630096838.133,356.445,-39.062,206.055,161.621
1630096838.137,-922.363,-59.082,-928.223,-920.410
1630096838.141,253.906,-49.805,319.824,397.949
1630096838.145,-785.156,-56.152,-778.809,-778.320
1630096838.149,800.781,-63.477,731.445,726.562
1630096838.151,-726.074,-59.570,-758.789,-763.184
1630096838.155,-426.758,-43.457,-276.367,-175.293
1630096838.159,-897.461,-29.297,-877.930,-833.496
1630096838.163,907.715,-41.016,898.926,876.465
1630096838.167,-716.309,-62.012,-695.312,-709.961
1630096838.171,-871.582,-42.969,-780.273,-783.203
1630096838.175,800.293,-8.789,850.586,891.602
1630096838.178,-857.422,-16.602,-895.996,-916.992
1630096838.182,-392.578,-48.340,-394.531,-486.816
1630096838.186,-1000.000,-46.387,-1000.000,-1000.000
1630096838.190,539.551,-23.438,518.555,566.895
1630096838.194,-767.090,-34.668,-769.531,-767.090
1630096838.196,370.605,-46.875,259.766,173.340
1630096838.200,-983.887,-44.434,-972.168,-1000.000
1630096838.204,105.957,-35.156,134.766,250.977
1630096838.208,-807.129,-37.109,-817.383,-802.246
1630096838.212,831.055,-31.738,777.832,774.902
1630096838.216,-701.660,-29.785,-770.020,-777.832
1630096838.220,-901.855,-26.855,-734.375,-749.023
1630096838.223,860.352,-14.648,923.828,955.078
1630096838.227,981.445,-19.531,970.215,955.566
1630096838.231,-712.402,-35.156,-690.430,-707.031
1630096838.235,-1000.000,-31.250,-986.328,-1000.000
1630096838.239,604.980,-16.113,666.016,651.367
1630096838.256,-804.688,-26.855,-843.262,-833.008
1630096838.260,-317.383,-59.570,-354.004,-416.504
1630096838.264,-1000.000,-43.945,-1000.000,-1000.000
1630096838.268,493.164,-13.184,474.609,548.340
1630096838.272,-796.875,-26.367,-782.715,-785.645
1630096838.276,602.539,-31.738,488.770,465.332
1630096838.280,-932.617,-45.410,-928.223,-969.727
1630096838.283,-374.512,-46.875,-146.484,-115.723
1630096838.287,-906.738,-28.320,-857.910,-840.332
1630096838.291,908.691,-31.250,842.285,848.633
1630096838.295,-719.238,-50.293,-745.117,-744.629
1630096838.299,-840.332,-37.598,-679.688,-709.473
1630096838.301,906.250,-16.113,953.125,982.422
1630096838.305,981.934,-26.855,978.027,945.801
1630096838.309,-692.383,-46.875,-651.367,-701.660
1630096838.313,-1000.000,-40.527,-994.629,-1000.000
1630096838.317,582.520,-23.438,620.117,607.910
1630096838.321,-784.180,-25.391,-802.246,-799.805
1630096838.325,-3.418,-45.410,-101.562,-207.520
1630096838.328,-1000.000,-41.992,-1000.000,-1000.000
1630096838.332,277.832,-14.648,354.980,412.109
1630096838.336,-785.156,-21.973,-781.250,-778.320
1630096838.340,682.129,-41.504,570.801,574.219
1630096838.344,-887.207,-50.781,-904.297,-933.105
1630096838.346,-518.066,-34.180,-312.988,-253.906
1630096838.350,-950.195,-22.949,-915.039,-879.883
1630096838.354,818.848,-42.480,791.992,786.133
1630096838.358,-725.098,-63.965,-745.117,-733.887
1630096838.362,-989.746,-50.293,-854.492,-905.762
1630096838.366,689.941,-23.438,801.758,807.129
1630096838.370,-901.855,-27.344,-937.012,-964.844
1630096838.373,-579.590,-52.246,-577.637,-648.438
1630096838.377,-1000.000,-50.293,-990.723,-1000.000
1630096838.381,563.477,-32.227,584.961,579.102
1630096838.385,-773.438,-32.227,-779.297,-774.902
1630096838.389,306.641,-34.668,208.984,83.008
1630096838.391,-993.164,-50.293,-950.195,-1000.000
1630096838.395,149.902,-38.086,246.094,307.617
1630096838.399,-777.344,-18.066,-780.762,-768.066
1630096838.403,752.930,-26.367,709.473,665.039
1630096838.407,-808.594,-50.293,-798.340,-858.887
1630096838.411,-496.582,-38.086,-297.363,-281.738
1630096838.415,-927.246,-25.391,-886.719,-865.723
1630096838.418,908.691,-33.691,892.090,863.770
1630096838.422,-686.035,-55.176,-691.406,-710.938
1630096838.426,-1000.000,-57.129,-917.480,-949.219
1630096838.430,642.578,-25.391,749.023,742.676
1630096838.434,-833.984,-15.137,-875.000,-887.695
1630096838.436,-422.363,-36.133,-430.176,-514.160
1630096838.440,-1000.000,-33.203,-1000.000,-1000.000
1630096838.444,536.621,-16.113,525.879,570.801
1630096838.448,-766.602,-31.738,-767.578,-771.484
1630096838.452,373.047,-51.758,284.668,134.277
1630096838.456,-982.422,-52.734,-947.754,-1000.000
1630096838.460,116.699,-34.668,199.219,273.438
1630096838.463,-769.531,-31.250,-802.246,-783.691
1630096838.467,586.914,-52.246,666.504,192.383
1630096838.471,-916.504,-56.641,-809.570,-1000.000
1630096838.475,-756.348,-41.992,-590.332,-498.535
1630096838.479,926.758,-42.480,988.281,989.746
1630096838.481,961.426,-58.105,954.102,937.988
1630096838.485,-704.590,-69.336,-684.570,-697.754
1630096838.489,-1000.000,-61.035,-958.984,-994.629
1630096838.493,611.328,-49.805,681.152,683.594
1630096838.497,-816.895,-41.504,-831.055,-871.582
1630096838.501,-353.027,-55.176,-266.113,-486.328
1630096838.505,-1000.000,-63.965,-1000.000,-1000.000
1630096838.508,457.520,-39.551,454.102,531.738
1630096838.512,-764.160,-35.156,-762.207,-764.648
1630096838.516,514.160,-49.316,434.082,325.684
1630096838.520,-923.828,-61.523,-906.250,-961.426
1630096838.524,48.828,-41.992,81.543,196.289
1630096838.527,-800.781,-39.551,-818.359,-778.320
1630096838.531,827.148,-45.410,825.684,631.836
1630096838.535,-706.543,-41.992,-717.285,-869.629
1630096838.539,-911.133,-41.016,-770.996,-765.137
1630096838.543,806.641,-30.273,880.371,898.926
1630096838.547,-922.363,-30.273,-960.449,-992.676
1630096838.551,-558.594,-54.199,-579.102,-634.277
1630096838.554,-1000.000,-58.594,-990.723,-1000.000
1630096838.558,614.258,-39.551,635.742,656.738
1630096838.562,-823.242,-41.992,-805.664,-896.973
1630096838.566,-346.191,-50.293,-151.367,-536.621
1630096838.570,-1000.000,-42.480,-1000.000,-1000.000
1630096838.571,370.117,-31.250,387.695,478.516
1630096838.575,-792.969,-25.391,-780.762,-788.086
1630096838.579,615.723,-31.250,582.520,416.016
1630096838.583,-933.594,-52.246,-881.348,-992.676
1630096838.587,-420.898,-46.875,-238.770,-133.789
1630096838.591,-921.387,-37.598,-883.789,-840.820
1630096838.595,912.598,-53.711,880.859,779.297
1630096838.598,-709.473,-76.660,-713.867,-802.734
1630096838.602,-905.273,-61.035,-793.457,-784.180
1630096838.606,853.516,-39.551,871.094,952.148
1630096838.610,983.887,-51.270,-961.426,820.801
1630096838.614,-717.285,-70.312,-585.449,-840.820
1630096838.631,-998.047,-58.105,-988.281,-965.820
1630096838.635,575.684,-31.250,596.191,627.441
1630096838.639,-772.949,-43.945,-775.879,-824.219
1630096838.643,36.133,-62.500,115.723,-260.742
1630096838.647,-1000.000,-57.129,-946.777,-1000.000
1630096838.651,366.699,-32.715,360.840,514.160
1630096838.655,-756.836,-37.109,-771.484,-828.125
1630096838.658,219.727,-59.082,605.957,-189.453
1630096838.662,-1000.000,-59.082,-875.488,-1000.000
1630096838.666,-318.848,-43.457,-351.074,-32.227
1630096838.670,-939.453,-40.039,-919.922,-889.648
1630096838.674,909.180,-59.570,907.715,823.730
1630096838.676,-688.965,-61.523,-693.359,-745.117
1630096838.680,-982.910,-42.969,-909.668,-905.273
1630096838.684,714.355,-27.832,755.859,820.801
1630096838.688,-884.766,-29.297,-874.023,-977.539
1630096838.692,-516.602,-46.387,-430.176,-644.043
1630096838.696,-1000.000,-43.457,-1000.000,-1000.000
1630096838.700,644.531,-21.973,564.453,669.922
1630096838.703,-897.461,-20.996,-784.668,-964.844
1630096838.707,-489.746,-46.387,147.461,-638.184
1630096838.711,-1000.000,-35.156,-995.117,-1000.000
1630096838.715,267.578,-9.277,165.039,418.945
1630096838.719,-809.082,-22.949,-815.918,-831.543
1630096838.721,631.836,-13.672,765.625,100.098
1630096838.725,-940.918,-2.441,-779.785,-1000.000
1630096838.729,-661.621,8.301,-549.316,-356.445
1630096838.733,983.887,10.254,-992.676,-959.473
1630096838.737,941.895,0.977,958.496,863.281
1630096838.741,-692.383,9.277,-659.668,-740.723
1630096838.745,-1000.000,15.625,-947.266,-978.516
1630096838.748,680.176,22.949,706.055,765.625
1630096838.752,-955.078,19.531,-840.820,969.727
1630096838.756,-678.711,5.371,-329.590,-753.906
1630096838.760,-996.582,7.324,-996.582,-1000.000
1630096838.764,572.754,25.879,522.461,613.770
1630096838.767,-793.457,5.859,-779.297,-849.609
1630096838.771,251.953,-28.809,437.988,-203.125
1630096838.775,-1000.000,-29.297,-931.152,-1000.000
1630096838.779,-46.875,-2.441,-38.574,144.043
1630096838.783,-856.445,-6.836,-841.309,-855.469
1630096838.787,876.465,-27.344,849.609,847.656
1630096838.791,-698.242,-37.598,-717.773,-724.121
1630096838.794,-854.492,-23.438,-704.102,-731.934
1630096838.798,875.000,-12.207,931.641,964.844
1630096838.802,-961.914,-20.020,-987.305,969.727
1630096838.806,-604.980,-48.340,-602.051,-672.852
1630096838.810,-1000.000,-41.504,-988.281,-1000.000
1630096838.811,594.727,-20.020,642.090,635.742
1630096838.815,-791.504,-20.020,-810.547,-826.172
1630096838.819,-183.594,-41.016,-180.176,-348.633
1630096838.823,-1000.000,-34.180,-1000.000,-1000.000
1630096838.827,408.203,-17.578,413.086,551.270
1630096838.831,-786.621,-27.344,-784.180,-862.305
1630096838.835,203.125,-9.277,469.727,-208.496
1630096838.838,-1000.000,3.418,-961.914,-1000.000
1630096838.842,-572.266,-18.555,-339.844,-291.992
1630096838.846,-976.074,-11.719,-922.852,-927.734
1630096838.850,684.082,-18.555,739.746,393.066
1630096838.854,-949.707,-43.945,-802.734,-1000.000
1630096838.856,-996.582,20.020,-942.383,-894.531
1630096838.860,663.086,55.176,750.488,720.703
1630096838.864,-988.281,-20.020,987.793,998.047
1630096838.868,-703.125,-31.250,-676.758,-722.656
1630096838.872,-1000.000,5.371,-1000.000,-1000.000
1630096838.876,554.688,58.105,543.457,626.953
1630096838.880,-865.234,85.938,-880.859,-895.508
1630096838.883,-272.461,50.293,-284.180,-395.996
1630096838.887,-1000.000,46.875,-1000.000,-1000.000
1630096838.891,-224.609,141.113,-104.492,124.023
1630096838.895,-970.703,154.297,-958.984,-949.219
1630096838.899,-158.203,96.191,203.125,-343.750
1630096838.901,-1000.000,104.492,-1000.000,-1000.000
1630096838.905,-701.660,144.531,-637.207,-526.367
1630096838.909,860.352,256.836,877.441,902.832
1630096838.913,365.723,244.629,580.566,23.438
1630096838.917,-1000.000,170.898,-941.406,-1000.000
1630096838.921,-943.848,207.031,-910.645,-861.328
1630096838.925,707.520,258.301,759.277,690.918
1630096838.928,640.625,262.207,785.645,252.441
1630096838.932,-969.727,252.930,-809.570,-1000.000
1630096838.936,-1000.000,271.973,-1000.000,-1000.000
1630096838.940,350.098,244.141,410.645,302.246
1630096838.944,944.824,250.488,-995.117,780.273
1630096838.946,-610.840,296.875,-465.820,-763.184
1630096838.950,-1000.000,275.879,-1000.000,-1000.000
1630096838.954,-715.820,270.020,-361.328,-682.617
1630096838.958,488.770,280.273,867.188,524.414
1630096838.962,-414.062,283.691,-24.902,-425.781
1630096838.966,-1000.000,313.965,-1000.000,-1000.000
1630096838.970,-794.434,332.520,-755.371,-759.766
1630096838.973,571.777,312.012,745.117,522.949
1630096838.977,-232.910,296.387,456.055,-345.703
1630096838.981,-1000.000,263.672,-995.117,-1000.000
1630096838.985,-914.551,278.809,-977.539,-906.250
1630096838.989,-1000.000,300.293,599.121,-801.270
1630096839.006,-1000.000,274.414,720.215,-923.828
1630096839.010,-1000.000,268.066,-760.254,-1000.000
1630096839.014,-1000.000,256.348,-1000.000,-1000.000
1630096839.018,-1000.000,297.363,74.707,-772.949
1630096839.022,-1000.000,322.266,764.648,-599.121
1630096839.026,-1000.000,251.953,-444.824,-950.195
1630096839.030,-1000.000,256.836,-1000.000,-1000.000
1630096839.033,-1000.000,290.039,-497.070,-782.227
1630096839.037,-1000.000,252.441,802.246,404.785
1630096839.041,-1000.000,204.102,-44.434,-485.840
1630096839.045,-1000.000,246.582,-1000.000,-1000.000
1630096839.049,-1000.000,322.754,-773.926,-764.160
1630096839.051,-1000.000,318.848,695.312,487.793
1630096839.055,-1000.000,327.148,231.445,-355.469
1630096839.059,-1000.000,353.027,-1000.000,-1000.000
1630096839.063,-1000.000,337.891,-1000.000,-1000.000
1630096839.067,-1000.000,390.137,351.074,326.172
1630096839.071,-1000.000,427.734,521.973,325.195
1630096839.075,-1000.000,421.387,-848.145,-1000.000
1630096839.078,-1000.000,410.645,-1000.000,-1000.000
1630096839.082,-1000.000,409.668,-534.180,-678.223
1630096839.086,-1000.000,417.480,-46.387,282.715
1630096839.090,-1000.000,414.062,-819.824,-738.281
1630096839.094,-1000.000,432.617,-1000.000,-1000.000
1630096839.096,-1000.000,407.227,-839.844,-916.992
1630096839.100,-1000.000,426.270,-415.039,-1000.000
1630096839.104,-957.520,465.332,-801.758,-941.406
1630096839.108,-1000.000,453.125,-1000.000,-1000.000
1630096839.112,-973.633,456.055,-912.109,-872.070
1630096839.116,-7.324,464.844,157.715,337.402
1630096839.120,-535.645,433.594,-309.082,-384.766
1630096839.123,-1000.000,385.254,-1000.000,-1000.000
1630096839.127,-936.523,384.766,-1000.000,-1000.000
1630096839.131,-1000.000,355.469,-249.512,-72.266
1630096839.135,-1000.000,312.988,-119.141,333.496
1630096839.139,-917.480,321.777,-940.430,-950.195
1630096839.141,-1000.000,371.582,-1000.000,-1000.000
1630096839.145,-630.859,338.867,-446.777,-35.156
1630096839.149,345.703,284.180,602.051,855.469
1630096839.153,-688.477,306.152,-519.531,-555.664
1630096839.157,-1000.000,312.988,-1000.000,-1000.000
1630096839.161,-712.402,281.738,-620.605,-452.637
1630096839.165,490.723,269.043,668.945,694.336
1630096839.168,-475.098,289.062,-220.215,-494.629
1630096839.172,-1000.000,268.066,-1000.000,-1000.000
1630096839.176,-985.840,275.391,-896.484,-923.340
1630096839.180,-226.562,274.902,321.777,264.160
1630096839.184,-446.289,224.609,-154.297,-230.469
1630096839.186,-1000.000,197.754,-1000.000,-1000.000
1630096839.190,-1000.000,189.941,-1000.000,-1000.000
1630096839.194,-365.723,265.137,-218.262,276.855
1630096839.198,19.043,241.211,89.844,635.742
1630096839.202,-1000.000,179.688,-899.902,-993.164
1630096839.206,-1000.000,208.984,-1000.000,-1000.000
1630096839.210,116.211,225.586,-708.496,604.980
1630096839.213,339.844,194.336,-225.586,821.289
1630096839.217,-950.684,177.246,-802.246,-755.859
1630096839.221,-1000.000,185.059,-1000.000,-1000.000
1630096839.225,-744.629,223.145,-820.312,-334.473
1630096839.229,486.816,188.965,123.047,749.512
1630096839.232,-437.500,119.141,-563.965,-500.977
1630096839.236,-1000.000,166.016,-1000.000,-1000.000
1630096839.240,-869.629,141.113,-963.867,-823.730
1630096839.244,614.746,149.902,123.047,701.660
1630096839.248,342.773,201.660,166.504,562.012
1630096839.252,-1000.000,183.594,-958.008,-1000.000
1630096839.256,-1000.000,96.191,-1000.000,-974.121
1630096839.259,522.949,81.543,66.406,640.137
1630096839.263,967.285,119.141,737.793,974.121
1630096839.267,-649.902,125.000,-650.879,-678.223
1630096839.271,-1000.000,154.785,-1000.000,-1000.000
1630096839.275,13.184,135.254,-367.188,282.227
1630096839.276,-986.816,105.957,869.141,-937.988
1630096839.280,-355.957,91.797,-7.812,-398.926
1630096839.284,-1000.000,97.656,-1000.000,-1000.000
1630096839.288,-592.773,121.094,-773.926,-382.812
1630096839.292,866.211,155.762,743.164,964.844
1630096839.296,972.656,109.863,841.797,902.832
1630096839.300,-694.336,67.383,-783.203,-724.609
1630096839.303,-1000.000,103.516,-1000.000,-1000.000
1630096839.307,678.223,89.844,628.906,708.008
1630096839.311,-989.746,87.891,-929.688,-999.512
1630096839.315,-699.707,82.031,-512.207,-718.750
1630096839.319,-1000.000,74.219,-1000.000,-1000.000
1630096839.321,515.137,104.980,364.746,587.402
1630096839.325,-829.102,73.242,-838.867,-866.211
1630096839.329,-214.844,59.570,122.559,-353.027
1630096839.333,-1000.000,73.730,-1000.000,-1000.000
1630096839.337,62.012,63.965,-207.520,209.473
1630096839.341,-883.301,83.008,-928.223,-862.305
1630096839.345,875.488,88.867,876.465,824.707
1630096839.348,-675.293,46.387,-725.586,-722.656
1630096839.352,-944.336,44.922,-863.770,-862.305
1630096839.356,794.434,64.453,813.477,876.465
1630096839.360,-955.566,38.574,-942.383,977.051
1630096839.364,-633.301,24.414,-582.031,-708.496
1630096839.381,-1000.000,39.062,-986.816,-999.512
1630096839.385,580.566,52.246,596.680,642.578
1630096839.389,-771.973,46.875,-774.414,-844.238
1630096839.393,-39.551,29.297,105.469,-323.242
1630096839.397,-1000.000,5.859,-924.805,-1000.000
1630096839.401,550.293,34.180,402.832,594.238
1630096839.405,-943.848,42.969,-768.066,-886.719
1630096839.408,-601.562,-21.973,617.676,-492.676
1630096839.412,-1000.000,-115.234,-817.871,-1000.000
1630096839.416,120.117,-141.113,-119.141,290.039
1630096839.420,-895.996,-152.344,-851.562,-862.793
1630096839.424,897.949,-169.434,903.320,867.188
1630096839.428,-684.570,-198.242,-654.297,-686.523
1630096839.432,-712.891,-223.633,-616.699,-535.645
1630096839.436,878.418,-270.020,910.645,959.473
1630096839.440,-847.168,-316.895,-870.605,-869.141
1630096839.444,-104.980,-371.582,-185.547,-158.691
1630096839.448,-998.047,-418.457,-901.367,-847.656
1630096839.452,666.992,-428.223,585.449,643.555
1630096839.455,983.887,-448.730,-765.625,-773.438
1630096839.459,-747.559,-461.426,498.047,563.477
1630096839.463,-960.938,-474.121,-731.934,-631.836
1630096839.467,566.406,-500.488,344.238,423.340
1630096839.471,-846.680,-526.855,-773.926,-761.230
1630096839.474,801.758,-538.086,794.434,779.785
1630096839.478,-614.746,-579.102,-656.250,-462.402
1630096839.482,102.539,-590.332,-163.574,310.059
1630096839.486,-868.652,-586.426,-879.395,-855.957
1630096839.490,-946.289,-617.188,979.492,-984.863
1630096839.494,-86.914,-620.605,-497.559,20.996
1630096839.498,-488.281,-601.562,-751.465,-30.273
1630096839.501,871.582,-586.426,811.523,995.117
1630096839.505,-816.406,-582.520,-820.312,-866.211
1630096839.509,454.590,-587.402,-4.395,390.137
1630096839.513,-707.031,-583.496,-880.859,-624.023
1630096839.517,481.445,-557.129,528.809,612.305
1630096839.516,-753.906,-552.246,-759.766,-768.555
1630096839.520,713.379,-553.711,576.660,663.574
1630096839.524,-491.211,-537.109,-725.098,-533.691
1630096839.528,348.145,-500.488,245.605,388.184
1630096839.532,-777.344,-496.582,-784.180,-777.344
1630096839.536,816.895,-499.023,819.824,809.570
1630096839.540,-684.570,-529.785,-690.918,-668.457
1630096839.543,-340.332,-532.227,-517.578,-282.715
1630096839.547,-911.133,-493.164,-980.957,-854.492
1630096839.551,-998.535,-486.328,992.676,860.352
1630096839.555,-497.559,-495.117,-572.754,-685.059
1630096839.559,-962.891,-500.488,-971.680,-987.305
1630096839.562,695.801,-476.562,676.270,770.996
1630096839.566,-803.223,-462.891,-830.566,964.844
1630096839.570,-259.277,-474.609,-245.605,-763.184
1630096839.574,-975.098,-475.586,-1000.000,-979.492
1630096839.578,548.828,-445.801,437.500,560.059
1630096839.582,-824.707,-426.758,-800.781,-815.918
1630096839.586,780.762,-443.359,667.969,494.141
1630096839.589,-666.016,-454.102,-817.871,-902.344
1630096839.593,-25.391,-432.129,-285.156,-45.898
1630096839.597,-788.574,-412.598,-886.719,-815.430
1630096839.601,868.652,-405.762,887.695,853.027
1630096839.605,-670.410,-405.273,-720.215,-710.938
1630096839.606,-419.922,-388.672,-723.145,-445.312
1630096839.610,-987.305,-360.840,904.297,-966.309
1630096839.614,-889.648,-354.004,-939.453,-942.871
1630096839.618,-226.562,-354.004,-518.555,-453.125
1630096839.622,-820.801,-327.637,-960.449,-822.754
1630096839.626,708.496,-310.059,612.793,739.258
1630096839.630,-797.363,-315.918,-774.414,-791.016
1630096839.633,608.398,-293.457,269.531,460.938
1630096839.637,-603.027,-287.598,-871.094,-723.145
1630096839.641,404.297,-267.090,356.934,434.570
1630096839.645,-753.906,-248.535,-770.996,-755.859
1630096839.649,759.277,-254.395,725.098,738.281
1630096839.651,-595.703,-265.137,-737.305,-579.590
1630096839.655,158.691,-240.723,-164.062,208.008
1630096839.659,-816.895,-227.051,-854.004,-789.062
1630096839.663,963.379,-238.281,903.809,891.602
1630096839.667,-464.844,-246.582,-662.598,-564.453
1630096839.671,-447.266,-230.957,-715.820,-292.480
1630096839.675,962.891,-193.848,875.488,-974.609
1630096839.678,-850.098,-185.059,-873.047,-883.789
1630096839.682,223.145,-202.637,-275.391,33.203
1630096839.686,-788.574,-204.102,-953.125,-776.367
1630096839.690,554.199,-177.734,561.035,649.902
1630096839.694,-765.137,-164.062,-763.672,-773.926
1630096839.699,674.316,-182.129,446.777,601.074
1630096839.703,-520.508,-179.199,-801.270,-602.539
1630096839.707,382.812,-143.555,293.457,406.250
1630096839.711,-758.789,-165.039,-773.926,-756.836
1630096839.715,779.297,-196.777,784.668,766.602
1630096839.719,-637.695,-188.477,-687.012,-606.445
1630096839.723,44.434,-142.578,-238.770,112.793
1630096839.726,-835.938,-137.207,-885.254,-814.941
1630096839.730,986.328,-146.484,942.871,938.965
1630096839.734,-434.082,-153.809,-591.797,-532.227
1630096839.738,-853.027,-142.090,-898.926,-764.160
1630096839.742,741.211,-112.305,721.191,822.754
1630096839.756,-780.273,-135.254,-809.082,-810.547
1630096839.760,285.156,-163.086,-104.492,73.730
1630096839.764,-815.918,-152.832,-938.965,-887.695
1630096839.768,470.215,-125.977,505.859,500.977
1630096839.772,-781.250,-129.883,-777.344,-770.508
1630096839.776,764.648,-127.441,615.234,677.734
1630096839.780,-645.508,-117.188,-791.504,-707.031
1630096839.783,47.363,-124.023,10.742,139.648
1630096839.787,-773.926,-123.535,-802.734,-771.973
1630096839.791,841.309,-116.211,828.613,826.172
1630096839.795,-701.172,-131.348,-715.820,-700.684
1630096839.799,-578.125,-129.883,-513.672,-510.742
1630096839.801,-960.449,-108.887,-975.098,-918.457
1630096839.805,953.613,-101.562,979.004,874.512
1630096839.809,-636.719,-103.027,-597.168,-721.191
1630096839.813,-1000.000,-94.727,-968.262,-1000.000
1630096839.817,603.516,-89.355,653.320,679.688
1630096839.821,-800.293,-92.285,-801.758,-918.457
1630096839.825,-229.492,-94.238,-107.422,-551.270
1630096839.828,-1000.000,-93.262,-1000.000,-1000.000
1630096839.832,476.074,-80.078,418.457,570.801
1630096839.836,-822.266,-80.566,-778.320,-944.824
1630096839.840,-277.344,-104.492,405.273,-540.527
1630096839.844,-1000.000,-109.863,-944.336,-1000.000
1630096839.846,-37.598,-90.332,-130.371,104.980
1630096839.850,-857.422,-55.664,-861.816,-850.586
1630096839.854,682.617,-61.035,809.570,274.902
1630096839.858,-911.133,-86.914,-756.836,-1000.000
1630096839.862,-877.441,-77.148,-820.801,-716.309
1630096839.866,829.590,-67.383,851.074,895.508
1630096839.870,984.375,-59.082,-980.957,877.441
1630096839.873,-701.660,-66.406,-623.047,-789.062
1630096839.877,-1000.000,-55.176,-1000.000,-1000.000
1630096839.881,680.664,-33.691,568.848,684.570
1630096839.885,961.426,-51.270,-796.875,972.168
1630096839.889,-599.121,-37.598,95.215,-647.461
1630096839.894,-1000.000,0.000,-1000.000,-1000.000
1630096839.898,-123.535,-24.414,132.324,228.516
1630096839.902,785.645,-58.105,-865.234,946.289
1630096839.906,-583.984,-55.664,119.629,-567.871
1630096839.910,-1000.000,-30.762,-1000.000,-1000.000
1630096839.914,-611.328,-11.230,-544.434,-298.828
1630096839.918,512.695,1.465,888.184,793.457
1630096839.921,-517.578,-13.672,285.156,-482.910
1630096839.925,-1000.000,-18.066,-1000.000,-1000.000
1630096839.929,-825.195,-33.203,-950.195,-820.801
1630096839.933,357.422,-6.836,639.160,628.418
1630096839.937,-375.977,25.391,745.117,82.031
1630096839.937,-1000.000,29.297,-845.703,-1000.000
1630096839.941,-991.211,65.430,-1000.000,-957.520
1630096839.945,150.391,81.055,406.250,575.684
1630096839.949,-155.762,96.680,-822.754,633.301
1630096839.953,-1000.000,138.672,-22.461,-953.125
1630096839.957,-1000.000,94.238,-1000.000,-1000.000
1630096839.961,-79.102,112.793,229.004,333.984
1630096839.964,243.164,155.273,-822.266,681.641
1630096839.968,-960.449,109.375,653.320,-834.473
1630096839.972,-1000.000,122.070,-829.102,-1000.000
1630096839.976,-797.363,163.574,-569.824,-730.469
1630096839.980,423.828,159.668,976.074,474.121
1630096839.982,-416.504,161.133,976.562,-420.898
1630096839.986,-1000.000,167.480,-653.320,-1000.000
1630096839.990,-774.902,165.527,-911.621,-765.137
1630096839.994,424.316,215.332,691.406,458.008
1630096839.998,-415.527,187.012,-801.758,-385.742
1630096840.002,-1000.000,129.395,-42.969,-1000.000
1630096840.006,-1000.000,212.891,-926.758,-986.328
1630096840.009,90.820,207.031,480.957,186.523
1630096840.013,-89.844,153.809,-752.441,-86.426
1630096840.017,-1000.000,185.547,547.363,-1000.000
1630096840.021,-1000.000,180.664,-757.324,-1000.000
1630096840.025,-350.098,201.172,232.422,-262.695
1630096840.026,310.059,221.680,-775.391,239.746
1630096840.030,-842.285,218.750,820.801,-886.719
1630096840.034,-1000.000,263.184,-618.652,-1000.000
1630096840.038,-576.660,264.160,-88.867,-567.871
1630096840.042,612.305,298.340,-913.574,576.172
1630096840.046,-479.004,347.168,-937.012,-515.625
1630096840.050,-1000.000,382.324,-86.914,-1000.000
1630096840.053,-738.281,449.707,-564.453,-729.004
1630096840.057,432.617,454.590,805.664,447.754
1630096840.061,-413.574,498.535,-819.336,-416.992
1630096840.065,-1000.000,539.062,544.922,-1000.000
1630096840.069,-802.246,571.289,-547.363,-809.082
1630096840.071,545.410,596.191,502.930,489.258
1630096840.075,-199.707,612.305,-767.090,-249.512
1630096840.079,-1000.000,596.191,749.023,-1000.000
1630096840.083,-1000.000,576.172,-400.391,-1000.000
1630096840.087,393.555,631.836,429.688,351.074
1630096840.091,508.789,683.105,-831.055,405.273
1630096840.095,-1000.000,603.027,903.320,-1000.000
1630096840.098,-1000.000,532.715,465.332,-1000.000
1630096840.102,-957.520,548.340,655.273,-926.270
1630096840.106,-1000.000,549.316,-967.285,-992.676
1630096840.110,-925.293,571.289,993.164,-933.594
1630096840.114,-1000.000,468.262,785.645,-1000.000
1630096840.131,-824.707,435.059,632.812,-818.848
1630096840.135,457.520,507.324,930.664,439.941
1630096840.139,-423.828,494.629,-944.824,-446.777
1630096840.143,-1000.000,469.238,819.336,-1000.000
1630096840.147,-865.234,412.598,212.402,-869.629
1630096840.151,393.066,460.449,741.211,330.078
1630096840.155,-246.094,435.059,-889.648,-291.016
1630096840.158,-1000.000,337.891,864.746,-1000.000
1630096840.162,-1000.000,344.727,122.070,-1000.000
1630096840.166,281.250,375.488,603.516,261.719
1630096840.170,436.035,376.465,-907.715,338.379
1630096840.174,-964.355,353.027,962.891,-986.328
1630096840.177,-1000.000,278.809,404.297,-1000.000
1630096840.181,-308.105,292.969,541.016,-321.289
1630096840.185,723.145,374.023,-971.680,680.176
1630096840.189,-571.777,317.871,-979.492,-595.703
1630096840.193,-1000.000,226.562,723.633,-1000.000
1630096840.197,-686.035,223.633,384.766,-684.570
1630096840.201,514.160,259.766,851.074,520.020
1630096840.204,-423.828,319.336,-883.301,-419.434
1630096840.208,-1000.000,263.184,773.926,-1000.000
1630096840.212,-874.512,177.246,-406.250,-867.188
1630096840.216,637.207,225.586,439.941,622.070
1630096840.220,438.965,280.273,-791.992,337.891
1630096840.221,-1000.000,262.207,848.633,-1000.000
1630096840.225,-1000.000,244.629,-368.164,-1000.000
1630096840.229,91.309,225.586,189.453,144.043
1630096840.233,919.922,225.586,-863.281,910.156
1630096840.237,-562.988,199.219,-991.211,-590.332
1630096840.241,-1000.000,241.699,-244.629,-1000.000
1630096840.245,-659.668,236.328,-575.195,-610.352
1630096840.248,708.984,174.316,852.051,717.773
1630096840.252,-221.680,189.453,-824.219,-270.996
1630096840.256,-1000.000,149.414,165.039,-1000.000
1630096840.260,-866.211,154.785,-817.383,-845.703
1630096840.264,663.574,229.492,511.719,663.574
1630096840.266,488.281,160.156,-763.672,383.301
1630096840.270,-1000.000,80.566,629.883,-1000.000
1630096840.274,-1000.000,122.559,-721.680,-1000.000
1630096840.278,384.277,113.281,132.324,466.797
1630096840.282,966.309,105.469,-791.504,942.871
1630096840.286,-608.887,107.422,834.961,-661.621
1630096840.290,-1000.000,95.215,-679.688,-1000.000
1630096840.293,-213.379,122.559,-497.559,-28.809
1630096840.297,842.285,136.230,-977.539,887.695
1630096840.301,-483.398,91.797,991.699,-519.043
1630096840.305,-1000.000,48.828,-573.730,-1000.000
1630096840.309,-764.648,85.938,-942.871,-645.020
1630096840.311,733.398,187.012,670.410,796.387
1630096840.315,214.844,83.008,-808.594,60.547
1630096840.319,-1000.000,0.000,-5.859,-1000.000
1630096840.323,-917.969,66.895,-945.801,-897.461
1630096840.327,625.488,155.762,411.621,643.555
1630096840.331,966.797,102.539,-775.391,898.926
1630096840.335,-701.660,2.441,628.906,-785.156
1630096840.338,-1000.000,76.172,-809.570,-1000.000
1630096840.342,392.578,131.348,-137.207,475.586
1630096840.346,979.492,46.875,-853.027,976.562
1630096840.350,-572.266,12.695,867.188,-606.934
1630096840.354,-1000.000,84.473,-692.871,-1000.000
1630096840.356,-450.195,102.539,-865.723,-179.199
1630096840.360,925.781,42.480,837.891,972.168
1630096840.364,-60.547,50.293,959.961,-221.191
1630096840.368,-1000.000,48.340,-675.293,-1000.000
1630096840.372,-838.867,78.125,-999.512,-717.773
1630096840.376,731.445,90.332,621.094,816.406
1630096840.380,653.809,6.348,-853.516,480.957
1630096840.383,-1000.000,11.230,-192.871,-1000.000
1630096840.387,-976.074,25.391,-1000.000,-945.312
1630096840.391,662.598,0.000,313.477,671.387
1630096840.395,988.281,74.707,-857.422,960.449
1630096840.399,-663.086,79.102,252.441,-728.027
1630096840.402,-1000.000,-40.527,-984.863,-1000.000
1630096840.406,341.797,-17.090,-380.371,474.609
1630096840.410,-931.152,26.367,-976.562,-941.895
1630096840.414,-440.918,-0.488,657.227,-513.672
1630096840.418,-1000.000,0.977,-863.770,-1000.000
1630096840.422,-186.035,7.324,-897.949,67.383
1630096840.426,-951.660,9.766,787.109,-915.039
1630096840.429,-35.645,61.523,649.902,-135.742
1630096840.433,-1000.000,-16.602,-850.586,-1000.000
1630096840.437,-816.895,-63.477,-1000.000,-667.480
1630096840.441,739.258,-39.062,355.957,856.445
1630096840.445,904.785,18.555,904.785,819.336
1630096840.446,-828.125,33.691,-519.043,-862.305
1630096840.450,-1000.000,-20.996,-1000.000,-1000.000
1630096840.454,678.711,-21.973,-471.191,699.219
1630096840.458,988.281,-43.945,572.754,969.727
1630096840.462,-721.680,-17.090,-399.414,-750.488
1630096840.466,-1000.000,-20.996,-1000.000,-1000.000
1630096840.470,591.309,-43.945,-752.930,625.977
1630096840.473,-973.633,-25.879,426.270,-970.215
1630096840.477,-576.660,-2.441,-267.578,-588.867
1630096840.481,-1000.000,-50.293,-1000.000,-1000.000
1630096840.485,67.383,-4.883,-942.383,178.223
1630096840.489,-857.910,28.809,418.945,-854.492
1630096840.506,155.762,-82.031,415.039,65.918
1630096840.510,-1000.000,-48.340,-954.102,-1000.000
1630096840.514,-785.645,-30.273,-1000.000,-660.645
1630096840.518,793.457,-41.016,209.961,873.047
1630096840.522,978.516,-33.691,988.770,925.781
1630096840.526,-724.121,-45.898,-283.203,-755.371
1630096840.530,-1000.000,-6.836,-1000.000,-1000.000
1630096840.533,678.711,2.930,-252.930,693.848
1630096840.537,-994.141,-51.270,913.574,-999.512
1630096840.541,-676.758,-59.082,-2.441,-701.660
1630096840.545,-1000.000,-31.738,-1000.000,-1000.000
1630096840.549,404.785,6.836,-721.680,500.977
1630096840.551,-827.637,-15.137,797.363,-857.910
1630096840.555,-29.785,-45.898,604.492,-195.312
1630096840.559,-1000.000,-26.855,-925.781,-1000.000
1630096840.563,-417.969,40.527,-967.773,-210.938
1630096840.567,-972.656,-11.719,602.051,-919.922
1630096840.571,745.605,-55.664,-905.273,536.133
1630096840.575,-866.699,-22.949,-427.734,-958.984
1630096840.578,-1000.000,-60.059,-1000.000,-925.293
1630096840.582,692.383,28.320,335.449,742.676
1630096840.586,996.094,47.363,-847.656,951.660
1630096840.590,-700.195,-76.172,201.172,-754.883
1630096840.594,-1000.000,-62.012,-1000.000,-1000.000
1630096840.596,529.297,4.883,-225.098,608.887
1630096840.600,-915.527,20.020,-924.316,-953.125
1630096840.604,-431.641,-2.930,770.020,-537.109
1630096840.608,-1000.000,-30.762,-784.668,-1000.000
1630096840.612,-71.289,-29.297,-800.293,133.301
1630096840.616,-895.996,-37.109,833.496,-899.902
1630096840.620,133.789,-32.227,-966.309,-99.121
1630096840.623,-1000.000,-2.930,-588.867,-1000.000
1630096840.627,-804.688,12.207,-987.793,-632.812
1630096840.631,815.430,7.324,573.730,903.320
1630096840.635,775.391,-45.410,-774.902,571.289
1630096840.639,-918.945,-29.297,264.160,-1000.000
1630096840.642,-1000.000,24.902,-915.039,-951.660
1630096840.646,673.828,-1.465,312.988,698.242
1630096840.650,988.281,-48.828,-791.016,948.242
1630096840.654,-706.055,-73.242,406.738,-761.230
1630096840.658,-1000.000,-26.367,-901.367,-1000.000
1630096840.662,497.559,-17.578,-216.309,581.055
1630096840.666,-914.062,-48.828,-901.855,-947.754
1630096840.669,-405.762,1.465,894.531,-511.230
1630096840.673,-1000.000,-44.434,-686.035,-1000.000
1630096840.677,-205.566,-61.035,-867.188,36.133
1630096840.681,-925.781,-20.508,791.504,-905.273
1630096840.685,235.840,-22.461,-902.832,-20.020
1630096840.686,-1000.000,-20.996,-458.008,-1000.000
1630096840.690,-752.930,-8.301,-980.957,-583.008
1630096840.694,857.910,-4.883,562.988,937.988
1630096840.698,845.703,2.930,-777.832,628.906
1630096840.702,-844.727,-5.371,392.090,-956.543
1630096840.706,-1000.000,-13.672,-901.855,-966.309
1630096840.710,673.828,0.488,167.480,694.824
1630096840.713,998.535,23.438,-821.289,976.562
1630096840.717,-686.523,12.695,428.711,-733.398
1630096840.721,-1000.000,-8.789,-921.387,-1000.000
1630096840.725,443.359,0.977,-583.496,555.176
1630096840.729,-856.934,-4.395,961.426,-893.555
1630096840.731,-299.805,-16.602,686.035,-454.590
1630096840.735,-1000.000,-15.625,-864.258,-1000.000
1630096840.739,-5.859,1.953,-930.176,237.305
1630096840.743,-851.074,6.836,660.156,-817.383
1630096840.747,540.527,-27.344,-866.211,358.398
1630096840.751,-988.281,-46.387,-351.074,-1000.000
1630096840.755,-781.738,-51.270,-994.141,-496.582
1630096840.758,906.738,-41.016,514.648,-965.332
1630096840.762,846.680,-61.035,-781.250,714.355
1630096840.766,-835.449,-93.262,314.941,-893.066
1630096840.770,-1000.000,-124.512,-905.762,-944.824
1630096840.774,679.688,-153.320,154.785,743.652
1630096840.776,-994.629,-180.664,-808.105,988.770
1630096840.780,-698.242,-224.609,822.266,-722.656
1630096840.784,-1000.000,-250.977,-691.895,-1000.000
1630096840.788,548.340,-243.652,-330.566,628.418
1630096840.792,-912.109,-262.207,-938.477,-922.852
1630096840.796,-409.668,-299.805,-984.375,-487.305
1630096840.800,-1000.000,-305.176,-461.914,-1000.000
1630096840.803,-148.926,-305.176,-867.676,166.016
1630096840.807,-897.461,-316.895,690.430,-845.703
1630096840.811,369.141,-342.285,-784.180,189.453
1630096840.815,-1000.000,-358.398,316.406,-1000.000
1630096840.819,-818.848,-353.516,-754.883,-594.727
1630096840.821,835.938,-348.633,472.168,961.914
1630096840.825,869.141,-378.418,-753.906,737.793
1630096840.829,-839.355,-396.973,684.570,-893.555
1630096840.833,-1000.000,-386.719,-600.098,-977.539
1630096840.837,676.758,-366.211,261.719,708.984
1630096840.841,993.652,-366.699,-781.250,985.840
1630096840.845,-658.691,-422.852,844.238,-702.148
1630096840.848,-1000.000,-455.078,-633.301,-1000.000
1630096840.852,375.977,-428.223,-337.891,526.367
1630096840.856,-939.941,-415.039,-963.379,-944.336
1630096840.860,-461.426,-439.453,-930.176,-519.531
1630096840.864,-1000.000,-435.059,-255.371,-1000.000
1630096840.881,-279.297,-424.316,-825.195,33.203
1630096840.885,-939.941,-436.523,679.688,-876.953
1630096840.889,329.590,-427.734,-781.250,185.547
1630096840.893,-1000.000,-431.641,413.574,-1000.000
1630096840.897,-909.180,-446.289,-746.582,-756.348
1630096840.901,691.895,-432.617,409.668,827.637
1630096840.905,985.352,-439.453,-760.254,905.273
1630096840.908,-742.188,-467.285,729.004,-790.039
1630096840.912,-1000.000,-455.078,-669.922,-1000.000
1630096840.916,628.906,-414.062,30.762,659.668
1630096840.920,-926.758,-401.367,-821.289,-935.059
1630096840.924,-494.629,-408.203,913.574,-553.711
1630096840.926,-1000.000,-396.973,-584.961,-1000.000
1630096840.930,188.477,-352.539,-558.594,387.207
1630096840.934,-860.352,-336.426,919.434,-870.117
1630096840.938,-99.609,-346.680,-857.910,-194.336
1630096840.942,-1000.000,-334.961,15.137,-1000.000
1630096840.946,-701.660,-320.801,-837.402,-444.824
1630096840.950,886.230,-325.195,567.871,998.535
1630096840.953,725.098,-311.035,-753.418,597.656
1630096840.957,-950.195,-292.480,495.605,-971.680
1630096840.961,-995.117,-284.180,-729.004,-942.871
1630096840.965,663.574,-275.391,345.215,709.961
1630096840.969,-990.723,-273.438,-769.531,996.094
1630096840.971,-695.801,-289.062,781.250,-718.750
1630096840.975,-1000.000,-291.016,-670.410,-1000.000
1630096840.979,526.855,-265.625,-147.949,601.074
1630096840.983,-872.070,-254.395,-863.770,-892.578
1630096840.987,-315.430,-265.137,952.148,-402.832
1630096840.991,-1000.000,-264.648,-529.785,-1000.000
1630096840.995,-154.297,-233.398,-744.141,162.598
1630096840.998,-889.648,-208.984,789.062,-824.707
1630096841.002,638.184,-196.777,-830.078,411.133
1630096841.006,-964.355,-205.566,-54.688,-1000.000
1630096841.010,-819.336,-213.379,-899.902,-627.930
1630096841.014,866.699,-192.383,532.715,959.473
1630096841.017,970.215,-172.852,-768.555,878.906
1630096841.021,-725.586,-191.895,569.336,-789.551
1630096841.025,-1000.000,-192.383,-768.555,-958.496
1630096841.029,598.633,-167.480,149.414,664.062
1630096841.033,-919.434,-182.129,-791.992,-984.375
1630096841.037,-266.113,-198.730,780.762,-372.070
1630096841.041,-982.422,-201.172,-732.422,-944.824
1630096841.044,507.812,-168.945,-727.051,561.035
1630096841.048,-876.953,-159.668,905.762,-885.254
1630096841.052,954.590,-215.332,980.469,943.848
1630096841.056,-348.633,-237.305,-646.484,-55.176
1630096841.060,-1.953,-200.195,-998.047,320.801
1630096841.061,-916.504,-167.480,660.156,-918.457
1630096841.065,-904.297,-179.688,-867.188,-941.406
1630096841.069,136.719,-201.660,-336.426,447.754
1630096841.073,-631.348,-195.312,-1000.000,-23.438
1630096841.077,739.258,-172.852,346.680,880.371
1630096841.081,-808.105,-176.758,-804.199,-864.746
1630096841.085,668.945,-192.383,449.707,711.914
1630096841.088,-535.645,-174.316,-964.844,-394.531
1630096841.092,390.625,-158.691,-414.551,503.418
1630096841.096,-749.512,-172.852,-974.609,-772.949
1630096841.100,758.789,-177.734,761.719,777.832
1630096841.104,-561.035,-178.711,-808.105,-394.531
1630096841.107,224.609,-160.156,-867.676,399.902
1630096841.111,-833.008,-150.391,787.109,-852.051
1630096841.115,995.117,-153.809,-961.914,972.168
1630096841.119,-221.680,-148.438,-604.004,330.566
1630096841.123,-123.535,-152.832,-980.469,412.109
1630096841.127,-978.516,-147.949,578.125,-978.027
1630096841.131,-906.738,-129.395,-770.996,-943.848
1630096841.134,615.723,-115.723,242.676,720.215
1630096841.138,-515.625,-145.996,-886.230,-16.113
1630096841.142,537.598,-147.461,354.004,738.770
1630096841.146,-761.719,-134.766,-780.762,-829.102
1630096841.150,719.727,-143.555,748.535,758.301
1630096841.152,-469.238,-154.297,-722.168,-419.922
1630096841.156,380.371,-128.418,-227.051,411.621
1630096841.160,-803.711,-116.699,-873.047,-792.969
1630096841.164,900.391,-130.371,913.574,876.465
1630096841.168,-497.559,-145.508,-660.645,-369.629
1630096841.172,-131.348,-130.859,-750.000,192.383
1630096841.176,-926.270,-107.910,856.445,-881.836
1630096841.179,-903.320,-120.117,-875.488,-939.941
1630096841.183,-6.348,-130.859,-306.641,43.457
1630096841.187,-751.465,-130.371,-969.727,-417.480
1630096841.191,707.520,-116.699,549.805,865.723
1630096841.195,-804.688,-116.211,-770.020,-857.422
1630096841.196,671.875,-128.906,451.660,692.383
1630096841.200,-530.273,-128.418,-829.102,-465.820
1630096841.204,385.742,-105.469,214.355,456.055
1630096841.208,-736.328,-113.281,-783.203,-763.184
1630096841.212,728.027,-125.488,796.875,775.391
1630096841.216,-470.703,-124.512,-691.895,-354.004
1630096841.220,377.441,-106.445,-285.645,422.363
1630096841.223,-834.473,-110.352,-907.715,-840.332
1630096841.227,972.656,-124.023,965.332,955.078
1630096841.231,-318.359,-116.211,-560.059,178.711
1630096841.235,-152.832,-101.074,-906.250,392.090
1630096841.239,-975.098,-95.215,694.824,-890.137
1630096841.256,-893.555,-91.797,-794.434,927.734
1630096841.260,483.887,-84.473,12.695,937.012
1630096841.264,-700.195,-81.543,-886.719,928.223
1630096841.268,492.188,-71.777,506.836,963.867
1630096841.272,-764.160,-48.828,-774.902,987.793
1630096841.276,735.352,-58.105,671.387,914.551
1630096841.280,-521.973,-160.156,-687.012,835.938
1630096841.283,285.645,-197.266,145.996,909.668
1630096841.287,-746.582,-191.406,-782.715,-949.219
1630096841.291,684.570,-171.387,723.145,793.457
1630096841.295,-579.102,-87.402,-719.238,-349.121
1630096841.299,221.680,-35.645,-366.211,437.500
1630096841.301,-856.445,-41.016,-953.125,-868.652
1630096841.305,-976.562,-25.879,-990.234,986.816
1630096841.309,-141.602,-46.387,-505.371,318.359
1630096841.313,-227.539,-68.848,-908.691,385.254
1630096841.317,977.539,-49.316,679.688,-983.887
1630096841.321,-892.090,-49.805,-788.574,-927.734
1630096841.325,641.113,-59.082,145.508,687.500
1630096841.328,-538.086,-64.453,-895.020,-206.055
1630096841.332,479.492,-46.387,414.062,679.199
1630096841.336,-748.047,-36.133,-762.207,-799.316
1630096841.340,713.867,-60.547,677.734,730.957
1630096841.344,-461.914,-62.988,-708.496,-457.520
1630096841.348,402.344,-61.523,79.102,401.367
1630096841.352,-814.453,-66.406,-806.641,-791.504
1630096841.356,928.223,-71.289,873.047,878.418
1630096841.360,-401.367,-90.820,-645.996,-366.699
1630096841.364,-18.555,-70.801,-546.875,194.824
1630096841.368,-922.852,-57.617,959.473,-891.113
1630096841.372,-902.344,-83.496,-905.762,-929.199
1630096841.375,232.422,-95.703,-281.250,81.543
1630096841.379,-694.824,-68.848,-942.871,-561.035
1630096841.383,656.250,-61.523,580.078,789.551
1630096841.387,-776.855,-82.031,-762.207,-805.664
1630096841.391,641.113,-82.031,395.020,581.543
1630096841.391,-560.059,-79.102,-809.570,-634.277
1630096841.395,396.484,-71.289,336.914,414.551
1630096841.399,-756.348,-85.449,-770.020,-751.953
1630096841.403,769.531,-106.934,761.230,752.441
1630096841.407,-610.352,-110.840,-691.406,-601.074
1630096841.411,69.824,-84.473,-142.090,181.641
1630096841.415,-732.910,-95.703,-842.285,-724.121
1630096841.418,677.734,-116.699,893.066,130.371
1630096841.422,-889.160,-97.168,-660.645,-1000.000
1630096841.426,-532.715,-91.309,-826.660,-294.922
1630096841.430,970.215,-86.914,793.457,-936.523
1630096841.434,-903.809,-91.797,-843.750,881.348
1630096841.436,-349.121,-101.074,-234.375,-734.375
1630096841.440,-965.332,-99.121,-948.730,-910.156
1630096841.444,764.160,-90.820,558.105,840.332
1630096841.448,-935.547,-92.773,-756.836,974.121
1630096841.452,-631.348,-100.098,319.824,-724.121
1630096841.456,-1000.000,-99.121,-864.746,-1000.000
1630096841.460,585.938,-79.102,315.430,652.832
1630096841.463,-790.039,-60.059,-789.062,-913.086
1630096841.467,-27.832,-86.914,780.762,-517.578
1630096841.471,-1000.000,-104.980,-730.957,-1000.000
1630096841.475,251.465,-87.891,-451.660,379.395
1630096841.479,-779.297,-78.125,-954.102,-820.801
1630096841.481,604.492,-84.473,973.145,57.617
1630096841.485,-951.172,-98.633,-610.352,-1000.000
1630096841.489,-628.906,-106.445,-880.859,-435.059
1630096841.493,961.426,-86.914,725.098,-989.258
1630096841.497,-977.051,-89.355,-806.641,867.676
1630096841.501,-564.941,-130.371,-41.504,-776.855
1630096841.505,-997.559,-139.160,-920.410,-941.406
1630096841.508,747.559,-121.582,493.652,794.434
1630096841.512,-964.844,-129.883,-758.301,980.957
1630096841.516,-673.340,-142.578,551.270,-727.051
1630096841.520,-1000.000,-139.160,-780.762,-1000.000
1630096841.524,622.559,-128.418,167.969,658.203
1630096841.526,-845.703,-126.953,-794.434,-935.059
1630096841.530,-339.355,-134.277,828.125,-552.734
1630096841.534,-1000.000,-132.324,-697.754,-1000.000
1630096841.538,244.141,-102.539,-548.340,302.734
1630096841.542,-862.793,-95.215,984.863,-837.402
1630096841.546,867.676,-119.141,-959.473,687.500
1630096841.550,-676.270,-123.535,-485.840,-841.309
1630096841.553,-859.863,-125.977,-943.359,-731.445
1630096841.557,904.297,-121.582,648.438,980.469
1630096841.561,967.773,-119.141,-781.738,809.082
1630096841.565,-711.426,-131.836,96.191,-855.469
1630096841.569,-1000.000,-120.605,-895.508,-971.191
1630096841.573,698.730,-107.910,443.359,733.398
1630096841.577,-985.840,-119.141,-763.184,992.188
1630096841.581,-713.867,-107.910,619.629,-727.539
1630096841.585,-1000.000,-98.633,-762.695,-1000.000
1630096841.589,649.902,-89.844,39.551,671.875
1630096841.593,-917.480,-87.891,-809.570,-976.074
1630096841.597,-437.988,-102.539,806.152,-566.406
1630096841.600,-1000.000,-112.793,-725.098,-1000.000
1630096841.604,4.883,-104.492,-746.094,128.418
1630096841.608,-872.070,-96.191,869.629,-905.273
1630096841.612,22.461,-100.098,-942.383,-203.613
1630096841.616,-1000.000,-104.980,-458.008,-1000.000
1630096841.631,-736.328,-100.098,-978.516,-663.086
1630096841.635,866.211,-85.938,604.004,895.508
1630096841.639,807.129,-90.332,-802.246,581.055
1630096841.643,-912.109,-103.516,30.762,-1000.000
1630096841.647,-984.863,-110.352,-932.129,-965.820
1630096841.651,701.172,-85.449,428.223,693.359
1630096841.655,-998.047,-76.172,-808.105,909.668
1630096841.658,-726.074,-92.773,349.609,-827.148
1630096841.662,-1000.000,-80.566,-919.434,-1000.000
1630096841.666,676.758,-62.500,-276.855,662.598
1630096841.670,-953.125,-73.242,-944.824,989.746
1630096841.674,-591.797,-86.426,916.992,-611.328
1630096841.676,-1000.000,-86.914,-666.992,-1000.000
1630096841.680,330.078,-71.289,-857.910,41.016
1630096841.684,-779.785,-74.707,740.723,-900.879
1630096841.688,88.867,-96.680,-830.566,-116.211
1630096841.692,-1000.000,-95.703,-151.367,-1000.000
1630096841.696,16.602,-86.914,-885.254,-504.395
1630096841.700,-857.910,-82.520,575.684,981.934
1630096841.703,835.449,-88.379,-771.484,746.094
1630096841.707,-724.609,-95.703,423.828,-886.719
1630096841.711,-922.852,-68.359,-811.035,-1000.000
1630096841.715,823.730,-48.340,247.070,680.664
1630096841.719,984.375,-76.660,-783.691,985.352
1630096841.721,-701.172,-97.656,720.703,-708.496
1630096841.725,-1000.000,-85.449,-760.254,-1000.000
1630096841.729,595.215,-77.148,-389.160,519.531
1630096841.733,-865.234,-81.543,-955.078,-934.082
1630096841.737,-448.730,-81.055,785.645,-533.691
1630096841.741,-1000.000,-78.613,-638.672,-1000.000
1630096841.745,410.156,-62.012,-691.406,237.305
1630096841.748,-832.031,-65.918,817.871,-892.578
1630096841.752,-94.727,-72.754,-879.395,-250.488
1630096841.756,-1000.000,-71.289,-201.660,-1000.000
1630096841.760,-640.625,-70.801,-948.730,-698.730
1630096841.764,921.387,-54.199,548.828,864.746
1630096841.766,793.945,-55.176,-819.824,660.156
1630096841.770,-894.043,-74.707,241.211,-987.793
1630096841.774,-1000.000,-80.566,-913.574,-984.375
1630096841.778,667.969,-64.941,43.457,674.805
1630096841.782,-986.328,-66.895,-860.840,961.426
1630096841.786,-704.590,-83.984,667.480,-756.348
1630096841.790,-1000.000,-80.566,-783.691,-1000.000
1630096841.793,646.484,-60.547,-571.777,608.887
1630096841.797,-981.934,-62.012,964.844,-996.582
1630096841.801,-643.555,-88.867,808.594,-650.391
1630096841.805,-1000.000,-77.148,-732.910,-1000.000
1630096841.809,375.977,-62.988,-940.430,322.754
1630096841.812,-852.539,-75.195,671.387,-907.227
1630096841.816,-274.902,-75.684,-895.508,-370.117
1630096841.820,-1000.000,-65.430,-264.648,-1000.000
1630096841.824,-265.137,-55.176,-1000.000,-306.641
1630096841.828,-910.156,-49.316,400.879,-946.777
1630096841.832,550.781,-60.547,-833.496,361.328
1630096841.836,-1000.000,-76.660,410.645,-1000.000
1630096841.839,-889.160,-62.012,-896.484,-864.746
1630096841.843,807.129,-46.875,-209.473,792.969
1630096841.847,881.836,-58.594,-977.539,807.129
1630096841.851,-856.934,-71.777,240.234,-919.434
1630096841.855,-990.723,-57.617,-1000.000,-972.656
1630096841.856,713.867,-43.457,-714.355,711.914
1630096841.860,-991.211,-55.664,788.086,-998.047
1630096841.864,-714.844,-65.430,296.875,-723.145
1630096841.868,-1000.000,-58.594,-1000.000,-1000.000
1630096841.872,632.812,-48.828,-973.145,648.438
1630096841.876,-866.211,-54.688,584.961,-905.762
1630096841.880,-446.289,-83.984,561.523,-526.367
1630096841.883,-1000.000,-92.285,-899.414,-1000.000
1630096841.887,436.523,-68.848,-1000.000,454.102
1630096841.891,-808.105,-69.336,-119.141,-826.172
1630096841.895,-248.535,-95.703,247.559,-289.551
1630096841.899,-1000.000,-99.609,-833.008,-1000.000
1630096841.901,160.156,-101.074,-1000.000,186.035
1630096841.905,-796.387,-145.508,-451.172,-812.500
1630096841.909,238.281,-184.082,226.562,104.492
1630096841.913,-1000.000,-183.594,-679.688,-1000.000
1630096841.917,-555.176,-177.734,-1000.000,-508.789
1630096841.921,984.863,-163.574,-677.734,-995.605
1630096841.925,895.508,-147.461,472.656,823.242
1630096841.928,-772.949,-157.227,-355.957,-842.773
1630096841.932,-972.656,-154.297,-1000.000,-959.961
1630096841.936,762.695,-134.277,-950.195,754.395
1630096841.940,-998.047,-127.930,51.758,999.512
1630096841.944,-710.449,-136.230,89.844,-712.402
1630096841.946,-1000.000,-127.441,-970.215,-1000.000
1630096841.950,651.855,-106.934,-1000.000,667.480
1630096841.954,-914.551,-105.957,-170.898,-957.031
1630096841.958,-558.594,-117.676,137.695,-637.695
1630096841.962,-1000.000,-117.676,-854.492,-1000.000
1630096841.966,408.203,-104.004,-1000.000,449.707
1630096841.970,-794.434,-100.586,-41.016,-808.594
1630096841.973,406.738,-109.375,817.871,137.207
1630096841.977,-1000.000,-105.957,-266.113,-1000.000
1630096841.981,-451.172,-93.262,-1000.000,-363.770
1630096841.985,-958.496,-88.379,-574.707,-946.777
1630096841.989,910.156,-89.844,768.066,846.680
1630096842.006,-694.336,-89.355,378.906,-771.973
1630096842.010,-1000.000,-94.238,-900.391,-983.398
1630096842.014,703.613,-90.820,-847.168,742.188
1630096842.018,-965.820,-85.449,653.809,-987.793
1630096842.022,-679.688,-97.168,893.555,-699.707
1630096842.026,-1000.000,-88.379,-72.754,-1000.000
1630096842.030,642.578,-75.684,-341.797,658.203
1630096842.033,-891.113,-84.961,663.086,-931.641
1630096842.037,-464.355,-93.750,-936.035,-560.059
1630096842.041,-1000.000,-76.660,195.801,-1000.000
1630096842.045,273.438,-66.406,-421.875,350.098
1630096842.049,-795.410,-71.777,550.781,-803.223
1630096842.053,379.883,-82.031,-907.227,207.031
1630096842.057,-1000.000,-73.730,535.156,-1000.000
1630096842.061,-614.258,-55.176,-196.777,-473.145
1630096842.065,989.258,-61.035,122.559,-965.820
1630096842.069,870.117,-79.590,969.238,803.711
1630096842.073,-783.203,-83.984,-993.652,-835.938
1630096842.077,-1000.000,-73.730,203.125,-985.840
1630096842.080,678.223,-39.062,-162.598,723.145
1630096842.084,-985.840,5.859,849.609,-994.141
1630096842.088,-710.938,3.906,936.035,-714.844
1630096842.092,-1000.000,-4.883,-177.734,-1000.000
1630096842.096,621.094,6.836,-441.406,652.832
1630096842.096,-887.695,-0.977,748.535,-917.969
1630096842.100,-440.918,-21.973,-933.594,-520.020
1630096842.104,-1000.000,-27.344,156.250,-1000.000
1630096842.108,238.770,-6.348,-268.555,340.820
1630096842.112,-807.617,8.789,682.129,-821.777
1630096842.116,104.492,3.418,-895.020,-49.805
1630096842.120,-1000.000,22.461,569.824,-1000.000
1630096842.123,-597.656,43.945,-80.566,-420.410
1630096842.127,999.023,60.059,530.762,-945.312
1630096842.131,682.617,35.645,-893.066,536.133
1630096842.135,-975.098,5.371,468.750,-1000.000
1630096842.139,-957.520,27.344,-58.594,-881.836
1630096842.141,719.238,46.875,528.320,797.363
1630096842.145,977.051,23.926,-917.480,902.832
1630096842.149,-750.977,3.418,759.766,-821.289
1630096842.153,-1000.000,3.418,-125.488,-1000.000
1630096842.157,683.105,17.090,279.785,679.199
1630096842.161,990.234,16.602,-895.020,995.117
1630096842.165,-650.391,-12.695,855.957,-657.715
1630096842.168,-1000.000,-13.184,-202.148,-1000.000
1630096842.172,331.055,25.391,101.562,407.715
1630096842.176,-950.684,18.066,-948.730,995.605
1630096842.180,-443.359,-10.254,772.461,-544.922
1630096842.184,-1000.000,-11.230,-472.168,-1000.000
1630096842.186,-616.699,-0.488,-713.379,-501.953
1630096842.190,908.691,6.836,739.746,927.246
1630096842.194,251.953,-10.254,-938.965,-5.859
1630096842.198,-1000.000,-15.625,-117.676,-1000.000
1630096842.202,-924.805,-2.441,-604.004,-882.324
1630096842.206,657.715,1.953,617.676,685.059
1630096842.210,908.691,-9.277,-873.047,794.434
1630096842.213,-824.219,-16.113,202.148,-937.988
1630096842.217,-1000.000,-19.531,-934.570,-1000.000
1630096842.221,587.891,-1.465,-168.457,627.441
1630096842.225,982.422,-14.160,-947.266,986.816
1630096842.229,-624.512,-45.410,743.652,-634.766
1630096842.231,-1000.000,-28.809,-711.426,-1000.000
1630096842.235,23.926,-12.207,-755.859,178.223
1630096842.239,-926.758,-6.348,864.258,-949.707
1630096842.243,-240.234,-15.137,595.215,-380.371
1630096842.247,-1000.000,-35.645,-900.879,-1000.000
1630096842.251,-677.246,-30.273,-1000.000,-591.797
1630096842.255,896.484,-3.906,469.727,931.641
1630096842.258,591.309,-1.465,704.102,360.352
1630096842.262,-1000.000,-43.457,-759.766,-1000.000
1630096842.266,-967.773,-48.828,-1000.000,-924.805
1630096842.270,652.832,-33.691,50.293,660.645
1630096842.274,-986.328,-59.082,954.102,984.375
1630096842.277,-696.777,-83.008,-119.629,-750.488
1630096842.281,-1000.000,-111.816,-1000.000,-1000.000
1630096842.285,583.008,-120.605,-279.785,649.414
1630096842.289,-937.012,-129.395,958.984,-984.863
1630096842.293,-496.582,-179.199,412.598,-601.074
1630096842.297,-1000.000,-196.289,-982.422,-1000.000
1630096842.301,-14.160,-173.340,-740.723,170.898
1630096842.304,-863.770,-135.254,830.566,-854.492
1630096842.308,139.160,-137.695,779.297,-76.660
1630096842.312,-1000.000,-136.230,-828.613,-1000.000
1630096842.316,-744.629,-105.957,-958.008,-637.207
1630096842.320,868.164,-100.586,644.043,934.570
1630096842.321,858.398,-121.582,-910.156,752.930
1630096842.325,-851.562,-119.629,-241.699,-923.340
1630096842.329,-1000.000,-93.262,-1000.000,-1000.000
1630096842.333,674.316,-77.148,235.840,667.969
1630096842.337,-998.047,-91.309,-871.582,-993.652
1630096842.341,-677.246,-149.414,335.449,-692.383
1630096842.345,-1000.000,-174.316,-930.176,-1000.000
1630096842.348,497.070,-145.996,-360.840,577.637
1630096842.352,-963.379,-128.418,958.984,997.559
1630096842.356,-510.254,-167.480,198.242,-589.355
1630096842.360,-1000.000,-165.039,-1000.000,-1000.000
1630096842.364,-239.258,-121.094,-764.648,-57.129
1630096842.381,-960.938,-126.953,784.668,-956.543
1630096842.385,-43.945,-117.676,359.863,-249.023
1630096842.389,-1000.000,-77.637,-981.934,-1000.000
1630096842.393,-836.914,-80.078,-1000.000,-780.762
1630096842.397,755.371,-94.727,232.422,789.062
1630096842.401,770.508,-103.027,681.152,552.246
1630096842.405,-963.867,-140.137,-753.906,-1000.000
1630096842.408,-1000.000,-149.902,-1000.000,-971.680
1630096842.412,701.172,-137.695,-391.602,712.402
1630096842.416,878.418,-136.230,-51.758,738.281
1630096842.420,-756.836,-154.785,-867.676,-883.301
1630096842.424,-1000.000,-157.227,-1000.000,-1000.000
1630096842.426,225.586,-120.117,-916.504,225.098
1630096842.430,943.848,-117.676,-789.551,902.344
1630096842.434,-564.941,-145.020,-944.824,-612.793
1630096842.438,-1000.000,-131.836,-1000.000,-1000.000
1630096842.442,-541.992,-113.281,-976.562,-502.930
1630096842.446,799.316,-105.469,-787.598,725.098
1630096842.450,-281.738,-120.117,-899.902,-423.828
1630096842.453,-1000.000,-131.836,-1000.000,-1000.000
1630096842.457,-868.164,-109.863,-1000.000,-838.379
1630096842.461,665.527,-87.891,-708.984,673.828
1630096842.465,650.879,-112.305,-779.297,405.762
1630096842.469,-1000.000,-119.629,-997.070,-1000.000
1630096842.471,-971.191,-100.586,-1000.000,-931.641
1630096842.475,658.691,-93.750,-679.688,638.672
1630096842.479,997.559,-96.191,170.410,-989.746
1630096842.483,-669.434,-97.168,-514.160,-681.641
1630096842.487,-1000.000,-87.402,-1000.000,-1000.000
1630096842.491,333.008,-72.266,-493.652,424.805
1630096842.495,-825.195,-69.824,855.469,-838.867
1630096842.498,-40.039,-92.773,469.727,-179.688
1630096842.502,-1000.000,-93.262,-938.965,-1000.000
1630096842.506,-532.227,-66.406,-950.195,-302.246
1630096842.510,971.191,-50.781,544.922,-936.523
1630096842.514,859.863,-69.824,-909.668,753.906
1630096842.517,-802.734,-90.820,-262.695,-878.906
1630096842.521,-1000.000,-79.102,-1000.000,-943.848
1630096842.525,688.965,-55.176,424.805,769.043
1630096842.529,-987.305,-58.105,-929.199,989.746
1630096842.533,-709.961,-78.125,-196.777,-722.168
1630096842.537,-1000.000,-73.242,-1000.000,-1000.000
1630096842.541,644.043,-50.781,-136.719,672.852
1630096842.544,-937.012,-53.223,991.211,-975.098
1630096842.548,-486.816,-73.242,326.172,-584.473
1630096842.552,-1000.000,-71.777,-993.164,-1000.000
1630096842.556,34.180,-58.594,-805.176,208.008
1630096842.560,-864.746,-45.898,753.906,-865.723
1630096842.561,8.789,-50.781,630.371,-168.457
1630096842.565,-1000.000,-67.871,-886.719,-1000.000
1630096842.569,-702.637,-56.152,-927.246,-612.305
1630096842.573,910.156,-47.363,691.406,951.660
1630096842.577,729.492,-54.199,833.008,539.551
1630096842.581,-958.984,-59.082,-565.430,-1000.000
1630096842.585,-1000.000,-51.270,-1000.000,-978.027
1630096842.588,709.961,-16.113,-289.062,717.773
1630096842.592,836.914,-27.832,96.191,700.195
1630096842.596,-820.312,-54.199,-855.957,-920.898
1630096842.600,-1000.000,-45.898,-1000.000,-1000.000
1630096842.604,352.051,-31.250,-939.941,341.797
1630096842.606,915.527,-29.297,-964.355,768.066
1630096842.610,-632.812,-48.340,-996.582,-787.109
1630096842.614,-1000.000,-41.016,-1000.000,-1000.000
1630096842.618,-562.012,-20.020,-998.047,-712.402
1630096842.622,641.113,-10.742,-1000.000,396.973
1630096842.626,-458.496,-25.391,-1000.000,-505.859
1630096842.630,-1000.000,-41.992,-1000.000,-1000.000
1630096842.633,-809.570,-38.574,-1000.000,-777.344
1630096842.637,589.844,-21.484,-1000.000,502.930
1630096842.641,-82.520,-35.156,-1000.000,-281.738
1630096842.645,-1000.000,-55.176,-985.840,-1000.000
1630096842.649,-868.164,-59.082,-1000.000,-859.863
1630096842.652,602.051,-39.551,-988.770,591.309
1630096842.656,-979.004,-29.297,-625.000,-969.238
1630096842.660,-694.336,-48.828,-698.242,-716.309
1630096842.664,-1000.000,-47.852,-1000.000,-1000.000
1630096842.668,418.457,-26.367,-467.773,524.902
1630096842.672,-844.727,-17.578,791.992,-836.914
1630096842.676,812.500,-15.625,-933.594,780.273
1630096842.679,-685.547,-31.738,511.719,-648.926
1630096842.683,-216.309,-31.250,296.387,50.781
1630096842.687,-833.496,-23.438,898.438,-810.547
1630096842.691,880.859,-41.504,-994.629,941.895
1630096842.695,-711.914,-57.617,937.988,-519.043
1630096842.697,-796.875,-40.039,973.633,-524.414
1630096842.701,940.918,-14.160,966.797,-992.188
1630096842.705,978.027,-10.254,966.797,-929.199
1630096842.709,-672.852,-39.062,967.285,-397.461
1630096842.713,-1000.000,-43.945,967.773,-974.121
1630096842.717,624.023,-16.602,965.332,647.949
1630096842.721,-846.191,-24.414,964.355,-782.227
1630096842.724,-405.273,-53.711,982.910,-144.531
1630096842.728,-1000.000,-57.129,850.098,-977.051
1630096842.732,408.691,-35.156,866.699,487.793
1630096842.736,-776.367,-37.598,987.793,-759.277
1630096842.740,372.070,-44.434,961.914,459.473
1630096842.756,-1000.000,-13.672,964.844,-948.242
1630096842.760,-223.145,30.273,966.797,-3.418
1630096842.764,-855.957,35.156,954.102,-791.016
1630096842.768,770.020,13.184,991.211,737.793
1630096842.772,-826.172,-10.254,916.016,-828.125
1630096842.776,-936.523,20.996,753.418,-861.328
1630096842.780,793.945,54.688,906.250,871.582
1630096842.783,990.234,19.043,997.070,972.168
1630096842.787,-696.777,-1.953,971.680,-708.496
1630096842.791,-1000.000,42.969,397.949,-1000.000
1630096842.795,631.836,73.242,450.684,687.500
1630096842.799,999.023,59.570,999.023,977.539
1630096842.801,-571.777,42.969,885.254,-617.188
1630096842.805,-1000.000,46.387,19.043,-1000.000
1630096842.809,-118.164,57.617,-343.262,31.250
1630096842.813,-939.941,58.594,811.035,-953.613
1630096842.817,-140.137,37.109,865.234,-296.875
1630096842.821,-1000.000,22.949,-369.629,-1000.000
1630096842.825,-749.023,24.902,-749.512,-689.453
1630096842.828,837.402,-12.207,445.801,847.168
1630096842.832,508.301,-70.801,546.875,258.301
1630096842.836,-1000.000,-42.480,-586.914,-1000.000
1630096842.840,-950.684,0.488,-1000.000,-916.992
1630096842.844,648.926,24.414,-245.117,638.672
1630096842.846,-996.094,26.855,850.098,981.445
1630096842.850,-668.457,2.441,-8.301,-720.215
1630096842.854,-1000.000,3.906,-1000.000,-1000.000
1630096842.858,435.059,24.902,-507.812,519.531
1630096842.862,-940.430,18.066,833.984,-996.582
1630096842.866,-458.984,-6.836,550.781,-570.312
1630096842.870,-1000.000,-2.441,-861.816,-1000.000
1630096842.873,-335.449,19.531,-923.828,-184.082
1630096842.877,-967.285,29.785,700.195,-957.520
1630096842.881,143.555,1.953,678.711,-89.355
1630096842.885,-1000.000,-9.766,-875.488,-1000.000
1630096842.889,-797.852,10.254,-958.984,-722.168
1630096842.891,807.617,38.086,648.926,853.516
1630096842.895,858.887,20.508,944.336,796.875
1630096842.899,-871.582,-13.184,-562.988,-915.527
1630096842.903,-1000.000,-3.418,-1000.000,-1000.000
1630096842.907,675.781,8.301,427.734,670.410
1630096842.911,995.605,-10.254,-880.371,-997.070
1630096842.915,-663.574,-33.691,80.078,-675.293
1630096842.918,-1000.000,-27.344,-1000.000,-1000.000
1630096842.922,403.809,6.348,-242.188,495.605
1630096842.926,-929.199,11.719,982.422,-971.191
1630096842.930,-451.660,-15.625,159.668,-555.664
1630096842.934,-1000.000,-22.461,-977.539,-1000.000
1630096842.936,-302.734,-14.160,-597.168,-106.934
1630096842.940,-933.594,-10.254,791.016,-875.488
1630096842.944,625.488,-40.527,-979.004,466.309
1630096842.948,-1000.000,-76.172,28.809,-1000.000
1630096842.952,-829.102,-76.172,-368.652,-724.609
1630096842.956,851.074,-72.266,742.188,932.617
1630096842.960,961.914,-98.633,-907.227,877.441
1630096842.963,-728.516,-121.094,-84.961,-801.758
1630096842.967,-1000.000,-122.070,-932.129,-1000.000
1630096842.971,679.688,-110.840,341.797,677.734
1630096842.975,-997.559,-117.676,-849.121,-998.535
1630096842.979,-657.227,-145.508,467.285,-683.105
1630096842.983,-1000.000,-141.113,-729.980,-1000.000
1630096842.987,295.410,-106.934,-191.406,395.508
1630096842.991,-789.062,-98.633,-957.031,-799.316
1630096842.995,207.520,-122.559,953.613,8.789
1630096842.999,-1000.000,-133.789,77.637,-1000.000
1630096843.003,-266.113,-92.285,150.879,-87.891
1630096843.007,-876.953,-48.340,985.352,-836.426
1630096843.010,729.492,-69.824,-987.793,622.559
1630096843.014,-852.051,-102.051,151.855,-922.363
1630096843.018,-1000.000,-85.938,-504.395,-958.008
1630096843.022,676.758,-78.125,591.797,732.422
1630096843.026,-990.234,-111.328,-875.488,985.352
1630096843.026,-699.707,-151.855,469.727,-728.516
1630096843.030,-1000.000,-152.344,-547.852,-1000.000
1630096843.034,598.633,-136.719,77.637,652.832
1630096843.038,-938.965,-145.996,-938.965,-992.676
1630096843.042,-513.184,-147.949,695.801,-610.352
1630096843.046,-1000.000,-138.672,-39.551,-1000.000
1630096843.050,71.289,-112.793,63.965,172.363
1630096843.053,-849.609,-97.656,940.430,-874.512
1630096843.057,77.148,-118.164,846.191,-164.551
1630096843.061,-1000.000,-125.977,-317.871,-1000.000
1630096843.065,-777.344,-113.770,-815.918,-707.031
1630096843.069,816.895,-103.027,557.129,863.770
1630096843.071,910.156,-122.070,-890.625,811.035
1630096843.075,-810.547,-126.465,68.359,-897.461
1630096843.079,-1000.000,-94.238,-884.277,-1000.000
1630096843.083,673.340,-75.195,-143.555,669.922
1630096843.087,-987.305,-87.891,983.887,-991.699
1630096843.091,-670.898,-92.285,822.754,-697.266
1630096843.095,-1000.000,-76.660,-391.602,-1000.000
1630096843.098,413.086,-63.477,-374.512,502.930
1630096843.102,-799.316,-69.824,889.648,-829.102
1630096843.106,54.688,-81.543,-976.074,-199.707
1630096843.110,-1000.000,-83.984,-220.215,-1000.000
1630096843.114,-203.125,-81.055,-516.113,14.160
1630096843.131,-901.367,-54.688,781.738,-846.191
1630096843.135,842.285,-50.781,-916.016,738.281
1630096843.139,-820.312,-68.848,583.496,-882.812
1630096843.143,-715.332,-63.965,362.305,-539.551
1630096843.147,853.516,-55.176,869.141,914.551
1630096843.151,-823.242,-63.477,-984.863,-844.238
1630096843.155,4.395,-80.078,937.012,96.680
1630096843.158,-901.855,-67.871,860.352,-791.992
1630096843.162,548.828,-19.531,914.062,628.906
1630096843.166,-731.934,0.977,984.375,-744.141
1630096843.170,114.746,-13.672,975.098,45.410
1630096843.174,-985.352,-23.926,818.359,-970.215
1630096843.176,428.711,-6.348,820.801,520.020
1630096843.180,-795.410,8.789,975.098,-834.473
1630096843.184,-103.516,-2.930,-990.234,-270.020
1630096843.188,-1000.000,-25.391,57.129,-1000.000
1630096843.192,-570.801,-21.973,-548.828,-412.598
1630096843.196,981.934,3.418,668.457,-962.402
1630096843.200,721.680,-11.230,-894.043,524.902
1630096843.203,-938.477,-34.180,167.969,-1000.000
1630096843.207,-999.512,-22.949,-791.504,-935.059
1630096843.211,666.016,1.953,86.914,705.078
1630096843.215,-987.305,-7.324,-940.918,986.816
1630096843.219,-702.637,-31.738,447.266,-736.816
1630096843.221,-1000.000,-20.020,-670.898,-1000.000
1630096843.225,606.445,5.859,-255.859,660.156
1630096843.229,-924.805,-14.160,979.004,-990.723
1630096843.233,-494.629,-38.574,766.602,-612.793
1630096843.237,-1000.000,-26.367,-567.383,-1000.000
1630096843.241,119.629,-7.324,-550.781,217.285
1630096843.245,-836.426,-15.625,867.188,-882.812
1630096843.248,89.844,-35.645,854.004,-234.375
1630096843.252,-1000.000,-34.668,-524.902,-1000.000
1630096843.256,-743.652,-22.949,-1000.000,-676.758
1630096843.260,858.398,-8.789,-4.883,896.973
1630096843.264,879.395,-38.574,962.891,696.777
1630096843.266,-830.566,-54.199,-0.977,-975.586
1630096843.270,-1000.000,-50.293,-1000.000,-990.234
1630096843.274,674.805,-50.293,-513.184,666.504
1630096843.278,-995.605,-37.109,683.105,994.629
1630096843.282,-683.594,-38.574,121.582,-705.078
1630096843.286,-1000.000,-30.762,-1000.000,-1000.000
1630096843.290,515.625,-11.719,-555.176,567.871
1630096843.293,-937.500,-10.254,810.059,990.234
1630096843.297,-473.633,-17.090,278.320,-599.121
1630096843.301,-1000.000,-34.180,-993.164,-1000.000
1630096843.305,-200.195,-26.367,-971.191,-110.352
1630096843.309,-908.203,-14.648,359.863,-936.035
1630096843.311,265.137,-23.438,749.512,-103.027
1630096843.315,-1000.000,-26.855,-495.605,-1000.000
1630096843.319,-843.750,-19.043,-1000.000,-778.320
1630096843.323,797.363,-0.977,37.109,813.965
1630096843.327,853.027,-13.184,732.422,674.805
1630096843.331,-878.906,-33.691,-384.277,-1000.000
1630096843.335,-1000.000,-40.039,-1000.000,-981.445
1630096843.338,674.316,-102.051,-395.508,665.039
1630096843.342,998.535,-177.246,754.883,990.234
1630096843.346,-669.922,-211.426,-225.586,-689.453
1630096843.350,-1000.000,-205.566,-1000.000,-1000.000
1630096843.354,439.941,-181.152,-438.965,491.211
1630096843.356,-937.500,-185.059,628.418,992.188
1630096843.360,-452.637,-202.148,55.664,-579.102
1630096843.364,-1000.000,-194.336,-1000.000,-1000.000
1630096843.368,-374.512,-177.246,-981.934,-284.180
1630096843.372,-958.496,-144.531,316.895,-962.891
1630096843.376,462.402,-92.285,729.004,79.102
1630096843.380,-1000.000,-59.082,-664.062,-1000.000
1630096843.383,-924.316,-40.527,-1000.000,-849.121
1630096843.387,725.098,-38.574,33.691,756.348
1630096843.391,930.664,-65.918,714.355,794.922
1630096843.395,-811.035,-97.656,-498.047,-937.988
1630096843.399,-1000.000,-95.703,-1000.000,-1000.000
1630096843.401,681.641,-101.562,-286.133,672.363
1630096843.405,987.793,-108.887,850.586,993.164
1630096843.409,-652.344,-51.270,-97.168,-656.738
1630096843.413,-1000.000,18.066,-1000.000,-1000.000
1630096843.417,278.809,43.945,-695.801,357.910
1630096843.421,-873.047,55.664,754.395,-930.176
1630096843.425,-262.695,39.062,343.750,-421.387
1630096843.428,-1000.000,29.785,-1000.000,-1000.000
1630096843.432,-584.961,49.805,-1000.000,-422.852
1630096843.436,958.008,53.711,250.977,997.070
1630096843.440,388.672,40.527,177.246,157.227
1630096843.444,-1000.000,15.137,-992.676,-1000.000
1630096843.446,-950.684,-4.395,-1000.000,-874.512
1630096843.450,677.246,7.812,-246.094,737.305
1630096843.454,868.652,2.930,-3.906,785.156
1630096843.458,-874.023,-26.367,-863.770,-948.730
1630096843.462,-1000.000,-33.203,-1000.000,-1000.000
1630096843.466,626.465,-19.043,-354.980,673.828
1630096843.470,980.469,-27.832,386.230,986.328
1630096843.473,-623.535,-67.383,-661.621,-653.320
1630096843.477,-1000.000,-71.777,-1000.000,-1000.000
1630096843.481,98.145,-57.617,-661.621,348.633
1630096843.485,-1000.000,-55.176,402.832,995.605
1630096843.489,-432.129,-83.984,-477.051,-546.875
1630096843.506,-1000.000,-106.445,-1000.000,-1000.000
1630096843.510,-635.254,-94.727,-815.430,-452.637
1630096843.514,891.602,-99.121,539.062,953.125
1630096843.518,260.254,-133.789,-40.039,-7.812
1630096843.522,-1000.000,-150.391,-1000.000,-1000.000
1630096843.526,-928.711,-143.555,-958.496,-871.582
1630096843.530,672.852,-158.691,450.195,707.520
1630096843.533,842.285,-185.059,282.227,749.023
1630096843.537,-881.348,-197.266,-1000.000,-981.934
1630096843.541,-1000.000,-190.430,-1000.000,-991.211
1630096843.545,554.199,-168.457,-252.930,668.457
1630096843.549,977.539,-197.266,619.629,993.652
1630096843.551,-611.816,-224.121,-638.672,-656.250
1630096843.555,-1000.000,-188.965,-1000.000,-1000.000
1630096843.559,-93.750,-216.309,-702.148,351.562
1630096843.563,-990.723,-294.922,427.734,-922.363
1630096843.567,-296.387,-324.707,-474.121,-414.551
1630096843.571,-1000.000,-320.312,-1000.000,-1000.000
1630096843.575,-773.926,-327.637,-817.383,-384.277
1630096843.578,786.621,-312.500,396.484,-971.680
1630096843.582,478.516,-285.645,-333.008,299.316
1630096843.586,-1000.000,-272.949,-1000.000,-1000.000
1630096843.590,-957.031,-277.832,-986.816,-902.832
1630096843.594,665.039,-270.996,285.156,717.773
1630096843.596,912.598,-227.051,321.777,890.625
1630096843.600,-739.258,-188.965,-986.816,-849.121
1630096843.604,-1000.000,-174.316,-1000.000,-1000.000
1630096843.608,286.621,-155.273,-92.285,654.297
1630096843.612,951.660,-175.293,707.520,979.980
1630096843.616,-571.289,-208.008,-663.086,-625.977
1630096843.620,-1000.000,-207.031,-1000.000,-1000.000
1630096843.623,-577.637,-206.543,-638.672,134.277
1630096843.627,753.906,-186.035,555.664,994.141
1630096843.631,-298.340,-196.777,-430.176,-457.520
1630096843.635,-1000.000,-227.051,-1000.000,-1000.000
1630096843.639,-839.844,-206.055,-783.203,-642.578
1630096843.641,684.570,-157.227,598.633,876.465
1630096843.645,446.289,-166.016,-67.383,214.844
1630096843.649,-1000.000,-187.500,-1000.000,-1000.000
1630096843.653,-959.961,-170.898,-950.684,-918.457
1630096843.657,622.559,-140.625,533.203,657.715
1630096843.661,974.121,-131.836,804.199,898.438
1630096843.665,-680.176,-149.902,-810.547,-820.312
1630096843.668,-1000.000,-133.301,-1000.000,-1000.000
1630096843.672,349.121,-94.238,178.711,536.621
1630096843.676,969.727,-95.703,924.805,977.539
1630096843.680,-582.031,-116.211,-566.895,-607.910
1630096843.684,-1000.000,-106.934,-1000.000,-1000.000
1630096843.686,-488.770,-83.984,-483.398,-137.695
1630096843.690,948.730,-72.754,866.211,999.023
1630096843.694,53.711,-101.074,-84.473,-280.273
1630096843.698,-1000.000,-110.840,-1000.000,-1000.000
1630096843.702,-874.512,-82.031,-835.449,-751.953
1630096843.706,704.102,-62.500,716.797,810.059
1630096843.710,822.266,-69.336,573.242,494.141
1630096843.713,-928.223,-74.707,-1000.000,-1000.000
1630096843.717,-1000.000,-64.453,-994.141,-951.660
1630096843.721,674.805,-52.246,625.000,659.180
1630096843.725,987.793,-59.082,955.566,964.355
1630096843.729,-651.367,-68.359,-677.734,-709.473
1630096843.731,-1000.000,-56.641,-1000.000,-1000.000
1630096843.735,274.902,-51.270,180.176,434.082
1630096843.739,-873.047,-60.547,-979.980,986.328
1630096843.743,-277.344,-90.820,-420.898,-584.473
1630096843.747,-1000.000,-62.012,-1000.000,-1000.000
1630096843.751,-494.629,-24.414,-402.832,-280.762
1630096843.755,999.512,-28.809,974.121,-994.141
1630096843.758,652.832,-24.902,254.395,-107.422
1630096843.762,-973.633,-47.363,-1000.000,-1000.000
1630096843.766,-980.469,-51.758,-894.531,-841.797
1630096843.770,670.898,-12.695,704.102,729.492
1630096843.774,-984.863,-28.809,907.715,775.879
1630096843.776,-709.473,-56.152,-799.805,-960.449
1630096843.780,-1000.000,-46.387,-1000.000,-997.070
1630096843.784,661.621,-56.641,605.957,671.387
1630096843.788,-969.727,-54.199,992.676,991.211
1630096843.792,-575.684,-51.270,-625.977,-659.668
1630096843.796,-1000.000,-56.152,-1000.000,-1000.000
1630096843.800,164.551,-41.016,92.285,343.262
1630096843.803,-966.797,-38.574,861.328,836.914
1630096843.807,-95.215,-67.871,-357.422,-553.711
1630096843.811,-1000.000,-74.219,-1000.000,-1000.000
1630096843.815,-695.312,-56.152,-661.621,-541.016
1630096843.819,919.922,-40.527,861.816,957.031
1630096843.821,725.098,-65.918,341.797,173.828
1630096843.825,-957.520,-77.148,-1000.000,-1000.000
1630096843.829,-995.117,-62.012,-942.871,-911.621
1630096843.833,664.551,-55.176,664.062,666.016
1630096843.837,-993.164,-55.176,884.766,895.508
1630096843.841,-687.012,-68.359,-788.574,-852.539
1630096843.845,-1000.000,-56.641,-1000.000,-1000.000
1630096843.848,541.016,-39.551,435.059,641.602
1630096843.852,-949.219,-45.898,991.211,984.863
1630096843.856,-509.766,-63.965,-569.824,-636.230
1630096843.860,-1000.000,-17.090,-1000.000,-1000.000
1630096843.864,-94.238,27.832,-213.867,158.691
1630096843.881,-881.836,16.602,987.793,-915.527
1630096843.885,214.844,-9.766,-88.379,-298.828
1630096843.889,-1000.000,-34.180,-1000.000,-1000.000
1630096843.893,-778.320,-9.277,-775.879,-653.320
1630096843.897,827.148,10.254,776.855,913.086
1630096843.901,934.082,-22.949,802.246,603.027
1630096843.905,-774.414,-65.918,-879.395,-1000.000
1630096843.908,-1000.000,-74.707,-1000.000,-973.145
1630096843.912,678.223,-69.824,654.785,661.133
1630096843.916,-998.535,-65.918,997.559,991.211
1630096843.920,-685.547,-83.496,-686.035,-718.262
1630096843.924,-1000.000,-81.543,-1000.000,-1000.000
1630096843.926,425.293,-61.035,416.016,566.895
1630096843.930,-898.438,-64.453,-954.102,898.438
1630096843.934,-207.031,-74.707,-258.789,-630.371
1630096843.938,-1000.000,-89.844,-1000.000,-1000.000
1630096843.942,-243.652,-82.031,-215.332,-62.988
1630096843.946,-909.668,-64.941,-919.922,-910.156
1630096843.950,736.816,-75.195,580.078,-83.984
1630096843.953,-885.742,-86.914,-940.918,-1000.000
1630096843.957,-932.617,-76.172,-881.836,-763.672
1630096843.961,777.344,-58.105,788.086,832.031
1630096843.965,997.070,-70.801,952.148,738.770
1630096843.969,-708.984,-90.820,-751.465,-966.309
1630096843.971,-1000.000,-65.430,-1000.000,-993.164
1630096843.975,664.062,-49.805,653.320,666.992
1630096843.979,-949.219,-67.383,-948.730,-999.512
1630096843.983,-577.148,-65.918,-546.875,-669.434
1630096843.987,-1000.000,-52.246,-1000.000,-1000.000
1630096843.991,321.289,-47.852,279.297,451.172
1630096843.995,-821.289,-63.477,-879.883,-959.961
1630096843.998,8.789,-79.102,-83.008,-492.676
1630096844.002,-1000.000,-77.637,-1000.000,-1000.000
1630096844.006,-583.984,-63.965,-596.191,-348.145
1630096844.010,978.516,-47.363,922.363,-969.727
1630096844.014,769.531,-52.734,630.371,189.453
1630096844.017,-896.484,-60.547,-950.684,-1000.000
1630096844.021,-1000.000,-56.152,-972.656,-878.418
1630096844.025,676.758,-69.824,709.961,738.281
1630096844.029,999.023,-84.473,872.559,831.543
1630096844.033,-719.727,-77.637,-804.199,-912.598
1630096844.037,-1000.000,-53.711,-1000.000,-1000.000
1630096844.041,644.531,-51.758,525.879,676.270
1630096844.044,990.723,-53.223,983.398,987.305
1630096844.048,-603.516,-57.129,-573.730,-645.020
1630096844.052,-1000.000,-67.383,-1000.000,-1000.000
1630096844.056,16.113,-52.246,-273.926,287.109
1630096844.060,-919.434,-61.523,906.250,-950.684
1630096844.061,-216.797,-94.238,-262.207,-434.570
1630096844.065,-1000.000,-76.660,-1000.000,-1000.000
1630096844.069,-702.637,-64.453,-751.953,-552.734
1630096844.073,870.117,-59.082,769.043,955.078
1630096844.077,741.699,-44.434,516.602,358.398
1630096844.081,-959.473,-60.059,-1000.000,-1000.000
1630096844.085,-996.582,-63.965,-976.074,-935.059
1630096844.088,674.316,-39.062,667.480,685.059
1630096844.092,987.305,-60.059,839.844,898.926
1630096844.096,-692.871,-81.543,-791.992,-835.938
1630096844.100,-1000.000,-58.594,-1000.000,-953.613
1630096844.104,569.824,-38.086,369.141,675.781
1630096844.107,969.238,-48.828,929.199,967.285
1630096844.111,-586.426,-68.848,-582.520,-625.000
1630096844.115,-1000.000,-60.059,-1000.000,-1000.000
1630096844.119,-220.703,-44.434,-487.793,129.883
1630096844.123,-954.102,-23.926,805.664,-920.410
1630096844.127,-26.367,-47.852,-192.383,-294.922
1630096844.131,-1000.000,-66.895,-1000.000,-1000.000
1630096844.134,-819.336,-45.898,-841.309,-673.340
1630096844.138,780.762,-31.250,643.066,890.625
1630096844.142,754.883,-39.062,194.336,490.234
1630096844.146,-971.680,-71.777,-1000.000,-1000.000
1630096844.150,-995.605,-65.430,-1000.000,-960.449
1630096844.152,674.316,-44.922,125.977,676.270
1630096844.156,974.121,-50.293,187.012,900.391
1630096844.160,-682.617,-43.457,-968.750,-818.359
1630096844.164,-1000.000,-35.645,-1000.000,-1000.000
1630096844.168,398.926,-27.832,-577.637,559.082
1630096844.172,-1000.000,-48.340,496.582,979.980
1630096844.176,-544.922,-69.336,-551.758,-615.234
1630096844.179,-1000.000,-68.848,-1000.000,-1000.000
1630096844.183,-423.340,-47.852,-750.000,-61.035
1630096844.187,966.309,-47.852,459.473,-965.820
1630096844.191,-22.949,-68.359,-372.559,-264.160
1630096844.195,-1000.000,-58.594,-1000.000,-1000.000
1630096844.196,-864.746,-58.594,-866.699,-731.934
1630096844.200,713.379,-51.758,450.684,837.402
1630096844.204,778.320,-54.199,-92.773,537.109
1630096844.208,-965.820,-67.383,-1000.000,-1000.000
1630096844.212,-996.582,-59.082,-1000.000,-958.008
1630096844.216,672.363,-27.832,114.746,656.250
1630096844.220,984.375,-28.320,645.508,987.305
1630096844.223,-640.137,-58.105,-771.973,-687.012
1630096844.227,-1000.000,-60.547,-1000.000,-1000.000
1630096844.231,248.535,-42.969,-433.105,458.496
1630096844.235,-963.867,-44.434,646.484,992.676
1630096844.239,-439.453,-57.129,-508.301,-572.754
1630096844.256,-1000.000,-45.898,-1000.000,-1000.000
1630096844.260,-622.559,-32.227,-750.488,-316.895
1630096844.264,916.504,-29.785,602.539,-989.258
1630096844.268,372.070,-56.641,-131.348,-13.672
1630096844.272,-1000.000,-66.406,-1000.000,-1000.000
1630096844.276,-942.383,-52.734,-899.902,-841.797
1630096844.280,663.574,-58.105,583.984,744.141
1630096844.283,918.945,-70.312,425.781,797.363
1630096844.287,-813.477,-74.707,-1000.000,-942.871
1630096844.291,-1000.000,-55.664,-1000.000,-1000.000
1630096844.295,598.145,-38.574,219.727,674.316
1630096844.299,976.562,-32.715,923.340,985.840
1630096844.301,-618.652,-49.316,-585.938,-643.066
1630096844.305,-1000.000,-56.641,-1000.000,-1000.000
1630096844.309,-59.570,-55.664,-378.906,261.230
1630096844.313,-941.406,-73.730,835.449,-943.848
1630096844.317,-208.496,-82.031,-285.156,-409.668
1630096844.321,-1000.000,-57.129,-1000.000,-1000.000
1630096844.325,-716.797,-62.500,-749.023,-571.777
1630096844.328,863.770,-67.383,748.047,946.777
1630096844.332,697.266,-61.523,378.906,316.406
1630096844.336,-982.910,-66.895,-1000.000,-1000.000
1630096844.340,-887.695,-75.684,-874.023,-833.984
1630096844.344,696.777,-57.129,647.461,693.359
1630096844.346,987.793,-57.129,908.203,922.363
1630096844.350,-672.363,-73.730,-733.887,-787.109
1630096844.354,-1000.000,-60.059,-1000.000,-1000.000
1630096844.358,473.633,-37.109,302.246,614.258
1630096844.362,-903.320,-33.691,-926.758,978.516
1630096844.366,-388.672,-42.969,-248.047,-621.582
1630096844.370,-1000.000,-33.691,-1000.000,-1000.000
1630096844.373,-278.809,-19.531,-406.738,-11.230
1630096844.377,-932.129,-15.137,975.586,-940.918
1630096844.381,263.672,-11.230,261.719,-241.699
1630096844.385,-1000.000,-2.441,-1000.000,-1000.000
1630096844.389,-821.289,8.789,-812.012,-698.242
1630096844.391,799.316,32.227,783.691,875.000
1630096844.395,907.715,31.738,848.145,599.121
1630096844.399,-817.871,24.902,-824.707,-1000.000
1630096844.403,-1000.000,47.852,-1000.000,-969.727
1630096844.407,673.340,78.125,604.004,658.691
1630096844.411,-988.770,81.543,-919.922,996.094
1630096844.415,-643.555,63.477,-440.918,-689.941
1630096844.418,-1000.000,63.477,-1000.000,-1000.000
1630096844.422,378.906,90.332,213.867,512.695
1630096844.426,-874.512,103.027,-909.180,997.559
1630096844.430,-295.410,90.820,-91.309,-574.707
1630096844.434,-1000.000,82.520,-1000.000,-1000.000
1630096844.436,-458.008,97.656,-582.031,-232.422
1630096844.440,-972.656,118.652,916.504,-955.078
1630096844.444,493.652,104.492,471.680,-61.523
1630096844.448,-1000.000,95.703,-1000.000,-1000.000
1630096844.452,-747.559,111.816,-737.793,-620.605
1630096844.456,753.418,122.559,740.234,838.379
1630096844.460,975.586,112.305,997.559,793.945
1630096844.463,-705.078,107.910,-605.469,-896.484
1630096844.467,-1000.000,122.070,-1000.000,-1000.000
1630096844.471,663.086,127.930,519.531,675.293
1630096844.475,-950.195,125.000,-869.141,991.211
1630096844.479,-533.203,117.188,171.875,-653.320
1630096844.481,-1000.000,104.980,-975.586,-1000.000
1630096844.485,159.180,110.352,-175.293,334.961
1630096844.489,-842.285,125.977,-899.414,-925.293
1630096844.493,-18.555,116.211,596.680,-408.691
1630096844.497,-1000.000,104.492,-832.031,-1000.000
1630096844.501,-620.117,117.188,-543.457,-451.172
1630096844.505,963.867,130.859,934.082,-997.070
1630096844.508,737.793,121.582,949.707,322.266
1630096844.512,-933.105,101.562,-365.234,-1000.000
1630096844.516,-1000.000,101.562,-699.707,-913.574
1630096844.520,665.039,119.629,674.805,687.988
1630096844.524,-987.793,119.141,-871.094,947.754
1630096844.526,-700.684,96.680,341.797,-794.922
1630096844.530,-1000.000,90.332,-354.004,-1000.000
1630096844.534,614.746,111.328,567.871,674.316
1630096844.538,-960.938,116.699,-859.863,987.305
1630096844.542,-550.781,88.867,759.277,-646.973
1630096844.546,-1000.000,88.379,180.664,-1000.000
1630096844.550,92.285,119.629,587.402,239.746
1630096844.553,-854.980,114.258,-951.172,-892.578
1630096844.557,12.695,84.961,953.125,-283.691
1630096844.561,-1000.000,73.730,202.637,-1000.000
1630096844.565,-764.648,70.801,-115.723,-664.062
1630096844.569,841.797,78.613,808.594,904.297
1630096844.572,821.777,62.988,-899.414,625.000
1630096844.576,-898.438,42.480,346.191,-1000.000
1630096844.580,-1000.000,57.617,-451.172,-977.051
1630096844.584,673.340,58.105,541.992,662.109
1630096844.588,997.070,38.574,-859.863,993.164
1630096844.592,-666.016,17.578,673.340,-702.148
1630096844.596,-1000.000,10.254,-144.531,-1000.000
1630096844.599,418.945,24.902,330.566,540.527
1630096844.603,-933.594,18.555,-881.836,-991.699
1630096844.607,-452.637,0.000,820.801,-580.566
1630096844.611,-1000.000,-8.789,-313.477,-1000.000
1630096844.615,-313.965,-5.859,-141.602,-84.473
1630096844.631,-945.801,-2.441,988.770,-910.156
1630096844.635,281.250,-17.578,-994.629,-11.230
1630096844.639,-1000.000,-28.809,129.883,-1000.000
1630096844.643,-868.652,-31.738,-275.879,-772.461
1630096844.647,755.371,-24.902,727.539,830.078
1630096844.651,902.344,-23.926,-868.652,779.297
1630096844.655,-837.891,-41.504,370.605,-935.059
1630096844.658,-1000.000,-51.758,-552.734,-1000.000
1630096844.662,680.176,-39.551,470.703,670.410
1630096844.666,988.281,-40.039,-824.219,998.535
1630096844.670,-651.367,-59.570,323.242,-666.992
1630096844.674,-1000.000,-64.941,-760.742,-1000.000
1630096844.676,295.410,-47.852,-32.227,427.246
1630096844.680,-897.949,-41.016,-948.730,-942.871
1630096844.684,-330.078,-63.477,690.918,-454.102
1630096844.688,-1000.000,-75.195,-489.258,-1000.000
1630096844.692,-618.652,-62.012,-655.762,-409.668
1630096844.696,939.941,-54.688,777.344,-981.445
1630096844.700,605.957,-68.848,-944.336,332.031
1630096844.703,-1000.000,-82.520,-357.910,-1000.000
1630096844.707,-975.586,-71.777,-986.328,-916.992
1630096844.711,660.645,-44.922,548.340,699.707
1630096844.715,992.188,-68.848,-899.414,917.480
1630096844.719,-722.656,-103.516,-173.828,-827.637
1630096844.721,-1000.000,-87.402,-1000.000,-1000.000
1630096844.725,603.027,-61.035,23.926,669.434
1630096844.729,-992.188,-67.383,-920.898,987.793
1630096844.733,-597.656,-92.773,364.258,-647.949
1630096844.737,-1000.000,-89.355,-907.227,-1000.000
1630096844.741,55.664,-68.848,-426.270,243.652
1630096844.745,-873.047,-65.918,953.125,-884.766
1630096844.748,-53.223,-78.613,762.207,-266.602
1630096844.752,-1000.000,-74.707,-593.750,-1000.000
1630096844.756,-744.629,-66.406,-886.719,-639.160
1630096844.760,846.680,-63.965,617.676,921.387
1630096844.764,812.988,-65.918,-943.848,657.227
1630096844.766,-904.297,-88.867,-340.820,-992.188
1630096844.770,-1000.000,-91.309,-1000.000,-983.398
1630096844.774,670.898,-66.895,-77.148,661.133
1630096844.778,-997.070,-74.707,-997.070,-994.629
1630096844.782,-679.688,-104.980,246.582,-703.613
1630096844.786,-1000.000,-89.355,-962.402,-1000.000
1630096844.790,501.465,-56.152,-349.609,600.586
1630096844.793,-951.660,-58.105,901.855,-996.094
1630096844.797,-485.840,-74.707,246.094,-585.449
1630096844.801,-1000.000,-82.031,-1000.000,-1000.000
1630096844.805,-299.805,-69.824,-836.426,-59.082
1630096844.809,-942.871,-65.430,720.215,-897.461
1630096844.811,265.137,-86.914,813.965,25.879
1630096844.815,-1000.000,-92.285,-765.625,-1000.000
1630096844.819,-865.234,-82.031,-1000.000,-768.555
1630096844.823,754.395,-71.777,382.324,837.891
1630096844.827,905.273,-83.496,-959.473,801.270
1630096844.831,-834.473,-97.168,-131.836,-916.504
1630096844.835,-1000.000,-83.496,-1000.000,-1000.000
1630096844.838,678.711,-67.871,-38.086,671.387
1630096844.842,993.652,-73.242,-998.047,-999.023
1630096844.846,-661.133,-88.867,205.078,-672.363
1630096844.850,-1000.000,-84.473,-1000.000,-1000.000
1630096844.854,368.164,-53.711,-378.418,464.355
1630096844.856,-904.785,-59.570,948.730,-951.660
1630096844.860,-374.512,-95.703,413.574,-493.652
1630096844.864,-1000.000,-93.262,-934.570,-1000.000
1630096844.868,-441.895,-59.570,-794.922,-255.371
1630096844.872,-978.516,-57.129,686.523,-929.199
1630096844.876,531.738,-87.402,994.629,269.043
1630096844.880,-1000.000,-92.285,-281.738,-1000.000
1630096844.883,-974.121,-86.426,-1000.000,-894.531
1630096844.887,663.086,-72.266,225.586,726.562
1630096844.891,974.609,-72.266,-974.609,895.508
1630096844.895,-765.625,-87.891,-322.266,-850.098
1630096844.899,-1000.000,-81.055,-1000.000,-1000.000
1630096844.901,671.875,-64.941,-234.375,679.688
1630096844.905,982.910,-61.523,903.809,990.723
1630096844.909,-642.578,-72.266,257.812,-655.762
1630096844.913,-1000.000,-77.148,-994.629,-1000.000
1630096844.917,148.926,-58.594,-667.969,309.570
1630096844.921,-857.422,-46.875,833.008,-879.395
1630096844.925,-82.031,-57.617,829.102,-285.645
1630096844.928,-1000.000,-61.035,-699.707,-1000.000
1630096844.932,-697.754,-58.105,-1000.000,-585.938
1630096844.936,907.227,-48.828,320.312,951.172
1630096844.940,689.453,-57.129,828.613,492.188
1630096844.944,-987.793,-69.336,-330.078,-1000.000
1630096844.946,-986.328,-52.734,-1000.000,-949.219
1630096844.950,661.621,-26.367,-72.266,663.574
1630096844.954,-992.676,-54.688,967.285,995.605
1630096844.958,-686.035,-87.402,149.902,-726.074
1630096844.962,-1000.000,-65.918,-1000.000,-1000.000
1630096844.966,540.527,-41.504,-346.191,629.883
1630096844.970,-950.195,-43.457,972.656,-994.629
1630096844.973,-530.762,-62.500,381.836,-614.746
1630096844.977,-1000.000,-64.941,-955.078,-1000.000
1630096844.981,24.902,-51.758,-639.160,164.062
1630096844.985,-874.512,-50.293,719.727,-884.277
1630096844.989,-25.391,-69.336,690.430,-199.219
1630096845.006,-1000.000,-73.730,-645.020,-1000.000
1630096845.010,-750.977,-55.176,-982.910,-676.758
1630096845.014,839.355,-35.156,515.137,899.902
1630096845.018,836.426,-43.945,-922.852,700.684
1630096845.022,-884.277,-63.477,-319.824,-974.121
1630096845.026,-1000.000,-46.875,-1000.000,-987.305
1630096845.030,673.828,-34.668,278.809,668.945
1630096845.033,998.047,-46.387,-936.035,999.023
1630096845.037,-671.387,-54.199,31.738,-695.312
1630096845.041,-1000.000,-46.387,-1000.000,-1000.000
1630096845.045,430.664,-29.297,-503.906,539.062
1630096845.049,-911.133,-32.715,895.020,-966.797
1630096845.051,-402.344,-53.223,701.172,-527.832
1630096845.055,-1000.000,-53.223,-783.691,-1000.000
1630096845.059,-342.285,-46.387,-923.828,-149.902
1630096845.063,-946.777,-31.738,648.438,-913.086
1630096845.067,380.859,-45.410,-951.660,95.703
1630096845.071,-1000.000,-55.176,-231.445,-1000.000
1630096845.075,-864.746,-32.715,-887.207,-777.344
1630096845.078,780.762,-22.461,424.316,839.355
1630096845.082,898.926,-27.832,-920.898,801.758
1630096845.086,-833.984,-38.086,-147.949,-916.016
1630096845.090,-1000.000,-48.340,-1000.000,-1000.000
1630096845.094,678.711,-32.715,35.156,671.875
1630096845.096,992.676,-27.832,-951.660,-1000.000
1630096845.100,-662.109,-46.387,216.309,-672.363
1630096845.104,-1000.000,-53.711,-968.262,-1000.000
1630096845.108,336.426,-35.645,-425.293,434.570
1630096845.112,-865.723,-24.414,913.574,-910.645
1630096845.116,-257.812,-37.109,932.129,-392.578
1630096845.120,-1000.000,-54.199,-514.160,-1000.000
1630096845.123,-546.875,-48.340,-952.637,-370.605
1630096845.127,983.398,-25.879,584.473,-963.379
1630096845.131,570.312,-37.598,-998.047,318.359
1630096845.135,-1000.000,-61.035,-373.535,-1000.000
1630096845.139,-962.891,-52.246,-1000.000,-881.348
1630096845.141,666.992,-23.926,101.074,733.887
1630096845.145,-994.629,-34.668,-978.027,933.105
1630096845.149,-716.309,-57.617,59.570,-803.223
1630096845.153,-1000.000,-47.852,-1000.000,-1000.000
1630096845.157,647.461,-30.273,-258.789,683.105
1630096845.161,-998.535,-32.227,963.379,985.352
1630096845.165,-599.121,-58.594,769.043,-645.020
1630096845.168,-1000.000,-67.383,-647.461,-1000.000
1630096845.172,64.453,-43.457,-920.410,226.562
1630096845.176,-883.789,-31.738,632.812,-894.531
1630096845.180,-130.371,-48.828,792.480,-286.133
1630096845.184,-1000.000,-54.688,-608.887,-1000.000
1630096845.186,-686.523,-39.062,-995.605,-579.590
1630096845.190,898.926,-34.180,386.230,956.543
1630096845.194,737.793,-45.898,-964.844,548.340
1630096845.198,-956.055,-56.641,-70.312,-1000.000
1630096845.202,-996.094,-45.898,-967.285,-960.938
1630096845.206,664.062,-24.902,102.539,666.504
1630096845.210,-989.746,-33.691,-892.090,992.188
1630096845.213,-695.312,-41.504,175.293,-732.910
1630096845.217,-1000.000,-39.551,-960.938,-1000.000
1630096845.221,581.055,-44.922,-150.879,641.113
1630096845.225,-950.195,-48.828,-984.375,999.023
1630096845.229,-493.164,-43.457,745.605,-597.168
1630096845.231,-1000.000,-42.969,-658.691,-1000.000
1630096845.235,-158.691,-31.250,-890.137,22.461
1630096845.239,-909.180,-24.902,695.801,-903.809
1630096845.243,107.422,-46.875,916.504,-133.301
1630096845.247,-1000.000,-55.176,-421.387,-1000.000
1630096845.251,-759.277,-40.527,-791.016,-667.480
1630096845.255,854.980,-26.367,556.641,912.109
1630096845.258,812.988,-36.621,-958.984,673.828
1630096845.262,-902.832,-62.988,-204.590,-985.840
1630096845.266,-1000.000,-55.176,-1000.000,-985.352
1630096845.270,673.340,-31.250,-98.633,663.574
1630096845.274,995.117,-42.480,978.027,-1000.000
1630096845.277,-664.551,-54.688,537.598,-682.617
1630096845.281,-1000.000,-52.246,-824.219,-1000.000
1630096845.285,388.672,-31.250,-757.812,489.746
1630096845.289,-899.414,-18.555,770.508,-949.219
1630096845.293,-392.578,-43.945,625.488,-516.113
1630096845.297,-1000.000,-54.199,-735.352,-1000.000
1630096845.301,-258.789,-33.691,-702.637,-67.871
1630096845.304,-917.480,-19.043,760.254,-888.672
1630096845.308,354.492,-36.133,945.312,85.449
1630096845.312,-1000.000,-45.898,-475.098,-1000.000
1630096845.316,-875.977,-23.926,-1000.000,-791.992
1630096845.320,764.648,-14.160,460.449,825.195
1630096845.321,912.109,-33.691,-927.734,809.570
1630096845.325,-823.730,-49.316,-241.211,-912.109
1630096845.329,-1000.000,-41.016,-1000.000,-1000.000
1630096845.333,680.664,-20.996,32.227,673.340
1630096845.337,988.281,-35.156,-996.582,995.605
1630096845.341,-652.832,-55.664,294.922,-662.598
1630096845.345,-1000.000,-46.875,-895.996,-1000.000
1630096845.348,284.668,-29.785,-765.137,384.766
1630096845.352,-874.023,-21.973,686.523,-916.504
1630096845.356,-270.020,-32.715,715.332,-397.949
1630096845.360,-1000.000,-39.551,-657.715,-1000.000
1630096845.364,-582.031,-36.621,-1000.000,-431.152
1630096845.381,963.379,-31.250,264.160,-982.910
1630096845.385,677.246,-33.203,988.770,443.848
1630096845.389,-975.586,-44.434,-217.773,-1000.000
1630096845.393,-989.258,-41.016,-1000.000,-928.223
1630096845.397,660.645,-28.320,-196.289,696.289
1630096845.401,-988.281,-30.762,927.734,967.773
1630096845.405,-694.824,-57.617,485.840,-759.277
1630096845.408,-1000.000,-56.152,-891.113,-1000.000
1630096845.412,604.004,-28.320,-700.684,653.809
1630096845.416,-989.746,-18.555,738.770,986.816
1630096845.420,-591.309,-38.574,444.824,-641.602
1630096845.424,-1000.000,-46.387,-792.969,-1000.000
1630096845.426,44.922,-21.484,-823.242,185.547
1630096845.430,-881.348,-9.766,529.785,-895.020
1630096845.434,-88.867,-35.645,628.906,-263.672
1630096845.438,-1000.000,-50.293,-749.023,-1000.000
1630096845.442,-716.797,-40.039,-1000.000,-616.211
1630096845.446,865.234,-28.320,208.496,932.129
1630096845.450,810.547,-47.363,999.023,648.438
1630096845.453,-900.879,-66.895,-117.676,-991.211
1630096845.457,-1000.000,-44.434,-1000.000,-981.445
1630096845.461,670.898,-9.277,-115.723,666.016
1630096845.465,-996.582,-19.043,986.328,998.047
1630096845.469,-680.176,-50.293,312.500,-707.520
1630096845.471,-1000.000,-45.898,-964.844,-1000.000
1630096845.475,504.395,-19.043,-554.688,582.520
1630096845.479,-943.359,-21.484,749.023,-989.746
1630096845.483,-499.023,-46.387,437.988,-594.238
1630096845.487,-1000.000,-42.480,-863.770,-1000.000
1630096845.491,-125.000,-28.320,-709.961,37.598
1630096845.495,-889.160,-46.387,770.020,-882.324
1630096845.498,217.773,-65.430,984.375,-41.504
1630096845.502,-1000.000,-61.035,-354.980,-1000.000
1630096845.506,-835.938,-75.195,-1000.000,-743.652
1630096845.510,787.109,-76.660,116.211,855.469
1630096845.514,891.602,-69.336,-983.398,778.809
1630096845.517,-841.309,-70.312,216.309,-928.223
1630096845.521,-1000.000,-68.359,-951.660,-1000.000
1630096845.525,677.246,-61.523,-490.723,668.945
1630096845.529,996.582,-62.988,833.008,-996.582
1630096845.533,-667.969,-79.590,509.766,-677.734
1630096845.537,-1000.000,-79.102,-794.434,-1000.000
1630096845.541,402.832,-65.430,-600.586,496.094
1630096845.544,-904.785,-61.035,686.523,-958.008
1630096845.548,-367.188,-54.688,705.566,-495.117
1630096845.552,-1000.000,-58.105,-501.953,-1000.000
1630096845.556,-485.840,-63.965,-976.562,-291.992
1630096845.560,-999.023,-44.922,353.027,-947.266
1630096845.561,481.445,-59.082,-997.559,223.145
1630096845.565,-1000.000,-85.938,-289.062,-1000.000
1630096845.569,-932.617,-71.777,-1000.000,-842.773
1630096845.573,689.941,-41.016,46.875,771.973
1630096845.577,988.770,-45.898,-955.078,890.625
1630096845.581,-744.629,-65.918,282.715,-844.238
1630096845.585,-1000.000,-58.105,-934.570,-1000.000
1630096845.588,681.641,-25.879,-379.883,676.758
1630096845.592,995.117,-33.691,911.133,999.512
1630096845.596,-665.527,-62.500,358.398,-671.875
1630096845.600,-1000.000,-57.617,-915.527,-1000.000
1630096845.604,353.516,-39.062,-355.957,430.664
1630096845.606,-866.211,-46.387,932.617,-912.598
1630096845.610,-250.000,-67.383,776.855,-385.742
1630096845.614,-1000.000,-61.523,-556.152,-1000.000
1630096845.618,-611.328,-35.156,-997.559,-456.543
1630096845.622,950.195,-31.250,340.820,-993.652
1630096845.626,670.410,-55.664,-969.238,441.406
1630096845.630,-984.863,-47.363,-87.891,-1000.000
1630096845.633,-987.793,-20.020,-995.117,-922.852
1630096845.637,665.039,-17.578,-8.301,716.797
1630096845.641,994.629,-37.109,929.688,921.875
1630096845.645,-721.191,-51.270,45.410,-815.918
1630096845.649,-1000.000,-49.316,-1000.000,-1000.000
1630096845.651,607.422,-39.551,-553.223,663.086
1630096845.655,-972.168,-49.805,827.148,992.676
1630096845.659,-565.430,-64.941,693.359,-633.301
1630096845.663,-1000.000,-70.312,-718.750,-1000.000
1630096845.667,62.988,-53.711,-799.316,208.008
1630096845.671,-874.023,-36.621,760.254,-892.090
1630096845.675,-75.684,-45.410,768.555,-270.508
1630096845.678,-1000.000,-53.711,-779.297,-1000.000
1630096845.682,-695.801,-44.922,-1000.000,-598.145
