timestamps,TP9,AF7,AF8,TP10
1630093530.973,-24.414,-52.246,-52.246,-54.199
1630093530.977,-26.855,-53.711,-35.645,-36.621
1630093530.981,-41.504,-47.852,-33.203,-22.949
1630093530.985,-47.852,-53.711,-47.852,-40.527
1630093530.989,-25.879,-47.363,-48.828,-60.547
1630093530.993,2.930,-21.973,-15.625,-21.484
1630093530.997,-20.996,-41.992,-23.438,-17.578
1630093531.000,-55.664,-58.594,-47.363,-43.945
1630093531.004,-29.297,-46.875,-50.293,-40.527
1630093531.008,-6.836,-48.828,-40.039,-31.250
1630093531.012,-26.855,-49.316,-29.785,-36.133
1630093531.016,-38.574,-46.387,-31.738,-40.527
1630093531.020,-28.320,-48.828,-35.156,-45.898
1630093531.024,-21.973,-54.199,-44.434,-67.383
1630093531.028,-24.414,-53.711,-37.109,-54.199
1630093531.032,-41.992,-48.340,-26.367,-23.926
1630093531.036,-37.598,-44.434,-28.809,-30.762
1630093531.040,-13.672,-39.062,-34.668,-49.805
1630093531.044,-18.066,-38.574,-27.832,-46.875
1630093531.047,-29.785,-39.551,-31.250,-35.645
1630093531.051,-9.766,-17.090,-25.391,-17.090
1630093531.055,-3.418,-20.020,-33.203,-31.250
1630093531.059,-18.066,-51.270,-48.828,-56.641
1630093531.063,-35.156,-49.316,-38.086,-49.316
1630093531.063,-50.293,-35.156,-41.016,-49.316
1630093531.067,-36.133,-39.551,-51.758,-64.453
1630093531.071,-22.949,-43.945,-45.898,-65.918
1630093531.075,-19.531,-30.762,-18.066,-40.039
1630093531.079,-26.367,-31.738,-26.367,-42.969
1630093531.083,-28.809,-39.551,-53.711,-58.594
1630093531.087,-13.184,-41.016,-64.453,-63.477
1630093531.090,-12.207,-30.273,-29.785,-39.062
1630093531.094,-37.598,-23.438,-3.418,-14.160
1630093531.098,-51.758,-48.340,-39.062,-47.363
1630093531.102,-34.180,-51.758,-54.199,-59.082
1630093531.106,-31.738,-44.922,-32.227,-42.969
1630093531.110,-44.434,-46.875,-20.996,-29.297
1630093531.114,-46.387,-53.223,-31.250,-31.250
1630093531.118,-38.086,-50.293,-47.363,-52.246
1630093531.122,-38.086,-42.969,-46.387,-67.871
1630093531.126,-49.316,-38.574,-26.367,-63.965
1630093531.130,-52.246,-38.574,-28.320,-57.129
1630093531.134,-28.320,-30.762,-43.457,-50.781
1630093531.137,1.953,-20.020,-31.738,-45.898
1630093531.141,-7.324,-25.879,-20.996,-54.199
1630093531.145,-28.809,-39.062,-27.344,-55.176
1630093531.149,-21.973,-44.922,-38.086,-58.594
1630093531.153,-10.742,-47.852,-51.270,-77.637
1630093531.155,-10.742,-46.875,-35.645,-63.477
1630093531.159,-29.785,-46.387,-33.691,-50.293
1630093531.163,-27.344,-37.109,-43.945,-68.359
1630093531.167,-16.602,-32.715,-43.457,-72.754
1630093531.171,-22.949,-43.457,-34.180,-55.664
1630093531.175,-43.457,-48.340,-22.949,-54.688
1630093531.179,-46.387,-46.387,-23.438,-59.570
1630093531.182,-12.695,-31.738,-27.832,-58.105
1630093531.186,-21.484,-35.645,-30.273,-71.289
1630093531.190,-47.852,-49.805,-23.926,-63.965
1630093531.194,-50.781,-49.805,-24.902,-47.852
1630093531.198,-33.691,-48.340,-35.645,-59.570
1630093531.200,-24.902,-47.852,-42.969,-71.777
1630093531.204,-36.133,-49.805,-27.832,-67.383
1630093531.208,-45.410,-48.340,-22.461,-59.570
1630093531.212,-41.016,-48.340,-38.086,-63.965
1630093531.216,-22.461,-44.434,-52.246,-81.055
1630093531.220,-21.973,-41.992,-40.039,-78.125
1630093531.224,-20.508,-33.203,-11.230,-44.922
1630093531.227,-20.508,-33.203,-19.043,-55.664
1630093531.231,-35.156,-50.781,-47.363,-94.238
1630093531.235,-32.227,-49.316,-35.645,-86.914
1630093531.239,-38.086,-44.434,-16.113,-59.082
1630093531.243,-44.434,-47.363,-20.020,-56.641
1630093531.243,-42.969,-50.781,-38.086,-78.125
1630093531.247,-28.320,-46.875,-37.598,-86.914
1630093531.251,-31.738,-42.480,-22.949,-76.172
1630093531.255,-38.574,-41.016,-28.320,-65.430
1630093531.259,-18.555,-44.922,-43.457,-70.801
1630093531.263,1.953,-40.039,-30.762,-62.988
1630093531.267,-7.324,-29.785,0.000,-47.852
1630093531.270,-45.410,-50.781,-15.137,-58.594
1630093531.274,-52.246,-65.918,-42.480,-69.824
1630093531.278,-35.156,-53.223,-40.527,-74.219
1630093531.282,-33.691,-53.711,-29.785,-79.102
1630093531.286,-59.082,-64.941,-38.574,-74.219
1630093531.303,-68.848,-62.500,-47.852,-70.312
1630093531.307,-41.016,-55.664,-54.688,-74.219
1630093531.311,-26.367,-56.641,-46.387,-73.730
1630093531.315,-39.062,-59.570,-32.715,-67.383
1630093531.319,-42.480,-47.363,-34.668,-65.918
1630093531.323,-26.367,-45.410,-42.480,-70.801
1630093531.327,-14.160,-55.176,-49.805,-82.031
1630093531.330,-33.691,-60.547,-41.504,-83.008
1630093531.334,-46.387,-60.547,-33.691,-59.082
1630093531.338,-30.762,-45.898,-40.527,-51.270
1630093531.342,-25.391,-43.457,-54.199,-83.496
1630093531.346,-32.227,-51.758,-44.434,-82.520
1630093531.348,-41.992,-41.504,-32.715,-66.406
1630093531.352,-40.527,-39.551,-35.156,-66.406
1630093531.356,-33.203,-56.152,-45.410,-71.777
1630093531.360,-45.898,-66.406,-39.551,-75.684
1630093531.364,-44.922,-47.852,-22.461,-60.547
1630093531.368,-27.344,-32.715,-20.508,-50.293
1630093531.372,-22.461,-49.805,-45.898,-70.312
1630093531.375,-21.484,-58.594,-46.387,-92.285
1630093531.379,-4.395,-25.391,-12.207,-54.199
1630093531.383,6.348,-15.625,-11.230,-20.508
1630093531.387,-18.066,-50.293,-44.922,-55.176
1630093531.391,-15.137,-50.293,-46.875,-77.148
1630093531.396,-21.973,-48.340,-28.809,-60.547
1630093531.400,-41.992,-52.246,-28.320,-51.758
1630093531.404,-27.832,-46.875,-44.434,-55.176
1630093531.408,-16.602,-50.293,-51.758,-68.359
1630093531.412,-28.320,-52.246,-27.344,-61.035
1630093531.416,-50.781,-52.246,-22.949,-44.434
1630093531.420,-54.199,-59.082,-41.504,-59.082
1630093531.423,-33.203,-59.082,-45.410,-70.801
1630093531.427,-16.602,-42.480,-16.602,-51.270
1630093531.431,-34.668,-44.434,-15.137,-55.176
1630093531.435,-52.734,-57.617,-35.156,-63.477
1630093531.439,-38.086,-55.176,-35.645,-64.453
1630093531.438,-40.039,-58.105,-34.668,-77.148
1630093531.442,-51.270,-56.152,-22.949,-67.383
1630093531.446,-48.828,-51.270,-24.902,-52.734
1630093531.450,-23.926,-40.527,-33.691,-52.246
1630093531.454,-8.301,-40.527,-35.645,-69.824
1630093531.458,-25.391,-47.852,-26.855,-69.336
1630093531.462,-48.828,-54.199,-27.832,-49.805
1630093531.465,-33.691,-46.875,-35.156,-50.781
1630093531.469,1.953,-28.809,-27.832,-52.734
1630093531.473,-11.719,-47.852,-31.250,-63.477
1630093531.477,-37.109,-60.547,-40.527,-57.129
1630093531.481,-40.527,-56.641,-47.363,-58.105
1630093531.486,-34.668,-58.594,-62.500,-70.312
1630093531.490,-31.738,-55.664,-53.711,-67.871
1630093531.494,-32.715,-44.434,-33.691,-49.805
1630093531.498,-39.062,-43.945,-33.203,-46.387
1630093531.502,-27.344,-49.316,-39.551,-50.781
1630093531.506,-16.113,-47.363,-34.668,-53.711
1630093531.510,-12.695,-41.992,-27.344,-58.105
1630093531.513,-17.578,-29.297,-16.113,-44.434
1630093531.517,-24.902,-34.180,-29.785,-50.293
1630093531.521,-23.438,-44.922,-54.199,-74.219
1630093531.525,-15.137,-37.109,-31.738,-58.105
1630093531.529,-24.902,-38.086,-17.090,-44.922
1630093531.529,-33.691,-52.734,-33.691,-60.059
1630093531.533,-24.902,-49.805,-51.270,-80.078
1630093531.537,-25.391,-41.016,-40.039,-77.637
1630093531.541,-28.320,-41.992,-24.902,-62.500
1630093531.545,-30.762,-44.922,-33.203,-58.105
1630093531.549,-14.160,-50.781,-50.293,-64.941
1630093531.553,-5.859,-40.039,-32.715,-60.059
1630093531.556,-8.301,-19.531,6.348,-24.902
1630093531.560,-35.156,-32.227,-15.137,-41.016
1630093531.564,-44.434,-47.363,-48.828,-62.988
1630093531.568,-15.625,-46.387,-43.457,-61.523
1630093531.572,-16.113,-37.598,-20.996,-44.922
1630093531.576,-38.086,-38.574,-20.996,-40.039
1630093531.580,-25.879,-42.969,-35.645,-46.875
1630093531.584,-8.789,-38.574,-36.133,-56.152
1630093531.588,-15.625,-37.598,-18.555,-50.781
1630093531.592,-24.902,-38.086,-20.508,-35.645
1630093531.596,-32.715,-36.133,-37.109,-51.758
1630093531.600,-1.953,-21.973,-30.273,-47.852
1630093531.603,-3.906,-23.438,-20.508,-46.387
1630093531.607,-31.738,-32.227,-26.367,-57.617
1630093531.611,-23.438,-28.809,-31.250,-49.316
1630093531.615,-6.836,-24.414,-41.016,-64.453
1630093531.619,-2.930,-25.391,-41.016,-77.148
1630093531.634,-19.531,-32.227,-30.273,-64.453
1630093531.638,-16.113,-24.902,-26.367,-45.898
1630093531.642,-9.766,-26.855,-40.527,-50.293
1630093531.646,-22.949,-38.574,-47.363,-79.590
1630093531.650,-36.621,-48.828,-29.785,-72.754
1630093531.654,-31.250,-36.133,-14.160,-39.062
1630093531.658,10.254,-1.953,-6.836,-20.508
1630093531.661,7.324,-23.438,-34.180,-52.246
1630093531.665,-23.926,-44.922,-38.574,-66.406
1630093531.669,-25.391,-34.180,-29.785,-48.828
1630093531.673,-29.297,-41.504,-39.062,-48.828
1630093531.677,-19.043,-51.270,-48.828,-61.523
1630093531.678,-12.207,-43.457,-42.480,-69.336
1630093531.682,-33.203,-38.574,-38.086,-62.012
1630093531.686,-51.758,-46.875,-45.898,-61.523
1630093531.690,-33.203,-47.363,-52.246,-65.918
1630093531.694,-22.461,-46.387,-50.293,-66.406
1630093531.698,-43.945,-41.016,-34.180,-54.688
1630093531.702,-54.199,-36.133,-37.598,-46.387
1630093531.705,-39.551,-44.434,-55.664,-51.758
1630093531.709,-23.926,-46.875,-57.129,-65.430
1630093531.713,-4.883,-25.391,-22.949,-41.016
1630093531.717,-26.855,-30.273,-22.461,-31.738
1630093531.721,-36.133,-45.898,-47.852,-49.316
1630093531.723,-23.926,-47.363,-45.410,-60.059
1630093531.727,-33.691,-48.828,-30.762,-57.617
1630093531.731,-52.734,-41.016,-22.461,-40.527
1630093531.735,-57.129,-39.062,-33.203,-49.805
1630093531.739,-23.926,-25.879,-30.273,-57.129
1630093531.743,-13.184,-17.578,-9.766,-46.875
1630093531.747,-34.668,-28.809,-20.020,-48.340
1630093531.750,-43.457,-38.086,-31.738,-48.340
1630093531.754,0.977,-19.043,-25.879,-29.297
1630093531.758,27.832,-14.160,-13.672,-22.949
1630093531.762,-10.254,-38.086,-23.926,-51.758
1630093531.766,-28.809,-39.551,-41.992,-65.430
1630093531.769,-20.996,-42.480,-51.758,-67.383
1630093531.773,-11.230,-41.992,-53.223,-69.824
1630093531.777,-13.672,-40.527,-37.598,-69.336
1630093531.781,-34.180,-37.598,-37.598,-60.547
1630093531.785,-39.551,-29.785,-54.688,-60.547
1630093531.789,-23.438,-32.715,-59.570,-75.684
1630093531.793,-29.297,-41.016,-42.480,-70.312
1630093531.796,-48.340,-37.598,-27.832,-47.852
1630093531.800,-40.527,-24.902,-25.879,-28.320
1630093531.804,-28.809,-34.180,-41.992,-48.828
1630093531.808,-34.180,-45.898,-44.922,-66.895
1630093531.812,-41.016,-33.691,-29.297,-50.293
1630093531.813,-38.086,-32.227,-30.273,-39.551
1630093531.817,-30.762,-45.898,-51.270,-57.617
1630093531.821,-23.438,-44.434,-58.105,-76.172
1630093531.825,-21.484,-37.598,-36.621,-62.012
1630093531.829,-38.574,-39.551,-32.227,-40.527
1630093531.833,-40.039,-41.992,-47.852,-45.898
1630093531.837,-38.574,-46.387,-67.383,-73.730
1630093531.840,-47.363,-37.109,-44.434,-70.801
1630093531.844,-46.387,-25.391,-23.926,-41.504
1630093531.848,-52.246,-40.527,-49.316,-53.223
1630093531.852,-43.945,-45.898,-62.500,-73.730
1630093531.856,-32.715,-39.551,-50.293,-66.895
1630093531.862,-41.016,-35.156,-42.480,-50.781
1630093531.866,-43.457,-34.180,-49.805,-47.852
1630093531.870,-20.508,-33.691,-59.082,-51.270
1630093531.874,-5.859,-33.203,-45.410,-48.828
1630093531.878,-16.602,-41.992,-31.738,-41.504
1630093531.882,-36.621,-47.852,-39.062,-44.922
1630093531.886,-33.203,-45.898,-45.410,-56.641
1630093531.889,-10.742,-33.203,-33.203,-41.504
1630093531.893,-27.832,-36.133,-20.996,-36.621
1630093531.897,-65.430,-57.617,-37.598,-52.246
1630093531.901,-56.152,-54.688,-49.805,-58.105
1630093531.905,-36.621,-48.340,-48.340,-69.824
1630093531.903,-41.992,-49.805,-35.645,-65.430
1630093531.907,-54.199,-48.828,-42.480,-53.711
1630093531.911,-56.641,-45.898,-50.781,-64.453
1630093531.915,-37.109,-43.457,-49.316,-66.406
1630093531.919,-23.438,-44.434,-44.434,-69.336
1630093531.923,-32.715,-45.898,-38.086,-67.871
1630093531.927,-27.832,-35.645,-27.344,-42.480
1630093531.930,9.277,-20.020,-9.277,-18.066
1630093531.934,-0.488,-40.039,-22.949,-34.180
1630093531.938,-42.480,-61.523,-34.668,-53.223
1630093531.942,-60.547,-62.988,-38.086,-56.641
1630093531.946,-48.828,-55.664,-58.105,-76.172
1630093531.950,-28.809,-53.223,-56.641,-85.938
1630093531.954,-30.762,-58.105,-32.227,-72.754
1630093531.958,-34.180,-52.246,-27.344,-57.129
1630093531.962,-32.227,-49.316,-37.109,-65.430
1630093531.966,-28.809,-52.734,-51.270,-88.867
1630093531.970,-19.531,-48.340,-42.480,-70.801
1630093531.974,-23.926,-41.992,-19.043,-31.250
1630093531.977,-37.598,-45.410,-30.273,-48.340
1630093531.981,-38.574,-53.223,-60.547,-78.613
1630093531.985,-24.902,-52.734,-46.387,-71.289
1630093531.989,-32.227,-43.457,-23.926,-49.805
1630093531.993,-52.246,-46.875,-40.527,-50.781
1630093531.994,-32.715,-50.781,-53.711,-55.664
1630093531.998,-21.484,-52.246,-43.457,-43.945
1630093532.002,-33.691,-51.758,-31.250,-38.574
1630093532.006,-34.180,-41.992,-27.832,-35.156
1630093532.010,-30.273,-38.574,-32.715,-40.527
1630093532.014,-7.812,-29.785,-27.832,-41.992
1630093532.018,11.230,-13.184,3.418,-17.090
1630093532.021,-20.508,-30.762,-14.648,-28.809
1630093532.025,-36.133,-47.852,-38.086,-51.270
1630093532.029,-29.785,-53.711,-43.457,-67.871
1630093532.033,-39.551,-52.246,-36.621,-76.172
1630093532.037,-59.082,-50.781,-38.086,-62.500
1630093532.042,-63.477,-49.316,-51.758,-60.059
1630093532.046,-36.133,-43.457,-51.758,-67.383
1630093532.050,-25.879,-50.293,-45.410,-67.383
1630093532.054,-44.434,-52.246,-30.762,-49.316
1630093532.058,-60.059,-51.758,-23.926,-31.738
1630093532.062,-48.828,-55.176,-37.598,-37.109
1630093532.066,-30.762,-56.152,-41.992,-42.480
1630093532.069,-42.969,-60.547,-31.738,-46.387
1630093532.073,-56.641,-59.082,-25.879,-33.691
1630093532.077,-41.992,-47.852,-29.785,-27.832
1630093532.081,-27.832,-47.852,-45.898,-48.340
1630093532.085,-34.668,-42.480,-38.086,-41.504
1630093532.098,-52.246,-36.133,-39.062,-36.133
1630093532.102,-44.434,-39.551,-45.898,-42.480
1630093532.106,-29.785,-38.574,-49.805,-50.293
1630093532.110,-42.969,-40.039,-49.805,-69.336
1630093532.114,-38.574,-27.832,-26.855,-51.270
1630093532.118,-19.531,-6.836,-2.441,-15.625
1630093532.122,-27.832,-28.809,-33.691,-40.527
1630093532.125,-39.062,-50.781,-51.758,-62.988
1630093532.129,-39.551,-37.598,-26.855,-46.387
1630093532.133,-49.316,-36.621,-33.203,-45.410
1630093532.137,-44.434,-51.270,-55.176,-58.105
1630093532.141,-16.113,-56.152,-55.664,-54.199
1630093532.143,-12.207,-50.293,-36.621,-36.621
1630093532.147,-36.621,-45.898,-31.250,-30.762
1630093532.151,-40.039,-47.363,-49.316,-48.340
1630093532.155,-24.902,-45.898,-59.570,-66.406
1630093532.159,-31.738,-48.828,-36.621,-55.664
1630093532.163,-45.898,-47.852,-24.414,-35.156
1630093532.167,-46.875,-40.039,-39.551,-36.621
1630093532.170,-44.922,-49.316,-55.664,-57.129
1630093532.174,-10.742,-27.344,-18.066,-34.668
1630093532.178,-13.184,-23.438,-1.953,-25.879
1630093532.182,-51.758,-49.805,-34.180,-39.062
1630093532.186,-39.551,-54.199,-46.875,-41.016
1630093532.188,-26.855,-52.246,-38.574,-50.781
1630093532.192,-35.645,-45.410,-17.090,-49.316
1630093532.196,-53.711,-48.828,-24.902,-51.270
1630093532.200,-23.926,-33.203,-28.320,-35.645
1630093532.204,0.977,-25.879,-27.832,-39.551
1630093532.208,-19.043,-39.551,-40.039,-59.570
1630093532.212,-40.039,-43.945,-46.387,-48.828
1630093532.215,-36.133,-39.062,-33.691,-32.715
1630093532.219,-5.371,-22.949,-29.297,-26.855
1630093532.223,-28.809,-40.039,-42.480,-48.828
1630093532.227,-56.152,-44.922,-42.969,-51.758
1630093532.231,-59.082,-44.434,-45.898,-46.387
1630093532.235,-41.016,-50.293,-50.293,-51.270
1630093532.239,-29.785,-48.828,-46.387,-57.129
1630093532.243,-42.480,-46.387,-30.273,-46.875
1630093532.247,-46.875,-46.387,-33.203,-44.434
1630093532.251,-32.715,-42.480,-47.852,-52.246
1630093532.255,-26.367,-42.969,-48.340,-66.895
1630093532.259,-36.621,-47.852,-36.133,-61.523
1630093532.262,-29.785,-34.180,-24.414,-34.180
1630093532.266,-30.273,-43.945,-37.598,-47.363
1630093532.270,-24.414,-61.523,-51.270,-70.801
1630093532.274,-24.414,-57.129,-38.086,-65.918
1630093532.278,-45.410,-54.199,-36.133,-49.805
1630093532.279,-35.645,-50.781,-48.340,-43.457
1630093532.283,-20.020,-51.270,-56.641,-57.617
1630093532.287,-11.719,-41.992,-31.738,-46.875
1630093532.291,-24.414,-35.645,-15.625,-29.785
1630093532.295,-40.527,-43.457,-35.645,-39.551
1630093532.299,-26.367,-49.805,-57.129,-54.688
1630093532.303,-9.277,-34.668,-39.062,-46.875
1630093532.306,1.953,-11.230,0.977,-17.090
1630093532.310,-21.973,-28.320,-24.902,-34.180
1630093532.314,-25.879,-40.039,-56.641,-59.570
1630093532.318,-8.301,-36.133,-56.152,-63.965
1630093532.322,-21.484,-41.504,-37.598,-57.129
1630093532.327,-42.969,-49.316,-39.062,-46.387
1630093532.331,-36.133,-44.922,-55.664,-47.363
1630093532.335,-13.672,-40.039,-61.035,-62.012
1630093532.339,-19.531,-35.156,-51.270,-61.523
1630093532.343,-38.574,-36.133,-41.992,-54.688
1630093532.347,-35.156,-40.527,-45.898,-59.570
1630093532.351,1.953,-22.949,-30.273,-39.062
1630093532.354,9.277,-26.855,-17.090,-31.738
1630093532.358,-25.391,-44.922,-26.367,-34.668
1630093532.362,-28.320,-45.410,-32.227,-30.762
1630093532.366,-5.859,-42.969,-50.293,-53.223
1630093532.370,-1.953,-41.016,-54.199,-62.988
1630093532.384,-16.113,-39.062,-38.086,-56.152
1630093532.388,-27.344,-38.574,-35.156,-48.828
1630093532.392,-28.809,-42.969,-45.410,-48.828
1630093532.396,-18.066,-46.875,-41.504,-56.641
1630093532.400,-21.484,-48.340,-20.508,-48.340
1630093532.404,-27.832,-36.621,-6.348,-22.461
1630093532.408,7.324,-14.160,11.230,1.465
1630093532.411,7.324,-26.855,-9.766,-22.949
1630093532.415,-25.879,-45.410,-26.367,-40.039
1630093532.419,-46.875,-39.551,-25.391,-33.691
1630093532.423,-49.316,-32.715,-35.645,-47.363
1630093532.427,-29.785,-37.598,-45.898,-60.547
1630093532.416,-21.484,-38.086,-36.621,-55.664
1630093532.420,-28.809,-30.273,-20.996,-41.016
1630093532.424,-37.109,-33.691,-26.367,-35.645
1630093532.428,-28.809,-37.598,-40.039,-44.922
1630093532.432,-23.438,-41.992,-43.457,-61.523
1630093532.436,-31.250,-39.062,-28.320,-57.129
1630093532.440,-38.574,-32.227,-28.320,-46.875
1630093532.443,-36.621,-39.062,-48.828,-59.570
1630093532.447,-26.855,-42.969,-51.758,-72.266
1630093532.451,-1.465,-20.996,-12.207,-40.527
1630093532.455,-15.625,-26.367,-13.184,-33.691
1630093532.459,-41.992,-50.781,-44.922,-58.105
1630093532.473,-14.648,-44.922,-43.945,-56.152
1630093532.477,-6.836,-34.668,-32.715,-56.641
1630093532.481,-28.809,-36.133,-30.273,-44.434
1630093532.485,-34.668,-40.527,-35.156,-35.645
1630093532.489,-8.789,-29.297,-33.691,-41.016
1630093532.493,4.395,-23.438,-20.508,-40.527
1630093532.497,-18.555,-40.527,-21.484,-36.133
1630093532.500,-32.227,-42.480,-30.762,-43.457
1630093532.504,-19.043,-29.297,-39.551,-56.152
1630093532.508,-13.672,-28.809,-42.480,-60.547
1630093532.512,-43.457,-41.016,-35.645,-63.965
1630093532.516,-59.082,-39.551,-35.645,-60.059
1630093532.519,-38.574,-31.738,-43.945,-57.129
1630093532.523,-24.414,-36.621,-51.758,-69.336
1630093532.527,-38.086,-43.945,-40.527,-70.801
1630093532.531,-54.199,-42.480,-35.156,-54.199
1630093532.535,-52.734,-46.387,-47.363,-52.734
1630093532.539,-33.203,-47.852,-54.199,-62.012
1630093532.543,-36.133,-55.176,-47.852,-74.219
1630093532.546,-35.645,-48.340,-42.480,-65.918
1630093532.550,5.859,-20.508,-45.898,-44.922
1630093532.554,20.996,-32.227,-47.363,-40.039
1630093532.558,1.465,-49.316,-32.227,-42.969
1630093532.562,-29.297,-54.199,-26.367,-49.805
1630093532.564,-46.875,-59.570,-41.016,-54.199
1630093532.568,-44.922,-61.523,-50.781,-58.594
1630093532.572,-38.574,-71.777,-59.082,-65.430
1630093532.576,-25.879,-65.918,-41.016,-41.016
1630093532.580,-44.434,-61.035,-27.344,-15.625
1630093532.584,-63.965,-80.078,-41.016,-21.973
1630093532.588,-45.898,-98.145,-50.781,-28.809
1630093532.591,-38.086,-83.008,-26.855,-9.766
1630093532.595,-53.711,-76.660,-18.066,1.465
1630093532.599,-62.012,-95.703,-48.340,-17.578
1630093532.603,-50.781,-95.703,-69.336,-43.457
1630093532.607,-45.410,-86.914,-54.688,-41.504
1630093532.610,-57.129,-77.637,-37.109,-22.461
1630093532.614,-65.918,-80.078,-48.828,-19.531
1630093532.618,-42.480,-81.543,-59.082,-27.344
1630093532.622,-35.156,-77.148,-47.852,-33.691
1630093532.626,-52.734,-76.172,-34.180,-25.391
1630093532.630,-59.082,-71.289,-36.133,-19.531
1630093532.634,-41.504,-65.430,-46.387,-24.414
1630093532.637,-18.555,-48.828,-37.598,-17.090
1630093532.641,-24.902,-47.852,-19.043,-10.742
1630093532.645,-59.082,-67.871,-30.762,-27.832
1630093532.649,-58.594,-70.312,-45.898,-40.527
1630093532.653,-33.691,-69.824,-50.293,-41.016
1630093532.654,-33.691,-69.824,-37.109,-35.156
1630093532.658,-49.316,-64.941,-30.762,-33.203
1630093532.662,-53.223,-61.523,-39.062,-35.156
1630093532.666,-33.203,-62.012,-51.758,-40.527
1630093532.670,-22.461,-61.035,-48.340,-41.504
1630093532.674,-38.574,-59.082,-36.133,-32.715
1630093532.678,-36.621,-55.664,-33.691,-21.484
1630093532.681,-15.137,-51.758,-36.621,-23.926
1630093532.685,-24.414,-61.035,-42.480,-44.434
1630093532.689,-45.898,-65.430,-32.715,-41.992
1630093532.693,-55.664,-55.176,-25.391,-27.344
1630093532.697,-46.387,-55.664,-37.598,-37.109
1630093532.700,-36.621,-61.035,-45.898,-54.199
1630093532.704,-34.668,-54.688,-28.809,-44.922
1630093532.708,-39.062,-47.852,-20.020,-24.414
1630093532.712,-33.203,-48.828,-32.715,-28.320
1630093532.716,-24.902,-48.828,-42.480,-47.852
1630093532.720,-23.438,-42.480,-28.809,-51.758
1630093532.724,-19.531,-31.738,-14.160,-20.020
1630093532.727,-27.344,-35.156,-19.531,-20.020
1630093532.731,-19.531,-53.223,-45.410,-55.664
1630093532.735,-10.254,-52.246,-42.480,-56.641
1630093532.739,-28.809,-48.340,-24.414,-43.457
1630093532.743,-30.762,-52.246,-33.203,-42.480
1630093532.745,-14.160,-51.758,-41.992,-47.852
1630093532.749,-19.531,-55.664,-25.879,-44.922
1630093532.753,-33.691,-50.781,-8.789,-30.762
1630093532.757,-45.898,-51.270,-16.113,-31.738
1630093532.761,-37.109,-58.594,-34.668,-41.016
1630093532.765,-15.137,-53.223,-35.156,-39.062
1630093532.769,-2.930,-39.062,-4.395,-16.602
1630093532.772,-29.785,-49.316,-13.672,-21.484
1630093532.776,-46.387,-61.035,-34.668,-48.828
1630093532.780,-30.762,-64.941,-45.410,-58.594
1630093532.784,-24.414,-62.988,-35.156,-55.176
1630093532.788,-41.992,-50.781,-29.785,-52.246
1630093532.803,-45.410,-42.969,-39.062,-53.711
1630093532.807,-20.020,-40.527,-41.992,-64.453
1630093532.811,-15.625,-42.969,-37.598,-67.383
1630093532.815,-33.691,-44.922,-30.273,-52.246
1630093532.819,-48.828,-42.480,-37.109,-44.434
1630093532.823,-19.043,-20.020,-30.273,-25.879
1630093532.827,9.277,-12.695,-30.762,-25.879
1630093532.830,-20.996,-32.715,-32.227,-40.527
1630093532.834,-34.668,-32.715,-22.949,-37.109
1630093532.838,-26.367,-37.109,-37.598,-47.363
1630093532.842,-24.414,-40.039,-56.641,-61.523
1630093532.846,-26.855,-36.621,-46.875,-63.965
1630093532.849,-39.551,-39.062,-39.551,-51.270
1630093532.853,-38.574,-35.156,-42.480,-46.387
1630093532.857,-25.391,-34.180,-55.664,-60.547
1630093532.861,-23.926,-37.598,-50.293,-65.918
1630093532.865,-26.367,-29.785,-31.250,-45.410
1630093532.869,-30.762,-25.879,-33.203,-39.062
1630093532.873,-26.367,-33.691,-50.293,-59.570
1630093532.876,-30.762,-43.457,-47.852,-69.824
1630093532.880,-33.203,-28.320,-15.625,-46.875
1630093532.884,-20.996,-15.137,-5.859,-21.484
1630093532.888,-32.715,-37.598,-35.156,-58.105
1630093532.892,-27.344,-42.480,-39.062,-76.660
1630093532.894,-25.879,-39.062,-19.043,-61.035
1630093532.898,-38.086,-40.527,-20.020,-53.223
1630093532.902,-38.086,-42.480,-35.645,-60.059
1630093532.906,-28.320,-42.969,-43.945,-67.871
1630093532.910,-19.043,-39.062,-22.461,-51.758
1630093532.914,-25.879,-32.715,-10.742,-40.039
1630093532.918,-28.809,-29.297,-27.832,-50.293
1630093532.921,-24.414,-40.039,-49.316,-63.477
1630093532.925,-4.883,-26.367,-26.367,-45.410
1630093532.929,-15.137,-22.949,-8.301,-36.133
1630093532.933,-50.781,-46.387,-31.738,-46.875
1630093532.937,-38.086,-48.340,-44.434,-50.781
1630093532.938,-19.531,-44.922,-37.109,-53.711
1630093532.942,-24.902,-45.410,-21.973,-47.363
1630093532.946,-45.410,-45.898,-24.414,-47.363
1630093532.950,-37.598,-41.504,-31.250,-51.758
1630093532.954,-17.578,-36.621,-36.621,-58.105
1630093532.958,-26.367,-37.109,-24.902,-55.176
1630093532.962,-42.969,-38.086,-21.484,-45.410
1630093532.965,-28.809,-32.715,-27.832,-38.574
1630093532.969,0.488,-30.762,-34.180,-49.316
1630093532.973,-3.418,-40.039,-33.691,-58.594
1630093532.977,-21.973,-40.527,-29.785,-52.734
1630093532.981,-25.879,-39.062,-38.574,-56.641
1630093533.000,-20.020,-42.969,-53.711,-75.684
1630093533.004,-25.879,-42.969,-46.387,-79.590
1630093533.008,-38.574,-36.621,-20.508,-49.316
1630093533.012,-47.363,-41.016,-22.461,-44.434
1630093533.016,-36.621,-46.875,-41.016,-53.711
1630093533.020,-21.484,-50.293,-39.062,-44.922
1630093533.024,-9.766,-49.316,-20.508,-22.461
1630093533.027,-0.977,-30.762,-21.484,-17.578
1630093533.031,-32.227,-29.297,-37.598,-58.105
1630093533.035,-47.852,-36.621,-46.875,-87.891
1630093533.039,-30.273,-26.367,-31.250,-72.266
1630093533.043,-51.758,-19.043,-30.762,-81.543
1630093533.029,-63.477,-20.508,-41.016,-103.516
1630093533.033,-52.246,-20.508,-51.758,-117.188
1630093533.037,-51.758,-13.184,-37.598,-122.070
1630093533.041,-67.871,-11.230,-20.508,-110.840
1630093533.045,-85.449,-17.090,-34.668,-119.141
1630093533.049,-81.543,-21.973,-48.828,-139.648
1630093533.053,-68.848,-29.297,-43.945,-139.160
1630093533.056,-62.500,-28.809,-28.809,-116.699
1630093533.060,-61.035,-22.461,-28.320,-102.051
1630093533.064,-46.875,-17.090,-41.016,-104.492
1630093533.068,-28.809,-15.625,-35.645,-100.098
1630093533.072,-26.855,-15.137,-15.625,-81.543
1630093533.075,-43.457,-18.555,-24.414,-82.520
1630093533.079,-47.852,-19.043,-38.086,-86.914
1630093533.083,-31.738,-20.508,-46.387,-94.727
1630093533.087,-29.297,-21.973,-33.691,-85.449
1630093533.091,-39.551,-22.949,-22.949,-71.289
1630093533.095,-38.574,-24.902,-29.785,-70.801
1630093533.099,-20.508,-27.344,-34.668,-68.848
1630093533.102,-25.879,-32.715,-33.691,-73.242
1630093533.106,-57.617,-35.156,-30.762,-77.148
1630093533.110,-54.688,-29.297,-30.762,-74.219
1630093533.114,-34.180,-30.762,-44.922,-77.637
1630093533.118,-29.785,-40.527,-48.340,-83.984
1630093533.119,-28.809,-34.180,-26.855,-66.895
1630093533.123,-39.062,-30.273,-28.809,-54.199
1630093533.127,-37.109,-39.062,-44.922,-59.570
1630093533.131,-11.230,-39.062,-39.062,-59.570
1630093533.135,-13.184,-39.062,-28.809,-58.105
1630093533.139,-24.902,-29.785,-27.832,-44.922
1630093533.143,-10.742,-22.949,-26.367,-29.785
1630093533.146,-8.301,-37.598,-43.945,-54.688
1630093533.150,-19.531,-42.969,-48.828,-68.848
1630093533.154,-27.344,-34.180,-36.621,-42.969
1630093533.158,-26.855,-37.598,-41.504,-42.969
1630093533.162,-17.090,-47.852,-58.594,-64.941
1630093533.178,-18.066,-48.828,-51.758,-67.383
1630093533.182,-30.762,-45.898,-34.668,-55.664
1630093533.186,-34.668,-43.457,-39.062,-46.875
1630093533.190,-21.973,-45.898,-53.711,-55.176
1630093533.194,-9.766,-46.387,-53.711,-62.988
1630093533.198,-20.020,-39.062,-41.992,-51.758
1630093533.202,-35.156,-40.527,-42.969,-43.945
1630093533.205,-33.203,-48.340,-51.758,-52.246
1630093533.209,-21.973,-49.316,-50.781,-53.223
1630093533.213,-20.996,-42.480,-31.738,-44.922
1630093533.217,-44.434,-48.340,-31.738,-34.668
1630093533.221,-40.527,-49.316,-37.598,-27.832
1630093533.224,-2.441,-37.598,-38.086,-25.391
1630093533.228,-12.695,-30.273,-26.855,-39.551
1630093533.232,-52.734,-34.180,-26.855,-58.105
1630093533.236,-60.547,-32.227,-43.945,-64.941
1630093533.240,-38.086,-25.391,-52.734,-73.730
1630093533.244,-16.113,-24.414,-41.992,-71.289
1630093533.248,-27.344,-22.949,-33.203,-64.941
1630093533.251,-41.504,-20.996,-37.598,-64.453
1630093533.255,-16.113,-8.301,-39.062,-63.477
1630093533.259,-4.395,-1.953,-31.738,-66.895
1630093533.263,-25.879,-16.602,-25.391,-68.359
1630093533.267,-37.109,-20.508,-29.297,-61.523
1630093533.270,-38.086,-20.508,-41.016,-70.801
1630093533.274,-23.438,-25.391,-45.410,-80.078
1630093533.278,-20.020,-27.832,-28.320,-67.871
1630093533.282,-41.504,-26.855,-20.996,-58.594
1630093533.286,-38.574,-26.367,-26.367,-57.617
1630093533.290,-21.484,-27.344,-37.598,-66.406
1630093533.294,-33.203,-28.809,-40.039,-81.543
1630093533.297,-41.016,-26.855,-28.320,-59.082
1630093533.301,-31.738,-21.484,-21.484,-37.109
1630093533.305,-22.461,-24.902,-36.133,-49.316
1630093533.309,-14.160,-26.855,-39.062,-53.711
1630093533.313,-17.578,-22.949,-23.438,-39.551
1630093533.313,-29.297,-26.367,-29.297,-34.668
1630093533.317,-30.273,-34.668,-41.504,-41.504
1630093533.321,-22.949,-41.992,-40.039,-53.223
1630093533.325,-17.578,-31.738,-24.414,-41.504
1630093533.329,-25.391,-24.414,-31.738,-36.133
1630093533.333,-25.879,-26.855,-49.316,-50.781
1630093533.337,-13.184,-30.762,-53.223,-57.617
1630093533.340,-0.488,-23.926,-28.320,-42.969
1630093533.344,5.371,-7.324,-4.395,-15.137
1630093533.348,-11.230,-25.391,-28.809,-35.645
1630093533.352,-19.531,-49.316,-56.641,-59.082
1630093533.356,-16.113,-50.293,-41.504,-52.734
1630093533.360,-24.414,-47.852,-29.297,-49.316
1630093533.364,-24.902,-47.363,-37.109,-51.758
1630093533.368,-11.719,-42.480,-47.363,-55.664
1630093533.372,-2.930,-33.691,-46.875,-57.617
1630093533.376,-1.953,-28.809,-29.297,-42.969
1630093533.380,-13.672,-33.691,-29.297,-33.203
1630093533.384,-16.113,-41.016,-47.363,-43.945
1630093533.387,8.789,-30.273,-32.715,-30.273
1630093533.391,12.207,-20.996,-16.602,-20.996
1630093533.395,-18.066,-28.320,-35.156,-44.922
1630093533.399,-20.996,-29.297,-48.340,-53.711
1630093533.403,-4.883,-26.855,-49.805,-53.223
1630093533.403,-12.695,-37.109,-39.062,-62.012
1630093533.407,-33.203,-43.457,-31.738,-45.410
1630093533.411,-43.457,-38.086,-37.109,-37.109
1630093533.415,-27.832,-37.109,-45.898,-50.781
1630093533.419,-18.066,-39.062,-36.133,-42.480
1630093533.423,-34.668,-41.992,-22.949,-30.762
1630093533.427,-27.832,-30.273,-16.602,-22.461
1630093533.430,5.371,-9.277,-6.348,-13.672
1630093533.434,2.441,-29.785,-23.926,-37.109
1630093533.438,-20.508,-43.945,-26.367,-45.898
1630093533.442,-36.621,-42.480,-30.273,-42.969
1630093533.446,-26.367,-42.969,-45.898,-53.711
1630093533.452,-13.672,-40.527,-50.293,-61.035
1630093533.456,-17.090,-45.898,-31.738,-50.293
1630093533.460,-19.043,-35.645,-11.719,-25.879
1630093533.464,-2.441,-32.227,-22.461,-20.996
1630093533.468,14.160,-41.504,-41.016,-37.598
1630093533.472,-15.137,-36.133,-36.133,-65.430
1630093533.476,-25.391,-16.602,-16.602,-59.082
1630093533.479,-30.762,-23.438,-23.438,-52.246
1630093533.483,-36.133,-43.945,-40.527,-66.895
1630093533.487,-25.879,-39.551,-30.762,-67.383
1630093533.491,-42.969,-41.992,-19.043,-56.152
1630093533.495,-58.105,-44.434,-29.297,-58.105
1630093533.494,-43.945,-41.992,-39.551,-65.430
1630093533.498,-26.855,-46.875,-39.551,-56.641
1630093533.502,-21.484,-43.457,-31.250,-43.457
1630093533.506,-25.391,-37.109,-31.738,-40.039
1630093533.510,-26.855,-47.363,-43.945,-49.805
1630093533.514,-12.207,-43.945,-41.504,-59.570
1630093533.518,7.812,-18.555,0.488,-31.738
1630093533.521,-13.672,-27.344,-0.977,-23.926
1630093533.525,-42.480,-45.898,-36.133,-50.293
1630093533.529,-31.250,-50.293,-52.246,-58.105
1630093533.533,-26.367,-50.293,-47.852,-53.223
1630093533.537,-33.203,-42.480,-35.645,-42.480
1630093533.554,-46.387,-45.410,-40.039,-45.898
1630093533.558,-34.668,-45.898,-51.758,-58.105
1630093533.562,-13.672,-43.945,-47.852,-66.406
1630093533.566,-21.484,-43.945,-34.180,-65.430
1630093533.570,-31.250,-35.156,-29.785,-53.223
1630093533.574,2.441,-28.809,-32.227,-44.922
1630093533.578,16.602,-32.715,-38.574,-59.082
1630093533.581,-9.766,-38.574,-28.809,-60.059
1630093533.585,-30.762,-46.387,-23.926,-57.129
1630093533.589,-11.719,-22.949,-9.766,-38.574
1630093533.593,-2.930,-25.391,-23.926,-44.922
1630093533.597,-37.109,-50.781,-35.156,-69.824
1630093533.598,-56.152,-45.898,-27.344,-57.617
1630093533.602,-59.570,-47.363,-37.109,-48.828
1630093533.606,-49.316,-51.758,-42.969,-62.012
1630093533.610,-42.480,-51.758,-39.062,-74.707
1630093533.614,-35.156,-32.227,-11.719,-42.480
1630093533.618,-35.645,-30.273,-7.324,-20.996
1630093533.622,-39.551,-48.828,-41.504,-57.129
1630093533.625,-29.297,-52.734,-42.969,-74.707
1630093533.629,-27.344,-40.527,-20.508,-56.152
1630093533.633,-29.785,-27.832,-14.160,-40.039
1630093533.637,-32.227,-39.551,-32.227,-55.176
1630093533.641,-30.762,-53.711,-40.527,-72.754
1630093533.643,-32.715,-56.152,-34.668,-70.312
1630093533.647,-36.133,-48.828,-38.086,-60.059
1630093533.651,-38.086,-52.246,-50.293,-65.918
1630093533.655,-23.926,-54.688,-53.711,-66.895
1630093533.659,-27.344,-55.664,-38.574,-62.988
1630093533.663,-41.016,-57.617,-29.297,-49.805
1630093533.667,-37.598,-58.105,-36.621,-41.504
1630093533.670,-37.109,-63.477,-47.852,-61.035
1630093533.674,-11.230,-42.969,-25.879,-46.387
1630093533.678,-29.297,-42.969,-19.043,-44.922
1630093533.682,-60.059,-56.152,-29.297,-51.758
1630093533.686,-35.645,-50.781,-36.621,-45.410
1630093533.688,-10.254,-48.340,-35.645,-43.457
1630093533.692,-21.484,-50.293,-22.461,-36.621
1630093533.696,-45.898,-59.570,-34.180,-42.969
1630093533.700,-20.020,-42.480,-33.691,-35.645
1630093533.704,6.836,-30.273,-30.273,-35.645
1630093533.708,-20.508,-47.852,-30.273,-56.641
1630093533.712,-60.059,-62.500,-44.922,-77.148
1630093533.715,-32.715,-40.039,-38.574,-61.035
1630093533.719,15.625,-13.184,-17.090,-35.156
1630093533.723,-22.949,-49.316,-36.621,-61.523
1630093533.727,-53.711,-57.129,-37.109,-60.547
1630093533.731,-50.781,-48.828,-39.062,-52.734
1630093533.735,-35.645,-45.410,-50.781,-66.895
1630093533.739,-22.461,-42.969,-42.969,-75.195
1630093533.743,-23.438,-41.016,-27.344,-60.547
1630093533.747,-28.320,-37.598,-24.902,-51.758
1630093533.751,-17.578,-45.410,-32.715,-57.129
1630093533.755,-5.371,-54.688,-37.109,-64.941
1630093533.759,-14.160,-53.711,-23.926,-65.430
1630093533.762,-7.812,-33.203,-5.859,-41.504
1630093533.766,-5.859,-33.203,-24.902,-47.363
1630093533.770,-11.719,-44.434,-49.316,-69.336
1630093533.774,-20.508,-45.410,-35.645,-66.406
1630093533.778,-35.645,-43.945,-30.273,-58.594
1630093533.778,-35.645,-40.039,-42.969,-59.082
1630093533.782,-25.391,-49.316,-54.688,-64.941
1630093533.786,-19.043,-52.734,-38.086,-60.059
1630093533.790,-27.344,-42.480,-30.273,-57.617
1630093533.794,-29.785,-41.504,-41.504,-62.500
1630093533.798,-24.902,-50.293,-48.828,-62.500
1630093533.802,-10.254,-40.039,-34.668,-54.199
1630093533.805,12.207,-11.719,4.395,-16.113
1630093533.809,-7.324,-16.113,-3.418,-17.090
1630093533.813,-26.367,-39.551,-35.156,-56.152
1630093533.817,-18.555,-48.828,-42.480,-71.289
1630093533.821,-28.809,-48.828,-29.297,-66.895
1630093533.825,-44.922,-43.945,-20.020,-51.270
1630093533.829,-41.992,-44.922,-37.109,-56.152
1630093533.833,-30.273,-45.898,-51.758,-71.289
1630093533.837,-31.250,-47.363,-39.062,-72.266
1630093533.841,-23.926,-42.480,-23.926,-46.387
1630093533.845,-18.555,-31.738,-33.691,-33.691
1630093533.849,-26.855,-26.855,-36.133,-56.641
1630093533.852,-25.879,-32.715,-20.508,-60.547
1630093533.856,-34.668,-36.621,-23.926,-57.617
1630093533.860,-46.875,-31.738,-30.273,-59.082
1630093533.864,-17.090,-22.949,-30.762,-52.246
1630093533.868,-15.625,-29.785,-40.039,-75.684
1630093533.869,-40.527,-39.551,-32.227,-81.543
1630093533.873,-43.457,-32.715,-30.273,-67.871
1630093533.877,-37.598,-30.762,-45.898,-70.801
1630093533.881,-30.762,-39.551,-41.992,-67.871
1630093533.885,-35.645,-43.457,-21.973,-56.641
1630093533.889,-33.691,-24.902,-20.020,-37.109
1630093533.893,-0.977,5.371,-6.836,-4.883
1630093533.896,-1.953,-14.648,-31.738,-31.250
1630093533.900,-29.785,-38.086,-46.875,-57.617
1630093533.904,-42.969,-34.180,-36.133,-42.969
1630093533.908,-40.039,-37.598,-46.875,-50.781
1630093533.912,-31.250,-40.527,-59.082,-68.359
1630093533.917,-30.273,-41.016,-51.270,-64.941
1630093533.921,-25.879,-32.715,-30.273,-44.922
1630093533.925,-46.387,-34.180,-38.086,-42.969
1630093533.929,-50.781,-36.133,-62.012,-65.430
1630093533.933,-24.414,-28.320,-56.152,-71.289
1630093533.937,-23.926,-26.367,-32.227,-51.270
1630093533.941,-45.410,-36.621,-37.109,-45.410
1630093533.944,-46.387,-44.922,-46.387,-59.570
1630093533.948,-22.949,-41.504,-42.480,-59.570
1630093533.952,-15.137,-33.203,-22.949,-42.480
1630093533.956,-34.180,-28.809,-23.438,-37.598
1630093533.960,-33.691,-30.762,-39.062,-42.969
1630093533.973,-13.672,-31.250,-51.270,-50.293
1630093533.977,-19.531,-35.156,-42.480,-53.223
1630093533.981,-41.504,-39.551,-30.762,-42.480
1630093533.985,-48.340,-37.598,-41.016,-42.969
1630093533.989,-18.066,-23.926,-43.945,-41.016
1630093533.993,28.320,5.371,-2.930,-1.465
1630093533.997,8.301,-6.348,1.465,-3.418
1630093534.000,-43.945,-39.551,-41.504,-39.551
1630093534.004,-46.875,-46.387,-60.059,-62.500
1630093534.008,-37.598,-48.828,-60.059,-76.660
1630093534.012,-42.480,-41.504,-38.086,-62.500
1630093534.016,-56.152,-41.504,-36.133,-55.176
1630093534.019,-47.363,-43.945,-54.199,-62.988
1630093534.023,-23.926,-43.457,-61.035,-67.383
1630093534.027,-24.902,-45.898,-45.898,-62.988
1630093534.031,-35.645,-41.992,-37.109,-52.734
1630093534.035,-34.180,-40.039,-40.039,-52.734
1630093534.039,-26.855,-45.898,-55.664,-62.500
1630093534.043,-28.809,-47.363,-47.363,-60.059
1630093534.046,-51.758,-47.363,-36.621,-51.270
1630093534.050,-29.785,-19.043,-23.926,-26.367
1630093534.054,-3.906,-16.113,-35.645,-35.645
1630093534.058,-27.344,-43.457,-58.105,-72.754
1630093534.062,-34.180,-41.016,-36.621,-55.176
1630093534.063,-36.621,-37.109,-30.762,-47.363
1630093534.067,-29.785,-40.039,-42.969,-55.176
1630093534.071,-26.855,-47.363,-53.223,-65.918
1630093534.075,-20.508,-33.691,-34.180,-57.129
1630093534.079,-21.973,-26.855,-25.391,-35.156
1630093534.083,-32.227,-41.016,-47.363,-43.945
1630093534.087,-20.508,-47.852,-62.012,-57.617
1630093534.090,-13.184,-36.133,-33.203,-41.016
1630093534.094,-29.297,-41.016,-38.574,-49.805
1630093534.098,-35.156,-44.434,-48.828,-65.918
1630093534.102,-31.738,-35.156,-25.391,-45.410
1630093534.106,-41.504,-41.016,-30.273,-35.156
1630093534.123,-36.133,-39.551,-43.457,-42.480
1630093534.127,-20.020,-34.180,-35.645,-49.316
1630093534.131,-37.109,-38.574,-29.297,-54.688
1630093534.135,-60.059,-50.781,-37.109,-54.688
1630093534.139,-48.828,-56.152,-41.504,-47.852
1630093534.143,-24.414,-51.758,-40.527,-51.758
1630093534.147,-21.973,-48.828,-27.344,-45.898
1630093534.150,-44.434,-50.293,-29.297,-41.992
1630093534.154,-35.156,-45.898,-33.691,-41.504
1630093534.158,-6.348,-37.598,-34.668,-42.480
1630093534.162,-18.066,-45.898,-36.133,-58.594
1630093534.166,-49.805,-58.594,-36.621,-60.547
1630093534.169,-52.734,-51.270,-38.574,-53.711
1630093534.173,-22.461,-41.016,-41.504,-56.152
1630093534.177,-11.719,-43.457,-35.645,-62.012
1630093534.181,-28.809,-50.781,-30.762,-60.059
1630093534.185,-37.598,-43.457,-29.297,-49.805
1630093534.189,-24.902,-40.039,-30.762,-54.199
1630093534.193,-23.926,-50.293,-42.969,-70.312
1630093534.196,-45.410,-60.547,-35.645,-62.012
1630093534.200,-39.062,-45.410,-25.391,-41.504
1630093534.204,-24.414,-35.156,-34.180,-50.293
1630093534.208,-40.527,-59.570,-57.617,-80.566
1630093534.212,-46.387,-56.641,-40.039,-71.777
1630093534.213,-57.129,-49.805,-28.320,-55.664
1630093534.217,-61.035,-53.711,-39.551,-51.758
1630093534.221,-44.922,-52.246,-51.270,-64.453
1630093534.225,-38.086,-46.875,-41.504,-62.012
1630093534.229,-50.781,-44.922,-27.832,-44.434
1630093534.233,-51.270,-45.898,-39.551,-50.293
1630093534.237,-38.574,-47.852,-58.105,-59.570
1630093534.240,-23.438,-49.805,-49.805,-60.547
1630093534.244,-13.184,-37.109,-22.949,-44.922
1630093534.248,-36.621,-46.387,-31.250,-50.293
1630093534.252,-44.434,-58.105,-47.852,-63.477
1630093534.256,-24.414,-49.316,-50.781,-66.895
1630093534.259,-29.785,-44.922,-39.551,-63.477
1630093534.263,-40.527,-44.922,-39.551,-55.664
1630093534.267,-44.434,-55.176,-57.129,-67.383
1630093534.271,-28.320,-50.293,-58.105,-75.195
1630093534.275,-10.254,-38.086,-31.250,-59.570
1630093534.279,-36.133,-48.828,-34.180,-53.223
1630093534.283,-56.152,-59.082,-53.223,-64.453
1630093534.286,-29.785,-53.711,-58.594,-65.918
1630093534.290,-18.555,-55.664,-47.852,-65.430
1630093534.294,-55.176,-66.406,-40.527,-74.219
1630093534.298,-58.594,-57.129,-42.969,-69.336
1630093534.302,-19.043,-51.758,-51.270,-54.688
1630093534.303,-11.230,-55.176,-51.270,-61.035
1630093534.307,-38.086,-55.176,-39.062,-65.918
1630093534.311,-57.617,-54.688,-44.434,-63.477
1630093534.315,-51.758,-53.223,-54.688,-81.055
1630093534.319,-29.297,-46.387,-59.082,-89.844
1630093534.323,-36.133,-45.410,-44.434,-74.219
1630093534.327,-55.176,-42.969,-38.574,-68.848
1630093534.330,-36.133,-35.156,-31.738,-54.688
1630093534.334,-17.578,-41.992,-38.574,-50.781
1630093534.338,-26.367,-51.270,-43.945,-66.895
1630093534.342,-37.109,-43.457,-36.133,-60.547
1630093534.346,-45.410,-40.039,-46.875,-64.941
1630093534.349,-33.691,-43.945,-56.641,-77.148
1630093534.353,-28.809,-46.875,-49.805,-79.590
1630093534.357,-42.480,-42.969,-38.086,-60.547
1630093534.361,-42.480,-41.016,-36.133,-44.922
1630093534.365,-40.039,-53.711,-52.734,-69.824
1630093534.369,-17.578,-51.758,-52.246,-77.637
1630093534.373,1.465,-28.809,-19.043,-38.574
1630093534.376,-18.066,-27.832,-18.066,-28.809
1630093534.380,-33.691,-45.898,-49.316,-57.617
1630093534.384,-20.996,-43.457,-57.617,-63.477
1630093534.388,-13.672,-38.086,-32.227,-50.781
1630093534.392,-35.645,-43.945,-28.320,-43.457
1630093534.394,-43.945,-48.828,-41.992,-46.875
1630093534.398,-21.973,-43.945,-45.410,-50.781
1630093534.402,-16.602,-41.992,-36.133,-51.270
1630093534.406,-25.879,-38.086,-25.391,-41.504
1630093534.410,-32.227,-38.574,-37.598,-45.410
1630093534.414,-20.508,-38.574,-54.688,-65.430
1630093534.418,0.488,-27.832,-37.598,-56.641
1630093534.421,-21.973,-31.250,-23.926,-39.551
1630093534.425,-49.805,-43.457,-39.062,-41.992
1630093534.429,-40.527,-41.016,-45.898,-46.875
1630093534.433,-26.367,-37.109,-45.898,-57.129
1630093534.437,-32.227,-38.574,-29.297,-49.805
1630093534.440,-50.781,-38.574,-29.297,-41.992
1630093534.444,-37.109,-33.203,-34.668,-30.762
1630093534.448,-8.301,-25.391,-30.273,-23.926
1630093534.452,-21.973,-33.691,-24.414,-29.785
1630093534.456,-52.734,-43.945,-29.297,-32.227
1630093534.460,-44.434,-43.945,-39.062,-32.715
1630093534.464,-23.926,-44.922,-51.270,-40.039
1630093534.467,-23.438,-48.340,-41.992,-41.016
1630093534.471,-47.363,-44.434,-31.250,-34.180
1630093534.475,-38.086,-27.832,-23.438,-19.043
1630093534.479,-11.719,-31.250,-26.855,-18.066
1630093534.483,-32.227,-54.199,-38.574,-47.363
1630093534.487,-48.828,-53.711,-27.832,-44.434
1630093534.491,-57.617,-47.852,-37.598,-33.203
1630093534.495,-42.480,-44.922,-49.805,-39.062
1630093534.499,-15.625,-43.945,-49.316,-45.410
1630093534.503,-20.996,-40.527,-32.715,-42.969
1630093534.507,-25.879,-24.902,-11.230,-23.926
1630093534.511,-27.344,-27.832,-26.367,-28.320
1630093534.514,-27.344,-44.922,-51.270,-56.641
1630093534.518,-17.578,-40.527,-28.320,-55.176
1630093534.522,-26.855,-29.297,-13.672,-37.109
1630093534.526,-40.527,-35.645,-33.203,-41.016
1630093534.530,-31.738,-44.922,-50.781,-60.547
1630093534.543,-18.555,-42.969,-40.527,-62.012
1630093534.547,-29.785,-43.945,-23.926,-48.828
1630093534.551,-45.410,-48.828,-28.809,-42.969
1630093534.555,-37.109,-58.105,-49.316,-57.617
1630093534.559,-15.625,-41.504,-34.180,-51.758
1630093534.563,-6.348,-20.996,-5.371,-27.344
1630093534.567,-26.855,-34.668,-32.227,-43.457
1630093534.570,1.953,-28.809,-58.105,-47.852
1630093534.574,41.504,-12.695,-28.320,-16.113
1630093534.578,2.441,-24.414,4.883,-5.371
1630093534.582,-48.828,-51.270,-16.602,-20.020
1630093534.586,-44.434,-62.988,-37.109,-24.902
1630093534.588,-29.297,-63.477,-54.199,-36.133
1630093534.592,-29.785,-65.918,-42.480,-30.273
1630093534.596,-51.270,-71.289,-32.715,-21.973
1630093534.600,-49.316,-71.289,-42.969,-12.695
1630093534.604,-27.832,-73.242,-55.664,-22.949
1630093534.608,-22.461,-75.195,-46.875,-35.156
1630093534.612,-34.668,-77.148,-35.156,-17.090
1630093534.615,-46.387,-76.172,-42.969,-8.789
1630093534.619,-19.043,-57.129,-37.598,0.000
1630093534.623,-0.488,-55.176,-41.992,-5.859
1630093534.627,-14.648,-64.941,-40.527,-17.578
1630093534.631,-32.715,-62.500,-36.621,-8.789
1630093534.634,-21.973,-58.594,-42.969,-9.277
1630093534.638,-7.324,-58.105,-52.734,-30.273
1630093534.642,-20.020,-63.477,-43.945,-34.668
1630093534.646,-24.902,-57.129,-32.715,-15.625
1630093534.650,-20.996,-48.340,-36.133,-15.625
1630093534.654,-24.414,-58.594,-53.711,-41.016
1630093534.658,-20.996,-67.383,-54.688,-43.945
1630093534.661,-14.648,-53.711,-28.809,-12.695
1630093534.665,-15.625,-39.551,-27.344,-4.883
1630093534.669,-23.926,-52.246,-59.570,-36.133
1630093534.673,-17.578,-48.340,-55.176,-41.016
1630093534.677,-25.391,-43.945,-43.945,-29.785
1630093534.679,-33.203,-45.898,-43.945,-19.531
1630093534.683,-26.367,-45.898,-54.199,-29.785
1630093534.687,-10.742,-44.434,-63.965,-39.062
1630093534.691,-3.418,-35.156,-40.527,-21.973
1630093534.695,-22.461,-33.691,-40.039,-17.578
1630093534.699,-29.785,-39.551,-54.688,-31.738
1630093534.703,-8.789,-33.203,-54.688,-35.156
1630093534.706,4.395,-21.973,-29.785,-17.578
1630093534.710,-21.484,-27.344,-28.320,-21.973
1630093534.714,-34.668,-41.016,-50.781,-38.574
1630093534.718,-14.160,-39.062,-55.176,-46.387
1630093534.722,-8.789,-38.574,-50.293,-50.293
1630093534.723,-19.043,-40.527,-47.852,-42.480
1630093534.727,-31.250,-41.016,-56.152,-43.457
1630093534.731,-11.719,-29.785,-58.594,-44.434
1630093534.735,8.789,-23.926,-46.875,-44.922
1630093534.739,-18.555,-38.086,-43.457,-52.246
1630093534.743,-45.410,-47.852,-52.734,-59.570
1630093534.747,-20.996,-36.621,-43.945,-44.922
1630093534.750,15.625,-22.461,-32.715,-37.109
1630093534.754,-4.883,-39.062,-43.457,-50.781
1630093534.758,-35.645,-43.457,-37.109,-44.434
1630093534.762,-45.898,-45.410,-42.969,-51.758
1630093534.766,-25.879,-54.199,-67.383,-54.199
1630093534.769,-8.789,-50.293,-53.711,-37.109
1630093534.773,-18.066,-50.781,-43.945,-21.484
1630093534.777,-19.043,-45.410,-52.246,-19.043
1630093534.781,0.488,-39.062,-60.547,-28.809
1630093534.785,9.766,-32.227,-53.711,-32.715
1630093534.789,-13.672,-29.297,-38.086,-30.762
1630093534.793,-25.391,-31.738,-33.691,-23.926
1630093534.796,-17.090,-41.016,-51.758,-34.668
1630093534.800,-16.113,-53.223,-62.500,-48.828
1630093534.804,-27.832,-43.945,-40.039,-43.945
1630093534.808,-40.039,-30.762,-31.250,-32.715
1630093534.812,-40.039,-35.645,-45.898,-43.945
1630093534.813,-34.180,-45.410,-55.176,-63.965
1630093534.817,-26.367,-37.598,-30.762,-47.852
1630093534.821,-22.949,-25.879,-18.066,-22.461
1630093534.825,-25.391,-34.668,-36.133,-32.715
1630093534.829,-22.949,-43.457,-50.293,-51.758
1630093534.833,-10.742,-31.738,-31.738,-45.410
1630093534.837,-20.508,-22.949,-12.695,-29.297
1630093534.840,-44.434,-33.691,-26.855,-37.109
1630093534.844,-28.809,-38.574,-44.922,-47.363
1630093534.848,-17.090,-38.574,-38.086,-48.828
1630093534.852,-32.715,-31.738,-20.020,-37.109
1630093534.856,-41.016,-32.227,-24.902,-34.180
1630093534.862,-28.809,-36.133,-44.434,-44.434
1630093534.866,-10.254,-27.832,-44.434,-43.457
1630093534.870,-8.789,-25.391,-27.832,-36.621
1630093534.874,-30.762,-33.691,-36.621,-37.598
1630093534.878,-30.273,-35.645,-47.363,-37.598
1630093534.882,-17.578,-36.133,-47.852,-32.715
1630093534.886,-25.879,-38.086,-32.227,-19.531
1630093534.889,-52.734,-40.527,-22.949,-1.465
1630093534.893,-49.805,-39.551,-29.785,-9.277
1630093534.897,-27.344,-33.203,-35.156,-34.668
1630093534.901,-31.738,-41.016,-36.133,-58.105
1630093534.905,-41.992,-43.457,-35.156,-48.828
1630093534.934,-41.504,-35.156,-38.574,-36.621
1630093534.938,-36.621,-37.109,-39.551,-41.504
1630093534.942,-32.715,-39.062,-37.598,-41.504
1630093534.946,-44.434,-36.621,-35.645,-49.805
1630093534.950,-39.551,-22.949,-27.344,-56.152
1630093534.954,1.465,2.441,-12.695,-40.039
1630093534.958,-7.324,-16.113,-29.785,-56.152
1630093534.961,-39.551,-38.086,-36.621,-70.801
1630093534.965,-38.086,-31.250,-32.715,-53.711
1630093534.969,-26.367,-32.227,-41.016,-48.828
1630093534.973,-15.625,-37.109,-45.410,-61.523
1630093534.977,-20.996,-32.715,-31.250,-59.082
1630093534.963,-30.273,-30.762,-20.996,-47.852
1630093534.967,-30.762,-34.180,-27.344,-47.363
1630093534.971,-28.320,-35.156,-40.527,-55.176
1630093534.975,-18.066,-25.879,-37.598,-52.734
1630093534.979,-18.066,-18.066,-24.414,-38.574
1630093534.983,-32.227,-27.832,-30.762,-41.992
1630093534.987,-4.395,-31.738,-41.992,-35.156
1630093534.990,4.395,-27.832,-41.504,-34.180
1630093534.994,-40.527,-30.273,-27.344,-55.664
1630093534.998,-53.711,-29.297,-28.809,-59.570
1630093535.002,-52.734,-34.180,-43.945,-73.242
1630093535.006,-51.270,-34.668,-45.410,-84.473
1630093535.008,-39.551,-13.184,-14.160,-56.641
1630093535.012,-62.012,-20.020,-15.625,-62.012
1630093535.016,-71.289,-29.785,-40.527,-109.375
1630093535.020,-51.270,-18.066,-38.574,-108.398
1630093535.024,-49.805,-21.484,-27.344,-91.309
1630093535.028,-59.082,-34.180,-34.180,-93.262
1630093535.032,-63.477,-38.574,-47.852,-99.121
1630093535.035,-25.391,-12.695,-34.668,-74.219
1630093535.039,8.789,3.418,-6.348,-39.551
1630093535.043,-37.109,-26.367,-22.949,-68.848
1630093535.047,-54.199,-29.785,-34.668,-73.242
1630093535.051,-40.039,-33.691,-43.457,-73.242
1630093535.054,-39.062,-38.574,-45.410,-79.102
1630093535.058,-35.645,-25.391,-29.297,-66.406
1630093535.062,-31.250,-19.043,-30.762,-61.035
1630093535.066,-25.879,-23.438,-41.992,-64.453
1630093535.070,-29.297,-33.691,-51.270,-76.172
1630093535.074,-38.086,-33.691,-46.875,-94.727
1630093535.078,-38.086,-22.461,-42.969,-88.867
1630093535.081,-9.277,-2.930,-27.344,-64.453
1630093535.085,-5.859,-10.742,-38.574,-67.871
1630093535.089,-38.086,-35.645,-53.711,-83.008
1630093535.093,-30.273,-20.996,-33.203,-65.918
1630093535.097,-19.043,-5.859,-27.832,-54.688
1630093535.098,-30.273,-26.367,-56.152,-80.078
1630093535.102,-42.969,-41.504,-62.012,-98.145
1630093535.106,-20.508,-16.113,-30.273,-67.383
1630093535.110,3.906,-4.395,-22.949,-39.551
1630093535.114,-14.160,-27.344,-49.805,-53.711
1630093535.118,-33.691,-30.273,-54.688,-67.871
1630093535.122,-4.395,-0.488,-12.207,-54.199
1630093535.125,9.766,10.254,3.418,-45.410
1630093535.129,-31.250,-27.344,-41.992,-75.195
1630093535.133,-28.809,-32.227,-53.711,-77.148
1630093535.137,-17.090,-27.832,-35.645,-65.430
1630093535.141,-10.254,-23.926,-30.273,-59.570
1630093535.145,-4.883,-17.090,-40.039,-66.406
1630093535.149,-7.812,-22.461,-46.875,-70.801
1630093535.153,2.441,-11.230,-24.414,-54.688
1630093535.157,2.441,-3.906,-16.602,-48.340
1630093535.161,-8.789,-19.043,-41.016,-62.500
1630093535.165,-5.371,-17.578,-48.828,-67.383
1630093535.169,8.301,2.441,-24.902,-41.504
1630093535.172,-1.465,-6.348,-25.391,-52.246
1630093535.176,-27.832,-24.902,-48.828,-76.172
1630093535.180,-26.367,-22.461,-57.129,-69.824
1630093535.184,-28.320,-24.414,-58.594,-70.801
1630093535.188,-22.949,-18.555,-42.480,-66.406
1630093535.188,-14.648,-14.160,-41.992,-68.359
1630093535.192,-2.930,-5.371,-37.109,-58.105
1630093535.196,-1.953,-4.395,-31.738,-41.016
1630093535.200,-18.066,-15.137,-37.598,-56.641
1630093535.204,-20.996,-18.066,-42.969,-63.965
1630093535.208,1.465,0.977,-27.832,-51.758
1630093535.212,22.461,22.461,-2.930,-29.785
1630093535.215,-16.113,-9.277,-27.344,-52.246
1630093535.219,-16.602,-17.578,-32.227,-62.988
1630093535.223,-8.789,-11.719,-34.180,-69.336
1630093535.227,-19.531,-20.020,-53.223,-86.426
1630093535.231,-26.855,-21.973,-52.246,-83.984
1630093535.249,-14.648,-13.672,-39.062,-73.730
1630093535.253,-15.137,-10.254,-43.945,-76.660
1630093535.257,-21.484,-18.066,-53.223,-78.613
1630093535.261,-31.250,-25.879,-62.988,-85.938
1630093535.265,-29.785,-20.020,-42.480,-80.078
1630093535.269,-10.742,-8.789,-23.438,-68.848
1630093535.273,-15.137,-15.137,-39.551,-80.566
1630093535.276,-38.574,-25.879,-58.105,-83.008
1630093535.280,-41.504,-21.973,-50.293,-72.266
1630093535.284,-0.488,2.930,-21.973,-50.293
1630093535.288,-0.977,-5.859,-33.203,-64.941
1630093535.292,-25.879,-23.438,-62.012,-79.590
1630093535.293,-30.762,-20.508,-55.176,-72.754
1630093535.297,-16.602,-23.926,-39.551,-69.824
1630093535.301,-7.812,-20.020,-43.945,-68.848
1630093535.305,-26.367,-23.926,-62.500,-79.102
1630093535.309,-23.926,-13.184,-49.805,-63.965
1630093535.313,2.441,3.906,-22.949,-53.223
1630093535.317,-2.930,-11.230,-35.645,-70.312
1630093535.320,-13.672,-20.996,-46.387,-75.684
1630093535.324,-16.602,-8.789,-31.250,-61.035
1630093535.328,-5.371,-1.953,-13.184,-50.781
1630093535.332,-6.348,-15.625,-29.785,-61.523
1630093535.336,-10.254,-20.996,-43.457,-60.547
1630093535.338,-6.836,-8.301,-37.598,-49.316
1630093535.342,-17.090,-9.766,-29.297,-48.340
1630093535.346,-29.785,-27.832,-36.133,-64.453
1630093535.350,-20.508,-22.461,-45.410,-67.383
1630093535.354,-25.391,-23.438,-50.293,-64.941
1630093535.358,-35.156,-28.320,-44.922,-66.895
1630093535.362,-22.949,-23.926,-34.180,-62.012
1630093535.365,-18.555,-25.391,-34.668,-57.129
1630093535.369,-7.324,-14.648,-32.715,-53.223
1630093535.373,-32.227,-27.344,-44.434,-68.359
1630093535.377,-41.016,-44.922,-44.434,-82.520
1630093535.381,-19.531,-32.227,-36.133,-67.871
1630093535.385,-17.578,-31.738,-44.434,-54.688
1630093535.389,-8.301,-32.715,-45.898,-42.480
1630093535.393,-8.301,-28.809,-41.504,-49.316
1630093535.397,-6.348,-13.672,-25.391,-55.664
1630093535.401,13.184,7.324,-7.812,-42.969
1630093535.405,-5.371,-6.348,-32.227,-60.547
1630093535.409,-20.996,-14.160,-48.828,-74.707
1630093535.412,15.625,16.602,-17.090,-50.781
1630093535.416,31.738,26.855,-9.766,-34.180
1630093535.420,-5.371,-0.488,-46.875,-57.617
1630093535.424,-26.367,-5.371,-54.199,-69.336
1630093535.428,0.488,1.465,-44.434,-65.918
1630093535.428,20.996,4.395,-45.410,-63.965
1630093535.432,14.160,5.859,-58.105,-66.406
1630093535.436,5.371,5.859,-57.129,-58.105
1630093535.440,2.930,1.953,-38.574,-46.387
1630093535.444,-20.020,-3.418,-35.645,-42.480
1630093535.448,-35.156,-15.137,-54.199,-48.828
1630093535.452,-49.316,-28.809,-67.871,-60.547
1630093535.455,-18.555,-3.418,-23.438,-35.156
1630093535.459,7.812,4.883,-15.625,-27.344
1630093535.463,-20.508,-24.414,-55.176,-59.082
1630093535.467,-28.320,-28.809,-63.477,-69.824
1630093535.471,-24.902,-30.762,-55.176,-66.895
1630093535.473,-11.719,-33.691,-39.551,-54.199
1630093535.477,-18.066,-37.109,-47.852,-60.059
1630093535.481,-15.137,-28.809,-49.805,-54.199
1630093535.485,-12.695,-27.832,-38.574,-41.504
1630093535.489,-26.855,-44.434,-35.645,-49.805
1630093535.493,-21.484,-50.781,-40.527,-51.270
1630093535.497,-6.348,-32.715,-42.969,-43.457
1630093535.500,-8.301,-20.996,-40.527,-38.574
1630093535.504,-28.809,-42.969,-37.598,-50.293
1630093535.508,-41.016,-49.805,-37.109,-51.270
1630093535.512,-38.574,-52.734,-43.945,-47.363
1630093535.516,-37.109,-62.988,-51.270,-49.316
1630093535.519,-45.410,-63.965,-47.363,-49.805
1630093535.523,-43.945,-58.594,-38.086,-51.758
1630093535.527,-36.621,-58.105,-44.922,-56.641
1630093535.531,-28.320,-61.035,-60.547,-63.477
1630093535.535,-39.551,-68.359,-54.688,-65.430
1630093535.539,-35.645,-63.965,-37.109,-50.781
1630093535.543,-0.488,-36.621,-22.461,-20.020
1630093535.546,2.441,-47.852,-41.992,-28.809
1630093535.550,-26.367,-76.172,-60.547,-52.246
1630093535.554,-32.715,-71.289,-38.574,-41.016
1630093535.558,-32.715,-66.406,-34.668,-36.621
1630093535.562,-48.828,-69.336,-49.316,-43.945
1630093535.564,-75.195,-77.637,-58.594,-52.734
1630093535.568,-60.059,-66.406,-30.762,-42.480
1630093535.572,-35.156,-49.805,-8.789,-19.043
1630093535.576,-40.527,-61.523,-23.926,-22.461
1630093535.580,-52.246,-85.938,-46.875,-43.457
1630093535.584,-34.668,-69.336,-20.996,-29.297
1630093535.588,-19.531,-48.340,1.465,-7.324
1630093535.591,-47.852,-72.754,-44.434,-30.762
1630093535.595,-49.316,-81.055,-79.590,-44.922
1630093535.599,-44.922,-77.637,-79.102,-41.992
1630093535.603,-45.410,-70.801,-61.035,-28.809
1630093535.607,-44.922,-66.895,-59.082,-20.996
1630093535.612,-50.293,-70.312,-79.102,-29.785
1630093535.616,-44.922,-74.219,-76.660,-27.832
1630093535.620,-49.805,-74.219,-52.734,-21.484
1630093535.624,-63.965,-76.660,-54.199,-29.297
1630093535.628,-39.551,-68.848,-63.965,-25.391
1630093535.632,-6.836,-50.293,-53.711,-15.137
1630093535.636,-12.207,-59.082,-44.922,-17.578
1630093535.639,-46.387,-75.195,-53.223,-22.461
1630093535.643,-51.758,-71.289,-56.641,-14.648
1630093535.647,-33.691,-65.430,-57.129,-15.137
1630093535.651,-45.410,-79.590,-62.012,-33.691
1630093535.655,-51.270,-86.426,-57.129,-28.809
1630093535.669,-47.363,-77.148,-57.129,-18.555
1630093535.673,-43.457,-77.637,-68.848,-30.273
1630093535.677,-37.109,-83.008,-65.918,-40.527
1630093535.681,-53.223,-82.031,-51.758,-36.133
1630093535.685,-48.340,-68.359,-39.062,-12.207
1630093535.689,5.859,-32.227,-10.254,18.555
1630093535.693,-0.977,-50.293,-27.344,-13.672
1630093535.696,-43.457,-82.520,-47.852,-41.016
1630093535.700,-52.246,-75.684,-39.551,-20.996
1630093535.704,-51.270,-79.102,-55.176,-31.738
1630093535.708,-42.969,-88.379,-74.219,-56.152
1630093535.712,-32.715,-85.938,-56.641,-42.969
1630093535.713,-29.785,-77.637,-42.480,-25.879
1630093535.717,-32.227,-79.590,-53.711,-31.250
1630093535.721,-24.902,-82.031,-64.941,-41.504
1630093535.725,-24.902,-82.520,-53.711,-40.527
1630093535.729,-75.195,-81.055,-38.086,-16.602
1630093535.733,-108.398,-79.102,-46.387,-19.531
1630093535.737,-72.754,-81.543,-62.500,-43.945
1630093535.740,-49.316,-79.102,-62.500,-49.805
1630093535.744,-29.297,-46.875,-13.672,4.883
1630093535.748,-39.062,-50.781,-10.254,18.066
1630093535.752,-67.383,-77.148,-52.734,-30.762
1630093535.756,-49.805,-70.801,-56.641,-47.852
1630093535.758,-40.039,-73.242,-41.992,-42.969
1630093535.762,-62.988,-74.707,-38.086,-33.203
1630093535.766,-73.242,-79.102,-54.199,-39.551
1630093535.770,-32.715,-69.824,-54.688,-41.992
1630093535.774,-13.184,-59.082,-26.367,-28.320
1630093535.778,-52.246,-74.707,-30.762,-32.227
1630093535.782,-74.219,-83.984,-52.246,-44.434
1630093535.785,-34.180,-63.965,-40.527,-31.250
1630093535.789,1.465,-50.781,-20.508,-16.113
1630093535.793,-44.434,-73.242,-35.156,-30.762
1630093535.797,-78.125,-75.684,-48.340,-32.227
1630093535.801,-46.875,-62.012,-53.223,-27.832
1630093535.803,-22.461,-63.965,-54.199,-42.480
1630093535.807,-44.922,-70.312,-44.922,-44.922
1630093535.811,-62.988,-64.453,-43.945,-32.715
1630093535.815,-55.664,-69.824,-56.152,-37.109
1630093535.819,-36.133,-66.406,-58.594,-46.875
1630093535.823,-41.504,-65.918,-37.109,-40.527
1630093535.827,-67.871,-65.918,-32.715,-25.391
1630093535.830,-51.758,-39.551,-25.391,-7.812
1630093535.834,-14.160,-47.363,-42.480,-25.879
1630093535.838,-4.395,-63.965,-50.293,-36.133
1630093535.842,-36.133,-58.105,-29.297,-7.812
1630093535.846,-56.152,-61.035,-38.574,-2.930
1630093535.850,-24.902,-65.430,-52.246,-10.254
1630093535.854,-8.301,-71.777,-41.504,-15.137
1630093535.858,-22.461,-65.430,-19.531,4.395
1630093535.862,-13.672,-54.199,-9.277,35.645
1630093535.866,-22.949,-78.613,-40.527,8.301
1630093535.870,-22.949,-96.191,-55.176,-19.531
1630093535.874,-16.602,-83.496,-18.066,8.789
1630093535.877,-31.250,-76.172,-4.883,42.480
1630093535.881,-40.527,-96.680,-33.691,26.367
1630093535.885,-25.391,-115.723,-52.734,-4.883
1630093535.889,-18.066,-113.770,-35.156,1.465
1630093535.893,-48.340,-107.422,-27.832,22.949
1630093535.894,-58.594,-100.098,-37.598,15.625
1630093535.898,-29.297,-96.191,-46.387,-9.766
1630093535.902,-18.066,-96.680,-36.621,-20.996
1630093535.906,-45.410,-92.773,-21.973,1.953
1630093535.910,-61.035,-93.750,-32.715,2.441
1630093535.914,-37.598,-97.656,-52.734,-26.367
1630093535.918,21.973,-65.918,-18.066,3.418
1630093535.921,14.160,-57.129,8.789,27.344
1630093535.925,-52.246,-83.984,-25.879,-4.883
1630093535.929,-42.480,-80.566,-35.156,-12.207
1630093535.933,-4.883,-79.102,-41.992,-35.156
1630093535.937,-21.484,-80.566,-32.715,-40.527
1630093535.954,-64.453,-82.520,-26.855,-21.973
1630093535.958,-46.387,-70.312,-28.809,-25.391
1630093535.962,-5.371,-70.312,-37.598,-38.086
1630093535.966,-18.066,-85.938,-39.551,-48.828
1630093535.970,-53.223,-82.520,-37.598,-34.668
1630093535.974,-47.852,-60.547,-30.762,-11.719
1630093535.978,2.930,-48.828,-22.949,-12.207
1630093535.981,9.766,-62.012,-37.109,-28.809
1630093535.985,-28.809,-65.430,-37.109,-23.926
1630093535.989,-45.410,-58.105,-30.762,-25.391
1630093535.993,-25.879,-52.734,-37.598,-32.715
1630093535.997,6.836,-57.129,-43.945,-50.293
1630093535.987,-8.301,-59.082,-31.250,-42.480
1630093535.991,-49.316,-52.734,-32.715,-26.367
1630093535.995,-37.598,-50.781,-39.062,-29.785
1630093535.999,-10.254,-56.641,-46.387,-50.781
1630093536.003,-21.484,-52.246,-32.715,-53.223
1630093536.007,-52.246,-44.434,-26.367,-40.527
1630093536.011,-60.059,-45.898,-42.969,-46.387
1630093536.014,-18.066,-56.152,-50.781,-45.410
1630093536.018,0.000,-56.152,-34.180,-32.715
1630093536.022,-22.949,-31.738,-14.648,-20.020
1630093536.026,-33.691,-36.133,-32.227,-26.367
1630093536.030,-28.320,-53.223,-56.641,-52.246
1630093536.043,-1.953,-41.992,-44.434,-49.805
1630093536.047,-17.578,-35.645,-20.508,-20.020
1630093536.051,-50.781,-41.504,-22.949,-4.395
1630093536.055,-37.109,-51.758,-46.387,-35.645
1630093536.059,-5.371,-35.156,-45.410,-50.781
1630093536.063,38.086,9.766,10.254,23.926
1630093536.067,-27.344,-20.020,-7.324,9.277
1630093536.070,-79.102,-48.828,-49.805,-53.711
1630093536.074,3.418,-24.902,-40.039,-45.410
1630093536.078,-1.465,-27.344,-23.438,-36.133
1630093536.082,-47.363,-44.922,-31.250,-26.367
1630093536.086,-36.133,-43.457,-37.109,-30.273
1630093536.090,-9.766,-38.086,-42.480,-32.715
1630093536.094,-5.859,-34.180,-36.621,-31.250
1630093536.098,-63.965,-46.875,-32.715,-18.066
1630093536.102,-71.289,-54.199,-44.434,-12.207
1630093536.106,-34.668,-35.645,-45.410,-41.992
1630093536.110,-16.602,-37.109,-41.504,-70.801
1630093536.114,-36.621,-44.922,-40.527,-54.688
1630093536.117,-62.012,-36.133,-39.062,-17.090
1630093536.121,-10.254,-15.137,-33.203,0.977
1630093536.125,23.926,-28.320,-36.133,-16.602
1630093536.129,-14.160,-40.039,-39.551,-29.297
1630093536.133,-34.668,-35.156,-40.527,-3.906
1630093536.134,-4.395,-37.598,-40.039,29.785
1630093536.138,33.203,-28.320,-51.758,4.883
1630093536.142,26.367,-32.227,-48.340,-19.043
1630093536.146,-14.160,-28.320,-26.855,13.672
1630093536.150,-11.719,-12.207,-24.414,34.668
1630093536.154,8.789,-17.090,-52.246,-6.836
1630093536.158,5.859,-30.762,-60.547,-39.551
1630093536.161,-2.930,-16.602,-27.344,1.953
1630093536.165,8.789,10.742,-5.859,34.668
1630093536.169,-8.789,-22.461,-44.434,-7.812
1630093536.173,12.695,-24.414,-48.828,-9.766
1630093536.177,0.977,-14.160,-34.668,11.719
1630093536.178,-55.176,-34.180,-45.898,-14.648
1630093536.182,-42.480,-29.785,-48.828,-35.156
1630093536.186,-1.465,-18.066,-48.340,-37.598
1630093536.190,-9.766,-23.438,-38.086,-27.344
1630093536.194,-49.316,-27.344,-31.250,-8.301
1630093536.198,-47.852,-29.297,-39.062,-7.812
1630093536.202,-20.996,-34.180,-49.805,-35.156
1630093536.205,9.277,-8.789,-13.184,-8.789
1630093536.209,-39.551,-12.207,-0.977,16.602
1630093536.213,-93.750,-45.410,-41.504,-12.207
1630093536.217,-42.969,-32.227,-51.758,-19.531
1630093536.221,-21.973,-31.250,-45.410,-33.203
1630093536.223,-60.059,-42.969,-33.691,-29.297
1630093536.227,-80.078,-41.016,-37.598,-3.418
1630093536.231,-41.016,-25.879,-43.457,-10.254
1630093536.235,-2.441,-12.207,-26.367,-26.367
1630093536.239,-33.203,-24.902,-24.902,-25.879
1630093536.243,-74.707,-37.598,-33.203,-18.066
1630093536.247,-48.828,-20.508,-21.484,8.789
1630093536.250,-2.930,-10.254,-17.090,-3.906
1630093536.254,-38.574,-34.180,-27.832,-34.668
1630093536.258,-82.031,-38.086,-31.250,-20.020
1630093536.262,-67.871,-33.691,-30.762,-19.531
1630093536.266,-28.320,-35.156,-41.016,-25.879
1630093536.270,-34.180,-44.922,-36.133,-23.926
1630093536.274,-72.754,-42.480,-25.391,-36.133
1630093536.278,-81.055,-36.133,-32.715,-50.781
1630093536.282,-46.387,-33.691,-42.969,-46.875
1630093536.286,-18.066,-31.738,-44.922,-45.898
1630093536.290,-47.363,-33.203,-35.156,-41.016
1630093536.294,-63.965,-18.555,-9.766,-4.883
1630093536.297,-41.504,-23.438,-26.367,-24.902
1630093536.301,8.301,-31.738,-49.805,-41.504
1630093536.305,-9.766,-31.250,-21.973,2.441
1630093536.309,-96.191,-48.340,-13.672,-19.043
1630093536.313,-100.586,-51.270,-32.227,-53.711
1630093536.315,-75.195,-65.918,-48.828,-77.148
1630093536.319,-66.895,-58.105,-18.555,-56.641
1630093536.323,-98.145,-46.875,-5.371,-28.809
1630093536.327,-130.371,-62.500,-29.785,-49.316
1630093536.331,-102.051,-62.988,-40.527,-73.730
1630093536.335,-90.332,-62.012,-17.090,-75.195
1630093536.339,-104.004,-42.969,21.484,-23.926
1630093536.342,-155.273,-69.336,-9.277,-31.250
1630093536.346,-167.480,-102.539,-41.992,-78.613
1630093536.350,-137.695,-99.609,-31.250,-90.332
1630093536.354,-168.945,-101.562,-23.438,-80.078
1630093536.358,-208.008,-112.305,-37.109,-82.031
1630093536.360,-188.477,-111.816,-48.340,-104.004
1630093536.364,-151.855,-112.305,-50.781,-103.516
1630093536.368,-172.363,-114.258,-40.527,-96.680
1630093536.372,-225.098,-119.141,-30.762,-84.961
1630093536.376,-213.379,-125.977,-55.176,-81.543
1630093536.380,-175.293,-124.023,-56.641,-90.820
1630093536.384,-173.828,-127.930,-43.457,-75.195
1630093536.387,-211.914,-135.742,-58.594,-73.730
1630093536.391,-238.281,-143.555,-45.410,-85.449
1630093536.395,-179.199,-142.090,-27.832,-66.406
1630093536.399,-140.625,-138.184,-23.438,-68.848
1630093536.403,-182.617,-141.113,-30.273,-74.219
1630093536.418,-206.543,-135.254,-39.551,-63.477
1630093536.422,-166.504,-126.953,-30.762,-63.965
1630093536.426,-125.488,-131.348,-32.227,-65.918
1630093536.430,-150.879,-134.766,-31.738,-52.734
1630093536.434,-175.781,-120.117,-20.020,-24.902
1630093536.438,-137.207,-110.840,-8.789,-5.859
1630093536.442,-97.656,-120.605,-31.738,-37.109
1630093536.445,-110.352,-125.000,-38.086,-52.246
1630093536.449,-144.531,-128.418,-31.738,-27.344
1630093536.453,-125.488,-117.676,-33.691,-26.367
1630093536.457,-77.637,-122.559,-43.457,-32.715
1630093536.461,-79.102,-127.441,-34.180,-20.508
1630093536.463,-101.074,-112.793,-17.090,7.812
1630093536.467,-114.746,-110.840,-21.484,16.602
1630093536.471,-83.496,-116.699,-28.809,26.367
1630093536.475,-46.875,-112.793,-28.809,-6.836
1630093536.479,-64.453,-109.863,-26.855,-39.062
1630093536.483,-74.219,-107.910,-26.855,-12.207
1630093536.487,-53.711,-101.074,-35.645,-20.508
1630093536.490,-22.949,-104.004,-43.945,-38.574
1630093536.494,-33.691,-99.609,-26.367,-19.531
1630093536.498,-56.641,-88.867,-27.832,-4.395
1630093536.502,-46.387,-89.844,-48.828,-3.906
1630093536.506,-9.277,-87.891,-52.246,-11.230
1630093536.508,12.695,-82.520,-35.645,3.418
1630093536.512,-21.973,-82.520,-32.227,21.973
1630093536.516,-30.762,-78.613,-43.457,29.297
1630093536.520,4.395,-66.406,-46.875,27.832
1630093536.524,21.973,-61.035,-34.668,30.762
1630093536.528,-9.766,-65.430,-27.344,46.387
1630093536.532,-31.250,-71.289,-30.273,43.457
1630093536.535,8.789,-59.570,-18.555,71.289
1630093536.539,35.156,-47.363,-10.742,87.891
1630093536.543,10.254,-58.105,-28.320,34.180
1630093536.547,-14.648,-65.430,-29.297,36.133
1630093536.551,2.930,-66.406,-33.691,46.875
1630093536.555,28.809,-60.547,-45.898,12.695
1630093536.559,9.277,-61.035,-45.898,1.465
1630093536.563,14.160,-55.176,-43.945,14.160
1630093536.567,7.324,-51.758,-42.969,38.574
1630093536.571,22.461,-51.270,-47.852,55.176
1630093536.575,41.016,-43.457,-39.062,55.664
1630093536.579,0.977,-49.805,-27.344,52.734
1630093536.582,22.461,-38.086,-19.531,71.289
1630093536.586,55.664,-35.156,-40.039,73.242
1630093536.590,36.621,-50.293,-54.199,35.156
1630093536.594,26.855,-39.551,-43.457,46.387
1630093536.598,3.418,-44.434,-51.758,51.270
1630093536.598,7.324,-54.199,-53.711,35.156
1630093536.602,34.668,-52.246,-52.246,36.621
1630093536.606,25.391,-45.898,-36.133,62.988
1630093536.610,14.648,-39.062,-24.902,69.336
1630093536.614,5.371,-46.387,-51.758,26.855
1630093536.618,12.695,-47.363,-65.430,7.812
1630093536.622,42.480,-29.297,-41.992,15.137
1630093536.625,41.016,-12.695,-21.484,47.363
1630093536.629,10.742,-30.273,-45.410,34.668
1630093536.633,18.066,-38.086,-57.129,9.277
1630093536.637,15.137,-35.645,-49.316,4.395
1630093536.641,-12.695,-38.086,-51.270,6.348
1630093536.644,-11.719,-31.738,-56.641,9.277
1630093536.648,11.230,-29.297,-60.059,-0.977
1630093536.652,11.230,-32.715,-49.805,3.906
1630093536.656,-11.719,-39.062,-45.898,0.977
1630093536.660,-21.484,-38.574,-54.688,-10.742
1630093536.664,0.000,-29.297,-60.547,-21.973
1630093536.668,27.344,-11.230,-51.270,-12.207
1630093536.671,7.324,-18.555,-46.875,-26.367
1630093536.675,-32.227,-40.039,-61.523,-36.133
1630093536.679,-20.508,-33.691,-61.035,-22.949
1630093536.683,-2.441,-29.297,-52.734,-19.043
1630093536.687,-13.672,-39.551,-52.246,-41.504
1630093536.689,-21.973,-39.551,-57.129,-49.805
1630093536.693,-5.371,-23.438,-49.805,-37.598
1630093536.697,10.254,-17.090,-48.340,-41.016
1630093536.701,-17.578,-30.273,-55.664,-46.875
1630093536.705,-35.156,-35.645,-58.594,-46.387
1630093536.709,-16.602,-17.578,-32.227,-14.160
1630093536.713,11.719,-4.883,-11.230,12.207
1630093536.716,-8.789,-29.297,-37.109,-11.719
1630093536.720,-38.574,-40.527,-34.180,-23.926
1630093536.724,-27.344,-30.273,-32.715,-45.898
1630093536.728,-6.348,-26.367,-47.852,-60.547
1630093536.732,12.207,-23.438,-44.922,-52.734
1630093536.737,1.465,-23.438,-36.621,-54.688
1630093536.741,-16.602,-22.461,-35.645,-52.246
1630093536.745,-17.578,-20.508,-34.668,-48.828
1630093536.749,0.000,-20.020,-43.945,-53.223
1630093536.753,-3.906,-25.391,-43.457,-64.941
1630093536.757,-23.926,-28.809,-34.180,-59.570
1630093536.761,-24.902,-34.180,-41.016,-60.059
1630093536.764,-5.371,-35.645,-51.270,-61.035
1630093536.768,4.395,-28.809,-44.922,-60.547
1630093536.772,-11.230,-27.832,-34.180,-65.918
1630093536.776,-33.691,-31.250,-38.086,-54.688
1630093536.780,-35.645,-36.133,-45.898,-59.082
1630093536.795,-22.949,-34.668,-44.434,-55.664
1630093536.799,-31.738,-37.109,-27.832,-45.410
1630093536.803,-27.832,-37.598,-24.902,-59.570
1630093536.807,-17.578,-41.016,-45.410,-68.848
1630093536.811,-6.348,-29.297,-42.969,-62.500
1630093536.815,28.809,2.930,-5.371,-28.320
1630093536.819,-5.371,-17.578,-23.438,-30.273
1630093536.822,-37.598,-44.922,-55.664,-50.293
1630093536.826,-10.742,-33.691,-42.969,-52.246
1630093536.830,-13.672,-34.180,-31.250,-52.734
1630093536.834,-27.832,-39.062,-33.691,-64.453
1630093536.838,-32.715,-42.480,-47.363,-67.383
1630093536.838,-24.414,-44.434,-51.758,-52.246
1630093536.842,-22.949,-40.039,-43.945,-60.547
1630093536.846,-22.949,-42.480,-35.156,-65.430
1630093536.850,-20.508,-47.363,-35.645,-62.012
1630093536.854,-22.949,-40.527,-41.016,-65.918
1630093536.858,-16.113,-37.109,-37.109,-69.336
1630093536.862,-29.297,-37.598,-36.621,-61.035
1630093536.865,-38.574,-37.109,-49.316,-62.988
1630093536.869,-3.906,-20.996,-24.414,-23.438
1630093536.873,-0.977,-19.531,-20.020,-10.742
1630093536.877,-23.438,-37.598,-42.480,-59.570
1630093536.881,-20.508,-28.809,-40.039,-57.617
1630093536.884,-17.090,-30.273,-41.016,-55.176
1630093536.888,-13.672,-36.133,-43.457,-57.617
1630093536.892,-16.602,-35.645,-40.527,-56.152
1630093536.896,-9.277,-23.926,-22.461,-43.945
1630093536.900,-9.766,-19.043,-19.043,-26.855
1630093536.904,-8.301,-31.738,-34.668,-38.086
1630093536.908,-10.742,-40.527,-41.016,-46.387
1630093536.911,-17.090,-30.762,-23.438,-18.066
1630093536.915,-10.254,-14.648,-6.348,-23.438
1630093536.919,-25.879,-41.992,-29.297,-58.594
1630093536.923,-24.902,-51.758,-38.574,-49.805
1630093536.927,-33.691,-43.457,-32.715,-50.293
1630093536.928,-35.156,-41.016,-35.156,-61.035
1630093536.932,-30.762,-37.598,-37.109,-52.734
1630093536.936,-26.367,-36.133,-42.969,-44.434
1630093536.940,-12.695,-35.645,-36.621,-50.781
1630093536.944,-15.137,-45.898,-31.250,-36.621
1630093536.948,-13.672,-43.457,-39.062,-34.668
1630093536.952,-4.883,-30.273,-46.387,-46.875
1630093536.955,12.695,-17.578,-26.855,-29.785
1630093536.959,9.766,-19.531,-20.508,-29.297
1630093536.963,-10.254,-37.598,-42.969,-46.875
1630093536.967,-14.648,-39.062,-47.852,-60.547
1630093536.971,-17.578,-35.645,-41.992,-52.246
1630093536.974,-26.367,-43.945,-37.598,-35.645
1630093536.978,-31.250,-47.363,-44.922,-53.711
1630093536.982,-19.043,-35.156,-42.969,-51.270
1630093536.986,0.977,-19.043,-32.227,-30.273
1630093536.990,-17.578,-33.691,-38.574,-40.527
1630093536.994,-24.414,-45.410,-44.922,-37.109
1630093536.998,10.254,-22.461,-31.250,-9.766
1630093537.001,30.273,-10.254,-26.855,-0.977
1630093537.005,-7.812,-35.645,-36.621,-30.762
1630093537.009,-57.129,-43.945,-33.691,-39.551
1630093537.013,-49.316,-38.574,-40.527,-45.898
1630093537.017,-26.855,-39.551,-54.199,-63.477
1630093537.020,-15.137,-37.109,-48.828,-53.711
1630093537.024,-21.973,-31.250,-40.527,-51.270
1630093537.028,-44.922,-31.250,-40.527,-53.711
1630093537.032,-53.711,-43.457,-45.898,-79.590
1630093537.036,-53.223,-55.664,-44.922,-88.379
1630093537.040,-52.246,-53.223,-39.062,-66.406
1630093537.044,-37.109,-36.133,-20.020,-47.852
1630093537.047,-34.668,-38.574,-26.855,-57.129
1630093537.051,-41.992,-54.688,-54.688,-92.773
1630093537.055,-41.992,-56.152,-45.410,-84.473
1630093537.059,-43.457,-56.641,-40.039,-66.406
1630093537.063,-32.227,-50.781,-43.457,-57.129
1630093537.063,-24.902,-54.199,-53.711,-49.805
1630093537.067,-14.160,-49.316,-34.668,-38.574
1630093537.071,-16.602,-43.945,-19.043,-24.902
1630093537.075,-32.715,-60.059,-41.016,-27.344
1630093537.079,-39.062,-66.406,-53.223,-39.551
1630093537.083,-14.648,-47.363,-38.086,-34.668
1630093537.087,9.766,-23.926,-12.695,-1.953
1630093537.090,-17.090,-46.875,-35.156,-31.738
1630093537.094,-26.855,-63.477,-60.059,-50.781
1630093537.098,-32.715,-64.453,-51.270,-38.086
1630093537.102,-24.902,-58.105,-35.645,-16.602
1630093537.106,-10.254,-48.828,-41.504,-7.812
1630093537.110,-11.230,-51.270,-52.246,-24.414
1630093537.114,-16.113,-51.270,-47.852,-41.992
1630093537.118,-14.648,-53.223,-35.156,-49.316
1630093537.122,-10.742,-53.711,-33.203,-32.715
1630093537.126,-4.395,-45.898,-41.016,-34.180
1630093537.130,11.230,-38.574,-39.062,-41.504
1630093537.134,17.578,-41.016,-37.109,-34.668
1630093537.137,12.695,-41.992,-35.645,-30.273
1630093537.141,20.996,-40.527,-34.180,-24.414
1630093537.145,26.855,-27.832,-28.809,0.977
1630093537.149,11.719,-28.320,-37.109,-19.531
1630093537.153,-1.465,-44.434,-44.922,-52.734
1630093537.169,-10.742,-48.340,-42.969,-41.992
1630093537.173,-6.348,-41.992,-50.293,-27.832
1630093537.177,-6.836,-47.852,-43.945,-32.715
1630093537.181,-14.648,-58.105,-31.738,-40.527
1630093537.185,9.766,-39.062,-29.297,-22.949
1630093537.189,29.297,-25.879,-37.598,-29.785
1630093537.193,4.883,-46.875,-49.805,-36.621
1630093537.196,-7.324,-58.105,-37.598,-11.230
1630093537.200,13.672,-39.062,-21.484,8.301
1630093537.204,17.578,-38.574,-29.297,-3.906
1630093537.208,5.371,-50.781,-45.410,-41.016
1630093537.212,10.742,-44.434,-41.992,-63.477
1630093537.213,0.488,-44.922,-39.551,-75.684
1630093537.217,-12.207,-44.922,-49.316,-52.734
1630093537.221,-8.301,-45.898,-62.500,-44.922
1630093537.225,0.977,-39.062,-55.664,-49.316
1630093537.229,0.000,-34.180,-41.504,-44.922
1630093537.233,-3.418,-44.434,-35.156,-29.785
1630093537.237,-3.418,-48.340,-37.598,-19.043
1630093537.240,-6.836,-32.227,-49.316,-39.062
1630093537.244,-1.465,-15.137,-17.578,-8.789
1630093537.248,-17.578,-30.273,-16.602,-4.395
1630093537.252,-35.156,-46.875,-54.199,-41.504
1630093537.256,-28.809,-45.898,-46.875,-32.227
1630093537.260,-18.066,-39.062,-40.039,-41.504
1630093537.264,-7.324,-30.273,-41.992,-41.504
1630093537.268,-18.555,-35.156,-46.387,-33.203
1630093537.272,-10.742,-26.367,-42.480,-17.090
1630093537.276,9.766,-10.254,-13.672,-1.465
1630093537.280,-5.859,-25.391,-15.625,-20.996
1630093537.284,-23.926,-37.109,-37.109,-20.020
1630093537.287,-2.930,-18.555,-29.297,1.953
1630093537.291,17.578,0.000,-15.625,-15.137
1630093537.295,-11.230,-27.344,-37.598,-49.316
1630093537.299,-29.297,-38.574,-48.340,-42.969
1630093537.303,-16.602,-30.762,-46.387,-36.133
1630093537.303,-3.906,-29.785,-42.969,-24.902
1630093537.307,-10.254,-35.645,-35.645,-18.066
1630093537.311,-19.043,-44.434,-32.715,-11.719
1630093537.315,-2.441,-42.480,-54.688,-13.184
1630093537.319,5.371,-40.039,-63.965,-47.852
1630093537.323,6.348,-37.109,-44.922,-66.406
1630093537.327,-9.277,-36.621,-41.992,-56.152
1630093537.330,17.578,-17.578,-13.184,-15.137
1630093537.334,31.250,-11.230,-12.207,2.930
1630093537.338,-21.973,-32.715,-45.898,-25.879
1630093537.342,-22.949,-38.086,-41.504,-25.391
1630093537.346,-13.184,-42.480,-31.738,-21.484
1630093537.349,-19.043,-45.898,-34.180,-35.156
1630093537.353,-20.508,-40.527,-52.734,-62.988
1630093537.357,-23.926,-42.969,-32.715,-46.875
1630093537.361,-29.785,-50.293,-21.484,-35.645
1630093537.365,-21.973,-50.781,-41.992,-53.711
1630093537.369,-31.250,-51.270,-45.898,-42.480
1630093537.373,-16.602,-21.973,-23.438,-26.855
1630093537.376,10.254,-8.789,-7.812,-7.812
1630093537.380,-32.715,-38.086,-32.227,-8.789
1630093537.384,-51.758,-47.852,-43.457,-26.367
1630093537.388,-27.832,-37.109,-34.180,-45.898
1630093537.392,-12.207,-29.297,-31.250,-38.574
1630093537.393,-19.531,-40.527,-43.457,-25.879
1630093537.397,-20.996,-46.875,-59.570,-19.531
1630093537.401,-25.391,-43.457,-58.105,-40.039
1630093537.405,-14.160,-37.598,-43.945,-38.574
1630093537.409,-10.742,-37.109,-53.223,-18.066
1630093537.413,-20.996,-42.480,-60.547,-29.785
1630093537.417,-0.977,-26.855,-40.527,-6.836
1630093537.420,2.441,-20.508,-32.715,0.488
1630093537.424,-6.836,-33.203,-44.922,-25.391
1630093537.428,-15.625,-37.598,-50.293,-19.043
1630093537.432,-32.715,-39.062,-50.293,-10.254
1630093537.436,-34.180,-40.039,-45.410,-15.625
1630093537.440,-42.480,-44.434,-44.434,-21.973
1630093537.444,-35.645,-34.180,-39.062,-5.371
1630093537.448,-0.977,-5.371,-24.902,19.531
1630093537.452,-10.742,-20.996,-36.133,16.113
1630093537.456,-31.250,-42.480,-52.246,-13.184
1630093537.460,-2.441,-21.484,-31.250,-14.160
1630093537.464,13.672,-17.578,-18.555,9.766
1630093537.467,-24.902,-43.457,-47.852,-18.555
1630093537.471,-27.832,-38.086,-50.781,-22.461
1630093537.475,-10.742,-24.902,-39.551,0.000
1630093537.479,-7.324,-27.344,-41.992,2.441
1630093537.483,-10.254,-37.598,-48.340,-17.090
1630093537.487,-1.953,-38.574,-36.621,-29.297
1630093537.491,-2.930,-41.016,-25.879,3.418
1630093537.495,-4.883,-45.410,-39.551,5.371
1630093537.499,0.977,-39.062,-57.617,-15.625
1630093537.503,2.930,-39.062,-60.059,-17.578
1630093537.507,44.434,-4.395,-10.254,16.602
1630093537.511,43.945,-1.465,-1.465,20.996
1630093537.514,-10.742,-46.875,-53.223,-16.602
1630093537.518,-10.254,-42.480,-49.316,-21.973
1630093537.522,-1.953,-35.156,-35.156,-24.414
1630093537.526,-1.953,-40.527,-41.992,-27.344
1630093537.530,0.000,-41.992,-49.316,-21.973
1630093537.543,-2.441,-47.852,-42.969,-4.395
1630093537.547,-9.277,-49.805,-32.715,6.348
1630093537.551,-12.695,-41.504,-41.504,-8.301
1630093537.555,-5.371,-53.223,-49.805,-19.531
1630093537.559,0.977,-43.945,-33.691,-3.906
1630093537.563,17.578,-13.184,-3.906,8.789
1630093537.567,2.441,-27.832,-29.297,-10.742
1630093537.570,-18.066,-48.340,-57.129,-29.297
1630093537.574,4.883,-34.180,-38.086,-8.301
1630093537.578,17.578,-28.320,-28.809,10.254
1630093537.582,-10.742,-48.828,-46.875,-5.859
1630093537.586,-1.953,-48.828,-50.781,-20.020
1630093537.588,16.113,-49.805,-47.852,-7.324
1630093537.592,-6.836,-58.594,-46.387,2.441
1630093537.596,-22.461,-61.035,-49.316,-16.113
1630093537.600,-17.090,-54.688,-55.176,-27.344
1630093537.604,-8.301,-51.758,-57.129,-19.043
1630093537.608,-2.930,-50.293,-56.641,-13.672
1630093537.612,-2.441,-47.363,-55.176,-2.441
1630093537.615,-11.230,-47.363,-50.293,-3.418
1630093537.619,28.320,-18.555,-17.090,3.418
1630093537.623,44.434,-17.578,-20.020,8.789
1630093537.627,11.230,-45.410,-49.316,-15.625
1630093537.631,2.441,-40.527,-41.992,-29.297
1630093537.634,-6.836,-39.551,-39.551,-34.668
1630093537.638,-0.488,-45.410,-45.410,-13.184
1630093537.642,6.348,-48.828,-54.688,-18.066
1630093537.646,13.672,-33.691,-39.062,-17.578
1630093537.650,20.020,-20.020,-24.902,4.395
1630093537.654,20.020,-31.250,-42.969,-8.301
1630093537.658,11.719,-42.480,-49.316,-11.719
1630093537.661,2.930,-31.738,-33.691,-3.418
1630093537.665,11.719,-18.555,-26.855,-6.348
1630093537.669,-0.488,-40.527,-40.527,-14.160
1630093537.673,-2.441,-45.410,-44.434,-12.207
1630093537.677,-7.324,-31.738,-40.527,-8.789
1630093537.678,-16.113,-38.086,-34.180,0.000
1630093537.682,-7.812,-52.246,-41.504,-10.254
1630093537.686,2.441,-51.270,-53.223,-39.551
1630093537.690,1.465,-50.293,-49.316,-37.109
1630093537.694,-13.184,-58.594,-35.156,-16.602
1630093537.698,-7.324,-51.758,-36.133,-10.742
1630093537.702,11.719,-42.969,-43.457,-2.930
1630093537.705,12.207,-35.156,-23.926,6.348
1630093537.709,3.418,-33.691,-16.602,3.418
1630093537.713,-3.418,-38.574,-33.203,-8.301
1630093537.717,-0.977,-38.574,-44.434,-9.766
1630093537.721,-1.465,-45.410,-47.363,-12.695
1630093537.725,-3.418,-45.410,-42.969,-14.648
1630093537.729,-6.348,-44.922,-43.945,-13.672
1630093537.733,8.789,-38.086,-45.898,-22.949
1630093537.737,29.785,-22.949,-30.273,3.906
1630093537.741,7.324,-36.133,-26.367,-9.766
1630093537.745,-18.555,-43.945,-37.598,-33.691
1630093537.749,-0.488,-23.926,-31.738,-14.160
1630093537.752,18.066,-19.531,-22.949,6.348
1630093537.756,-0.488,-38.086,-28.320,-1.953
1630093537.760,-6.348,-40.527,-29.785,1.465
1630093537.764,6.348,-31.250,-39.062,-3.906
1630093537.768,13.672,-33.691,-45.410,-22.461
1630093537.768,20.020,-31.738,-39.551,-13.184
1630093537.772,12.695,-24.902,-27.344,-7.812
1630093537.776,-2.441,-32.715,-27.832,-10.742
1630093537.780,-2.930,-26.855,-41.016,-12.695
1630093537.784,-3.906,-29.785,-32.227,-3.906
1630093537.788,-0.977,-40.039,-29.297,-7.324
1630093537.792,20.020,-20.996,-18.555,10.742
1630093537.795,21.484,-16.113,-18.555,20.996
1630093537.799,0.000,-41.504,-38.086,-29.785
1630093537.803,1.465,-41.992,-35.645,-31.738
1630093537.807,2.930,-30.762,-34.668,-6.836
1630093537.811,-3.906,-38.574,-40.039,-2.441
1630093537.813,6.348,-42.969,-54.688,-4.883
1630093537.817,15.625,-29.785,-27.832,0.488
1630093537.821,21.973,-23.926,-10.742,5.371
1630093537.825,19.531,-33.203,-43.945,-11.719
1630093537.829,-4.395,-42.480,-56.152,-15.625
1630093537.833,6.836,-31.738,-31.250,0.000
1630093537.837,26.855,-18.066,-12.695,11.719
1630093537.840,6.836,-32.715,-38.574,-9.277
1630093537.844,1.465,-39.062,-53.711,-16.602
1630093537.848,23.926,-36.621,-39.062,6.348
1630093537.852,31.738,-29.297,-31.738,2.930
1630093537.856,9.277,-33.691,-39.551,-7.324
1630093537.873,6.836,-34.668,-42.969,-6.348
1630093537.877,9.277,-38.086,-49.316,-13.184
1630093537.881,-1.953,-39.062,-45.410,-7.324
1630093537.885,-0.977,-36.621,-38.574,-10.742
1630093537.889,2.441,-39.062,-41.992,-17.090
1630093537.893,2.441,-42.969,-36.621,0.977
1630093537.897,1.465,-47.363,-35.645,-11.230
1630093537.900,-9.766,-44.922,-48.828,-38.086
1630093537.904,-12.695,-42.480,-44.922,-17.578
1630093537.908,5.859,-32.227,-38.086,-2.441
1630093537.912,8.789,-35.645,-40.527,1.953
1630093537.916,-3.418,-46.387,-42.480,9.766
1630093537.919,0.000,-35.645,-39.551,29.785
1630093537.923,-19.531,-42.480,-37.109,-1.953
1630093537.927,-30.762,-45.898,-53.711,-55.664
1630093537.931,-61.523,-45.898,-55.176,-46.875
1630093537.935,-22.949,-46.387,-24.414,19.043
1630093537.939,35.156,-24.902,-20.020,37.109
1630093537.943,-23.926,-39.551,-44.434,3.418
1630093537.946,-55.176,-54.199,-51.270,-31.738
1630093537.950,-5.859,-26.855,-59.570,-52.246
1630093537.954,29.297,-13.672,-33.203,-14.160
1630093537.958,-0.488,-39.551,-41.016,-3.906
1630093537.962,18.555,-34.180,-82.031,-28.809
1630093537.964,5.859,-33.203,-55.664,-33.203
1630093537.968,-30.273,-41.016,-33.203,-18.555
1630093537.972,-55.176,-43.945,-47.363,-20.020
1630093537.976,-17.090,-28.320,-52.246,-30.762
1630093537.980,12.695,-21.484,-29.297,-23.926
1630093537.984,-21.973,-31.250,-24.414,-21.973
1630093537.988,-42.969,-41.016,-29.297,-25.879
1630093537.991,-18.066,-39.551,-37.109,-27.832
1630093537.995,-10.742,-18.066,-17.090,-6.836
1630093537.999,-28.809,-21.973,-10.742,3.418
1630093538.003,-13.184,-39.062,-35.156,-42.969
1630093538.007,-1.465,-37.109,-40.527,-70.801
1630093538.008,-15.137,-34.668,-49.805,-63.477
1630093538.012,-22.461,-31.738,-42.480,-60.547
1630093538.016,-62.012,-45.410,-40.039,-50.781
1630093538.020,-21.973,-39.062,-22.949,-2.441
1630093538.024,18.066,-32.715,-12.207,0.000
1630093538.028,-25.879,-54.199,-26.367,-27.832
1630093538.032,-23.438,-56.641,-45.898,-13.184
1630093538.035,11.230,-31.250,-40.527,8.301
1630093538.039,55.664,-7.324,-5.371,23.438
1630093538.043,5.371,-46.875,-27.832,-18.555
1630093538.047,-47.363,-65.918,-59.570,-35.156
1630093538.051,-44.922,-62.500,-53.223,-37.598
1630093538.054,-42.969,-67.383,-59.570,-50.293
1630093538.058,-20.508,-52.246,-66.895,-61.035
1630093538.062,0.000,-45.410,-47.852,-39.551
1630093538.066,-6.836,-52.734,-41.016,-35.156
1630093538.070,-22.949,-60.059,-46.387,-26.855
1630093538.074,-31.250,-68.359,-36.133,-8.789
1630093538.078,-13.672,-60.547,-28.809,3.418
1630093538.081,21.484,-25.391,-17.090,34.668
1630093538.085,23.438,-24.902,-36.621,-15.137
1630093538.089,-1.465,-59.082,-63.477,-78.125
1630093538.093,-5.371,-61.035,-37.109,-61.035
1630093538.097,10.254,-41.016,-27.832,-42.480
1630093538.098,4.883,-49.805,-50.293,-50.293
1630093538.102,0.488,-70.312,-59.082,-50.781
1630093538.106,31.250,-49.316,-38.086,-9.277
1630093538.110,62.988,-28.320,-12.695,18.555
1630093538.114,59.082,-45.410,-41.016,-20.996
1630093538.118,46.387,-58.594,-62.500,-40.039
1630093538.122,53.223,-33.691,-32.715,-10.742
1630093538.125,70.312,-11.230,-17.578,-2.930
1630093538.129,28.320,-42.480,-50.781,-44.922
1630093538.133,21.484,-51.758,-56.641,-38.086
1630093538.137,29.297,-47.363,-57.617,-51.758
1630093538.141,11.719,-48.828,-57.129,-50.293
1630093538.145,10.254,-56.641,-58.105,-40.039
1630093538.149,29.297,-49.805,-66.406,-55.176
1630093538.153,66.406,-28.320,-44.922,-36.621
1630093538.157,62.500,-28.809,-34.180,-38.086
1630093538.161,41.992,-45.410,-51.270,-48.828
1630093538.165,49.316,-49.805,-66.895,-47.852
1630093538.169,78.125,-21.973,-35.645,-21.973
1630093538.172,66.895,-22.461,-16.113,-24.902
1630093538.176,28.809,-41.992,-40.527,-51.758
1630093538.180,39.062,-37.598,-53.711,-43.457
1630093538.184,48.828,-50.781,-62.012,-27.832
1630093538.188,65.918,-45.898,-52.734,-17.090
1630093538.204,72.266,-37.109,-48.828,-41.992
1630093538.208,76.172,-27.832,-46.875,-31.738
1630093538.212,91.309,-20.020,-40.527,-5.859
1630093538.216,63.477,-39.551,-36.621,-7.324
1630093538.220,43.945,-47.363,-34.180,-0.488
1630093538.224,45.898,-32.715,-24.902,-5.859
1630093538.228,77.148,-7.324,1.953,14.648
1630093538.231,65.918,-29.297,-14.648,15.137
1630093538.235,26.855,-50.293,-51.270,-33.691
1630093538.239,10.254,-40.527,-60.059,-52.246
1630093538.243,15.137,-42.480,-36.621,-8.789
1630093538.247,26.367,-53.711,-29.785,23.438
1630093538.235,13.184,-49.316,-34.180,7.812
1630093538.239,18.066,-43.945,-27.832,8.789
1630093538.243,31.250,-47.363,-29.785,23.926
1630093538.247,8.301,-55.176,-36.621,9.277
1630093538.251,0.488,-51.758,-33.691,1.953
1630093538.255,14.160,-36.621,-33.691,-4.883
1630093538.259,12.207,-45.410,-30.762,4.883
1630093538.262,7.324,-62.012,-36.133,19.043
1630093538.266,4.395,-59.082,-46.875,-7.324
1630093538.270,19.043,-26.855,-18.555,-0.977
1630093538.274,1.465,-33.691,-24.902,-0.977
1630093538.278,-10.254,-59.082,-58.105,-21.973
1630093538.294,3.418,-55.664,-47.852,6.348
1630093538.298,-10.742,-50.293,-32.715,6.348
1630093538.302,-23.926,-48.340,-33.203,-3.906
1630093538.306,-15.137,-47.363,-38.086,-11.230
1630093538.310,10.254,-34.180,-30.273,-6.836
1630093538.314,22.461,-28.809,-20.508,18.066
1630093538.318,8.301,-37.109,-34.180,10.254
1630093538.321,-5.371,-47.852,-46.875,-2.441
1630093538.325,20.020,-37.109,-29.297,34.668
1630093538.329,24.902,-20.020,-18.066,47.363
1630093538.333,-5.371,-35.156,-34.668,17.090
1630093538.337,-15.137,-41.504,-41.016,13.184
1630093538.338,-13.184,-45.898,-45.410,9.277
1630093538.342,-15.137,-46.875,-40.527,14.648
1630093538.346,-38.086,-45.898,-40.527,0.488
1630093538.350,-37.109,-43.457,-39.551,-5.371
1630093538.354,-6.348,-42.480,-39.062,13.184
1630093538.358,1.465,-40.039,-45.898,10.742
1630093538.362,-17.578,-48.828,-44.434,-0.488
1630093538.365,-34.668,-59.570,-41.992,9.766
1630093538.369,-20.996,-45.898,-34.180,21.973
1630093538.373,-1.953,-52.246,-42.969,0.488
1630093538.377,-17.090,-64.941,-55.176,-27.832
1630093538.381,-40.039,-53.223,-40.527,-10.742
1630093538.384,-33.691,-52.246,-35.645,3.418
1630093538.388,-31.250,-57.129,-52.734,-14.648
1630093538.392,-18.555,-51.270,-55.664,-12.695
1630093538.396,-1.953,-37.109,-31.738,17.090
1630093538.400,-6.836,-35.156,-22.949,0.977
1630093538.404,-15.137,-47.363,-51.270,-41.016
1630093538.408,-12.695,-52.734,-55.176,-21.484
1630093538.411,10.254,-35.156,-29.297,0.000
1630093538.415,16.602,-25.391,-20.020,1.953
1630093538.419,-5.371,-51.270,-40.527,-17.090
1630093538.423,-7.812,-62.500,-34.668,15.625
1630093538.427,6.836,-57.129,-21.973,62.012
1630093538.430,14.160,-45.898,-28.809,72.754
1630093538.434,-2.930,-39.551,-34.180,58.594
1630093538.438,25.879,-28.809,-41.992,1.465
1630093538.442,49.805,-16.113,-51.758,-41.504
1630093538.446,45.410,-6.348,-52.734,-20.020
1630093538.450,40.039,-1.465,-54.199,-16.602
1630093538.454,62.012,8.789,-56.641,-25.391
1630093538.457,96.680,24.902,-27.832,18.066
1630093538.461,70.312,23.438,-20.020,23.438
1630093538.465,47.363,24.414,-31.250,27.832
1630093538.469,72.754,33.203,-42.480,41.504
1630093538.473,71.289,31.250,-80.078,26.855
1630093538.473,62.500,33.691,-99.121,22.949
1630093538.477,62.988,43.945,-117.188,8.301
1630093538.481,75.195,53.711,-114.258,18.066
1630093538.485,90.820,55.176,-91.797,55.176
1630093538.489,75.195,40.039,-89.844,46.387
1630093538.493,48.828,40.527,-87.402,53.711
1630093538.497,50.293,58.594,-82.031,57.617
1630093538.500,100.586,71.289,-76.660,66.895
1630093538.504,53.711,33.203,-82.031,72.266
1630093538.508,57.129,20.996,-94.238,-7.812
1630093538.512,70.801,37.598,-97.656,-49.805
1630093538.516,34.180,23.926,-94.727,9.277
1630093538.519,61.523,20.020,-89.844,35.645
1630093538.523,59.082,20.996,-81.543,41.992
1630093538.527,32.227,17.090,-81.543,49.805
1630093538.531,30.762,14.160,-83.496,24.902
1630093538.535,33.203,9.277,-75.684,8.789
1630093538.539,17.578,1.953,-70.312,21.973
1630093538.543,-9.766,0.000,-56.641,65.430
1630093538.546,44.434,10.254,-55.176,68.359
1630093538.550,82.520,3.418,-64.941,63.477
1630093538.554,57.129,11.230,-65.430,31.738
1630093538.558,-18.066,6.348,-53.711,4.395
1630093538.562,12.207,-12.695,-57.617,10.742
1630093538.563,62.500,-12.207,-64.941,40.039
1630093538.567,38.574,-1.953,-52.734,51.758
1630093538.571,61.523,12.695,-58.105,16.113
1630093538.575,50.781,-5.859,-68.848,39.062
1630093538.579,27.832,-18.555,-61.523,48.828
1630093538.583,56.152,3.418,-36.621,45.410
1630093538.587,70.801,27.344,-23.438,52.734
1630093538.590,46.387,-1.465,-40.039,22.949
1630093538.594,41.504,-14.648,-44.922,45.898
1630093538.598,51.758,-7.324,-47.852,42.969
1630093538.602,41.992,-1.465,-57.129,2.930
1630093538.606,38.574,-5.859,-58.105,3.418
1630093538.612,30.762,-17.578,-57.129,13.672
1630093538.616,46.387,-15.137,-47.363,30.762
1630093538.620,60.547,-10.254,-48.340,30.762
1630093538.624,25.879,-14.648,-54.688,10.742
1630093538.628,4.395,-23.926,-56.152,-8.301
1630093538.632,38.086,-17.090,-51.758,14.160
1630093538.636,49.316,-20.508,-46.387,43.457
1630093538.639,40.039,-29.297,-50.293,21.484
1630093538.643,43.457,-19.531,-52.734,15.625
1630093538.647,58.105,-6.348,-41.504,40.527
1630093538.651,68.359,-11.719,-43.457,45.898
1630093538.655,13.672,-30.762,-49.316,38.574
1630093538.668,-33.691,-41.992,-42.480,37.598
1630093538.672,-3.418,-36.133,-37.598,47.363
1630093538.676,7.812,-32.715,-31.250,60.059
1630093538.680,-11.719,-31.738,-37.598,41.504
1630093538.684,-36.621,-25.391,-34.668,42.480
1630093538.688,-3.906,20.996,3.418,76.172
1630093538.692,-12.695,0.977,-8.789,73.730
1630093538.695,-24.414,-42.480,-36.621,67.871
1630093538.699,-34.180,-12.207,-37.109,44.434
1630093538.703,-89.355,-20.996,-43.945,7.812
1630093538.707,-66.406,-33.203,-45.410,20.508
1630093538.711,-62.500,-19.043,-49.805,7.812
1630093538.713,-77.637,6.836,-35.645,13.672
1630093538.717,-77.148,16.602,-14.648,32.227
1630093538.721,-80.566,10.742,-20.508,15.625
1630093538.725,-42.480,30.273,-21.484,28.809
1630093538.729,-68.848,37.109,-11.719,14.648
1630093538.733,-121.094,37.109,-13.184,-16.602
1630093538.737,-124.512,41.992,-20.996,-19.531
1630093538.740,-110.840,33.203,-21.484,-14.648
1630093538.744,-100.098,29.785,-13.672,-23.926
1630093538.748,-108.887,29.297,-7.812,-28.809
1630093538.752,-84.961,40.527,-12.695,-20.996
1630093538.756,-46.387,53.711,-20.020,-40.039
1630093538.758,-43.945,52.734,-21.484,-36.133
1630093538.762,-44.434,58.105,-19.043,-17.090
1630093538.766,-36.133,56.152,-28.320,-16.113
1630093538.770,-1.465,62.012,-31.738,14.160
1630093538.774,24.414,70.312,-21.484,23.438
1630093538.778,21.973,66.406,-24.902,3.418
1630093538.782,12.695,54.688,-48.340,-14.160
1630093538.785,46.875,52.246,-44.434,3.418
1630093538.789,113.281,51.270,-20.508,25.879
1630093538.793,89.844,22.461,-31.738,20.996
1630093538.797,64.453,17.090,-34.180,38.086
1630093538.801,95.215,15.625,-32.715,48.340
1630093538.803,140.137,4.883,-39.551,38.086
1630093538.807,140.137,-4.395,-41.016,49.805
1630093538.811,103.516,-16.602,-38.574,69.336
1630093538.815,114.746,-15.625,-41.016,62.500
1630093538.819,167.480,-17.578,-47.852,57.617
1630093538.823,180.176,-25.879,-42.480,77.637
1630093538.827,122.070,-32.227,-34.180,94.238
1630093538.830,111.328,-22.949,-21.973,89.355
1630093538.834,132.324,-28.809,-24.902,69.824
1630093538.838,144.531,-43.457,-39.551,67.383
1630093538.842,118.652,-41.992,-37.109,66.406
1630093538.846,78.125,-41.992,-37.598,62.500
1630093538.850,100.098,-42.480,-61.035,67.871
1630093538.854,113.770,-50.293,-56.641,69.336
1630093538.858,105.957,-52.246,-29.297,77.637
1630093538.862,105.957,-33.691,-39.062,65.430
1630093538.866,98.633,-37.598,-62.988,25.879
1630093538.870,121.582,-44.434,-64.941,31.250
1630093538.874,119.629,-35.156,-46.387,38.574
1630093538.877,67.871,-41.504,-36.133,30.762
1630093538.881,45.410,-48.828,-51.758,41.016
1630093538.885,48.340,-59.570,-52.246,46.875
1630093538.889,64.453,-64.453,-38.086,51.270
1630093538.893,70.312,-58.105,-42.480,53.223
1630093538.893,65.430,-54.688,-51.270,45.410
1630093538.897,80.078,-51.270,-45.410,54.688
1630093538.901,106.934,-46.387,-41.504,56.641
1630093538.905,80.566,-43.457,-36.133,48.828
1630093538.909,28.320,-50.781,-38.574,55.176
1630093538.913,34.668,-54.688,-51.758,48.828
1630093538.917,91.309,-43.457,-39.551,53.711
1630093538.920,85.938,-44.434,-20.508,63.477
1630093538.924,33.691,-45.898,-32.715,54.199
1630093538.928,41.992,-39.062,-46.387,45.410
1630093538.932,84.473,-44.922,-46.387,37.109
1630093538.936,79.590,-47.852,-35.645,52.246
1630093538.939,37.109,-41.992,-35.645,41.992
1630093538.943,30.273,-39.551,-30.762,40.527
1630093538.947,74.219,-39.551,-22.949,50.293
1630093538.951,89.355,-44.922,-30.762,39.551
1630093538.955,41.992,-52.246,-30.762,32.715
1630093538.959,32.715,-41.016,-19.043,46.387
1630093538.963,67.383,-24.902,-28.809,35.156
1630093538.966,78.613,-38.086,-46.875,11.719
1630093538.970,42.969,-52.734,-38.574,19.531
1630093538.974,24.902,-40.527,-24.902,36.621
1630093538.978,47.363,-42.480,-24.414,28.809
1630093538.982,109.375,-55.664,-28.809,40.039
1630093538.985,116.211,-37.109,-31.250,47.852
1630093538.989,33.691,-23.438,-47.363,-5.371
1630093538.993,24.414,-26.367,-56.641,-17.578
1630093538.997,90.820,-25.391,-59.082,-7.324
1630093539.001,103.027,-20.996,-58.105,-7.812
1630093539.005,61.035,-10.254,-54.199,-0.977
1630093539.009,50.781,-5.859,-51.270,-1.953
1630093539.012,97.168,-5.371,-48.828,10.254
1630093539.016,128.906,3.418,-40.527,23.926
1630093539.020,90.820,20.020,-20.996,43.945
1630093539.024,50.781,10.254,-25.391,40.039
1630093539.028,64.941,-9.766,-45.898,26.367
1630093539.043,111.816,-9.277,-41.504,30.762
1630093539.047,76.660,-8.301,-29.785,32.227
1630093539.051,22.461,-14.160,-36.133,23.926
1630093539.055,43.945,-13.672,-43.457,23.438
1630093539.059,107.910,-5.859,-40.039,31.250
1630093539.063,114.746,0.488,-30.273,32.227
1630093539.067,33.691,-17.578,-36.133,21.484
1630093539.070,10.254,-23.438,-47.363,10.742
1630093539.074,81.543,-12.695,-41.016,11.230
1630093539.078,102.051,-14.648,-32.227,7.324
1630093539.082,35.645,-20.996,-36.133,-6.836
1630093539.086,-2.441,-28.320,-35.156,-16.113
1630093539.088,55.176,-23.438,-35.645,-1.465
1630093539.092,112.305,-18.555,-35.645,0.977
1630093539.096,38.086,-28.809,-34.668,-18.555
1630093539.100,-18.066,-30.273,-38.574,-14.160
1630093539.104,19.043,-31.250,-35.645,-7.812
1630093539.108,95.215,-28.320,-23.926,6.836
1630093539.112,51.758,-29.785,-28.320,-3.418
1630093539.115,-39.551,-40.527,-30.273,-14.648
1630093539.119,-14.648,-32.227,-26.855,-9.277
1630093539.123,74.707,-28.809,-29.785,-5.859
1630093539.127,66.406,-37.598,-35.156,-14.160
1630093539.131,-40.039,-41.504,-37.598,-30.273
1630093539.134,-73.242,-50.293,-41.992,-41.504
1630093539.138,20.020,-46.387,-39.551,-34.668
1630093539.142,71.289,-41.504,-37.598,-14.648
1630093539.146,-20.020,-43.457,-33.691,-20.996
1630093539.150,-70.312,-38.574,-17.578,-22.949
1630093539.154,-12.207,-42.480,-17.090,-19.043
1630093539.158,54.199,-49.805,-33.203,-18.066
1630093539.161,-10.254,-45.898,-38.086,-29.785
1630093539.165,-81.543,-38.086,-39.062,-39.062
1630093539.169,-48.340,-35.156,-46.875,-37.109
1630093539.173,34.668,-31.250,-42.969,-20.996
1630093539.177,-18.555,-39.551,-42.480,-22.949
1630093539.185,-102.051,-41.016,-38.574,-24.414
1630093539.189,-94.238,-39.551,-41.504,-19.043
1630093539.193,-2.930,-33.691,-37.598,-9.277
1630093539.197,6.348,-32.227,-41.504,-12.695
1630093539.201,-101.074,-29.297,-48.828,-21.973
1630093539.205,-124.023,-23.926,-41.992,-20.508
1630093539.209,-41.504,-27.832,-41.016,-13.184
1630093539.212,8.789,-21.973,-27.832,7.324
1630093539.216,-85.449,-25.879,-19.531,-0.977
1630093539.220,-163.086,-44.922,-37.109,-29.297
1630093539.224,-104.492,-42.480,-38.086,-30.762
1630093539.228,-15.625,-39.551,-36.133,-23.438
1630093539.223,-94.238,-46.875,-48.340,-44.434
1630093539.227,-185.547,-51.270,-50.293,-59.570
1630093539.231,-143.066,-46.387,-35.645,-38.086
1630093539.235,-37.109,-35.645,-23.926,-4.883
1630093539.239,-65.918,-47.363,-40.039,-19.043
1630093539.243,-165.527,-53.223,-44.434,-41.504
1630093539.247,-142.090,-32.227,-24.414,-20.508
1630093539.250,-28.809,-22.949,-14.160,0.000
1630093539.254,-5.859,-40.527,-33.691,-12.207
1630093539.258,-105.469,-55.664,-45.898,-34.668
1630093539.262,-140.137,-50.781,-45.410,-42.480
1630093539.266,-38.086,-43.457,-39.551,-32.227
1630093539.268,27.344,-45.410,-43.457,-21.484
1630093539.272,-71.777,-46.387,-56.152,-39.062
1630093539.276,-137.207,-49.805,-47.852,-46.387
1630093539.280,-62.988,-48.340,-36.133,-25.879
1630093539.284,47.852,-43.457,-38.574,-4.883
1630093539.288,-23.926,-42.480,-53.711,-31.738
1630093539.292,-110.352,-39.062,-44.434,-35.645
1630093539.295,-73.730,-40.527,-27.832,-9.277
1630093539.299,32.227,-46.875,-34.180,5.371
1630093539.303,29.785,-42.480,-40.527,-3.906
1630093539.307,-97.656,-35.645,-36.621,-17.578
1630093539.311,-116.211,-33.203,-32.227,-25.391
1630093539.315,-7.324,-36.621,-31.250,-22.461
1630093539.319,43.945,-30.273,-36.621,-16.113
1630093539.323,-46.387,-16.602,-32.715,-13.672
1630093539.327,-102.539,-22.949,-30.762,-25.391
1630093539.331,-31.738,-30.762,-38.086,-31.250
1630093539.335,59.082,-19.043,-27.344,-2.441
1630093539.339,-26.367,-15.137,-19.043,-7.324
1630093539.342,-117.676,-34.180,-34.180,-24.414
1630093539.346,-65.918,-38.574,-40.039,-22.949
1630093539.350,50.781,-30.273,-33.691,-4.395
1630093539.354,5.371,-29.785,-41.992,-21.484
1630093539.358,-112.793,-40.039,-47.363,-47.852
1630093539.373,-87.891,-45.898,-42.480,-42.969
1630093539.377,25.879,-34.668,-28.320,-9.277
1630093539.381,32.715,-30.762,-25.391,0.977
1630093539.385,-87.402,-39.062,-32.715,-24.902
1630093539.389,-118.652,-41.992,-37.598,-36.133
1630093539.393,5.371,-25.391,-14.160,2.930
1630093539.397,60.059,-23.926,-11.719,23.438
1630093539.400,-77.148,-42.969,-40.527,-36.133
1630093539.404,-136.230,-41.992,-35.645,-42.480
1630093539.408,-45.898,-40.039,-24.414,-13.184
1630093539.412,56.152,-41.016,-34.180,-9.277
1630093539.416,-38.086,-43.945,-49.316,-40.527
1630093539.420,-140.625,-51.270,-39.551,-51.270
1630093539.424,-90.332,-45.410,-25.391,-32.715
1630093539.428,41.992,-33.691,-21.484,-2.930
1630093539.432,3.418,-37.598,-34.668,-20.020
1630093539.436,-117.188,-33.203,-28.320,-43.457
1630093539.440,-79.102,-20.996,-28.320,-23.926
1630093539.444,48.828,-22.949,-29.297,6.836
1630093539.447,11.719,-47.852,-31.250,-25.391
1630093539.451,-143.555,-57.617,-25.391,-55.176
1630093539.455,-154.785,-41.992,-1.465,-24.902
1630093539.459,-83.008,-66.406,-9.766,-39.062
1630093539.463,-38.574,-83.008,-30.273,-62.012
1630093539.463,-159.180,-92.773,-39.551,-91.797
1630093539.467,-248.047,-101.562,-34.180,-108.887
1630093539.471,-165.039,-98.145,-27.344,-83.496
1630093539.475,-41.992,-90.820,-29.297,-52.734
1630093539.479,-144.531,-102.051,-38.086,-86.426
1630093539.483,-263.184,-109.375,-37.598,-107.910
1630093539.487,-207.031,-104.980,-28.809,-82.520
1630093539.490,-93.262,-104.492,-23.438,-58.105
1630093539.494,-98.145,-81.543,-16.602,-43.945
1630093539.498,-214.355,-87.891,-18.555,-50.781
1630093539.502,-231.934,-106.445,-38.086,-75.684
1630093539.506,-93.750,-91.309,-34.668,-48.828
1630093539.508,-48.340,-88.379,-41.016,-34.668
1630093539.512,-173.828,-86.914,-42.480,-53.711
1630093539.516,-225.586,-86.914,-45.410,-73.242
1630093539.520,-107.422,-79.590,-28.809,-40.039
1630093539.524,4.883,-67.871,-16.113,2.930
1630093539.528,-113.770,-75.195,-40.527,-40.527
1630093539.532,-208.008,-80.078,-46.387,-64.941
1630093539.535,-114.258,-62.988,-20.020,-33.203
1630093539.539,34.668,-46.387,-8.789,7.324
1630093539.543,-56.152,-67.871,-40.039,-34.668
1630093539.547,-189.453,-70.312,-47.852,-69.336
1630093539.551,-141.113,-61.035,-39.062,-54.688
1630093539.554,9.277,-57.617,-23.438,-20.508
1630093539.558,2.441,-54.688,-34.180,-20.508
1630093539.562,-129.883,-55.664,-40.527,-48.340
1630093539.566,-152.344,-58.594,-34.180,-46.875
1630093539.570,-17.090,-55.664,-24.902,-13.672
1630093539.574,39.062,-59.570,-30.762,-1.953
1630093539.578,-108.398,-70.801,-42.969,-40.527
1630093539.581,-160.645,-61.035,-28.320,-37.598
1630093539.585,-63.965,-57.617,-19.531,-0.977
1630093539.589,41.992,-63.477,-33.691,0.488
1630093539.593,-55.176,-62.988,-45.898,-35.156
1630093539.597,-172.363,-67.383,-46.875,-51.758
1630093539.598,-115.723,-65.430,-38.086,-41.992
1630093539.602,24.902,-55.664,-36.621,-17.090
1630093539.606,-24.414,-51.270,-49.316,-33.203
1630093539.610,-144.043,-50.293,-35.645,-41.504
1630093539.614,-128.418,-53.711,-27.344,-27.344
1630093539.618,3.418,-58.105,-25.879,-5.371
1630093539.622,23.926,-50.293,-32.715,-4.883
1630093539.625,-115.723,-46.387,-37.109,-35.156
1630093539.629,-155.762,-50.781,-40.039,-52.734
1630093539.633,-39.062,-49.805,-29.785,-26.855
1630093539.637,41.016,-48.828,-33.203,-4.883
1630093539.641,-91.797,-57.617,-42.480,-31.250
1630093539.643,-180.176,-63.965,-35.645,-50.293
1630093539.647,-78.125,-53.223,-28.320,-41.992
1630093539.651,50.781,-45.410,-27.832,-20.020
1630093539.655,-46.387,-51.758,-41.504,-50.293
1630093539.659,-164.551,-51.758,-42.480,-73.242
1630093539.663,-118.164,-48.828,-28.809,-47.852
1630093539.667,39.062,-34.180,-8.301,-5.371
1630093539.670,4.883,-31.250,-26.855,-26.367
1630093539.674,-166.504,-52.246,-39.551,-67.871
1630093539.678,-176.758,-57.129,-30.762,-68.359
1630093539.682,-18.555,-42.969,-30.273,-49.316
1630093539.686,24.902,-42.969,-39.551,-35.156
1630093539.688,-141.113,-51.270,-44.434,-63.477
1630093539.692,-191.895,-46.387,-33.691,-82.031
1630093539.696,-44.434,-35.156,-14.648,-40.527
1630093539.700,57.129,-41.992,-26.367,-28.320
1630093539.704,-91.797,-51.758,-49.805,-75.195
1630093539.708,-181.641,-43.457,-40.039,-78.613
1630093539.712,-75.195,-35.156,-30.273,-57.129
1630093539.715,41.504,-43.457,-44.434,-44.434
1630093539.719,-55.664,-53.711,-48.340,-61.035
1630093539.723,-173.828,-54.199,-41.504,-69.824
1630093539.727,-130.859,-49.316,-38.086,-58.105
1630093539.731,38.574,-37.109,-30.273,-23.438
1630093539.735,24.414,-39.062,-41.016,-25.391
1630093539.739,-146.484,-47.363,-48.340,-46.387
1630093539.743,-142.578,-41.504,-42.480,-26.367
1630093539.747,21.484,-34.180,-25.391,14.160
1630093539.751,63.965,-33.691,-31.738,14.648
1630093539.755,-100.586,-37.109,-51.270,-32.715
1630093539.759,-157.715,-26.367,-47.852,-47.363
1630093539.762,-37.598,-22.461,-35.156,-35.156
1630093539.766,70.312,-29.785,-36.621,-5.371
1630093539.770,-42.969,-24.414,-38.574,-6.836
1630093539.774,-141.602,-21.973,-34.668,-22.949
1630093539.778,-52.246,-20.508,-20.508,-5.371
1630093539.793,116.699,-10.742,-12.207,35.156
1630093539.797,28.320,-17.578,-31.250,11.230
1630093539.801,-125.977,-31.250,-35.645,-25.391
1630093539.805,-84.473,-29.785,-34.668,-24.414
1630093539.809,75.684,-22.461,-26.367,1.953
1630093539.813,86.426,-24.902,-26.367,14.160
1630093539.817,-85.938,-41.992,-39.062,-16.113
1630093539.820,-139.648,-48.828,-41.992,-18.555
1630093539.824,30.762,-29.785,-27.344,5.859
1630093539.828,129.883,-22.949,-34.668,9.277
1630093539.832,-60.059,-43.945,-53.711,-12.207
1630093539.836,-157.715,-52.246,-50.293,-19.531
1630093539.838,-27.344,-44.922,-35.645,1.465
1630093539.842,112.793,-41.504,-43.945,20.508
1630093539.846,-4.395,-49.316,-64.453,1.465
1630093539.850,-139.648,-49.316,-62.988,-25.879
1630093539.854,-66.406,-46.387,-49.805,-14.160
1630093539.858,117.188,-39.062,-30.762,45.898
1630093539.862,47.363,-47.852,-48.340,11.719
1630093539.865,-162.598,-60.059,-59.082,-55.664
1630093539.869,-140.137,-54.688,-37.598,-30.762
1630093539.873,74.707,-52.734,-20.996,20.020
1630093539.877,90.332,-49.805,-46.387,6.348
1630093539.881,-130.371,-49.316,-69.824,-52.734
1630093539.884,-184.570,-45.898,-50.293,-39.062
1630093539.888,20.020,-37.598,-18.555,22.461
1630093539.892,145.020,-30.762,-31.738,22.461
1630093539.896,-67.871,-44.922,-66.895,-37.598
1630093539.900,-213.867,-55.664,-62.988,-63.477
1630093539.904,-44.434,-47.363,-28.320,-17.090
1630093539.908,171.875,-39.551,-22.461,22.949
1630093539.911,31.738,-44.922,-52.734,-6.348
1630093539.915,-166.016,-46.387,-45.898,-39.551
1630093539.919,-83.008,-41.504,-22.949,-22.461
1630093539.923,155.762,-32.715,-15.137,28.809
1630093539.927,126.953,-35.156,-51.270,12.695
1630093539.928,-125.488,-44.922,-72.266,-47.363
1630093539.932,-146.484,-40.527,-43.457,-31.738
1630093539.936,99.609,-34.180,-15.625,30.273
1630093539.940,162.598,-37.109,-40.527,35.156
1630093539.944,-89.355,-44.922,-64.941,-22.949
1630093539.948,-185.547,-45.410,-40.527,-36.133
1630093539.952,41.992,-37.109,-4.883,25.879
1630093539.955,211.426,-27.832,-6.836,59.570
1630093539.959,-9.277,-33.203,-46.387,0.488
1630093539.963,-199.219,-46.387,-58.105,-49.316
1630093539.967,-48.828,-39.062,-25.391,-10.254
1630093539.971,181.641,-23.438,-10.742,40.527
1630093539.974,53.711,-39.062,-39.551,7.812
1630093539.978,-170.410,-52.734,-46.875,-38.574
1630093539.982,-88.867,-36.133,-14.648,-11.230
1630093539.986,168.945,-20.020,12.207,58.594
1630093539.990,133.301,-38.086,-31.738,24.414
1630093539.994,-123.047,-51.758,-59.082,-43.945
1630093539.998,-132.324,-31.250,-25.879,-27.832
1630093540.001,108.398,-15.625,8.789,38.086
1630093540.005,179.688,-33.691,-21.484,34.668
1630093540.009,-51.270,-44.922,-55.664,-33.203
1630093540.013,-157.715,-42.480,-40.039,-40.039
1630093540.017,41.016,-29.297,-11.230,11.230
1630093540.020,215.332,-22.949,-22.461,38.086
1630093540.024,37.598,-34.180,-57.129,-10.742
1630093540.028,-120.605,-33.691,-38.086,-29.785
1630093540.032,-10.742,-30.273,-8.789,-0.977
1630093540.036,181.152,-33.203,-15.625,30.762
1630093540.040,85.449,-39.551,-48.340,3.418
1630093540.044,-105.469,-27.832,-42.969,-28.320
1630093540.047,-74.219,-31.738,-23.926,-18.555
1630093540.051,116.211,-39.062,-18.555,12.695
1630093540.055,133.789,-33.203,-32.715,19.531
1630093540.059,-73.242,-49.805,-51.270,-29.785
1630093540.063,-121.094,-46.875,-38.574,-39.551
1630093540.064,52.246,-38.086,-25.391,0.977
1630093540.068,147.461,-26.367,-29.785,20.020
1630093540.072,-23.438,-20.996,-39.062,-21.484
1630093540.076,-130.371,-34.668,-40.527,-48.340
1630093540.080,-3.906,-36.133,-27.344,-22.949
1630093540.084,138.184,-23.438,-21.973,16.113
1630093540.088,44.434,-1.465,-17.090,10.254
1630093540.091,-108.398,-22.461,-26.367,-21.973
1630093540.095,-58.594,-38.086,-29.785,-10.254
1630093540.099,117.188,-31.250,-19.531,33.203
1630093540.103,65.430,-36.621,-38.086,13.672
1630093540.107,-101.562,-39.551,-49.316,-32.227
1630093540.110,-89.355,-33.691,-46.875,-29.297
1630093540.114,78.125,-28.809,-37.109,20.020
1630093540.118,104.004,-34.668,-45.410,24.414
1630093540.122,-67.871,-41.016,-57.617,-22.949
1630093540.126,-112.793,-41.504,-50.781,-23.926
1630093540.130,35.156,-27.832,-30.762,14.648
1630093540.134,121.094,-24.414,-34.668,20.020
1630093540.137,-39.062,-48.828,-52.246,-8.301
1630093540.141,-137.695,-56.641,-48.828,-18.555
1630093540.145,4.883,-18.555,-5.859,31.250
1630093540.149,150.391,-12.695,-1.465,53.223
1630093540.153,20.508,-41.992,-47.852,-5.371
1630093540.168,-115.723,-45.898,-54.688,-22.461
1630093540.172,-62.988,-36.621,-41.504,-24.902
1630093540.176,102.051,-31.250,-34.668,4.883
1630093540.180,68.359,-48.828,-60.547,-6.836
1630093540.184,-82.520,-43.457,-44.434,-11.230
1630093540.188,-69.824,-18.555,-5.859,15.137
1630093540.192,72.266,-32.227,-18.555,13.184
1630093540.195,100.586,-51.758,-44.434,0.488
1630093540.199,-44.922,-33.691,-33.203,-7.324
1630093540.203,-93.262,-20.508,-15.625,5.859
1630093540.207,7.812,-41.504,-26.855,0.488
1630093540.211,114.258,-40.527,-35.645,6.348
1630093540.213,-15.625,-41.016,-51.270,-31.250
1630093540.217,-123.047,-45.410,-49.805,-49.316
1630093540.221,-33.203,-49.316,-31.250,-16.113
1630093540.225,128.418,-36.133,-20.020,31.250
1630093540.229,44.434,-32.715,-39.062,10.254
1630093540.233,-111.816,-44.434,-46.387,-37.109
1630093540.237,-71.289,-37.109,-38.574,-34.668
1630093540.240,86.426,-34.668,-28.320,-8.301
1630093540.244,102.539,-14.160,-16.113,6.836
1630093540.248,-71.777,-27.344,-25.391,-35.645
1630093540.252,-127.930,-60.059,-44.434,-66.895
1630093540.256,38.574,-37.598,-27.832,-21.484
1630093540.258,106.445,-34.668,-31.738,-9.766
1630093540.262,-65.918,-54.199,-47.363,-51.758
1630093540.266,-149.414,-60.547,-44.922,-60.059
1630093540.270,-9.277,-41.016,-16.602,-16.113
1630093540.274,141.113,-19.043,2.930,20.996
1630093540.278,-7.324,-38.086,-40.039,-29.297
1630093540.282,-140.137,-44.922,-53.223,-63.477
1630093540.285,-42.480,-25.391,-15.137,-26.855
1630093540.289,130.859,-11.719,-7.812,9.277
1630093540.293,41.016,-38.086,-54.199,-38.574
1630093540.297,-125.000,-55.664,-58.594,-69.824
1630093540.301,-106.445,-49.805,-38.574,-57.129
1630093540.303,49.805,-43.945,-27.344,-33.203
1630093540.307,57.617,-55.176,-45.410,-38.574
1630093540.311,-116.211,-63.965,-53.223,-69.824
1630093540.315,-137.207,-48.828,-31.738,-59.082
1630093540.319,20.020,-39.062,-17.578,-22.461
1630093540.323,90.332,-40.039,-37.598,-25.879
1630093540.327,-73.242,-50.781,-57.129,-62.012
1630093540.330,-148.926,-44.434,-28.809,-47.363
1630093540.334,-29.785,-38.574,-8.301,-20.996
1630093540.338,99.609,-48.340,-26.855,-14.648
1630093540.342,-16.602,-50.781,-44.434,-41.016
1630093540.346,-150.391,-52.246,-42.480,-60.547
1630093540.349,-84.961,-50.781,-28.809,-46.875
1630093540.353,80.078,-43.457,-26.367,-20.020
1630093540.357,38.086,-41.016,-41.016,-33.203
1630093540.361,-119.629,-39.551,-37.109,-46.875
1630093540.365,-127.441,-47.852,-40.039,-53.711
1630093540.369,27.832,-49.805,-33.691,-26.855
1630093540.373,75.684,-34.180,-29.785,-11.230
1630093540.376,-82.520,-25.879,-22.949,-32.227
1630093540.380,-159.668,-47.363,-29.785,-41.992
1630093540.384,-24.414,-49.805,-30.273,-27.832
1630093540.388,83.008,-40.527,-34.668,-23.438
1630093540.392,-69.336,-49.316,-51.270,-61.035
1630093540.394,-161.621,-47.363,-48.340,-72.266
1630093540.398,-54.688,-42.480,-32.227,-38.574
1630093540.402,88.379,-44.434,-24.414,-2.930
1630093540.406,-19.531,-51.758,-46.387,-32.715
1630093540.410,-164.551,-54.199,-51.758,-60.059
1630093540.414,-110.352,-48.340,-31.250,-41.016
1630093540.418,77.637,-26.367,-4.883,5.859
1630093540.421,47.363,-31.738,-21.484,-7.812
1630093540.425,-151.855,-59.082,-48.340,-62.012
1630093540.429,-153.809,-51.758,-40.527,-60.547
1630093540.433,21.973,-38.574,-20.996,-22.949
1630093540.437,72.266,-39.062,-40.527,-17.090
1630093540.439,-109.375,-44.434,-62.988,-54.199
1630093540.443,-167.480,-34.668,-47.363,-67.871
1630093540.447,-15.137,-26.367,-23.926,-38.574
1630093540.451,96.191,-40.039,-34.180,-19.531
1630093540.455,-57.617,-53.223,-60.547,-62.500
1630093540.459,-171.387,-48.340,-44.922,-75.195
1630093540.463,-68.848,-29.785,-13.184,-37.109
1630093540.466,82.520,-35.645,-22.949,-17.578
1630093540.470,-9.277,-53.223,-51.758,-45.898
1630093540.474,-176.758,-60.547,-54.688,-74.219
1630093540.478,-139.648,-49.805,-43.945,-66.895
1630093540.482,43.945,-41.992,-29.297,-35.645
1630093540.489,39.062,-48.828,-44.922,-38.574
1630093540.493,-132.812,-50.293,-48.828,-61.035
1630093540.497,-148.926,-45.898,-36.133,-54.688
1630093540.501,7.812,-45.410,-28.809,-26.855
1630093540.505,90.820,-36.133,-38.086,-8.301
1630093540.509,-69.336,-36.621,-45.410,-39.062
1630093540.513,-169.434,-53.223,-39.062,-58.594
1630093540.516,-41.992,-52.246,-24.902,-29.785
1630093540.520,96.680,-40.527,-25.391,-12.207
1630093540.524,-41.504,-39.062,-37.109,-33.203
1630093540.528,-171.875,-46.387,-35.156,-39.551
1630093540.532,-99.121,-47.852,-32.227,-23.438
1630093540.543,65.918,-33.691,-23.926,-1.465
1630093540.547,12.207,-34.180,-39.551,-20.020
1630093540.551,-160.645,-42.480,-46.875,-48.340
1630093540.555,-139.160,-43.945,-33.203,-35.645
1630093540.559,52.246,-35.645,-16.113,0.488
1630093540.563,93.750,-14.648,-14.648,11.719
1630093540.567,-84.473,-20.508,-27.344,-18.555
1630093540.570,-156.738,-41.992,-33.691,-41.016
1630093540.574,-0.977,-39.551,-26.367,-9.766
1630093540.578,96.191,-33.203,-33.203,1.953
1630093540.582,-68.848,-38.086,-48.340,-27.832
1630093540.586,-166.016,-44.922,-54.688,-52.734
1630093540.588,-35.645,-39.551,-37.598,-34.180
1630093540.592,114.746,-39.062,-31.250,-1.465
1630093540.596,-6.348,-42.480,-52.734,-34.180
1630093540.600,-158.691,-46.387,-48.340,-50.781
1630093540.604,-98.633,-47.852,-36.133,-34.668
1630093540.608,86.426,-36.133,-31.250,-1.465
1630093540.612,34.668,-36.133,-49.316,-21.973
1630093540.615,-152.344,-50.293,-61.035,-63.965
1630093540.619,-115.234,-29.297,-20.508,-29.297
1630093540.623,66.406,-16.602,-0.977,7.812
1630093540.627,76.172,-38.086,-41.016,-20.996
1630093540.631,-101.074,-42.480,-49.805,-54.688
1630093540.634,-152.832,-37.598,-38.086,-51.270
1630093540.638,-12.695,-35.645,-21.973,-29.297
1630093540.642,91.309,-35.645,-29.785,-24.414
1630093540.646,-55.664,-37.598,-42.969,-45.410
1630093540.650,-161.621,-35.645,-34.668,-52.734
1630093540.654,-64.453,-35.156,-28.320,-47.852
1630093540.658,91.309,-37.598,-26.367,-26.367
1630093540.661,-1.953,-39.062,-39.551,-37.598
1630093540.665,-156.250,-37.109,-35.156,-57.129
1630093540.669,-122.070,-47.363,-27.832,-58.105
1630093540.673,52.734,-49.805,-23.438,-31.738
1630093540.677,37.598,-44.434,-33.691,-38.574
1630093540.678,-146.484,-51.758,-38.086,-68.848
1630093540.682,-172.852,-61.523,-32.227,-75.684
1630093540.686,0.000,-46.875,-21.973,-52.246
1630093540.690,68.848,-42.969,-35.645,-45.410
1630093540.694,-109.863,-59.570,-44.434,-78.125
1630093540.698,-189.453,-62.988,-38.574,-83.984
1630093540.702,-49.805,-53.711,-23.438,-51.270
1630093540.705,94.238,-40.527,-10.254,-6.836
1630093540.709,-54.688,-51.758,-32.715,-37.598
1630093540.713,-194.824,-57.129,-47.363,-74.707
1630093540.717,-95.703,-42.969,-34.180,-61.035
1630093540.721,70.801,-42.480,-27.832,-36.621
1630093540.725,-16.113,-50.781,-47.852,-60.547
1630093540.729,-179.688,-56.641,-51.270,-84.473
1630093540.733,-150.879,-53.223,-35.645,-75.195
1630093540.737,37.109,-41.016,-16.113,-40.527
1630093540.741,41.992,-50.293,-38.574,-46.875
1630093540.745,-143.555,-65.918,-55.664,-82.520
1630093540.749,-166.992,-55.664,-30.273,-67.383
1630093540.752,23.926,-39.062,-0.488,-10.254
1630093540.756,99.121,-43.945,-31.250,-20.996
1630093540.760,-101.074,-51.758,-62.500,-96.680
1630093540.764,-184.082,-45.898,-47.363,-112.305
1630093540.768,-53.711,-31.738,-31.250,-86.426
1630093540.768,81.055,-23.438,-30.762,-66.406
1630093540.772,-34.180,-27.832,-44.922,-79.590
1630093540.776,-167.969,-32.715,-44.434,-94.727
1630093540.780,-99.121,-28.320,-31.738,-83.496
1630093540.784,83.008,-18.066,-23.926,-53.711
1630093540.788,17.090,-26.367,-48.828,-77.637
1630093540.792,-142.578,-20.020,-36.621,-95.703
1630093540.795,-113.770,-15.137,-12.207,-83.984
1630093540.799,39.062,-28.320,-16.602,-66.406
1630093540.803,60.059,-29.785,-28.809,-57.129
1630093540.807,-114.746,-33.691,-42.969,-95.215
1630093540.811,-165.527,-32.715,-40.039,-112.305
1630093540.813,-14.648,-32.227,-32.227,-87.402
1630093540.817,93.750,-24.414,-32.227,-68.359
1630093540.821,-59.082,-26.367,-36.621,-91.309
1630093540.825,-170.410,-37.109,-38.574,-109.375
1630093540.829,-65.430,-35.645,-28.809,-93.262
1630093540.833,90.332,-17.090,-20.996,-69.336
1630093540.837,-9.277,-10.254,-32.715,-74.219
1630093540.840,-165.039,-34.180,-45.410,-101.562
1630093540.844,-125.977,-46.387,-41.504,-98.145
1630093540.848,62.012,-26.367,-12.695,-50.293
1630093540.852,38.574,-18.555,-19.531,-56.152
1630093540.856,-154.785,-42.480,-45.898,-105.957
1630093540.860,-165.039,-49.316,-38.574,-102.539
1630093540.864,2.930,-36.133,-28.320,-73.730
1630093540.868,45.410,-37.598,-42.480,-75.684
1630093540.872,-136.230,-52.246,-54.199,-105.957
1630093540.876,-204.590,-56.641,-49.805,-116.211
1630093540.880,-62.012,-44.434,-39.551,-88.867
1630093540.884,60.059,-40.527,-45.410,-73.730
1630093540.887,-90.332,-52.734,-61.035,-113.770
1630093540.891,-210.938,-56.641,-60.059,-125.000
1630093540.895,-95.215,-38.086,-33.203,-88.379
1630093540.899,68.848,-34.180,-24.902,-63.477
1630093540.903,-33.691,-54.688,-53.711,-95.215
1630093540.919,-191.895,-55.664,-52.246,-118.164
1630093540.923,-150.879,-52.734,-35.156,-104.980
1630093540.927,31.250,-44.434,-25.879,-72.754
1630093540.931,11.230,-49.316,-51.270,-87.891
1630093540.935,-158.203,-50.293,-54.688,-112.305
1630093540.939,-159.180,-33.691,-29.297,-97.656
1630093540.943,-6.348,-37.598,-32.715,-79.590
1630093540.946,53.711,-45.898,-51.270,-75.684
1630093540.950,-110.840,-49.316,-49.316,-107.422
1630093540.954,-197.266,-46.875,-37.598,-128.906
1630093540.958,-67.871,-43.457,-29.785,-116.699
1630093540.962,70.312,-39.551,-41.016,-105.469
1630093540.964,-61.523,-38.574,-58.594,-124.023
1630093540.968,-193.359,-46.387,-57.129,-138.184
1630093540.972,-108.398,-49.316,-42.480,-125.000
1630093540.976,65.430,-45.410,-24.902,-81.055
1630093540.980,-11.719,-53.223,-45.410,-100.098
1630093540.984,-187.500,-53.223,-53.223,-128.906
1630093540.988,-157.715,-47.852,-36.133,-98.633
1630093540.991,28.320,-45.410,-24.902,-65.430
1630093540.995,35.645,-40.527,-38.086,-75.195
1630093540.999,-143.066,-41.992,-49.316,-103.027
1630093541.003,-182.129,-48.828,-45.410,-104.980
1630093541.007,-29.297,-44.434,-28.320,-71.289
1630093541.008,62.500,-44.434,-37.598,-62.988
1630093541.012,-102.539,-48.828,-49.805,-97.656
1630093541.016,-200.195,-45.410,-41.016,-107.422
1630093541.020,-66.406,-37.598,-27.832,-80.078
1630093541.024,83.984,-23.926,-25.879,-47.363
1630093541.028,-45.898,-36.133,-46.875,-85.938
1630093541.032,-196.289,-50.781,-53.711,-111.328
1630093541.035,-115.234,-37.598,-29.785,-73.730
1630093541.039,69.336,-26.855,-17.090,-40.039
1630093541.043,1.953,-44.922,-54.199,-83.008
1630093541.047,-172.852,-58.105,-60.547,-114.746
1630093541.051,-166.016,-55.176,-43.945,-95.703
1630093541.054,16.113,-42.969,-32.227,-65.430
1630093541.058,54.199,-42.969,-47.363,-73.242
1630093541.062,-133.301,-48.340,-57.129,-99.121
1630093541.066,-180.664,-48.340,-49.316,-98.633
1630093541.070,-24.414,-47.363,-36.133,-55.664
