timestamps,TP9,AF7,AF8,TP10
1630094477.636,107.422,-45.410,-17.578,-35.156
1630094477.640,-238.770,-28.809,-14.160,-29.785
1630094477.644,-186.035,-25.391,-51.270,-27.344
1630094477.648,188.477,-41.016,-81.055,-51.270
1630094477.652,185.059,-44.922,-25.879,-49.316
1630094477.656,-138.672,-24.414,9.277,0.977
1630094477.660,-201.660,-9.277,-18.555,14.160
1630094477.663,83.496,-22.949,-82.031,-59.082
1630094477.667,214.355,-41.504,-50.781,-86.914
1630094477.671,-60.059,-0.488,19.043,-16.602
1630094477.675,-197.754,35.645,20.508,17.090
1630094477.679,-37.598,-21.973,-85.449,-41.992
1630094477.696,200.684,-38.574,-77.148,-47.852
1630094477.700,9.277,-29.297,-8.789,-6.348
1630094477.704,-295.410,-30.762,-32.715,-24.414
1630094477.708,-188.477,-39.062,-82.031,-64.941
1630094477.712,189.453,-41.992,-86.426,-58.594
1630094477.716,140.137,-22.461,-11.719,-32.227
1630094477.720,-257.324,-25.879,-22.461,-53.223
1630094477.723,-262.695,-40.527,-81.543,-71.777
1630094477.727,127.441,-31.250,-99.121,-68.359
1630094477.731,216.309,-7.324,-6.836,-29.297
1630094477.735,-143.555,-23.438,0.977,-31.738
1630094477.739,-288.574,-32.227,-63.477,-53.223
1630094477.741,27.344,-31.250,-104.980,-53.711
1630094477.745,223.633,-28.320,-58.594,-53.711
1630094477.749,-97.168,-29.297,-17.090,-43.945
1630094477.753,-311.523,-30.762,-41.992,-46.387
1630094477.757,-104.004,-29.297,-97.168,-65.918
1630094477.761,226.074,-37.598,-80.566,-68.359
1630094477.765,55.664,-44.922,-13.672,-12.207
1630094477.768,-295.898,-42.480,-39.551,-51.270
1630094477.772,-173.340,-13.184,-64.453,-62.500
1630094477.776,270.020,28.809,-26.367,10.254
1630094477.780,169.922,-13.672,-4.883,-32.715
1630094477.784,-240.723,-32.227,-19.043,-51.758
1630094477.787,-257.324,-19.043,-47.852,-37.598
1630094477.791,95.215,-36.133,-90.820,-67.871
1630094477.795,185.059,-48.828,-47.852,-73.242
1630094477.799,-167.480,-38.086,-12.207,-59.570
1630094477.803,-281.250,-20.020,-33.691,-60.547
1630094477.807,12.207,-27.344,-91.797,-77.148
1630094477.811,216.797,-37.109,-62.988,-87.891
1630094477.814,-90.332,-29.785,-16.113,-63.477
1630094477.818,-321.289,5.859,-5.371,-48.340
1630094477.822,-138.184,-19.043,-74.707,-109.375
1630094477.826,197.754,-29.785,-77.148,-122.559
1630094477.830,19.043,-23.438,-3.906,-99.609
1630094477.832,-396.484,-39.551,-35.645,-125.000
1630094477.836,-319.336,-32.715,-78.125,-166.016
1630094477.840,73.730,-18.555,-74.707,-180.176
1630094477.844,44.922,-0.488,-1.953,-168.945
1630094477.848,-347.168,-11.230,-4.395,-186.523
1630094477.852,-400.879,-17.090,-52.734,-202.637
1630094477.856,-88.867,-16.602,-91.797,-247.559
1630094477.859,22.949,2.441,-13.672,-240.234
1630094477.863,-270.996,36.133,60.059,-206.543
1630094477.867,-500.977,8.301,-18.066,-257.812
1630094477.871,-274.902,-13.672,-98.633,-312.500
1630094477.875,37.598,7.812,-31.250,-304.199
1630094477.876,-216.309,2.441,18.066,-278.320
1630094477.880,-539.551,-33.691,-33.203,-283.203
1630094477.884,-343.262,-28.809,-80.566,-271.973
1630094477.888,41.504,-26.367,-71.289,-265.625
1630094477.892,-81.055,-32.227,-8.301,-221.680
1630094477.896,-405.762,-36.133,-21.484,-177.734
1630094477.900,-335.449,-44.434,-76.660,-176.270
1630094477.903,125.488,-19.043,-66.406,-146.484
1630094477.907,151.367,-25.879,-7.812,-117.188
1630094477.911,-260.742,-47.852,-16.113,-100.098
1630094477.915,-314.453,-54.199,-63.477,-121.094
1630094477.919,29.785,-63.965,-110.352,-129.395
1630094477.921,200.195,-64.453,-58.105,-85.449
1630094477.925,-142.090,-72.754,-24.414,-75.195
1630094477.929,-327.637,-71.289,-61.523,-64.941
1630094477.933,-31.738,-60.547,-107.910,-55.176
1630094477.937,267.090,-59.082,-70.312,-48.340
1630094477.941,8.301,-60.547,-22.461,-46.387
1630094477.945,-262.207,-43.457,-35.645,-11.230
1630094477.948,-93.750,-34.180,-65.430,3.418
1630094477.952,225.098,-62.988,-88.379,-47.363
1630094477.956,164.062,-55.176,-27.344,-12.207
1630094477.960,-147.949,-30.762,-6.348,16.602
1630094477.964,-159.668,-36.621,-48.828,-0.977
1630094477.966,168.457,-65.430,-100.586,-23.438
1630094477.970,223.633,-71.777,-47.852,-19.531
1630094477.974,-145.508,-64.941,-29.785,2.441
1630094477.978,-269.043,-61.035,-68.848,2.441
1630094477.982,52.734,-72.266,-118.164,-37.109
1630094477.986,272.461,-62.500,-59.570,-16.113
1630094477.990,-8.301,-37.109,4.395,33.691
1630094477.993,-247.559,-49.805,-44.434,4.883
1630094477.997,-26.367,-56.152,-97.168,-8.789
1630094478.001,297.852,-54.688,-66.406,-11.719
1630094478.005,91.309,-53.223,-8.789,-0.977
1630094478.009,-236.328,-43.945,-31.738,12.207
1630094478.012,-124.512,-45.898,-78.613,2.930
1630094478.016,266.113,-45.410,-73.242,20.020
1630094478.020,226.562,-39.062,-12.695,49.316
1630094478.024,-172.852,-40.527,-20.996,14.160
1630094478.028,-197.266,-45.410,-67.871,0.000
1630094478.032,190.918,-36.133,-89.844,-0.488
1630094478.036,295.410,-27.344,-20.996,17.090
1630094478.039,-86.426,-41.016,-10.742,12.695
1630094478.043,-251.953,-49.805,-62.988,-4.883
1630094478.047,59.570,-54.688,-106.934,-9.766
1630094478.051,319.336,-32.227,-47.363,7.324
1630094478.055,28.320,-28.320,-4.395,35.156
1630094478.071,-262.695,-40.527,-47.852,19.531
1630094478.075,-66.406,-39.062,-95.215,-18.555
1630094478.079,284.668,-43.945,-81.055,-5.371
1630094478.083,107.910,-44.922,-18.066,22.949
1630094478.087,-240.234,-42.480,-27.344,-7.324
1630094478.091,-86.914,-15.137,-44.922,7.812
1630094478.095,277.832,-22.949,-64.941,11.230
1630094478.098,184.082,-42.969,-34.180,-8.789
1630094478.102,-176.758,-38.086,-23.926,-13.184
1630094478.106,-199.219,-27.344,-57.617,-9.277
1630094478.110,121.582,-30.273,-90.820,-12.695
1630094478.114,244.629,-42.969,-39.062,-9.277
1630094478.116,-88.867,-43.457,-16.113,5.859
1630094478.120,-259.277,-35.156,-56.641,-12.207
1630094478.124,39.062,-28.809,-97.656,-15.137
1630094478.128,321.777,-30.273,-54.199,10.742
1630094478.132,41.016,-33.691,-7.324,29.785
1630094478.136,-253.418,-38.574,-36.133,-0.488
1630094478.140,-33.203,-39.551,-81.055,-13.184
1630094478.143,285.156,-40.039,-77.148,-20.508
1630094478.147,111.328,-22.949,-6.836,2.441
1630094478.151,-150.879,17.090,23.926,59.082
1630094478.155,-140.137,-16.602,-45.898,24.414
1630094478.159,151.855,-53.711,-101.074,-36.621
1630094478.162,188.477,-37.109,-25.879,-18.555
1630094478.166,-160.645,-34.668,-10.254,6.836
1630094478.170,-252.930,-43.945,-62.988,-10.254
1630094478.174,105.957,-33.203,-91.309,6.348
1630094478.178,245.605,-33.203,-37.598,14.648
1630094478.182,-138.672,-40.527,-17.578,-35.156
1630094478.186,-317.871,-38.574,-61.523,-61.035
1630094478.189,-19.531,-45.898,-104.004,-43.457
1630094478.193,291.992,-15.625,-33.203,-14.648
1630094478.197,31.250,-9.277,14.160,-7.812
1630094478.201,-308.105,-29.297,-33.203,-20.996
1630094478.205,-152.344,-35.156,-86.914,-22.461
1630094478.207,231.934,-25.879,-75.195,-18.066
1630094478.211,114.746,-22.949,-7.812,-4.883
1630094478.215,-253.418,-33.691,-23.926,-20.508
1630094478.219,-213.867,-32.715,-73.730,-52.246
1630094478.223,151.855,-32.227,-101.074,-54.688
1630094478.227,215.820,-26.855,-34.180,-22.949
1630094478.231,-151.855,-30.273,-21.973,-25.391
1630094478.234,-245.117,-18.066,-46.387,-14.648
1630094478.238,113.770,-4.395,-64.453,0.977
1630094478.242,280.762,-27.832,-33.691,-24.414
1630094478.246,-64.453,-33.203,-10.254,-27.832
1630094478.250,-277.344,-14.160,-28.320,-0.977
1630094478.253,-8.789,-9.766,-67.383,-20.020
1630094478.257,261.230,-29.297,-62.500,-48.340
1630094478.261,59.082,-23.438,-2.441,-10.254
1630094478.265,-209.473,0.488,3.906,32.227
1630094478.269,-164.551,-26.855,-70.312,-33.691
1630094478.273,189.941,-50.293,-100.098,-75.684
1630094478.277,175.781,-34.180,-18.066,-27.344
1630094478.280,-193.848,-11.719,6.348,5.859
1630094478.284,-237.793,-34.180,-49.316,0.000
1630094478.288,131.836,-43.457,-99.609,-49.316
1630094478.292,237.793,-28.320,-35.645,-48.340
1630094478.296,-115.234,-21.973,1.953,-12.207
1630094478.296,-265.625,-24.414,-41.016,-28.320
1630094478.300,41.504,-38.086,-97.168,-41.504
1630094478.304,290.039,-33.203,-49.805,-31.738
1630094478.308,-23.438,-30.273,-0.488,-25.391
1630094478.312,-277.344,-38.086,-36.133,-16.602
1630094478.316,-58.105,-41.016,-92.773,-27.832
1630094478.320,270.020,-39.062,-72.266,-46.387
1630094478.323,126.953,-16.602,21.484,-16.602
1630094478.327,-229.004,-32.227,-8.301,-23.438
1630094478.331,-160.645,-42.480,-73.242,-51.270
1630094478.335,225.586,-23.438,-57.129,-28.320
1630094478.339,202.148,-27.344,7.812,-4.883
1630094478.341,-188.965,-34.180,-5.859,-9.766
1630094478.345,-212.402,-29.297,-48.828,-46.875
1630094478.349,139.648,-34.668,-85.938,-67.383
1630094478.353,246.094,-33.203,-33.203,-29.297
1630094478.357,-104.492,-41.016,-17.090,-36.621
1630094478.361,-287.109,-46.875,-56.152,-56.641
1630094478.365,13.672,-14.160,-63.965,-17.578
1630094478.368,255.859,-26.367,-37.598,-31.250
1630094478.372,-50.781,-41.992,-15.137,-43.945
1630094478.376,-302.734,-23.926,-33.203,-43.945
1630094478.380,-97.168,-16.602,-74.707,-28.809
1630094478.384,224.121,-31.738,-77.148,-36.621
1630094478.386,92.285,-25.391,-13.672,-60.059
1630094478.390,-233.887,-24.414,-20.508,-38.086
1630094478.394,-192.383,-35.645,-69.824,-24.414
1630094478.398,163.574,-31.738,-82.031,-46.875
1630094478.402,170.898,-32.715,-32.227,-62.988
1630094478.406,-179.199,-23.438,-15.137,-46.387
1630094478.410,-256.836,-21.484,-43.945,-42.969
1630094478.413,62.012,-41.992,-94.727,-62.500
1630094478.417,208.008,-41.504,-45.898,-56.641
1630094478.421,-89.844,-20.508,5.859,-17.578
1630094478.425,-235.840,-19.531,-30.273,4.883
1630094478.429,-24.902,-45.410,-95.703,-36.621
1630094478.446,216.309,-45.898,-50.781,-57.129
1630094478.450,0.977,-36.133,17.578,-25.879
1630094478.454,-320.801,-55.176,-29.785,-41.016
1630094478.458,-185.547,-66.406,-86.914,-67.871
1630094478.462,193.848,-64.453,-79.590,-61.035
1630094478.466,108.398,-46.875,-4.395,-10.742
1630094478.470,-224.121,-47.852,-3.906,-17.578
1630094478.473,-227.539,-64.453,-61.035,-85.938
1630094478.477,123.047,-58.594,-82.520,-66.895
1630094478.481,199.219,-37.598,-5.859,-20.020
1630094478.485,-175.781,-39.062,4.883,-15.625
1630094478.489,-285.156,-44.434,-41.992,-32.227
1630094478.494,52.734,-54.199,-96.680,-39.062
1630094478.498,247.559,-49.316,-49.805,-28.809
1630094478.502,-65.918,-39.551,-4.395,-28.809
1630094478.506,-316.895,-51.270,-50.293,-47.852
1630094478.510,-68.359,-42.969,-91.309,-47.852
1630094478.514,274.902,-20.508,-54.199,-50.781
1630094478.518,53.223,-23.926,-4.395,-40.527
1630094478.521,-296.387,-43.457,-35.156,-32.227
1630094478.525,-178.223,-39.551,-74.707,-56.152
1630094478.529,245.117,-6.348,-43.945,-43.945
1630094478.533,148.438,-24.902,-5.371,-46.875
1630094478.537,-250.488,-52.734,-24.902,-44.434
1630094478.536,-241.211,-47.852,-58.105,-32.715
1630094478.540,107.422,-50.293,-97.656,-70.312
1630094478.544,189.941,-52.734,-40.039,-62.012
1630094478.548,-145.020,-43.945,-12.695,-10.742
1630094478.552,-266.602,-33.203,-53.223,-29.297
1630094478.556,27.344,-37.109,-101.074,-76.172
1630094478.560,221.680,-48.828,-62.500,-67.871
1630094478.563,-78.125,-40.527,-14.160,-48.828
1630094478.567,-253.906,4.883,-5.371,2.930
1630094478.571,-38.574,-8.789,-61.523,-14.648
1630094478.575,211.914,-46.875,-84.473,-58.105
1630094478.579,39.551,-37.109,-21.484,-41.504
1630094478.581,-281.250,-38.086,-30.762,-43.457
1630094478.585,-186.523,-36.621,-75.195,-50.781
1630094478.589,173.828,-34.180,-88.379,-64.941
1630094478.593,149.414,-31.738,-25.879,-46.875
1630094478.597,-171.387,-20.996,-6.836,-15.137
1630094478.601,-214.844,-16.602,-42.480,-29.785
1630094478.605,96.680,-33.691,-99.121,-77.148
1630094478.608,235.840,-23.926,-35.156,-55.664
1630094478.612,-40.527,10.742,32.715,19.531
1630094478.616,-280.273,-25.879,-41.504,-20.020
1630094478.620,-29.785,-41.504,-111.816,-49.316
1630094478.624,262.695,-15.137,-44.922,-13.672
1630094478.627,-22.461,-26.855,0.000,-2.441
1630094478.631,-314.941,-41.504,-45.898,-14.648
1630094478.635,-127.930,-34.668,-83.496,-34.180
1630094478.639,193.359,-48.828,-79.102,-49.316
1630094478.643,19.531,-50.293,-24.902,-38.086
1630094478.647,-291.504,-40.527,-28.320,-35.645
1630094478.651,-218.750,-37.109,-75.195,-69.824
1630094478.654,164.551,-13.672,-71.289,-45.898
1630094478.658,183.105,-19.531,-12.695,-20.996
1630094478.662,-197.754,-32.715,-20.996,-33.691
1630094478.666,-281.738,-33.203,-60.059,-40.039
1630094478.670,73.242,-30.762,-88.867,-41.504
1630094478.671,231.445,-39.551,-40.527,-37.109
1630094478.675,-115.234,-46.875,-19.043,-26.367
1630094478.679,-311.035,-41.992,-57.129,-41.992
1630094478.683,-43.945,-42.969,-106.934,-53.223
1630094478.687,236.328,-42.480,-70.312,-53.223
1630094478.691,-18.555,-50.781,-19.531,-54.199
1630094478.695,-277.832,-33.203,-35.156,-45.410
1630094478.698,-92.285,-17.578,-64.941,-30.762
1630094478.702,211.914,-50.293,-81.055,-53.711
1630094478.706,118.652,-44.922,-27.344,-29.297
1630094478.710,-201.172,-13.672,-1.953,14.160
1630094478.714,-219.727,-25.879,-44.922,-34.180
1630094478.718,104.492,-60.059,-101.562,-86.426
1630094478.722,174.316,-50.781,-33.203,-49.316
1630094478.726,-137.207,-17.578,10.254,2.930
1630094478.730,-285.156,-29.297,-46.875,-41.016
1630094478.734,-14.160,-56.152,-115.234,-100.586
1630094478.738,200.195,-51.270,-54.688,-74.707
1630094478.742,-46.387,-6.836,21.973,-20.508
1630094478.745,-273.926,-11.719,-35.645,-12.207
1630094478.749,-102.051,-42.969,-116.211,-47.363
1630094478.753,217.773,-35.156,-80.078,-88.379
1630094478.757,28.320,-25.391,-19.531,-72.754
1630094478.761,-286.621,-28.809,-36.621,-62.500
1630094478.763,-167.969,-36.621,-85.449,-70.312
1630094478.767,193.848,-32.227,-87.402,-63.965
1630094478.771,131.348,-31.250,-21.973,-49.805
1630094478.775,-240.723,-32.227,-24.414,-28.809
1630094478.779,-252.441,-34.668,-80.078,-56.641
1630094478.783,130.371,-26.367,-96.680,-73.730
1630094478.787,269.043,15.137,13.184,2.930
1630094478.790,-124.512,-18.066,4.883,-3.906
1630094478.794,-314.941,-48.340,-70.801,-47.363
1630094478.798,32.715,-20.508,-87.891,-48.340
1630094478.802,265.137,-20.996,-39.551,-36.133
1630094478.806,-82.520,-42.480,-16.602,-47.852
1630094478.821,-327.637,-44.922,-51.758,-58.594
1630094478.825,-105.469,-41.992,-101.074,-44.922
1630094478.829,219.727,-42.969,-87.891,-67.871
1630094478.833,47.852,-44.434,-31.738,-64.941
1630094478.837,-277.832,-36.621,-39.062,-46.387
1630094478.841,-165.527,-20.996,-75.195,-52.246
1630094478.845,215.820,-35.156,-93.262,-61.035
1630094478.848,159.668,-45.898,-31.250,-46.875
1630094478.852,-249.023,-34.668,-21.484,-42.969
1630094478.856,-266.602,-11.230,-48.340,-33.691
1630094478.860,93.750,-26.855,-93.262,-52.246
1630094478.864,188.477,-45.898,-48.828,-55.664
1630094478.866,-162.598,-35.645,-11.719,-40.039
1630094478.870,-313.477,-30.762,-46.875,-45.410
1630094478.874,-15.625,-38.086,-99.121,-52.246
1630094478.878,213.379,-46.875,-74.219,-59.570
1630094478.882,-52.246,-41.992,-19.531,-43.457
1630094478.886,-289.062,-31.738,-31.738,-10.254
1630094478.890,-122.070,-43.945,-92.773,-55.664
1630094478.893,192.383,-61.035,-94.238,-87.891
1630094478.897,90.820,-39.062,-16.602,-31.250
1630094478.901,-215.332,-8.301,2.441,1.465
1630094478.905,-197.754,-34.180,-63.477,-35.645
1630094478.909,131.836,-50.781,-102.539,-62.012
1630094478.911,173.828,-28.809,-22.461,-30.762
1630094478.915,-179.199,-30.273,-20.020,-21.973
1630094478.919,-277.344,-42.480,-73.242,-49.316
1630094478.923,61.035,-44.922,-107.422,-66.895
1630094478.927,228.516,-41.504,-51.270,-55.664
1630094478.931,-100.098,-32.227,-7.324,-52.246
1630094478.935,-310.059,-34.668,-61.523,-53.223
1630094478.938,-13.184,-39.062,-109.863,-38.574
1630094478.942,312.500,-20.020,-30.273,-10.742
1630094478.946,18.555,-44.434,10.742,-29.785
1630094478.950,-292.480,-58.594,-28.320,-35.156
1630094478.954,-148.438,-47.852,-73.242,-35.645
1630094478.958,185.547,-56.641,-74.707,-62.988
1630094478.962,114.258,-49.805,-2.441,-56.152
1630094478.966,-240.234,-49.805,-18.066,-43.945
1630094478.970,-242.188,-55.176,-69.336,-44.922
1630094478.974,144.043,-48.828,-78.125,-35.645
1630094478.978,216.797,-40.039,-13.184,-24.902
1630094478.982,-167.969,-45.898,-13.672,-35.645
1630094478.985,-276.855,-38.574,-55.176,-49.316
1630094478.989,74.219,-20.996,-82.031,-47.363
1630094478.993,242.188,-36.133,-47.852,-36.133
1630094478.997,-74.219,-42.969,-11.230,-13.672
1630094479.001,-268.555,-21.484,-20.020,-10.254
1630094479.001,-35.156,-25.391,-68.848,-27.344
1630094479.005,262.207,-45.410,-60.547,-49.805
1630094479.009,65.430,-34.180,0.488,-35.645
1630094479.013,-269.043,-32.227,-15.625,-21.973
1630094479.017,-151.855,-28.320,-66.895,-32.715
1630094479.021,197.754,-35.156,-83.008,-49.805
1630094479.025,125.488,-41.504,-24.902,-30.273
1630094479.028,-163.574,-3.906,11.719,6.348
1630094479.032,-167.969,-10.742,-30.273,-13.672
1630094479.036,104.492,-50.293,-102.051,-69.824
1630094479.040,178.223,-41.016,-46.875,-51.270
1630094479.044,-126.953,-27.344,-9.766,-23.438
1630094479.046,-268.555,-27.344,-45.898,-48.340
1630094479.050,21.973,-41.016,-96.680,-59.570
1630094479.054,262.207,-46.387,-50.781,-25.879
1630094479.058,-48.340,-40.527,-10.254,-40.039
1630094479.062,-317.871,-42.969,-56.152,-63.477
1630094479.066,-72.754,-35.645,-101.074,-51.758
1630094479.070,254.395,-29.785,-75.684,-52.246
1630094479.073,65.918,-31.738,-8.301,-24.902
1630094479.077,-270.996,-37.109,-24.902,-29.785
1630094479.081,-182.129,-43.945,-79.102,-51.758
1630094479.085,195.801,-43.945,-82.520,-49.805
1630094479.089,132.812,-46.875,-20.020,-49.316
1630094479.091,-245.117,-52.734,-21.973,-52.734
1630094479.095,-250.977,-48.340,-63.477,-50.781
1630094479.099,111.816,-44.434,-89.355,-40.527
1630094479.103,230.957,-35.645,-29.785,-28.809
1630094479.107,-125.977,-39.062,-14.648,-32.715
1630094479.111,-297.363,-40.527,-54.688,-60.059
1630094479.115,10.254,-28.320,-94.727,-59.082
1630094479.118,261.719,-35.156,-58.105,-29.785
1630094479.122,-23.438,-45.898,2.441,-23.438
1630094479.126,-311.035,-45.410,-20.996,-38.086
1630094479.130,-131.348,-50.293,-85.449,-75.684
1630094479.134,226.074,-53.711,-84.473,-84.473
1630094479.137,84.473,-45.898,-21.973,-44.434
1630094479.141,-256.348,-39.551,-31.250,-39.062
1630094479.145,-187.500,-36.133,-70.801,-48.340
1630094479.149,182.617,-38.574,-80.078,-53.711
1630094479.153,178.711,-40.039,-27.832,-34.180
1630094479.157,-162.109,-28.320,-9.766,-12.695
1630094479.161,-222.168,-18.066,-38.086,-47.363
1630094479.164,84.961,-29.785,-88.379,-67.871
1630094479.168,226.562,-35.645,-45.898,-39.551
1630094479.172,-88.379,-30.762,-8.789,-29.297
1630094479.176,-283.691,-37.598,-50.781,-57.129
1630094479.180,-40.039,-43.457,-103.516,-67.383
1630094479.197,242.188,-33.203,-57.617,-30.273
1630094479.201,19.043,-20.508,0.000,-12.695
1630094479.205,-294.434,-28.809,-39.551,-57.617
1630094479.209,-156.250,-33.691,-85.449,-73.730
1630094479.213,217.773,-28.320,-68.359,-48.340
1630094479.217,139.160,-9.277,15.137,-11.230
1630094479.221,-232.910,-17.090,-0.488,-22.949
1630094479.224,-239.746,-44.434,-70.312,-49.316
1630094479.228,143.066,-39.551,-88.379,-64.941
1630094479.232,201.660,-20.508,-20.508,-21.484
1630094479.236,-172.363,-16.602,3.906,4.883
1630094479.240,-291.992,-33.203,-44.434,-48.340
1630094479.241,24.902,-44.434,-100.586,-75.195
1630094479.245,203.613,-41.504,-49.805,-62.012
1630094479.249,-105.957,-35.645,-3.906,-43.457
1630094479.253,-297.852,-35.156,-30.273,-49.316
1630094479.257,-34.180,-40.527,-84.473,-57.129
1630094479.261,275.879,-34.668,-58.594,-43.457
1630094479.265,52.734,-26.367,6.348,-16.113
1630094479.268,-276.367,-38.574,-24.902,-26.367
1630094479.272,-145.020,-33.691,-63.965,-37.109
1630094479.276,263.672,5.371,-36.133,-24.414
1630094479.280,172.363,-8.789,8.301,-27.344
1630094479.284,-221.191,-45.410,-17.578,-25.879
1630094479.286,-235.840,-42.969,-64.941,-45.898
1630094479.290,127.930,-32.715,-93.262,-75.684
1630094479.294,235.352,-25.391,-34.668,-45.410
1630094479.298,-152.344,-38.086,-21.973,-39.062
1630094479.302,-316.406,-57.617,-68.848,-68.848
1630094479.306,20.996,-45.898,-110.352,-65.430
1630094479.310,244.629,-35.156,-64.453,-42.969
1630094479.313,-50.293,-35.645,-18.066,-24.414
1630094479.317,-271.973,-20.508,-33.691,-24.414
1630094479.321,-54.688,-25.391,-84.961,-34.180
1630094479.325,239.746,-46.387,-85.449,-49.316
1630094479.329,45.410,-44.434,-22.461,-59.082
1630094479.331,-276.855,-40.039,-34.668,-49.805
1630094479.335,-175.781,-38.086,-77.637,-54.199
1630094479.339,210.938,-34.668,-80.566,-46.875
1630094479.343,163.086,-41.992,-19.531,-30.762
1630094479.347,-215.332,-46.387,-14.648,-41.504
1630094479.351,-258.301,-48.340,-68.359,-54.688
1630094479.355,77.148,-55.664,-114.746,-69.824
1630094479.358,226.074,-30.762,-31.250,-25.879
1630094479.362,-70.801,-11.230,20.996,8.789
1630094479.366,-264.648,-42.969,-48.828,-52.246
1630094479.370,-2.930,-46.387,-107.422,-76.172
1630094479.374,282.227,-12.695,-36.133,-26.855
1630094479.376,18.555,-6.836,20.996,-17.090
1630094479.380,-304.199,-41.504,-48.828,-55.176
1630094479.384,-105.469,-36.133,-113.281,-46.387
1630094479.388,263.184,-40.039,-96.680,-24.902
1630094479.392,68.848,-58.105,-17.578,-32.227
1630094479.396,-296.875,-54.199,-21.484,-45.898
1630094479.400,-215.332,-46.387,-68.848,-69.336
1630094479.403,203.125,-34.180,-64.941,-44.922
1630094479.407,170.898,-61.035,-20.996,-38.574
1630094479.411,-240.723,-89.844,-26.855,-51.270
1630094479.415,-280.273,-89.355,-66.406,-49.316
1630094479.419,68.359,-91.309,-104.980,-61.523
1630094479.423,204.102,-98.145,-39.551,-41.504
1630094479.427,-142.090,-100.586,2.441,-7.324
1630094479.431,-312.988,-98.633,-28.809,-3.418
1630094479.435,-23.438,-95.215,-81.055,-22.461
1630094479.439,217.773,-111.328,-60.059,-38.574
1630094479.443,-21.484,-111.328,1.953,-18.555
1630094479.447,-267.578,-93.262,-0.488,8.789
1630094479.450,-105.469,-100.098,-51.758,5.859
1630094479.454,209.961,-117.676,-68.359,-21.973
1630094479.458,91.309,-116.699,-6.836,-16.113
1630094479.462,-238.770,-104.492,-6.836,-8.301
1630094479.466,-207.031,-103.516,-49.316,4.395
1630094479.466,122.070,-112.793,-87.402,-14.160
1630094479.470,138.672,-103.516,-36.133,-36.621
1630094479.474,-183.594,-94.238,-9.766,-5.371
1630094479.478,-259.277,-91.797,-47.363,-0.977
1630094479.482,56.641,-95.215,-94.727,-20.508
1630094479.486,229.492,-92.773,-42.480,-19.531
1630094479.490,-33.691,-61.523,20.996,17.090
1630094479.493,-244.141,-65.430,-20.020,6.348
1630094479.497,-72.266,-94.238,-104.004,-39.551
1630094479.501,223.145,-91.309,-77.148,-35.156
1630094479.505,20.996,-83.984,-18.066,-10.742
1630094479.509,-283.203,-77.148,-38.574,-7.324
1630094479.511,-157.715,-72.754,-82.520,-20.020
1630094479.515,191.895,-83.008,-87.402,-31.738
1630094479.519,115.234,-77.148,-22.949,-19.531
1630094479.523,-216.309,-61.523,-11.719,5.371
1630094479.527,-208.008,-60.059,-57.617,-34.668
1630094479.531,163.574,-48.828,-82.031,-44.434
1630094479.535,284.180,-31.738,-5.371,9.277
1630094479.538,-106.934,-48.340,5.371,20.508
1630094479.542,-301.758,-64.941,-54.688,-1.465
1630094479.546,40.039,-52.734,-93.750,-20.996
1630094479.550,288.574,-33.203,-27.344,2.930
1630094479.554,-30.762,-46.387,0.977,10.254
1630094479.571,-289.062,-56.641,-42.480,-13.184
1630094479.575,-92.773,-63.477,-97.656,-47.852
1630094479.579,231.445,-62.500,-80.566,-45.898
1630094479.583,52.734,-54.199,-10.742,-21.484
1630094479.587,-283.203,-56.641,-27.832,-20.996
1630094479.591,-174.316,-51.758,-82.520,-41.504
1630094479.595,180.664,-59.082,-95.703,-39.551
1630094479.598,144.043,-58.594,-25.391,-18.066
1630094479.602,-185.547,-54.199,-10.742,-23.438
1630094479.606,-215.332,-41.016,-41.504,-17.090
1630094479.610,134.277,-37.598,-80.566,-48.340
1630094479.614,229.004,-45.898,-35.156,-52.734
1630094479.616,-137.695,-42.969,-3.906,-20.996
1630094479.620,-279.785,-31.738,-34.180,-41.992
1630094479.624,7.812,-43.457,-91.309,-64.941
1630094479.628,227.051,-56.152,-62.988,-54.688
1630094479.632,-32.227,-52.246,-9.766,-33.691
1630094479.636,-279.297,-49.316,-34.180,-37.109
1630094479.640,-97.168,-56.641,-89.844,-54.199
1630094479.643,215.332,-59.570,-74.707,-54.199
1630094479.647,81.055,-37.109,6.348,-26.855
1630094479.651,-205.566,-19.043,7.812,4.883
1630094479.655,-166.016,-40.527,-66.895,-18.555
1630094479.659,152.832,-50.781,-91.309,-47.363
1630094479.663,172.363,-28.320,-4.395,-6.348
1630094479.667,-185.547,-29.785,-4.395,-19.531
1630094479.671,-267.090,-58.105,-71.289,-39.551
1630094479.675,95.215,-52.734,-96.191,-20.508
1630094479.679,282.715,-20.508,-17.578,-10.254
1630094479.683,-83.984,-30.273,-0.977,-25.879
1630094479.687,-306.641,-49.316,-62.012,-56.152
1630094479.690,-38.574,-41.016,-108.398,-59.570
1630094479.694,272.461,-7.324,-37.598,-30.762
1630094479.698,36.621,-17.090,4.883,-2.441
1630094479.702,-280.762,-45.898,-45.898,-12.207
1630094479.706,-136.230,-39.062,-96.680,-58.594
1630094479.707,191.895,-43.945,-104.980,-76.172
1630094479.711,69.824,-48.340,-36.621,-56.152
1630094479.715,-256.836,-40.039,-27.832,-34.668
1630094479.719,-205.566,-37.598,-74.219,-42.480
1630094479.723,148.926,-45.898,-99.609,-52.246
1630094479.727,166.504,-39.551,-36.621,-50.293
1630094479.731,-186.035,-38.574,-27.832,-55.664
1630094479.734,-252.441,-34.668,-55.176,-33.203
1630094479.738,102.051,-8.301,-63.965,-14.648
1630094479.742,260.742,-21.484,-37.598,-30.762
1630094479.746,-86.426,-36.621,-16.602,-49.805
1630094479.750,-281.250,-32.715,-36.621,-48.828
1630094479.751,-32.227,-34.180,-93.262,-54.688
1630094479.755,234.863,-44.922,-77.148,-59.082
1630094479.759,7.812,-43.457,-16.602,-33.203
1630094479.763,-284.668,-33.691,-32.227,-27.832
1630094479.767,-142.090,-30.273,-81.543,-47.852
1630094479.771,215.332,-32.227,-84.961,-41.016
1630094479.775,145.996,-25.879,-24.414,-1.465
1630094479.778,-176.270,-7.324,-3.906,8.789
1630094479.782,-189.453,-15.625,-47.363,-24.414
1630094479.786,129.883,-32.715,-81.543,-47.852
1630094479.790,189.453,-34.668,-23.926,-41.992
1630094479.794,-151.367,-33.691,-5.371,-22.461
1630094479.796,-275.879,-35.645,-47.852,-27.344
1630094479.800,44.434,-36.621,-86.426,-33.203
1630094479.804,263.184,-35.645,-35.645,-17.578
1630094479.808,-63.477,-39.062,0.000,-16.113
1630094479.812,-311.035,-37.598,-43.457,-49.316
1630094479.816,-77.637,-35.645,-95.703,-65.430
1630094479.820,253.418,-33.691,-63.477,-50.781
1630094479.823,58.105,-23.438,0.488,-36.133
1630094479.827,-291.504,-36.133,-29.785,-41.016
1630094479.831,-176.758,-37.598,-76.660,-62.012
1630094479.835,188.965,-33.203,-75.195,-56.641
1630094479.839,118.652,-38.574,-17.090,-21.973
1630094479.842,-259.766,-49.316,-27.832,-41.992
1630094479.846,-284.180,-45.410,-68.359,-79.590
1630094479.850,100.098,-33.691,-79.590,-70.312
1630094479.854,188.477,-41.504,-28.320,-54.199
1630094479.858,-168.945,-54.199,-19.531,-60.059
1630094479.862,-291.504,-43.945,-52.734,-47.363
1630094479.866,27.832,-18.066,-75.684,-24.902
1630094479.869,237.305,-33.691,-43.945,-54.688
1630094479.873,-69.336,-50.293,-12.695,-61.523
1630094479.877,-317.871,-45.898,-37.109,-51.758
1630094479.881,-118.164,-51.758,-90.820,-66.895
1630094479.885,235.840,-38.574,-64.941,-50.781
1630094479.903,62.988,-37.598,3.418,-22.461
1630094479.907,-259.766,-58.105,-10.742,16.113
1630094479.911,-151.367,-44.922,-60.059,6.348
1630094479.915,158.691,-34.668,-85.449,-80.078
1630094479.919,93.750,-39.062,-26.367,-103.027
1630094479.923,-238.281,-20.020,-1.465,-77.148
1630094479.927,-254.395,13.672,-18.066,-59.570
1630094479.930,23.438,-18.066,-92.773,-103.027
1630094479.934,83.008,-37.109,-63.965,-153.320
1630094479.938,-229.004,-6.348,-7.324,-147.461
1630094479.942,-386.230,-2.441,-44.922,-155.762
1630094479.946,-182.617,-32.715,-122.070,-208.984
1630094479.946,77.148,-37.109,-89.355,-201.660
1630094479.950,-153.809,-24.902,-21.973,-176.758
1630094479.954,-442.383,-24.414,-55.664,-188.477
1630094479.958,-283.203,-37.598,-119.141,-201.660
1630094479.962,75.195,-37.598,-107.422,-185.547
1630094479.966,-12.207,-21.484,-33.691,-150.879
1630094479.970,-328.613,-23.926,-33.691,-138.672
1630094479.973,-295.898,-26.855,-84.473,-149.902
1630094479.977,75.684,-34.180,-108.887,-137.207
1630094479.981,180.664,7.324,-11.230,-75.195
1630094479.985,-185.547,3.906,-7.324,-81.055
1630094479.989,-319.336,-30.762,-75.684,-122.070
1630094479.991,24.902,-24.414,-111.816,-137.695
1630094479.995,192.383,-24.902,-60.547,-113.770
1630094479.999,-118.652,-24.414,-20.020,-81.055
1630094480.003,-326.172,-26.855,-62.988,-69.824
1630094480.007,-91.309,-36.621,-118.652,-80.566
1630094480.011,208.496,-38.574,-87.891,-79.590
1630094480.015,-5.859,-25.879,-20.020,-67.383
1630094480.018,-312.500,-31.250,-40.527,-81.543
1630094480.022,-172.363,-28.320,-84.961,-89.844
1630094480.026,226.074,3.418,-57.617,-72.266
1630094480.030,124.023,-5.859,-5.371,-48.340
1630094480.034,-268.066,-32.715,-34.668,-63.965
1630094480.036,-263.672,-43.457,-87.402,-89.355
1630094480.040,115.234,-45.898,-109.375,-84.961
1630094480.044,182.129,-38.086,-44.434,-58.105
1630094480.048,-184.082,-35.156,-26.855,-57.617
1630094480.052,-302.734,-36.133,-58.105,-63.965
1630094480.056,29.785,-28.320,-83.496,-58.105
1630094480.060,225.586,-29.297,-37.598,-69.336
1630094480.063,-75.195,-32.715,0.977,-45.898
1630094480.067,-258.301,-1.953,-6.836,-19.043
1630094480.071,-62.988,-7.324,-66.406,-52.734
1630094480.075,213.867,-39.062,-72.754,-67.871
1630094480.079,20.996,-32.715,-11.719,-68.359
1630094480.081,-263.184,-19.531,-20.020,-44.434
1630094480.085,-162.598,-30.762,-71.777,-59.082
1630094480.089,156.250,-43.457,-86.426,-81.055
1630094480.093,115.234,-41.016,-22.461,-41.016
1630094480.097,-230.469,-39.062,-16.113,-30.273
1630094480.101,-246.582,-26.855,-47.852,-51.270
1630094480.105,126.465,-18.066,-68.848,-59.082
1630094480.108,217.285,-17.578,-17.090,-40.039
1630094480.112,-140.625,-21.484,11.230,-4.395
1630094480.116,-317.871,-42.969,-43.945,-53.223
1630094480.120,-50.781,-51.758,-105.957,-99.121
1630094480.124,216.309,-35.156,-45.410,-52.246
1630094480.126,-48.340,-33.691,3.418,-23.926
1630094480.130,-331.543,-37.598,-40.527,-45.898
1630094480.134,-109.375,-28.809,-83.984,-61.523
1630094480.138,246.094,-27.832,-59.570,-42.480
1630094480.142,64.941,-33.203,-1.953,-14.648
1630094480.146,-261.230,-38.086,-24.902,-46.875
1630094480.150,-187.012,-52.246,-76.660,-64.453
1630094480.153,184.570,-36.621,-67.383,-44.922
1630094480.157,156.250,-26.367,-7.812,-43.457
1630094480.161,-213.867,-32.227,-7.324,-23.926
1630094480.165,-244.629,-31.738,-43.457,-27.832
1630094480.169,66.895,-43.457,-102.539,-87.402
1630094480.171,176.270,-41.504,-58.594,-74.219
1630094480.175,-141.602,-36.133,-13.184,-36.133
1630094480.179,-288.086,-36.133,-57.617,-37.598
1630094480.183,-7.324,-34.668,-104.004,-56.152
1630094480.187,222.168,-41.992,-52.734,-74.707
1630094480.191,-28.809,-39.062,-1.465,-57.617
1630094480.195,-271.484,-27.344,-10.742,-45.410
1630094480.198,-83.008,-17.090,-41.016,-23.926
1630094480.202,207.520,-51.758,-60.547,-41.016
1630094480.206,47.363,-70.801,-12.695,-58.594
1630094480.210,-252.441,-45.898,-1.465,-24.902
1630094480.214,-192.383,-41.992,-46.387,-33.691
1630094480.216,126.465,-63.965,-86.426,-88.379
1630094480.220,150.391,-58.594,-25.391,-59.082
1630094480.224,-169.922,-42.480,-4.395,-36.621
1630094480.228,-267.090,-49.805,-49.805,-61.035
1630094480.232,35.156,-67.871,-96.191,-65.918
1630094480.236,216.797,-57.617,-32.715,-36.621
1630094480.240,-55.664,-28.809,15.625,9.277
1630094480.243,-289.062,-46.875,-47.363,-43.457
1630094480.247,-90.332,-61.523,-113.770,-84.473
1630094480.251,191.895,-55.664,-73.730,-63.965
1630094480.255,-3.906,-49.805,-4.395,-44.434
1630094480.259,-305.664,-60.059,-34.668,-51.270
1630094480.261,-178.223,-67.871,-90.820,-73.730
1630094480.265,201.172,-62.988,-79.590,-35.156
1630094480.269,113.770,-51.270,-8.301,-25.391
1630094480.273,-254.395,-51.758,-19.531,-61.523
1630094480.277,-262.207,-62.500,-77.148,-83.984
1630094480.281,97.656,-72.754,-110.840,-99.609
1630094480.285,127.930,-90.820,-72.754,-98.145
1630094480.288,-267.578,-116.699,-80.078,-107.910
1630094480.292,-385.742,-141.113,-143.555,-132.812
1630094480.296,-66.406,-138.184,-180.664,-146.973
1630094480.300,122.070,-125.977,-118.652,-129.395
1630094480.304,-212.402,-141.113,-95.703,-130.371
1630094480.321,-436.035,-151.367,-135.254,-144.531
1630094480.325,-166.992,-136.230,-165.527,-124.512
1630094480.329,143.555,-141.113,-146.973,-128.418
1630094480.333,-59.082,-143.066,-95.215,-156.738
1630094480.337,-363.281,-134.277,-115.234,-146.484
1630094480.341,-265.137,-130.859,-164.062,-130.371
1630094480.345,101.074,-129.883,-166.504,-141.113
1630094480.348,38.574,-132.324,-104.492,-131.836
1630094480.352,-312.988,-123.535,-93.262,-111.328
1630094480.356,-289.551,-96.680,-114.258,-92.285
1630094480.360,51.270,-107.910,-159.180,-116.699
1630094480.364,129.883,-115.234,-109.375,-132.812
1630094480.366,-208.984,-106.445,-82.031,-132.812
1630094480.370,-354.004,-108.398,-122.559,-122.070
1630094480.374,-44.434,-95.703,-147.949,-89.844
1630094480.378,173.340,-102.051,-116.211,-106.445
1630094480.382,-110.840,-111.328,-69.824,-103.516
1630094480.386,-329.590,-94.727,-96.191,-73.242
1630094480.390,-116.699,-92.773,-166.504,-89.355
1630094480.393,147.949,-110.840,-140.625,-133.789
1630094480.397,-44.434,-89.844,-43.945,-122.559
1630094480.401,-297.363,-49.316,-29.297,-52.246
1630094480.405,-260.254,-89.844,-110.840,-93.262
1630094480.409,42.480,-113.770,-140.137,-146.484
1630094480.411,67.383,-97.168,-56.641,-105.469
1630094480.415,-271.484,-106.445,-51.270,-99.121
1630094480.419,-340.332,-116.211,-103.027,-118.164
1630094480.423,-9.766,-118.652,-128.906,-139.160
1630094480.427,128.418,-112.305,-61.523,-112.793
1630094480.431,-173.828,-98.633,-36.133,-84.961
1630094480.435,-305.664,-94.238,-78.125,-75.684
1630094480.438,-45.410,-89.355,-118.652,-88.379
1630094480.442,226.074,-63.477,-52.734,-46.387
1630094480.446,-20.996,-62.012,-0.488,-13.184
1630094480.450,-314.453,-86.426,-54.199,-62.500
1630094480.454,-145.508,-86.426,-110.352,-84.961
1630094480.456,175.781,-81.055,-97.656,-78.613
1630094480.460,47.363,-81.055,-34.668,-43.457
1630094480.464,-292.480,-77.148,-45.898,-53.711
1630094480.468,-231.934,-74.219,-87.402,-78.125
1630094480.472,147.949,-71.777,-101.562,-68.359
1630094480.476,188.965,-58.105,-29.785,-41.504
1630094480.480,-184.082,-67.871,-36.621,-40.039
1630094480.483,-279.297,-56.641,-66.406,-40.527
1630094480.487,104.004,-24.414,-70.312,-31.250
1630094480.491,235.840,-48.828,-44.922,-41.504
1630094480.495,-114.746,-63.477,-19.531,-40.527
1630094480.499,-264.160,-40.039,-29.785,-6.836
1630094480.501,-0.977,-34.180,-82.031,-23.926
1630094480.505,219.238,-61.035,-79.590,-68.359
1630094480.509,-16.113,-63.965,-24.414,-46.387
1630094480.513,-264.160,-46.387,-35.156,-29.297
1630094480.517,-104.004,-44.922,-83.496,-22.461
1630094480.521,216.797,-54.688,-95.215,-51.758
1630094480.525,98.145,-47.852,-27.344,-54.688
1630094480.528,-239.746,-34.668,-3.418,-21.484
1630094480.532,-218.262,-42.969,-58.594,-40.039
1630094480.536,130.371,-50.781,-99.121,-66.406
1630094480.540,200.684,-48.828,-28.809,-41.504
1630094480.544,-134.766,-45.898,-6.836,-29.785
1630094480.546,-242.188,-44.434,-43.457,-15.137
1630094480.550,48.340,-41.016,-92.285,-46.875
1630094480.554,204.590,-46.875,-51.758,-84.473
1630094480.558,-91.797,-47.363,-10.742,-57.617
1630094480.562,-307.617,-52.246,-57.129,-62.012
1630094480.566,-59.082,-49.316,-109.863,-67.871
1630094480.570,255.371,-38.574,-76.660,-38.574
1630094480.573,53.223,-29.785,0.977,-26.367
1630094480.577,-274.414,-41.992,-23.438,-39.551
1630094480.581,-173.828,-46.875,-77.637,-45.898
1630094480.585,183.594,-39.062,-78.125,-61.523
1630094480.589,129.883,-33.203,-9.277,-63.965
1630094480.591,-236.328,-49.316,-21.484,-56.152
1630094480.595,-243.652,-46.387,-70.801,-61.035
1630094480.599,143.066,-27.832,-80.078,-65.430
1630094480.603,204.102,-36.133,-30.762,-54.199
1630094480.607,-167.969,-45.410,-18.555,-52.246
1630094480.611,-298.340,-38.574,-49.805,-59.082
1630094480.615,20.508,-23.926,-78.125,-52.734
1630094480.618,249.023,-30.762,-34.180,-43.945
1630094480.622,-51.758,-45.410,-8.301,-40.039
1630094480.626,-298.828,-41.016,-36.621,-44.434
1630094480.630,-85.449,-36.133,-82.520,-61.035
1630094480.634,229.492,-31.250,-60.547,-65.918
1630094480.636,54.688,-40.527,-0.488,-43.945
1630094480.640,-281.738,-52.246,-29.785,-45.898
1630094480.644,-192.871,-43.457,-83.008,-79.590
1630094480.648,178.223,-32.715,-86.914,-76.660
1630094480.652,142.090,-30.273,-15.625,-40.039
1630094480.656,-184.570,-27.832,-6.836,-40.527
1630094480.660,-211.914,-30.273,-50.293,-51.758
1630094480.663,99.121,-42.969,-89.844,-67.871
1630094480.667,210.449,-40.039,-31.738,-48.340
1630094480.671,-96.680,-28.320,1.465,-9.277
1630094480.675,-246.582,-25.391,-37.598,-32.715
1630094480.679,-23.438,-42.969,-101.074,-75.684
1630094480.696,211.426,-43.945,-67.871,-67.383
1630094480.700,-7.812,-32.715,-15.625,-48.828
1630094480.704,-278.320,-38.086,-49.805,-51.758
1630094480.708,-107.422,-34.668,-92.285,-52.246
1630094480.712,223.145,-31.250,-83.496,-70.801
1630094480.716,80.566,-28.320,-11.230,-44.922
1630094480.720,-245.605,-40.039,-20.996,-43.457
1630094480.723,-207.031,-48.340,-80.078,-65.918
1630094480.727,142.578,-34.180,-86.914,-61.035
1630094480.731,196.777,-6.836,-2.930,-20.020
1630094480.735,-152.344,-14.648,-0.977,-17.578
1630094480.739,-281.738,-43.457,-65.430,-62.012
1630094480.741,16.602,-57.129,-110.840,-86.426
1630094480.745,190.918,-45.410,-52.246,-72.266
1630094480.749,-95.703,-33.691,-10.254,-51.758
1630094480.753,-290.039,-35.156,-45.898,-42.969
1630094480.757,-47.363,-41.504,-94.727,-52.246
1630094480.761,243.164,-38.574,-55.664,-41.992
1630094480.765,-3.906,-38.086,-7.812,-12.695
1630094480.768,-292.969,-44.922,-43.945,-29.785
1630094480.772,-146.484,-36.621,-91.797,-66.895
1630094480.776,230.469,-20.508,-62.012,-47.363
1630094480.780,105.957,-32.227,-6.348,-38.574
1630094480.784,-246.094,-38.574,-17.090,-38.574
1630094480.787,-219.727,-35.645,-60.547,-42.480
1630094480.791,96.680,-42.480,-91.309,-83.496
1630094480.795,148.926,-42.480,-33.691,-59.082
1630094480.799,-174.316,-36.133,-12.695,-18.555
1630094480.803,-252.441,-35.645,-48.340,-22.949
1630094480.807,74.707,-36.133,-104.492,-43.945
1630094480.811,225.098,-30.273,-56.152,-69.336
1630094480.814,-90.332,-19.531,2.441,-63.477
1630094480.818,-287.109,-14.160,-40.039,-62.500
1630094480.822,-57.129,-20.996,-110.352,-86.914
1630094480.826,221.191,-24.902,-85.449,-80.566
1630094480.830,15.625,-9.277,-11.719,-48.340
1630094480.831,-269.043,-8.789,-33.691,-44.434
1630094480.835,-163.086,-19.043,-98.633,-53.223
1630094480.839,178.223,-20.508,-100.586,-55.664
1630094480.843,131.836,-21.484,-21.484,-31.738
1630094480.847,-223.145,-17.578,-17.090,-35.645
1630094480.851,-243.164,-16.602,-66.895,-71.777
1630094480.855,130.371,-26.367,-97.168,-55.664
1630094480.858,208.008,-25.879,-36.133,-46.875
1630094480.862,-142.090,-12.695,-7.812,-26.855
1630094480.866,-247.070,-5.859,-47.852,-25.879
1630094480.870,43.945,-19.531,-96.680,-65.430
1630094480.874,243.164,-30.762,-49.316,-50.781
1630094480.876,-34.180,-24.902,2.441,-17.090
1630094480.880,-272.461,-27.832,-41.016,-45.898
1630094480.884,-86.914,-28.809,-93.262,-64.453
1630094480.888,193.359,-25.391,-68.359,-46.387
1630094480.892,16.602,-23.438,-12.695,-21.484
1630094480.896,-271.484,-29.785,-33.691,-29.297
1630094480.900,-149.902,-28.320,-82.520,-55.664
1630094480.903,212.402,-23.438,-78.125,-54.199
1630094480.907,147.461,-30.273,-12.207,-19.531
1630094480.911,-203.125,-39.551,-18.555,-27.344
1630094480.915,-212.402,-31.738,-60.059,-33.691
1630094480.919,115.723,-28.320,-95.215,-42.969
1630094480.921,223.633,-36.621,-46.387,-42.969
1630094480.925,-79.102,-30.762,-11.719,-21.484
1630094480.929,-244.141,-22.461,-51.758,-35.156
1630094480.933,0.000,-25.879,-104.492,-49.805
1630094480.937,233.887,-32.715,-58.594,-34.668
1630094480.941,-20.020,-25.879,-4.883,-14.160
1630094480.945,-281.738,-27.832,-37.109,-23.926
1630094480.948,-113.770,-35.645,-85.449,-57.129
1630094480.952,218.750,-29.297,-69.336,-44.922
1630094480.956,91.309,-26.855,-15.137,-24.902
1630094480.960,-256.348,-24.414,-27.832,-43.457
1630094480.964,-201.172,-23.438,-72.266,-49.805
1630094480.966,147.949,-38.086,-96.191,-62.988
1630094480.970,160.645,-33.691,-31.250,-50.781
1630094480.974,-190.918,-24.902,-20.996,-32.227
1630094480.978,-262.695,-27.832,-61.523,-59.082
1630094480.982,68.359,-39.551,-105.469,-83.496
1630094480.986,218.262,-35.645,-48.340,-61.523
1630094480.990,-94.727,-17.578,0.488,-20.996
1630094480.993,-281.250,-28.809,-44.434,-34.180
1630094480.997,-26.855,-39.551,-97.656,-48.340
1630094481.001,223.145,-29.785,-58.594,-41.992
1630094481.005,-11.230,-17.090,-8.301,-45.410
1630094481.009,-286.133,-12.695,-32.715,-45.898
1630094481.012,-145.996,-19.531,-84.961,-58.594
1630094481.016,206.055,-24.414,-82.031,-69.824
1630094481.020,93.262,-23.926,-21.973,-45.898
1630094481.024,-262.207,-23.926,-33.691,-22.461
1630094481.028,-213.379,-30.273,-80.566,-38.574
1630094481.032,165.039,-25.879,-96.191,-75.684
1630094481.036,194.824,-12.207,-29.785,-29.297
1630094481.039,-176.270,-19.531,-15.625,-14.648
1630094481.043,-267.578,-21.973,-55.664,-51.758
1630094481.047,52.734,-25.879,-99.121,-74.707
1630094481.051,225.586,-23.438,-46.875,-63.965
1630094481.055,-93.262,-26.855,-8.789,-42.480
1630094481.071,-291.504,-40.039,-54.199,-48.340
1630094481.075,-85.938,-46.875,-108.887,-67.383
1630094481.079,201.660,-44.922,-69.824,-57.129
1630094481.083,24.902,-44.922,-8.301,-27.832
1630094481.087,-292.969,-45.898,-33.203,-37.109
1630094481.091,-141.113,-20.508,-63.477,-46.387
1630094481.095,229.980,-20.020,-63.477,-21.973
1630094481.098,136.719,-39.062,-22.949,-38.086
1630094481.102,-225.586,-43.457,-24.902,-53.711
1630094481.106,-245.117,-41.016,-67.383,-48.828
1630094481.110,95.215,-40.039,-89.844,-54.688
1630094481.114,180.664,-44.434,-23.926,-38.086
1630094481.116,-160.156,-46.875,-12.207,-33.691
1630094481.120,-266.113,-36.621,-57.129,-36.621
1630094481.124,54.199,-41.016,-96.680,-41.016
1630094481.128,235.840,-44.434,-49.316,-63.965
1630094481.132,-59.082,-32.715,6.348,-53.223
1630094481.136,-279.785,-28.320,-32.227,-56.152
1630094481.140,-56.641,-28.809,-94.238,-66.406
1630094481.143,244.141,-37.598,-68.848,-52.246
1630094481.147,72.266,-37.109,-0.488,-28.809
1630094481.151,-231.934,-14.160,-3.906,-14.160
1630094481.155,-168.945,-24.902,-67.871,-49.316
1630094481.159,160.645,-43.945,-92.773,-70.312
1630094481.161,159.180,-37.109,-20.020,-26.855
1630094481.165,-201.172,-45.410,-20.508,-19.531
1630094481.169,-248.535,-49.805,-70.312,-52.734
1630094481.173,120.117,-35.156,-95.703,-67.383
1630094481.177,238.770,-31.250,-41.504,-31.738
1630094481.181,-83.496,-35.156,-12.695,4.883
1630094481.185,-242.676,-33.691,-46.875,-17.090
1630094481.188,-24.902,-41.992,-106.445,-73.730
1630094481.192,245.117,-27.344,-45.898,-59.570
1630094481.196,28.320,-20.508,6.348,-12.207
1630094481.200,-257.324,-33.691,-47.852,-19.531
1630094481.204,-87.402,-36.133,-102.539,-48.828
1630094481.206,240.723,-32.715,-82.520,-38.086
1630094481.210,90.820,-30.762,-16.113,-17.090
1630094481.214,-242.188,-41.992,-27.832,-20.020
1630094481.218,-166.504,-37.109,-74.219,-27.344
1630094481.222,184.082,-32.715,-89.844,-34.180
1630094481.226,199.219,-30.762,-16.113,-12.695
1630094481.230,-160.156,-32.227,-14.648,-12.695
1630094481.233,-243.164,-37.598,-67.871,-20.020
1630094481.237,137.207,-16.602,-82.031,-4.395
1630094481.241,284.668,-8.301,-30.273,-12.207
1630094481.245,-90.820,-34.668,-25.879,-40.527
1630094481.249,-290.527,-37.598,-57.129,-38.086
1630094481.251,0.000,-21.973,-87.402,-30.273
1630094481.255,247.559,-34.668,-62.988,-56.152
1630094481.259,-11.719,-39.062,-9.277,-35.156
1630094481.263,-274.902,-41.504,-23.926,-11.230
1630094481.267,-136.230,-45.898,-74.707,-37.109
1630094481.271,210.449,-41.992,-69.824,-54.688
1630094481.275,122.070,-33.203,-8.789,-21.973
1630094481.278,-186.035,-22.949,-8.301,-0.977
1630094481.282,-166.504,-33.203,-62.988,-42.480
1630094481.286,155.273,-41.504,-99.121,-64.941
1630094481.290,186.035,-38.574,-30.762,-27.344
1630094481.294,-166.992,-39.062,-10.254,-0.488
1630094481.296,-259.766,-35.645,-50.293,-38.574
1630094481.300,80.566,-38.574,-87.891,-68.359
1630094481.304,253.418,-38.086,-37.109,-30.273
1630094481.308,-76.172,-35.156,-1.953,-23.926
1630094481.312,-288.574,-34.180,-42.480,-44.922
1630094481.316,-36.133,-32.715,-91.797,-49.316
1630094481.320,251.953,-30.762,-54.199,-52.246
1630094481.323,19.043,-35.156,6.836,-37.598
1630094481.327,-280.273,-42.969,-28.809,-29.785
1630094481.331,-150.879,-41.016,-71.777,-40.527
1630094481.335,179.688,-50.293,-67.383,-57.617
1630094481.339,119.141,-43.945,-3.418,-32.715
1630094481.341,-207.520,-40.039,-9.766,-20.508
1630094481.345,-225.098,-53.223,-62.012,-50.293
1630094481.349,116.699,-62.500,-96.191,-71.289
1630094481.353,195.801,-56.641,-37.109,-39.551
1630094481.357,-146.484,-59.082,-12.207,-22.461
1630094481.361,-256.348,-49.316,-52.734,-50.293
1630094481.365,53.223,-22.949,-86.914,-50.293
1630094481.368,233.398,-32.715,-46.875,-26.367
1630094481.372,-75.684,-45.410,-12.207,-20.508
1630094481.376,-305.176,-40.039,-39.062,-29.785
1630094481.380,-97.168,-44.922,-95.703,-41.504
1630094481.384,193.848,-46.875,-77.637,-61.035
1630094481.386,30.273,-44.922,-10.254,-41.016
1630094481.390,-241.211,-38.086,-20.020,-31.250
1630094481.394,-154.785,-41.504,-72.754,-53.711
1630094481.398,170.898,-47.363,-84.473,-47.363
1630094481.402,134.277,-41.504,-16.602,-42.969
1630094481.406,-207.520,-33.691,-5.859,-36.621
1630094481.410,-229.004,-25.391,-37.109,-33.691
1630094481.413,112.793,-38.574,-75.195,-61.523
1630094481.417,208.984,-47.852,-27.832,-47.852
1630094481.421,-105.957,-26.367,19.043,-9.277
1630094481.425,-270.996,-20.996,-8.789,-32.715
1630094481.429,-58.105,-51.758,-86.914,-82.520
1630094481.446,171.387,-55.176,-49.316,-70.312
1630094481.450,-74.219,-41.016,7.812,-58.594
1630094481.454,-335.938,-33.691,-23.926,-82.520
1630094481.458,-170.898,-39.551,-66.895,-110.352
1630094481.462,131.836,-52.246,-55.176,-124.512
1630094481.466,-24.902,-37.109,-2.930,-143.555
1630094481.470,-356.445,-32.227,-19.531,-142.090
1630094481.473,-302.734,-43.457,-47.852,-147.949
1630094481.477,9.277,-45.898,-49.805,-192.383
1630094481.481,-20.996,-45.410,11.719,-197.266
1630094481.485,-377.930,-57.129,32.227,-199.219
1630094481.489,-475.098,-65.918,-7.324,-239.746
1630094481.492,-140.625,-65.918,-42.969,-256.348
1630094481.496,-20.996,-73.242,18.066,-255.859
1630094481.500,-356.445,-77.637,57.129,-251.953
1630094481.504,-523.926,-70.801,24.902,-258.301
1630094481.508,-311.035,-83.008,-27.344,-301.270
1630094481.512,-45.898,-99.121,9.766,-277.344
1630094481.516,-252.930,-102.051,59.082,-263.672
1630094481.519,-557.617,-114.258,34.668,-274.414
1630094481.523,-412.598,-125.488,-11.230,-284.668
1630094481.527,-27.832,-131.348,-7.324,-251.953
1630094481.531,-113.770,-138.184,51.758,-198.242
1630094481.535,-444.336,-144.043,38.086,-180.664
1630094481.536,-377.441,-141.602,-5.859,-169.434
1630094481.540,16.113,-143.555,-19.531,-137.695
1630094481.544,87.891,-147.461,41.016,-78.125
1630094481.548,-237.305,-140.625,41.992,-36.621
1630094481.552,-299.316,-134.766,-13.184,-51.758
1630094481.556,32.227,-133.301,-54.199,-59.570
1630094481.560,213.867,-126.465,-4.883,-8.301
1630094481.563,-55.664,-125.000,24.414,34.668
1630094481.567,-231.445,-125.000,-20.508,40.527
1630094481.571,17.578,-119.141,-77.148,38.086
1630094481.575,332.520,-112.305,-43.457,60.547
1630094481.579,140.137,-108.887,13.672,101.074
1630094481.581,-157.227,-110.840,-24.414,111.328
1630094481.585,-30.273,-107.422,-85.449,106.934
1630094481.589,306.152,-108.398,-87.891,109.863
1630094481.593,250.000,-103.516,-19.043,139.648
1630094481.597,-77.637,-99.609,-17.090,165.039
1630094481.601,-77.148,-99.609,-67.871,147.461
1630094481.605,272.949,-97.656,-98.145,136.719
1630094481.608,336.914,-96.680,-30.273,183.594
1630094481.612,10.742,-86.914,-7.812,200.195
1630094481.616,-101.074,-82.520,-55.664,170.898
1630094481.620,169.434,-92.285,-104.980,164.551
1630094481.624,368.652,-81.055,-49.316,116.699
1630094481.627,67.871,-75.195,0.000,83.008
1630094481.631,-179.688,-77.148,-43.457,84.473
1630094481.635,50.293,-73.242,-95.215,87.402
1630094481.639,357.422,-81.543,-73.730,107.910
1630094481.643,161.133,-86.426,-18.066,114.746
1630094481.647,-143.066,-77.148,-36.133,115.234
1630094481.651,-40.527,-68.359,-90.332,120.117
1630094481.654,326.660,-65.918,-97.656,99.121
1630094481.658,270.020,-65.918,-34.180,101.562
1630094481.662,-120.117,-64.453,-33.691,87.891
1630094481.666,-162.109,-67.871,-81.055,68.359
1630094481.670,194.824,-64.453,-109.375,71.777
1630094481.671,305.664,-51.758,-43.945,83.496
1630094481.675,-20.508,-46.387,-13.184,99.609
1630094481.679,-179.199,-58.594,-53.223,85.449
1630094481.683,97.168,-58.594,-109.375,58.105
1630094481.687,339.355,-47.852,-64.941,68.359
1630094481.691,80.078,-42.969,-10.254,63.477
1630094481.695,-166.016,-41.016,-45.898,62.988
1630094481.698,29.785,-34.180,-96.191,53.711
1630094481.702,339.355,-36.133,-76.172,52.246
1630094481.706,180.664,-32.715,-6.836,74.219
1630094481.710,-122.070,-30.273,-20.508,53.711
1630094481.714,-62.500,-30.762,-79.102,36.133
1630094481.718,279.297,-31.250,-96.191,35.645
1630094481.722,268.066,-30.273,-34.180,29.297
1630094481.726,-78.125,-28.320,-26.367,36.133
1630094481.730,-137.695,-34.180,-70.801,26.367
1630094481.734,178.711,-34.180,-110.840,7.812
1630094481.738,312.012,-31.250,-42.480,25.391
1630094481.742,-32.227,-28.809,-9.766,31.738
1630094481.745,-215.820,-31.738,-59.570,14.160
1630094481.749,66.895,-37.598,-109.863,19.043
1630094481.753,309.570,-34.668,-67.383,33.203
1630094481.757,68.848,-22.461,-10.742,13.672
1630094481.761,-184.570,-18.066,-40.527,7.324
1630094481.761,-52.734,-28.809,-89.844,16.113
1630094481.765,253.906,-32.715,-74.707,-14.160
1630094481.769,159.668,-21.973,-7.812,2.930
1630094481.773,-174.316,-22.949,-25.391,6.348
1630094481.777,-163.086,-32.715,-72.266,-12.695
1630094481.781,233.398,-27.344,-85.938,-4.395
1630094481.785,275.391,-25.879,-38.086,16.113
1630094481.788,-132.812,-34.180,-26.855,1.953
1630094481.792,-259.766,-39.551,-69.824,-25.391
1630094481.796,84.961,-37.598,-103.516,-32.227
1630094481.800,270.996,-31.738,-50.293,-16.602
1630094481.804,-60.059,-35.156,-20.508,-16.602
1630094481.821,-266.113,-50.293,-49.805,4.395
1630094481.825,9.766,-49.805,-94.727,20.508
1630094481.829,316.895,-24.902,-68.359,-8.789
1630094481.833,70.801,-12.207,-15.625,-21.973
1630094481.837,-253.906,-15.137,-38.086,-22.949
1630094481.841,-131.836,-12.695,-92.773,-40.527
1630094481.845,259.766,0.488,-96.191,-28.320
1630094481.848,161.133,12.695,-41.016,-15.137
1630094481.852,-266.602,16.113,-48.828,-48.828
1630094481.856,-244.141,20.996,-94.238,-66.406
1630094481.860,179.199,30.762,-116.699,-63.965
1630094481.864,207.520,32.715,-68.359,-64.941
1630094481.866,-189.453,37.109,-52.734,-76.660
1630094481.870,-289.551,41.992,-97.168,-72.754
1630094481.874,59.570,48.828,-138.184,-61.523
1630094481.878,290.039,61.523,-89.844,-54.688
1630094481.882,-41.504,65.918,-60.547,-36.133
1630094481.886,-296.875,73.242,-95.703,-39.551
1630094481.890,-37.109,75.195,-136.230,-57.129
1630094481.893,284.180,68.359,-120.117,-45.898
1630094481.897,84.473,80.566,-65.918,-35.645
1630094481.901,-251.465,83.984,-79.590,-36.621
1630094481.905,-160.156,79.590,-121.094,-46.387
1630094481.909,276.855,78.613,-130.859,-43.457
1630094481.911,210.449,79.102,-81.055,-18.555
1630094481.915,-233.887,73.730,-72.266,-0.977
1630094481.919,-245.605,62.988,-109.375,-22.949
1630094481.923,178.223,55.176,-126.953,-31.250
1630094481.927,278.320,53.711,-77.637,-0.488
1630094481.931,-132.812,62.012,-53.223,1.465
1630094481.935,-299.805,55.664,-87.891,-26.855
1630094481.938,58.105,48.340,-123.047,-32.715
1630094481.942,302.734,44.434,-76.660,4.883
1630094481.946,-79.590,39.551,-41.016,-4.883
1630094481.950,-361.816,41.016,-70.312,-20.996
1630094481.954,-119.141,31.738,-99.121,-7.812
1630094481.956,279.297,33.203,-87.891,-5.859
1630094481.960,70.801,33.203,-44.434,12.695
1630094481.964,-351.074,16.602,-51.270,4.395
1630094481.968,-256.348,15.625,-92.773,-30.273
1630094481.972,202.637,18.066,-94.727,-19.531
1630094481.976,149.902,20.020,-43.457,-7.812
1630094481.980,-273.438,26.367,-43.945,-7.812
1630094481.983,-299.805,21.484,-78.125,9.766
1630094481.987,105.469,6.348,-92.773,21.973
1630094481.991,201.660,4.883,-48.340,15.137
1630094481.995,-223.633,12.695,-26.855,20.020
1630094481.999,-405.762,4.883,-57.129,16.113
1630094482.001,-82.031,-1.465,-92.285,8.789
1630094482.005,205.566,10.742,-52.246,17.578
1630094482.009,-132.812,5.371,-6.836,5.371
1630094482.013,-442.383,-0.977,-36.621,-8.789
1630094482.017,-219.727,-3.906,-78.613,-18.066
1630094482.021,130.371,-9.277,-62.012,-2.930
1630094482.025,-90.332,-3.418,-20.996,2.930
1630094482.028,-474.609,0.488,-27.344,8.301
1630094482.032,-382.812,-15.625,-67.383,4.883
1630094482.036,38.086,-15.625,-83.008,-18.066
1630094482.040,-29.785,-15.625,-30.273,-17.578
1630094482.044,-431.641,-16.602,-18.066,3.418
1630094482.046,-450.195,-4.883,-56.152,1.953
1630094482.050,-50.293,-19.531,-78.125,12.695
1630094482.054,87.402,-23.926,-42.969,42.969
1630094482.058,-330.566,-10.254,-26.367,14.160
1630094482.062,-500.488,-6.348,-47.852,-23.438
1630094482.066,-151.367,-0.977,-87.891,-30.273
1630094482.070,129.883,-2.930,-72.754,-17.090
1630094482.073,-157.715,-1.465,-23.438,8.789
1630094482.077,-447.754,-1.953,-47.363,-1.953
1630094482.081,-228.516,0.488,-92.773,-14.160
1630094482.085,166.504,-1.953,-91.309,-22.461
1630094482.089,-15.137,-12.207,-38.086,-19.531
1630094482.091,-402.832,-13.672,-33.691,-12.695
1630094482.095,-284.180,-9.766,-67.871,-13.672
1630094482.099,173.828,-6.348,-89.355,-24.902
1630094482.103,145.020,-14.648,-51.758,-27.344
1630094482.107,-237.793,-20.020,-35.156,-15.625
1630094482.111,-245.605,-18.555,-60.547,-12.695
1630094482.115,129.395,-19.531,-86.914,-18.066
1630094482.118,268.066,-16.113,-60.059,-16.602
1630094482.122,-105.957,-19.531,-30.273,-10.742
1630094482.126,-254.395,-16.113,-45.898,-4.395
1630094482.130,89.355,-10.742,-80.566,-12.207
1630094482.134,338.379,-16.602,-65.430,-30.273
1630094482.136,34.180,-17.578,-29.785,-16.602
1630094482.140,-224.121,-23.926,-42.480,-5.371
1630094482.144,-37.598,-30.273,-72.754,-23.438
1630094482.148,304.199,-27.832,-83.984,-39.062
1630094482.152,170.898,-23.926,-43.457,-35.156
1630094482.156,-135.742,-16.602,-20.508,-7.812
1630094482.160,-47.852,-18.555,-49.316,-3.418
1630094482.163,316.406,-19.531,-79.102,-35.645
1630094482.167,313.477,-20.996,-41.992,-26.367
1630094482.171,-60.059,-21.484,-22.949,-14.648
1630094482.175,-140.137,-22.461,-43.457,-23.926
1630094482.179,208.496,-21.484,-69.824,-29.785
1630094482.196,388.672,-19.531,-49.316,-32.227
1630094482.200,26.855,-22.461,-10.742,-16.602
1630094482.204,-180.664,-26.855,-36.133,-9.277
1630094482.208,86.914,-36.133,-82.031,-33.203
1630094482.212,391.602,-36.133,-66.406,-25.879
1630094482.216,139.648,-24.414,-20.508,2.441
1630094482.220,-175.293,-27.344,-35.156,-33.691
1630094482.223,-14.160,-35.156,-67.383,-52.246
1630094482.227,374.512,-36.133,-75.684,-43.945
1630094482.231,249.512,-31.250,-35.156,-49.316
1630094482.235,-139.648,-29.785,-21.484,-45.410
1630094482.239,-106.445,-35.645,-48.340,-37.109
1630094482.241,310.059,-32.227,-72.754,-34.180
1630094482.245,341.797,-29.297,-42.480,-31.250
1630094482.249,-77.148,-30.273,-21.484,-16.113
1630094482.253,-183.105,-29.785,-48.828,-18.066
1630094482.257,174.316,-41.992,-90.820,-48.340
1630094482.261,395.020,-45.898,-79.590,-57.129
1630094482.265,7.324,-52.246,-57.129,-51.758
1630094482.268,-250.488,-67.871,-76.660,-29.785
1630094482.272,-0.488,-63.477,-93.262,-35.645
1630094482.276,342.285,-54.199,-79.590,-69.824
1630094482.280,56.641,-79.590,-58.105,-84.473
1630094482.284,-332.520,-93.750,-64.941,-86.426
1630094482.286,-165.527,-86.426,-86.426,-91.309
1630094482.290,324.707,-82.031,-103.516,-96.680
1630094482.294,230.469,-84.473,-80.566,-89.355
1630094482.298,-258.789,-88.379,-64.941,-80.078
1630094482.302,-228.516,-80.566,-78.613,-73.242
1630094482.306,285.156,-74.219,-101.074,-69.336
1630094482.310,354.980,-73.242,-81.543,-76.660
1630094482.313,-166.016,-82.031,-62.012,-79.590
1630094482.317,-305.176,-73.242,-66.406,-61.035
1630094482.321,125.977,-71.289,-95.215,-68.359
1630094482.325,430.176,-82.520,-91.797,-83.496
1630094482.329,-17.578,-80.078,-65.918,-76.172
1630094482.331,-377.441,-82.031,-75.684,-76.172
1630094482.335,-58.105,-81.055,-92.285,-80.566
1630094482.339,460.449,-75.195,-87.891,-72.754
1630094482.343,157.227,-76.172,-57.617,-68.848
1630094482.347,-365.723,-75.195,-57.129,-65.430
1630094482.351,-203.125,-69.824,-72.754,-42.969
1630094482.355,393.066,-70.801,-87.891,-61.035
1630094482.358,308.105,-66.895,-66.406,-69.824
1630094482.362,-309.570,-64.453,-49.805,-58.594
1630094482.366,-379.883,-74.219,-81.055,-68.359
1630094482.370,248.535,-73.730,-102.051,-69.336
1630094482.374,465.332,-63.965,-68.848,-48.828
1630094482.376,-197.754,-63.965,-45.410,-59.570
1630094482.380,-518.066,-81.543,-75.195,-85.938
1630094482.384,21.484,-79.590,-95.703,-68.848
1630094482.388,544.922,-67.871,-84.961,-50.781
1630094482.392,-7.324,-71.289,-70.312,-60.547
1630094482.396,-526.367,-68.359,-77.637,-62.012
1630094482.400,-157.227,-65.430,-87.402,-59.570
1630094482.403,562.012,-64.453,-89.355,-56.152
1630094482.407,225.586,-63.477,-73.242,-59.082
1630094482.411,-498.047,-67.383,-68.359,-69.336
1630094482.415,-360.352,-73.242,-82.031,-71.289
1630094482.419,453.613,-65.430,-86.914,-53.711
1630094482.424,425.293,-63.965,-75.195,-56.152
1630094482.428,-406.250,-75.684,-72.266,-63.965
1630094482.432,-520.020,-68.848,-79.102,-58.105
1630094482.436,297.852,-55.176,-84.961,-5.371
1630094482.440,640.625,-53.711,-69.824,12.695
1630094482.444,-242.188,-62.012,-61.523,-84.961
1630094482.448,-666.992,-66.406,-62.500,-123.535
1630094482.451,-83.008,-65.918,-61.035,-114.258
1630094482.455,501.953,-79.102,-58.594,-145.996
1630094482.459,-84.473,-98.145,-48.828,-183.105
1630094482.463,-745.605,-109.375,-45.898,-197.266
1630094482.467,-414.551,-111.816,-46.875,-191.895
1630094482.466,392.578,-112.305,-51.758,-194.824
1630094482.470,83.008,-107.910,-45.898,-221.191
1630094482.474,-718.262,-103.516,-40.039,-240.723
1630094482.478,-613.281,-106.934,-53.223,-226.562
1630094482.482,246.582,-105.957,-72.754,-196.777
1630094482.486,353.516,-95.703,-58.594,-186.523
1630094482.490,-455.566,-86.426,-38.086,-162.109
1630094482.493,-656.250,-90.820,-45.410,-154.297
1630094482.497,67.871,-93.262,-62.012,-158.203
1630094482.501,504.395,-83.984,-54.688,-145.020
1630094482.505,-235.840,-89.844,-49.316,-150.391
1630094482.509,-706.543,-90.820,-59.082,-122.559
1630094482.511,-175.781,-81.543,-65.918,-119.141
1630094482.515,543.945,-65.918,-58.594,-113.281
1630094482.519,37.109,-62.500,-47.363,-121.582
1630094482.523,-669.922,-72.754,-59.570,-144.531
1630094482.527,-385.254,-76.172,-70.312,-128.906
1630094482.531,493.652,-63.965,-59.082,-94.238
1630094482.535,320.312,-55.664,-49.316,-83.984
1630094482.538,-563.477,-73.242,-61.035,-106.934
1630094482.542,-573.242,-77.637,-63.477,-119.629
1630094482.546,337.891,-58.105,-58.105,-87.402
1630094482.550,521.973,-47.363,-51.270,-79.590
1630094482.554,-407.715,-62.988,-62.012,-105.469
1630094482.571,-710.938,-65.430,-67.383,-81.543
1630094482.575,80.566,-56.641,-64.941,-42.480
1630094482.579,636.719,-54.688,-62.988,-67.871
1630094482.583,-178.223,-66.406,-59.570,-97.656
1630094482.587,-779.297,-71.289,-65.918,-93.262
1630094482.591,-218.262,-61.523,-65.430,-87.402
1630094482.595,672.852,-49.316,-64.941,-66.406
1630094482.598,132.324,-54.199,-65.918,-83.008
1630094482.602,-742.676,-64.941,-63.477,-102.051
1630094482.606,-472.656,-51.758,-59.570,-71.777
1630094482.610,549.805,-43.457,-62.988,-40.527
1630094482.614,403.320,-55.664,-69.336,-65.430
1630094482.616,-617.676,-66.406,-65.430,-90.820
1630094482.620,-677.734,-62.500,-57.129,-66.406
1630094482.624,351.562,-48.340,-48.340,-29.785
1630094482.628,681.641,-46.875,-55.664,-46.875
1630094482.632,-364.258,-59.082,-62.500,-75.684
1630094482.636,-793.945,-61.035,-58.594,-63.477
1630094482.640,29.785,-50.293,-55.664,-43.457
1630094482.643,787.109,-44.922,-62.012,-45.898
1630094482.647,-62.988,-59.570,-60.059,-83.008
1630094482.651,-812.500,-51.758,-38.086,-62.500
1630094482.655,-291.992,-44.922,-39.551,-42.480
1630094482.659,735.840,-47.852,-49.805,-36.621
1630094482.661,284.180,-48.340,-51.270,-33.203
1630094482.665,-717.773,-60.059,-56.641,-62.500
1630094482.669,-547.852,-59.082,-57.617,-79.590
1630094482.673,581.055,-43.457,-42.480,-35.156
1630094482.677,565.430,-40.039,-45.898,-46.387
1630094482.681,-551.758,-54.199,-57.129,-69.336
1630094482.685,-695.801,-52.246,-55.176,-49.805
1630094482.688,354.980,-28.809,-36.133,-18.066
1630094482.692,790.527,-29.297,-38.574,-30.273
1630094482.696,-272.461,-53.223,-62.500,-66.406
1630094482.700,-807.129,-61.035,-62.012,-53.711
1630094482.704,-15.137,-50.293,-58.105,-52.246
1630094482.706,839.844,-43.945,-59.082,-57.129
1630094482.710,33.691,-51.270,-61.523,-72.754
1630094482.714,-790.527,-55.664,-55.664,-68.359
1630094482.718,-294.922,-44.434,-44.922,-41.016
1630094482.722,785.156,-31.738,-44.922,-26.367
1630094482.726,416.504,-32.715,-43.945,-49.805
1630094482.730,-658.691,-43.945,-46.875,-61.035
1630094482.733,-572.266,-52.734,-50.781,-47.852
1630094482.737,583.008,-41.016,-45.410,-25.879
1630094482.741,660.645,-35.156,-50.293,-50.781
1630094482.745,-500.977,-53.223,-58.594,-81.543
1630094482.749,-761.230,-58.105,-59.570,-73.242
1630094482.751,246.582,-43.945,-50.293,-43.945
1630094482.755,792.969,-38.574,-60.059,-44.922
1630094482.759,-248.535,-53.223,-70.801,-88.867
1630094482.763,-860.352,-64.453,-66.406,-85.449
1630094482.767,-128.418,-52.734,-58.594,-45.410
1630094482.771,824.219,-34.180,-51.758,-47.852
1630094482.775,109.375,-41.016,-61.035,-73.730
1630094482.778,-833.984,-59.082,-66.406,-88.867
1630094482.782,-448.730,-61.035,-62.988,-71.777
1630094482.786,703.613,-36.133,-57.617,-27.344
1630094482.790,439.453,-29.785,-55.664,-35.645
1630094482.794,-688.965,-53.223,-55.176,-69.336
1630094482.796,-674.316,-59.082,-54.688,-70.801
1630094482.800,454.102,-46.387,-44.434,-48.340
1630094482.804,675.293,-40.527,-42.969,-49.805
1630094482.808,-437.012,-51.270,-52.734,-69.824
1630094482.812,-791.992,-60.059,-57.129,-79.102
1630094482.816,146.484,-43.457,-51.758,-52.734
1630094482.820,832.520,-30.273,-41.016,-31.250
1630094482.823,-117.188,-46.875,-42.480,-58.105
1630094482.827,-838.867,-62.012,-55.176,-63.477
1630094482.831,-207.031,-49.316,-54.199,-44.434
1630094482.835,809.570,-28.809,-50.293,-32.227
1630094482.839,201.660,-41.992,-54.199,-62.012
1630094482.841,-777.344,-62.012,-64.941,-94.238
1630094482.845,-469.238,-50.781,-59.570,-80.566
1630094482.849,645.996,-35.645,-48.340,-41.504
1630094482.853,491.699,-39.551,-53.711,-53.223
1630094482.857,-641.113,-62.012,-65.430,-83.008
1630094482.861,-730.957,-58.105,-65.918,-79.102
1630094482.865,395.508,-15.137,-42.480,-26.367
1630094482.868,711.914,-21.973,-40.527,-33.691
1630094482.872,-404.785,-56.152,-59.570,-63.477
1630094482.876,-818.359,-56.641,-58.594,-58.105
1630094482.880,40.527,-42.969,-56.152,-56.641
1630094482.884,792.969,-33.203,-53.223,-43.457
1630094482.888,-62.988,-43.945,-46.875,-64.453
1630094482.892,-831.543,-49.805,-43.945,-71.289
1630094482.896,-289.062,-38.574,-42.480,-52.734
1630094482.900,721.680,-37.598,-51.758,-47.852
1630094482.904,237.305,-50.781,-50.781,-70.801
1630094482.908,-744.141,-49.805,-46.387,-73.730
1630094482.912,-531.250,-38.574,-45.898,-51.758
1630094482.915,567.871,-43.457,-59.082,-39.062
1630094482.919,513.672,-51.758,-58.105,-59.082
1630094482.923,-563.965,-51.758,-52.734,-84.473
1630094482.927,-725.586,-51.758,-57.129,-76.660
1630094482.931,264.160,-44.434,-53.223,-41.504
1630094482.946,690.430,-40.527,-45.898,-50.293
1630094482.950,-333.984,-52.246,-41.016,-82.031
1630094482.954,-849.609,-62.988,-49.316,-83.984
1630094482.958,-84.473,-55.664,-64.453,-65.430
1630094482.962,748.535,-35.156,-50.293,-36.621
1630094482.966,12.695,-37.109,-41.992,-48.828
1630094482.970,-810.059,-61.035,-58.594,-84.473
1630094482.973,-377.930,-60.059,-66.406,-88.379
1630094482.977,678.223,-46.387,-62.012,-58.594
1630094482.981,325.195,-47.852,-48.828,-68.848
1630094482.985,-694.824,-65.430,-48.828,-75.684
1630094482.989,-603.516,-68.848,-58.594,-59.082
1630094482.991,464.844,-41.992,-56.641,-37.598
1630094482.995,560.059,-37.109,-45.898,-57.129
1630094482.999,-506.348,-51.758,-47.852,-71.289
1630094483.003,-736.328,-50.781,-61.035,-58.105
1630094483.007,203.125,-36.621,-62.012,-46.875
1630094483.011,701.172,-27.832,-49.316,-35.156
1630094483.015,-200.195,-39.551,-49.316,-67.383
1630094483.018,-792.480,-54.688,-63.965,-72.266
1630094483.022,-143.555,-39.551,-61.035,-40.039
1630094483.026,779.297,-12.207,-38.574,-27.344
1630094483.030,95.215,-38.574,-54.688,-62.500
1630094483.034,-804.688,-67.383,-71.289,-78.125
1630094483.036,-433.594,-62.988,-70.801,-75.195
1630094483.040,618.164,-49.805,-68.848,-58.105
1630094483.044,354.980,-49.316,-60.059,-43.945
1630094483.048,-674.316,-59.082,-61.523,-75.195
1630094483.052,-652.832,-62.988,-69.336,-81.543
1630094483.056,414.062,-45.898,-62.500,-44.434
1630094483.060,620.605,-39.551,-49.316,-44.434
1630094483.063,-455.078,-58.594,-55.176,-69.824
1630094483.067,-763.672,-49.805,-55.176,-49.805
1630094483.071,137.207,-38.574,-62.500,-31.250
1630094483.075,730.957,-38.574,-62.500,-49.805
1630094483.079,-147.461,-42.480,-45.898,-65.918
1630094483.081,-786.133,-50.293,-40.527,-46.387
1630094483.085,-209.473,-44.922,-51.270,-34.668
1630094483.089,699.219,-39.551,-56.641,-40.039
1630094483.093,136.719,-50.293,-50.781,-75.684
1630094483.097,-776.855,-57.617,-56.641,-79.102
1630094483.101,-496.094,-52.734,-60.547,-63.477
1630094483.105,573.730,-35.156,-61.523,-52.246
1630094483.108,411.621,-32.715,-47.363,-52.246
1630094483.112,-594.238,-38.574,-31.738,-57.129
1630094483.116,-653.809,-44.434,-47.363,-69.336
1630094483.120,339.355,-44.922,-63.965,-47.852
1630094483.124,653.809,-36.133,-38.574,-33.203
1630094483.128,-358.887,-41.504,-34.180,-64.941
1630094483.132,-795.898,-55.664,-56.152,-83.496
1630094483.136,19.531,-46.875,-62.988,-69.824
1630094483.140,741.211,-29.785,-46.875,-50.293
1630094483.144,-73.242,-38.086,-39.062,-63.965
1630094483.148,-780.762,-42.969,-38.086,-59.082
1630094483.152,-248.047,-32.227,-41.504,-46.387
1630094483.155,694.336,-31.738,-46.875,-41.992
1630094483.159,198.730,-45.898,-39.551,-59.082
1630094483.163,-739.746,-53.711,-50.293,-71.777
1630094483.167,-536.621,-45.898,-61.523,-65.918
1630094483.171,524.902,-40.527,-57.129,-44.922
1630094483.171,491.211,-41.016,-37.109,-39.062
1630094483.175,-532.715,-39.551,-32.227,-52.734
1630094483.179,-680.664,-37.109,-43.457,-55.176
1630094483.183,280.762,-28.809,-54.199,-53.223
1630094483.187,674.805,-33.691,-42.969,-50.781
1630094483.191,-306.641,-46.875,-28.320,-49.805
1630094483.195,-770.020,-44.922,-37.598,-45.410
1630094483.198,-39.551,-35.645,-46.875,-38.086
1630094483.202,733.887,-25.391,-35.645,-31.250
1630094483.206,11.719,-33.691,-31.250,-49.316
1630094483.210,-759.766,-46.387,-38.574,-65.918
1630094483.214,-311.035,-35.645,-40.039,-60.547
1630094483.217,682.129,-35.645,-46.875,-39.062
1630094483.221,296.387,-45.410,-32.227,-51.270
1630094483.225,-669.922,-42.480,-35.645,-65.430
1630094483.229,-571.289,-40.039,-52.246,-48.828
1630094483.233,471.191,-31.250,-50.293,-34.668
1630094483.237,552.734,-26.855,-31.250,-56.152
1630094483.241,-462.402,-29.785,-27.832,-64.453
1630094483.244,-688.965,-38.574,-41.504,-50.293
1630094483.248,209.961,-36.621,-53.223,-35.156
1630094483.252,719.727,-25.879,-45.410,-38.086
1630094483.256,-195.801,-31.738,-32.227,-56.152
1630094483.260,-761.719,-34.668,-41.016,-50.293
1630094483.261,-111.816,-28.809,-50.293,-42.969
1630094483.265,734.863,-23.438,-42.969,-30.762
1630094483.269,90.332,-26.855,-33.203,-38.086
1630094483.273,-758.789,-37.598,-38.086,-62.988
1630094483.277,-421.387,-41.016,-52.734,-62.500
1630094483.281,621.582,-30.762,-54.199,-40.527
1630094483.285,375.000,-31.738,-41.504,-39.551
1630094483.288,-631.348,-49.805,-43.457,-56.641
1630094483.292,-604.492,-53.711,-50.293,-50.293
1630094483.296,418.945,-38.574,-52.734,-18.555
1630094483.300,590.820,-34.180,-40.527,-33.691
1630094483.304,-433.105,-48.828,-38.086,-44.434
1630094483.321,-748.047,-51.270,-49.805,-46.875
1630094483.325,133.301,-35.645,-57.129,-56.641
1630094483.329,706.055,-36.133,-47.363,-50.781
1630094483.333,-189.453,-45.898,-37.598,-60.059
1630094483.337,-784.668,-50.293,-43.945,-55.176
1630094483.341,-180.176,-47.363,-58.105,-46.387
1630094483.345,705.566,-32.227,-54.688,-33.691
1630094483.348,135.254,-39.062,-37.109,-31.738
1630094483.352,-729.004,-58.105,-41.504,-31.738
1630094483.356,-452.148,-43.945,-57.129,-57.129
1630094483.360,533.203,-27.832,-69.824,-88.867
1630094483.364,348.145,-34.180,-45.898,-99.121
1630094483.366,-648.438,-49.316,-41.992,-95.215
1630094483.370,-717.773,-53.711,-65.430,-124.512
1630094483.374,265.625,-34.668,-64.941,-132.324
1630094483.378,555.176,-25.879,-48.828,-132.324
1630094483.382,-445.801,-44.434,-51.758,-143.555
1630094483.386,-846.191,-50.293,-66.406,-141.113
1630094483.390,-41.992,-39.062,-77.148,-127.930
1630094483.393,655.273,-39.062,-62.988,-100.586
1630094483.397,-127.930,-41.016,-42.969,-114.746
1630094483.401,-796.387,-39.062,-47.852,-106.445
1630094483.405,-303.223,-48.340,-67.383,-84.473
1630094483.409,633.789,-43.945,-69.824,-67.383
1630094483.411,193.359,-37.109,-49.316,-63.477
1630094483.415,-723.633,-49.316,-58.594,-87.891
1630094483.419,-513.672,-44.434,-73.730,-82.031
1630094483.423,528.809,-26.855,-76.172,-58.594
1630094483.427,470.703,-28.809,-57.617,-46.387
1630094483.431,-520.508,-33.691,-44.922,-33.691
1630094483.435,-638.184,-33.203,-53.711,-59.570
1630094483.438,306.152,-25.391,-65.918,-54.199
1630094483.442,671.875,-22.949,-43.945,-38.574
1630094483.446,-299.316,-35.645,-30.273,-47.852
1630094483.450,-752.930,-36.621,-43.945,-45.410
1630094483.454,-21.973,-28.809,-60.547,-37.598
1630094483.456,723.145,-25.391,-52.246,-24.414
1630094483.460,7.812,-22.949,-26.367,-34.180
1630094483.464,-736.328,-32.715,-33.203,-35.156
1630094483.468,-311.035,-35.645,-55.664,-32.227
1630094483.472,648.926,-20.508,-53.711,-35.645
1630094483.476,311.523,-18.555,-28.809,-30.273
1630094483.480,-623.535,-33.691,-36.133,-30.762
1630094483.483,-516.602,-36.621,-54.199,-38.574
1630094483.487,485.352,-33.203,-53.223,-21.484
1630094483.491,539.062,-33.691,-30.273,-19.531
1630094483.495,-471.191,-42.480,-29.297,-26.367
1630094483.499,-687.012,-43.945,-36.621,-20.020
1630094483.501,219.727,-29.785,-42.480,-14.648
1630094483.505,669.922,-32.227,-41.504,-20.508
1630094483.509,-231.934,-47.852,-42.480,-48.828
1630094483.513,-750.000,-51.270,-53.223,-36.621
1630094483.517,-87.891,-41.992,-58.105,-12.695
1630094483.521,723.145,-28.320,-44.434,-34.180
1630094483.525,73.730,-37.598,-38.086,-57.129
1630094483.528,-718.262,-49.805,-47.852,-61.035
1630094483.532,-354.980,-48.828,-63.477,-55.664
1630094483.536,615.234,-44.434,-65.430,-35.645
1630094483.540,328.613,-44.434,-40.039,-40.039
1630094483.544,-625.488,-50.293,-34.180,-43.457
1630094483.546,-562.012,-52.246,-41.504,-27.344
1630094483.550,420.898,-45.410,-52.734,-21.973
1630094483.554,571.289,-45.898,-43.457,-32.227
1630094483.558,-405.762,-54.688,-41.016,-44.434
1630094483.562,-672.852,-57.129,-45.898,-41.016
1630094483.566,163.574,-48.828,-62.012,-35.645
1630094483.570,704.102,-41.504,-53.223,-23.926
1630094483.573,-120.605,-47.852,-32.227,-30.762
1630094483.577,-711.914,-55.176,-42.969,-18.555
1630094483.581,-133.789,-47.852,-58.594,-21.973
1630094483.585,710.938,-39.551,-53.711,-30.762
1630094483.589,151.855,-44.922,-33.203,-26.367
1630094483.592,-688.477,-52.246,-33.691,-26.367
1630094483.596,-392.578,-41.992,-40.039,-22.461
1630094483.600,598.633,-31.250,-43.945,-3.418
1630094483.604,420.410,-38.086,-27.832,-3.906
1630094483.608,-544.434,-46.387,-27.344,-12.207
1630094483.612,-569.336,-43.457,-39.062,-4.395
1630094483.616,420.410,-28.320,-45.410,4.395
1630094483.619,661.133,-23.438,-36.621,-18.066
1630094483.623,-331.543,-38.086,-29.297,-35.156
1630094483.627,-687.988,-45.898,-43.945,-36.621
1630094483.631,117.188,-37.598,-53.223,-14.648
1630094483.635,757.812,-26.855,-29.785,29.297
1630094483.636,-38.086,-50.293,-20.508,28.809
1630094483.640,-704.102,-53.711,-40.039,-11.719
1630094483.644,-222.656,-29.297,-55.664,-48.340
1630094483.648,670.898,-27.344,-54.199,-56.641
1630094483.652,223.145,-32.227,-45.898,-61.523
1630094483.656,-655.273,-28.320,-42.969,-74.219
1630094483.660,-444.336,-19.043,-41.992,-48.340
1630094483.663,514.160,-18.066,-58.105,-36.133
1630094483.667,439.453,-27.832,-50.293,-71.777
1630094483.671,-518.066,-36.133,-38.574,-73.730
1630094483.675,-629.395,-40.527,-53.711,-68.359
1630094483.679,316.406,-30.273,-61.035,-45.898
1630094483.696,678.223,-13.672,-40.527,-20.020
1630094483.700,-274.902,-38.086,-44.922,-67.383
1630094483.704,-736.816,-51.758,-64.941,-81.055
1630094483.708,-2.930,-41.504,-76.660,-42.969
1630094483.712,723.145,-35.645,-64.941,-39.062
1630094483.716,13.672,-29.785,-39.551,-54.688
1630094483.720,-706.543,-33.691,-45.898,-52.734
1630094483.723,-294.922,-41.504,-64.453,-57.129
1630094483.727,674.316,-29.297,-54.199,-40.527
1630094483.731,316.895,-20.508,-26.855,-32.227
1630094483.735,-650.391,-38.574,-33.203,-44.922
1630094483.739,-531.250,-45.410,-52.734,-51.270
1630094483.741,518.066,-23.438,-54.688,-20.508
1630094483.745,546.387,-28.320,-40.039,-19.531
1630094483.749,-468.750,-42.480,-33.691,-26.367
1630094483.753,-658.203,-38.574,-44.922,-34.180
1630094483.757,245.605,-33.691,-56.641,-33.691
1630094483.761,711.426,-20.996,-35.645,-9.766
1630094483.765,-197.754,-27.832,-26.855,-28.809
1630094483.768,-746.094,-51.758,-49.316,-55.176
1630094483.772,-60.547,-38.086,-54.688,-40.039
1630094483.776,782.715,-7.812,-23.926,-4.883
1630094483.780,104.004,-31.738,-23.438,-31.250
1630094483.784,-721.680,-51.758,-45.410,-49.805
1630094483.788,-354.492,-40.039,-51.758,-31.738
1630094483.792,618.652,-34.668,-51.758,-19.043
1630094483.796,348.633,-36.133,-40.039,-41.504
1630094483.800,-592.285,-49.316,-46.875,-53.711
1630094483.804,-529.785,-50.293,-56.152,-39.551
1630094483.808,477.539,-27.344,-51.270,-20.020
1630094483.812,606.934,-27.344,-34.668,-23.438
1630094483.815,-368.164,-49.316,-37.598,-45.410
1630094483.819,-631.348,-32.227,-35.645,-2.930
1630094483.823,167.480,-23.926,-51.270,0.488
1630094483.827,698.242,-36.621,-53.223,-43.945
1630094483.831,-125.977,-44.922,-34.668,-35.645
1630094483.832,-707.520,-47.852,-43.945,-43.945
1630094483.836,-123.535,-37.598,-67.871,-50.781
1630094483.840,712.891,-35.156,-63.477,-6.836
1630094483.844,159.668,-36.133,-37.109,-7.812
1630094483.848,-662.109,-37.598,-39.062,-54.688
1630094483.852,-379.883,-37.109,-58.105,-52.734
1630094483.856,588.379,-30.273,-71.289,-32.715
1630094483.859,408.691,-29.297,-44.434,-38.574
1630094483.863,-520.996,-31.250,-31.250,-30.273
1630094483.867,-551.270,-42.969,-59.570,-35.156
1630094483.871,398.926,-41.992,-71.777,-33.691
1630094483.875,632.812,-32.227,-41.992,-16.602
1630094483.876,-308.594,-35.645,-29.785,-15.625
1630094483.880,-666.992,-49.805,-57.617,-41.504
1630094483.884,82.031,-41.992,-73.730,-36.133
1630094483.888,707.031,-28.320,-44.434,-18.066
1630094483.892,-55.176,-39.551,-33.203,-37.109
1630094483.896,-695.801,-50.293,-52.734,-40.527
1630094483.900,-196.777,-45.898,-68.359,-40.527
1630094483.903,696.289,-19.043,-48.340,-4.395
1630094483.907,223.145,-24.902,-32.715,-16.602
1630094483.911,-667.480,-55.176,-53.711,-71.289
1630094483.915,-456.055,-55.176,-71.289,-67.383
1630094483.919,541.016,-36.133,-69.824,-39.551
1630094483.921,469.727,-29.297,-47.852,-29.785
1630094483.925,-499.023,-40.527,-49.805,-47.363
1630094483.929,-595.215,-50.293,-68.848,-52.246
1630094483.933,307.129,-45.410,-85.938,-40.039
1630094483.937,618.164,-42.480,-62.500,-42.969
1630094483.941,-278.320,-47.363,-49.316,-59.570
1630094483.945,-670.410,-35.645,-59.570,-55.664
1630094483.948,49.805,-11.230,-46.875,-13.184
1630094483.952,702.637,-25.879,-45.898,-15.625
1630094483.956,-19.531,-47.852,-46.875,-61.035
1630094483.960,-701.660,-40.039,-50.293,-45.898
1630094483.964,-257.812,-33.691,-56.152,-30.762
1630094483.966,627.930,-42.480,-62.988,-45.898
1630094483.970,244.629,-48.828,-50.781,-59.082
1630094483.974,-631.836,-52.734,-50.293,-65.430
1630094483.978,-487.793,-50.781,-63.477,-62.988
1630094483.982,480.957,-35.156,-63.477,-52.246
1630094483.986,498.047,-31.250,-38.086,-60.059
1630094483.990,-441.406,-35.156,-23.438,-62.988
1630094483.993,-650.879,-46.387,-45.410,-75.684
1630094483.997,198.730,-39.062,-65.918,-75.195
1630094484.001,628.906,-33.691,-43.457,-68.848
1630094484.005,-227.539,-35.156,-19.531,-75.684
1630094484.009,-748.535,-37.109,-35.645,-102.051
1630094484.011,-154.297,-50.781,-54.199,-125.488
1630094484.015,601.562,-47.852,-33.203,-115.723
1630094484.019,-33.203,-42.969,-7.324,-138.184
1630094484.023,-810.059,-52.734,-5.859,-171.387
1630094484.027,-493.652,-67.871,-22.949,-193.359
1630094484.031,435.547,-48.828,-12.695,-197.266
1630094484.035,141.602,-36.133,20.020,-218.262
1630094484.038,-833.496,-67.871,14.648,-287.598
1630094484.042,-834.961,-80.566,6.348,-340.332
1630094484.046,95.703,-62.012,10.254,-359.863
1630094484.050,192.383,-56.152,30.273,-375.977
1630094484.054,-790.039,-72.754,24.414,-400.391
1630094484.071,-1000.000,-77.148,8.301,-396.484
1630094484.075,-182.129,-56.641,5.859,-379.883
1630094484.079,333.496,-50.781,13.184,-362.793
1630094484.083,-490.723,-66.406,5.859,-366.211
1630094484.087,-1000.000,-68.359,-17.578,-348.633
1630094484.091,-385.254,-57.129,-23.438,-300.293
1630094484.095,471.191,-49.316,-28.809,-257.812
1630094484.098,-77.637,-57.129,-29.785,-244.141
1630094484.102,-850.098,-60.547,-32.227,-228.027
1630094484.106,-513.672,-42.969,-36.133,-187.012
1630094484.110,472.656,-36.133,-38.086,-157.715
1630094484.114,289.551,-42.480,-31.738,-132.812
1630094484.117,-618.164,-51.270,-43.457,-102.539
1630094484.121,-602.051,-50.293,-57.129,-104.980
1630094484.125,358.887,-40.527,-66.895,-77.148
1630094484.129,584.961,-40.527,-57.129,-57.129
1630094484.133,-340.820,-46.875,-49.805,-58.105
1630094484.137,-646.484,-51.270,-61.035,-41.504
1630094484.141,135.254,-46.875,-87.402,-31.250
1630094484.144,707.520,-34.180,-72.754,-8.789
1630094484.148,-65.918,-32.715,-46.875,-6.836
1630094484.152,-659.180,-33.203,-59.082,-18.555
1630094484.156,-149.414,-39.062,-89.844,-19.531
1630094484.160,698.730,-37.109,-93.262,0.488
1630094484.161,235.840,-30.762,-67.871,10.742
1630094484.165,-604.980,-39.551,-72.266,-1.953
1630094484.169,-387.207,-53.223,-95.215,-7.324
1630094484.173,583.984,-41.992,-95.703,14.648
1630094484.177,486.816,-35.645,-70.801,17.090
1630094484.181,-453.125,-43.945,-64.941,4.395
1630094484.185,-537.109,-44.922,-83.008,4.883
1630094484.188,365.723,-38.574,-93.750,23.438
1630094484.192,688.965,-20.020,-62.012,43.945
1630094484.196,-224.121,-31.250,-53.711,34.180
1630094484.200,-656.250,-49.316,-75.684,15.137
1630094484.204,68.359,-37.598,-90.820,5.859
1630094484.206,741.699,-37.109,-84.473,16.113
1630094484.210,28.809,-47.852,-63.965,23.438
1630094484.214,-643.555,-42.969,-70.312,7.812
1630094484.218,-192.383,-35.645,-88.867,5.371
1630094484.222,726.562,-28.320,-79.590,27.344
1630094484.226,333.496,-30.273,-64.941,14.648
1630094484.230,-566.895,-48.828,-80.078,2.441
1630094484.233,-424.316,-51.270,-85.938,24.414
1630094484.237,558.594,-32.715,-76.660,52.734
1630094484.241,548.828,-27.344,-60.547,30.762
1630094484.245,-405.273,-40.039,-57.617,2.930
1630094484.249,-554.688,-42.480,-68.359,12.207
1630094484.252,318.359,-38.086,-69.336,36.133
1630094484.256,708.496,-49.316,-66.406,35.156
1630094484.260,-168.457,-53.711,-63.965,10.254
1630094484.264,-656.250,-55.664,-69.824,-3.906
1630094484.268,-18.555,-50.781,-76.172,0.977
1630094484.272,737.305,-30.273,-61.035,15.625
1630094484.276,96.680,-36.133,-54.199,-6.348
1630094484.279,-639.648,-48.340,-57.617,2.930
1630094484.283,-267.578,-46.875,-69.824,10.254
1630094484.287,647.461,-42.480,-80.566,-7.324
1630094484.291,336.426,-42.969,-62.988,-13.672
1630094484.295,-571.289,-52.734,-63.477,-16.113
1630094484.297,-480.469,-48.828,-70.312,-4.395
1630094484.301,511.719,-38.086,-76.172,4.395
1630094484.305,591.309,-31.250,-62.500,-9.277
1630094484.309,-382.324,-39.062,-50.781,-1.465
1630094484.313,-526.855,-43.945,-60.547,-8.789
1630094484.317,274.902,-31.738,-68.359,-6.348
1630094484.321,724.121,-23.438,-52.734,15.625
1630094484.324,-105.469,-27.344,-35.156,8.301
1630094484.328,-686.035,-43.457,-54.199,-16.113
1630094484.332,-80.566,-38.574,-73.730,-20.020
1630094484.336,743.164,-27.344,-65.430,-4.883
1630094484.340,166.016,-35.645,-44.434,-16.113
1630094484.341,-652.832,-48.828,-54.199,-27.832
1630094484.345,-350.098,-42.480,-68.359,-14.160
1630094484.349,623.535,-22.461,-64.941,5.859
1630094484.353,422.363,-20.996,-50.781,-11.719
1630094484.357,-513.672,-36.621,-53.223,-8.789
1630094484.361,-511.230,-37.598,-63.965,-6.348
1630094484.365,456.055,-16.602,-56.641,-2.930
1630094484.368,639.648,-18.066,-33.203,1.953
1630094484.372,-330.566,-43.945,-42.969,-23.926
1630094484.376,-627.441,-40.527,-50.781,-12.695
1630094484.380,170.898,-40.039,-61.523,11.230
1630094484.384,707.520,-45.898,-55.664,-15.137
1630094484.386,-95.703,-43.945,-41.016,-37.109
1630094484.390,-668.457,-41.992,-49.316,-30.762
1630094484.394,-137.695,-32.227,-68.359,-16.602
1630094484.398,693.359,-29.785,-62.988,-0.977
1630094484.402,208.008,-40.039,-41.992,-25.879
1630094484.406,-618.652,-37.598,-39.062,-31.250
1630094484.410,-376.465,-24.902,-39.551,-4.883
1630094484.413,572.266,-23.926,-54.199,5.371
1630094484.417,439.941,-30.273,-42.480,-23.926
1630094484.421,-481.934,-40.039,-36.621,-45.898
1630094484.425,-557.129,-41.504,-52.734,-49.316
1630094484.429,345.703,-38.086,-61.523,-22.949
1630094484.446,606.934,-41.504,-47.852,-25.391
1630094484.450,-319.824,-51.270,-41.992,-52.734
1630094484.454,-673.828,-45.410,-53.711,-41.992
1630094484.458,57.617,-32.227,-63.477,-13.672
1630094484.462,719.238,-26.367,-43.945,-4.883
1630094484.466,8.789,-27.344,-28.320,-24.414
1630094484.470,-690.430,-36.621,-40.527,-30.762
1630094484.473,-244.141,-41.992,-58.594,-27.344
1630094484.477,660.156,-29.297,-60.059,-18.555
1630094484.481,250.488,-11.230,-23.926,-14.160
1630094484.485,-626.953,-27.344,-29.785,-18.066
1630094484.489,-464.844,-36.621,-54.688,-14.648
1630094484.491,530.762,-17.090,-52.734,-5.859
1630094484.495,521.484,-11.719,-27.832,-10.254
1630094484.499,-441.895,-27.832,-35.645,-18.066
1630094484.503,-601.562,-34.668,-52.246,-38.574
1630094484.507,276.367,-23.438,-52.734,-17.578
1630094484.511,686.523,-10.254,-29.785,-5.371
1630094484.515,-200.684,-20.020,-22.461,-27.344
1630094484.518,-699.707,-41.992,-49.316,-39.551
1630094484.522,-20.508,-27.344,-51.758,-2.930
1630094484.526,761.719,13.672,-13.184,22.949
1630094484.530,62.988,-17.578,-19.043,-19.043
1630094484.534,-711.426,-43.945,-42.969,-35.156
1630094484.536,-314.941,-29.785,-45.410,-40.527
1630094484.540,627.441,-20.508,-49.805,-30.273
1630094484.544,302.734,-24.902,-40.527,-34.180
1630094484.548,-600.586,-31.250,-36.621,-46.387
1630094484.552,-455.078,-31.738,-49.316,-29.785
1630094484.556,488.770,-23.438,-66.895,-12.695
1630094484.560,532.715,-21.484,-51.758,-29.297
1630094484.563,-446.289,-36.621,-41.504,-40.527
1630094484.567,-656.738,-23.438,-41.504,-37.109
1630094484.571,222.656,-21.973,-57.617,-38.086
1630094484.575,676.758,-37.109,-63.965,-48.340
1630094484.579,-194.824,-36.621,-50.781,-62.500
1630094484.581,-729.004,-41.992,-60.059,-60.547
1630094484.585,-98.633,-36.621,-71.289,-38.574
1630094484.589,699.707,-23.926,-63.965,-17.090
1630094484.593,85.449,-32.227,-43.945,-31.250
1630094484.597,-698.730,-37.598,-40.039,-19.043
1630094484.601,-359.863,-35.156,-57.129,-15.625
1630094484.605,644.531,-32.227,-60.547,-20.020
1630094484.608,386.719,-34.668,-42.969,-29.297
1630094484.612,-588.867,-27.344,-33.691,-34.180
1630094484.616,-573.730,-35.156,-50.781,-42.480
1630094484.620,421.387,-39.062,-63.965,-20.508
1630094484.624,609.863,-20.996,-39.551,-6.836
1630094484.626,-395.020,-29.785,-35.156,-36.133
1630094484.630,-722.168,-51.758,-62.988,-56.641
1630094484.634,135.742,-45.898,-69.824,-30.273
1630094484.638,725.586,-34.180,-53.223,-2.441
1630094484.642,-143.555,-45.898,-42.969,-40.039
1630094484.646,-751.465,-54.199,-42.480,-54.199
1630094484.650,-154.785,-43.945,-49.805,-29.785
1630094484.653,716.309,-20.508,-36.133,-4.883
1630094484.657,156.250,-31.738,-24.414,-31.250
1630094484.661,-708.984,-56.152,-52.246,-60.547
1630094484.665,-443.848,-50.293,-64.453,-37.598
1630094484.669,570.312,-38.574,-58.594,-7.324
1630094484.671,421.387,-40.527,-47.852,-34.180
1630094484.675,-555.664,-52.734,-45.898,-53.223
1630094484.679,-588.379,-47.363,-51.758,-34.668
1630094484.683,374.512,-29.785,-50.293,-5.859
1630094484.687,617.676,-33.691,-39.551,-5.371
1630094484.691,-347.656,-47.363,-41.016,-47.363
1630094484.695,-690.918,-39.551,-44.922,-29.297
1630094484.698,80.078,-25.391,-49.316,-7.812
1630094484.702,720.215,-26.367,-45.410,-9.766
1630094484.706,-57.129,-37.109,-42.480,-27.344
1630094484.710,-737.305,-43.457,-47.363,-48.828
1630094484.714,-230.957,-38.574,-42.480,-23.926
1630094484.716,667.969,-34.668,-47.852,-12.695
1630094484.720,169.922,-38.574,-42.480,-36.133
1630094484.724,-705.566,-53.223,-44.922,-49.316
1630094484.728,-490.234,-50.293,-57.129,-45.898
1630094484.732,492.676,-41.016,-62.500,-20.020
1630094484.736,458.008,-40.527,-50.781,-38.574
1630094484.740,-481.934,-33.203,-37.109,-53.223
1630094484.743,-597.168,-35.156,-39.062,-33.203
1630094484.747,287.109,-32.227,-56.641,-1.465
1630094484.751,641.113,-26.367,-44.434,0.000
1630094484.755,-271.484,-37.109,-36.621,-33.203
1630094484.759,-727.539,-41.504,-45.410,-36.621
1630094484.762,-22.949,-35.645,-52.734,-27.344
1630094484.766,708.984,-22.949,-42.969,-11.719
1630094484.770,17.578,-22.461,-25.391,-20.020
1630094484.774,-733.887,-40.527,-38.574,-47.363
1630094484.778,-314.453,-41.016,-53.711,-46.875
1630094484.782,645.020,-21.484,-52.246,-18.555
1630094484.786,305.176,-26.855,-39.551,-28.809
1630094484.789,-607.910,-45.898,-45.898,-53.711
1630094484.793,-509.766,-42.480,-60.547,-47.852
1630094484.797,484.375,-17.090,-45.410,-3.418
1630094484.801,548.828,-16.113,-18.066,21.973
1630094484.805,-451.172,-41.504,-33.203,-33.691
1630094484.821,-669.922,-45.898,-46.387,-62.988
1630094484.825,233.398,-29.297,-50.293,-22.461
1630094484.829,690.430,-22.461,-40.039,-4.395
1630094484.833,-207.031,-32.715,-30.273,-31.738
1630094484.837,-711.914,-43.457,-49.805,-52.246
1630094484.841,-44.434,-21.973,-40.527,-22.461
1630094484.845,731.934,-2.930,-20.996,0.000
1630094484.848,75.195,-30.273,-32.715,-34.180
1630094484.852,-712.891,-39.551,-48.340,-52.734
1630094484.856,-396.484,-44.434,-60.059,-54.688
1630094484.860,572.266,-38.574,-58.105,-20.020
1630094484.864,334.473,-36.621,-42.969,-20.020
1630094484.866,-596.680,-45.898,-41.504,-36.621
1630094484.870,-549.805,-40.527,-53.223,-23.926
1630094484.874,439.941,-28.809,-59.570,-24.902
1630094484.878,571.777,-26.367,-46.387,-40.039
1630094484.882,-419.922,-34.180,-45.898,-50.293
1630094484.886,-686.035,-35.156,-51.270,-56.641
1630094484.890,169.922,-28.320,-51.758,-28.809
1630094484.893,716.309,-28.320,-45.898,-16.602
1630094484.897,-155.762,-34.180,-33.691,-41.504
1630094484.901,-701.660,-16.113,-16.113,-22.461
1630094484.905,-124.023,-23.926,-29.785,-9.277
1630094484.909,689.453,-31.250,-42.480,-2.441
1630094484.911,143.066,-38.086,-38.086,-22.949
1630094484.915,-700.684,-50.293,-50.781,-46.875
1630094484.919,-424.805,-45.410,-56.641,-49.316
1630094484.923,587.402,-35.156,-57.617,-25.391
1630094484.927,424.316,-31.250,-40.527,-22.461
1630094484.931,-553.223,-40.039,-30.273,-49.316
1630094484.935,-609.375,-44.434,-50.293,-54.199
1630094484.938,358.398,-37.109,-61.523,-17.090
1630094484.942,636.719,-31.738,-41.992,-11.719
1630094484.946,-346.191,-45.898,-38.574,-39.062
1630094484.950,-728.516,-53.223,-56.152,-32.227
1630094484.954,61.035,-40.039,-63.477,-40.527
1630094484.957,717.773,-28.320,-42.969,-37.598
1630094484.961,-83.496,-46.387,-42.969,-68.359
1630094484.965,-770.020,-62.500,-60.059,-83.984
1630094484.969,-254.883,-49.316,-58.105,-43.457
1630094484.973,665.527,-33.203,-42.969,-18.555
1630094484.977,211.426,-35.645,-34.180,-29.785
1630094484.981,-686.035,-54.688,-46.387,-48.340
1630094484.984,-490.723,-52.246,-50.293,-47.363
1630094484.988,539.062,-24.902,-43.945,-8.789
1630094484.992,469.727,-33.691,-46.387,-7.812
1630094484.996,-535.156,-56.152,-50.781,-54.199
1630094485.000,-638.184,-43.945,-42.480,-45.898
1630094485.003,315.430,-30.273,-40.039,-14.648
1630094485.007,643.066,-33.691,-39.551,-31.738
1630094485.011,-298.828,-38.574,-31.738,-37.109
1630094485.015,-725.586,-47.363,-34.180,-30.762
1630094485.019,-18.555,-44.434,-52.246,-27.344
1630094485.023,701.660,-30.273,-46.387,-29.785
1630094485.027,-1.465,-34.180,-33.203,-50.781
1630094485.030,-719.238,-49.316,-44.434,-58.105
1630094485.034,-285.156,-52.246,-55.664,-49.805
1630094485.038,665.527,-39.551,-52.734,-9.277
1630094485.042,271.484,-40.527,-46.387,-20.020
1630094485.046,-648.926,-57.129,-50.781,-59.570
1630094485.046,-505.859,-58.594,-64.453,-58.105
1630094485.050,492.188,-36.621,-72.266,-33.203
1630094485.054,520.508,-30.273,-49.316,-38.574
1630094485.058,-461.426,-42.480,-53.711,-64.941
1630094485.062,-649.414,-47.363,-71.777,-67.383
1630094485.066,247.070,-35.645,-62.500,-34.180
1630094485.070,698.242,-19.531,-46.387,-19.531
1630094485.073,-191.895,-24.414,-30.273,-23.438
1630094485.077,-696.289,-40.039,-43.945,-34.668
1630094485.081,-62.500,-39.551,-66.406,-39.551
1630094485.085,697.754,-30.762,-58.105,-22.461
1630094485.089,70.801,-39.551,-49.316,-35.156
1630094485.091,-702.148,-50.781,-58.594,-51.270
1630094485.095,-352.051,-44.922,-56.152,-29.297
1630094485.099,613.770,-42.969,-51.270,-22.949
1630094485.103,338.379,-52.246,-47.363,-44.922
1630094485.107,-597.656,-66.895,-57.617,-41.016
1630094485.111,-538.574,-64.453,-71.289,-32.227
1630094485.115,444.336,-31.250,-58.105,-26.367
1630094485.118,562.500,-31.250,-48.340,-34.180
1630094485.122,-438.965,-65.918,-69.336,-71.289
1630094485.126,-689.941,-66.406,-71.289,-57.617
1630094485.130,162.598,-46.875,-67.383,-24.902
1630094485.134,676.758,-46.875,-64.941,-32.715
1630094485.136,-168.457,-60.547,-61.523,-56.152
1630094485.140,-715.820,-62.988,-69.336,-54.199
1630094485.144,-128.906,-55.176,-78.125,-40.039
1630094485.148,680.664,-45.898,-71.289,-29.785
1630094485.152,124.023,-56.641,-70.312,-40.039
1630094485.156,-659.180,-50.293,-63.477,-59.570
1630094485.160,-371.094,-29.785,-50.781,-41.504
1630094485.163,543.457,-42.969,-66.895,-35.645
1630094485.167,361.328,-58.594,-61.035,-54.199
1630094485.171,-559.570,-62.012,-49.805,-59.570
1630094485.175,-584.961,-50.293,-57.617,-56.152
1630094485.179,348.145,-50.781,-72.754,-38.574
1630094485.197,565.430,-51.270,-63.965,-35.156
1630094485.201,-370.605,-45.410,-50.781,-52.734
1630094485.205,-703.613,-48.340,-60.059,-49.316
1630094485.209,68.848,-49.805,-77.148,-31.738
1630094485.213,699.707,-37.598,-60.059,-16.602
1630094485.217,-61.035,-27.344,-30.273,-25.879
1630094485.221,-723.633,-44.922,-45.410,-34.668
1630094485.224,-243.164,-52.246,-62.500,-31.250
1630094485.228,633.301,-39.062,-52.734,-30.762
1630094485.232,197.754,-30.762,-29.785,-32.715
1630094485.236,-660.645,-47.852,-41.016,-52.246
1630094485.240,-466.797,-53.223,-56.641,-50.293
1630094485.241,530.273,-29.785,-54.688,-12.695
1630094485.245,461.426,-22.461,-40.527,-23.438
1630094485.249,-501.953,-42.480,-43.945,-41.504
1630094485.253,-591.797,-54.199,-63.477,-43.945
1630094485.257,311.523,-36.621,-64.941,-39.062
1630094485.261,627.930,-21.484,-40.527,-33.203
1630094485.265,-291.504,-38.574,-41.016,-59.570
1630094485.268,-723.633,-58.594,-72.754,-76.660
1630094485.272,17.090,-38.086,-64.453,-50.781
1630094485.276,774.902,12.695,-8.789,7.324
1630094485.280,16.602,-16.602,-22.461,-18.555
1630094485.284,-731.934,-56.152,-55.664,-42.480
1630094485.287,-284.668,-45.898,-63.477,-55.176
1630094485.291,630.859,-31.738,-63.477,-46.875
1630094485.295,261.230,-34.668,-52.246,-41.504
1630094485.299,-622.070,-48.828,-59.570,-60.547
1630094485.303,-481.445,-40.039,-54.199,-53.711
1630094485.307,499.512,-27.832,-52.734,-25.879
1630094485.311,512.207,-33.691,-49.805,-35.645
1630094485.314,-458.008,-46.875,-47.363,-54.199
1630094485.318,-620.117,-35.645,-45.898,-35.156
1630094485.322,253.418,-24.902,-54.688,-19.043
1630094485.326,653.809,-32.227,-50.293,-28.320
1630094485.330,-222.168,-40.527,-47.363,-43.457
1630094485.331,-703.613,-46.387,-61.523,-51.758
1630094485.335,-49.316,-41.992,-70.312,-38.574
1630094485.339,731.445,-33.203,-60.547,-17.090
1630094485.343,85.449,-43.457,-48.828,-22.461
1630094485.347,-694.336,-47.852,-49.316,-53.223
1630094485.351,-332.520,-39.551,-54.688,-51.270
1630094485.355,622.070,-33.203,-62.012,-27.344
1630094485.358,331.543,-37.598,-46.875,-33.203
1630094485.362,-561.035,-31.250,-23.438,-23.438
1630094485.366,-488.281,-34.668,-38.574,-23.926
1630094485.370,453.613,-39.551,-56.641,-30.273
1630094485.374,554.199,-33.203,-35.156,-27.832
1630094485.376,-400.879,-37.598,-32.227,-36.621
1630094485.380,-648.926,-43.945,-52.246,-42.480
1630094485.384,218.750,-38.086,-46.875,-8.789
1630094485.388,751.953,-36.621,-30.762,15.137
1630094485.392,-143.066,-44.434,-43.945,-46.875
1630094485.396,-754.883,-53.223,-53.711,-102.539
1630094485.400,-162.598,-53.711,-60.547,-83.984
1630094485.403,661.133,-32.715,-53.223,-61.523
1630094485.407,85.938,-40.527,-50.781,-84.473
1630094485.411,-746.582,-57.617,-73.242,-117.676
1630094485.415,-455.566,-44.434,-69.336,-115.234
1630094485.419,535.645,-27.344,-60.547,-81.055
1630094485.421,317.871,-44.434,-62.012,-88.379
1630094485.425,-600.586,-58.105,-67.871,-121.582
1630094485.429,-606.934,-54.199,-75.195,-119.141
1630094485.433,333.984,-41.016,-67.383,-62.012
1630094485.437,566.895,-29.297,-49.805,-50.293
1630094485.441,-373.047,-40.527,-53.711,-92.773
1630094485.445,-680.664,-37.598,-61.523,-81.055
1630094485.448,114.746,-22.949,-56.641,-34.668
1630094485.452,675.293,-35.156,-57.617,-36.621
1630094485.456,-121.582,-44.434,-55.176,-68.359
1630094485.460,-732.910,-43.945,-49.805,-61.523
1630094485.464,-199.707,-35.645,-49.316,-44.922
1630094485.467,670.410,-35.156,-59.082,-56.152
1630094485.471,168.945,-41.504,-52.246,-76.172
1630094485.475,-686.523,-41.016,-46.387,-76.660
1630094485.479,-461.426,-44.922,-59.082,-63.477
1630094485.483,528.809,-36.621,-62.988,-34.180
1630094485.487,447.266,-24.902,-41.504,-40.039
1630094485.491,-503.418,-25.391,-29.297,-40.527
1630094485.494,-608.398,-43.457,-53.223,-39.062
1630094485.498,316.406,-43.945,-64.453,-50.781
1630094485.502,627.441,-35.156,-48.340,-47.852
1630094485.506,-319.336,-46.875,-53.223,-75.195
1630094485.510,-711.426,-51.270,-62.500,-75.684
1630094485.511,28.320,-41.992,-60.059,-49.316
1630094485.515,734.375,-25.391,-43.945,-33.691
1630094485.519,-7.812,-37.109,-47.852,-50.781
1630094485.523,-725.586,-50.781,-54.688,-74.219
1630094485.527,-266.113,-46.387,-53.223,-56.641
1630094485.531,691.406,-26.367,-41.992,-20.020
1630094485.535,297.363,-14.160,-18.066,-35.156
1630094485.538,-661.133,-40.039,-35.156,-64.453
1630094485.542,-521.973,-45.898,-54.199,-63.477
1630094485.546,533.203,-19.531,-36.621,-24.902
1630094485.550,538.086,-23.926,-29.297,-28.809
1630094485.554,-486.328,-51.758,-48.340,-58.105
1630094485.571,-654.785,-51.758,-57.129,-54.688
1630094485.575,284.180,-34.668,-54.688,-30.273
1630094485.579,684.570,-31.250,-44.922,-20.996
1630094485.583,-277.832,-48.828,-49.805,-68.359
1630094485.587,-748.047,-59.082,-61.035,-77.148
1630094485.591,-16.602,-30.762,-46.387,-31.250
1630094485.595,746.094,-20.996,-45.410,-17.090
1630094485.598,24.902,-46.875,-54.199,-68.359
1630094485.602,-746.094,-57.617,-51.270,-80.078
1630094485.606,-335.449,-39.551,-44.922,-43.457
1630094485.610,645.996,-30.762,-55.176,-31.738
1630094485.614,315.430,-40.527,-54.199,-55.664
1630094485.617,-645.508,-54.688,-49.805,-59.082
1630094485.621,-554.199,-57.129,-61.035,-41.016
1630094485.625,466.309,-41.016,-63.477,-44.434
1630094485.629,538.574,-40.527,-59.570,-61.035
1630094485.633,-476.562,-48.340,-56.152,-76.172
1630094485.637,-704.102,-42.969,-53.711,-66.406
1630094485.641,199.219,-32.715,-60.547,-36.621
1630094485.644,705.078,-33.691,-60.547,-39.551
1630094485.648,-207.031,-43.945,-54.688,-63.965
1630094485.652,-724.609,-23.926,-35.156,-40.039
1630094485.656,-112.305,-30.762,-49.805,-37.598
1630094485.660,689.941,-43.457,-60.547,-39.551
1630094485.661,82.520,-43.945,-46.387,-58.105
1630094485.665,-740.723,-48.340,-51.270,-74.219
1630094485.669,-411.133,-45.410,-62.012,-50.781
1630094485.673,579.102,-35.645,-60.547,-35.156
1630094485.677,342.285,-40.039,-54.199,-68.848
1630094485.681,-625.488,-53.711,-55.176,-95.215
1630094485.685,-603.027,-48.828,-61.035,-76.660
1630094485.688,378.418,-38.086,-67.383,-58.105
1630094485.692,594.238,-19.043,-45.410,-53.711
1630094485.696,-403.320,-38.086,-56.152,-77.637
1630094485.700,-747.070,-57.129,-73.242,-64.453
1630094485.704,74.219,-50.781,-71.777,-39.551
1630094485.707,662.598,-46.387,-64.453,-53.711
1630094485.711,-150.879,-43.945,-50.293,-73.730
1630094485.715,-781.250,-55.176,-57.617,-77.148
1630094485.719,-228.027,-49.805,-62.500,-68.848
1630094485.723,689.941,-27.832,-50.781,-47.852
1630094485.727,169.922,-34.668,-46.387,-60.547
1630094485.731,-705.078,-60.059,-52.734,-77.637
1630094485.734,-478.027,-59.570,-58.105,-67.383
1630094485.738,539.062,-29.785,-50.781,-40.527
1630094485.742,399.902,-39.551,-50.781,-65.918
1630094485.746,-593.750,-62.012,-61.035,-90.332
1630094485.750,-628.906,-54.688,-54.199,-59.082
1630094485.751,343.262,-45.898,-43.457,-10.254
1630094485.755,603.027,-46.387,-46.387,-32.715
1630094485.759,-384.277,-48.828,-50.781,-95.215
1630094485.763,-747.070,-57.129,-57.129,-82.520
1630094485.767,50.781,-45.898,-63.965,-41.504
1630094485.771,737.793,-35.645,-59.570,-31.738
1630094485.775,-23.438,-49.316,-56.641,-47.852
1630094485.778,-700.195,-31.250,-44.922,-37.598
1630094485.782,-232.422,-20.020,-43.457,-16.113
1630094485.786,677.246,-26.367,-64.453,-10.254
1630094485.790,270.020,-24.902,-57.129,-15.137
1630094485.794,-620.117,-38.086,-53.711,-23.926
1630094485.796,-464.844,-41.992,-63.477,-38.086
1630094485.800,532.227,-24.414,-64.453,-32.715
1630094485.804,499.023,-22.949,-56.152,-36.133
1630094485.808,-485.840,-39.062,-55.664,-41.016
1630094485.812,-632.812,-40.039,-57.617,-34.668
1630094485.816,301.270,-26.367,-55.176,-19.043
1630094485.820,708.008,-16.602,-48.828,-18.066
1630094485.823,-221.191,-11.719,-29.297,-27.344
1630094485.827,-716.309,-30.762,-46.387,-47.852
1630094485.831,-17.090,-36.133,-64.453,-40.039
1630094485.835,760.742,-16.602,-47.852,-4.395
1630094485.839,67.871,-17.090,-40.039,-20.996
1630094485.841,-710.938,-40.039,-54.199,-43.457
1630094485.845,-305.664,-36.133,-55.664,-20.996
1630094485.849,666.504,-14.648,-44.434,14.160
1630094485.853,321.777,-27.832,-39.062,-19.531
1630094485.857,-606.934,-43.945,-48.828,-47.852
1630094485.861,-509.277,-42.480,-58.594,-46.387
1630094485.865,486.328,-22.949,-50.293,-10.254
1630094485.868,582.520,-18.066,-37.109,-17.090
1630094485.872,-410.645,-35.156,-48.340,-45.410
1630094485.876,-642.090,-38.574,-52.246,-28.320
1630094485.880,234.375,-27.832,-52.246,-8.789
1630094485.884,706.055,-22.949,-48.340,-8.301
1630094485.887,-184.082,-34.180,-44.922,-38.086
1630094485.891,-722.656,-40.039,-50.781,-51.270
1630094485.895,-84.473,-27.832,-53.711,-37.109
1630094485.899,733.398,-19.043,-47.363,-31.738
1630094485.903,124.023,-29.297,-44.434,-51.270
1630094485.907,-675.781,-31.738,-37.598,-45.898
1630094485.911,-333.496,-15.625,-36.621,-12.695
1630094485.914,619.629,-22.461,-49.316,6.836
1630094485.918,377.441,-37.598,-41.016,-32.715
1630094485.922,-551.270,-29.297,-40.039,-49.805
1630094485.926,-534.180,-27.832,-43.457,-20.996
1630094485.930,425.781,-39.062,-54.688,-9.766
1630094485.946,608.398,-28.809,-44.434,-10.742
1630094485.950,-353.516,-27.344,-40.527,-31.250
1630094485.954,-679.199,-41.016,-55.664,-44.922
1630094485.958,130.371,-31.250,-58.594,-18.066
1630094485.962,720.703,-20.996,-45.898,-19.043
1630094485.966,-90.820,-17.578,-27.832,-32.715
1630094485.970,-698.242,-25.391,-39.062,-20.996
1630094485.973,-172.363,-35.645,-62.500,-10.742
1630094485.977,683.594,-28.809,-51.758,-6.836
1630094485.981,172.852,-26.367,-37.598,-27.344
1630094485.985,-667.969,-43.457,-45.898,-32.715
1630094485.989,-415.527,-50.293,-54.688,-28.809
1630094485.991,575.684,-36.621,-49.316,-5.371
1630094485.995,435.547,-36.133,-39.551,-6.836
1630094485.999,-546.387,-48.828,-41.016,-39.551
1630094486.003,-594.238,-41.992,-45.410,-28.320
1630094486.007,372.559,-27.832,-46.875,6.836
1630094486.011,649.902,-20.996,-36.621,-9.766
1630094486.015,-305.176,-34.180,-39.062,-27.344
1630094486.018,-699.219,-54.199,-51.758,-24.414
1630094486.022,61.035,-43.945,-46.387,-20.996
1630094486.026,757.324,-9.766,-15.137,14.648
1630094486.030,-29.297,-30.762,-23.438,-14.160
1630094486.034,-745.605,-55.176,-39.551,-36.133
1630094486.036,-263.672,-48.828,-40.527,-8.789
1630094486.040,648.438,-41.504,-46.387,-18.066
1630094486.044,217.773,-42.480,-44.922,-50.781
1630094486.048,-665.039,-49.316,-46.387,-59.082
1630094486.052,-479.980,-49.805,-51.758,-40.039
1630094486.056,528.320,-37.109,-50.781,-8.301
1630094486.060,487.305,-31.250,-35.156,-11.719
1630094486.063,-506.348,-46.387,-41.016,-50.781
1630094486.067,-612.305,-34.668,-24.414,-35.645
1630094486.071,307.617,-26.367,-27.344,-14.648
1630094486.075,658.203,-41.016,-52.734,-9.277
1630094486.079,-267.090,-55.176,-41.504,-35.645
1630094486.081,-740.234,-63.477,-43.457,-78.125
1630094486.085,-57.129,-60.547,-49.316,-53.223
1630094486.089,674.316,-53.711,-37.109,-36.133
1630094486.093,-35.156,-68.359,-33.691,-69.824
1630094486.097,-772.461,-83.984,-43.457,-72.754
1630094486.101,-334.961,-64.941,-41.016,-62.012
1630094486.105,602.539,-57.129,-43.457,-70.801
1630094486.108,242.188,-60.059,-37.109,-88.867
1630094486.112,-662.109,-50.781,-21.484,-86.426
1630094486.116,-567.383,-58.594,-41.504,-83.008
1630094486.120,421.875,-52.246,-52.734,-49.316
1630094486.124,511.230,-41.016,-34.668,-56.641
1630094486.126,-453.125,-49.316,-30.273,-70.312
1630094486.130,-678.223,-65.430,-43.945,-49.805
1630094486.134,203.125,-54.199,-49.805,-35.645
1630094486.138,657.715,-46.875,-47.852,-46.387
1630094486.142,-248.535,-65.918,-52.734,-66.895
1630094486.146,-779.785,-68.359,-61.523,-70.801
1630094486.150,-124.023,-48.828,-60.059,-52.246
1630094486.153,713.379,-22.949,-29.297,-13.184
1630094486.157,69.336,-42.480,-32.227,-40.039
1630094486.161,-746.094,-68.848,-58.105,-70.312
1630094486.165,-384.766,-59.570,-62.988,-56.641
1630094486.169,589.844,-45.410,-60.059,-35.156
1630094486.172,341.797,-45.410,-48.828,-37.598
1630094486.176,-585.449,-55.664,-55.176,-55.176
1630094486.180,-565.918,-54.688,-57.129,-54.199
1630094486.184,423.828,-33.203,-44.434,-12.695
1630094486.188,578.613,-30.762,-44.434,-23.438
1630094486.192,-396.484,-46.387,-49.805,-62.012
1630094486.196,-664.062,-44.922,-49.805,-47.852
1630094486.199,178.223,-18.066,-34.668,-0.977
1630094486.203,713.379,-21.973,-38.086,-10.742
1630094486.207,-146.484,-46.875,-48.340,-55.664
1630094486.211,-739.258,-52.246,-50.293,-43.945
1630094486.215,-159.180,-37.598,-42.969,-26.855
1630094486.216,684.570,-41.992,-48.340,-41.504
1630094486.220,143.555,-50.781,-42.480,-53.223
1630094486.224,-701.660,-55.664,-42.969,-60.059
1630094486.228,-425.293,-53.223,-51.270,-50.781
1630094486.232,552.246,-42.969,-53.711,-36.621
1630094486.236,387.695,-41.504,-46.387,-47.363
1630094486.240,-546.875,-29.785,-30.273,-44.434
1630094486.243,-576.172,-28.809,-24.902,-35.156
1630094486.247,346.191,-44.922,-50.781,-31.250
1630094486.251,582.520,-38.574,-51.758,-40.527
1630094486.255,-360.840,-47.852,-52.734,-62.500
1630094486.259,-718.262,-60.059,-64.453,-64.453
1630094486.261,63.477,-53.711,-73.730,-46.875
1630094486.265,718.262,-39.062,-61.035,-30.762
1630094486.269,-66.406,-43.457,-50.781,-50.293
1630094486.273,-740.234,-48.828,-54.688,-57.129
1630094486.277,-246.582,-37.598,-59.570,-43.457
1630094486.281,675.781,-23.926,-49.316,-23.438
1630094486.285,253.418,-16.113,-34.668,-29.297
1630094486.288,-635.742,-36.133,-54.688,-53.223
1630094486.292,-474.121,-55.176,-72.266,-58.594
1630094486.296,523.926,-41.016,-60.059,-35.156
1630094486.300,479.492,-34.180,-44.434,-23.926
1630094486.304,-525.391,-61.523,-55.664,-50.293
1630094486.321,-657.715,-68.848,-69.824,-58.105
1630094486.325,300.781,-42.480,-69.824,-35.645
1630094486.329,669.922,-32.715,-57.129,-32.715
1630094486.333,-284.180,-48.340,-52.246,-58.594
1630094486.337,-723.145,-46.875,-59.082,-60.059
1630094486.341,14.160,-31.250,-58.594,-36.621
1630094486.345,733.398,-23.438,-56.152,-35.156
1630094486.348,-13.184,-39.062,-58.105,-54.688
1630094486.352,-738.770,-49.316,-62.500,-49.805
1630094486.356,-290.039,-31.250,-65.918,-45.898
1630094486.360,670.410,-15.625,-61.523,-22.949
1630094486.364,312.012,-25.879,-50.781,-34.180
1630094486.366,-620.117,-40.527,-57.617,-72.266
1630094486.370,-512.695,-37.109,-66.406,-67.383
1630094486.374,494.141,-26.367,-63.477,-41.016
1630094486.378,544.434,-18.555,-52.246,-34.668
1630094486.382,-439.453,-31.738,-56.152,-58.105
1630094486.386,-642.578,-47.852,-69.824,-61.035
1630094486.390,238.281,-37.598,-74.707,-29.297
1630094486.393,694.824,-28.320,-59.570,-26.855
1630094486.397,-195.312,-36.133,-49.316,-51.758
1630094486.401,-693.359,-21.484,-40.039,-29.785
1630094486.405,-23.438,-13.672,-51.758,-7.324
1630094486.409,738.281,-21.973,-62.500,-31.738
1630094486.412,79.590,-35.645,-56.641,-55.176
1630094486.416,-685.547,-37.598,-55.176,-56.641
1630094486.420,-338.867,-32.227,-58.105,-55.176
1630094486.424,622.070,-27.344,-63.477,-30.273
1630094486.428,354.004,-30.273,-55.176,-37.109
1630094486.432,-582.031,-32.227,-48.340,-72.754
1630094486.436,-542.969,-34.668,-65.918,-61.035
1630094486.439,424.805,-33.203,-72.754,-27.344
1630094486.443,578.613,-17.090,-41.504,-14.648
1630094486.447,-386.230,-24.902,-32.715,-27.344
1630094486.451,-669.922,-40.039,-47.363,-57.129
1630094486.455,178.711,-31.738,-52.246,-39.062
1630094486.456,715.820,-26.855,-47.363,-35.645
1630094486.460,-149.414,-43.457,-49.316,-72.266
1630094486.464,-735.352,-53.223,-59.082,-72.754
1630094486.468,-148.926,-37.109,-56.641,-59.570
1630094486.472,698.242,-31.738,-59.082,-44.922
1630094486.476,144.531,-38.574,-58.105,-62.988
1630094486.480,-689.453,-36.133,-59.082,-74.707
1630094486.483,-420.898,-41.992,-65.918,-62.012
1630094486.487,568.848,-39.551,-63.965,-40.039
1630094486.491,395.020,-36.621,-54.199,-48.828
1630094486.495,-570.312,-51.758,-51.270,-63.965
1630094486.499,-580.566,-52.734,-55.664,-43.945
1630094486.501,382.812,-34.180,-58.105,-16.113
1630094486.505,603.027,-26.855,-49.316,-32.715
1630094486.509,-345.703,-34.180,-43.457,-53.711
1630094486.513,-682.617,-39.551,-42.969,-60.547
1630094486.517,94.727,-37.109,-53.711,-43.457
1630094486.521,715.332,-27.832,-51.758,-33.691
1630094486.525,-75.684,-33.203,-39.551,-59.082
1630094486.528,-715.332,-41.992,-41.992,-58.105
1630094486.532,-210.449,-41.504,-60.059,-34.668
1630094486.536,651.855,-35.645,-58.594,-34.668
1630094486.540,189.453,-35.645,-41.016,-48.340
1630094486.544,-645.020,-41.504,-40.527,-46.875
1630094486.546,-442.383,-44.922,-48.340,-43.457
1630094486.550,534.180,-37.598,-55.176,-32.715
1630094486.554,450.684,-40.527,-47.363,-51.270
1630094486.558,-517.578,-50.293,-41.504,-66.406
1630094486.562,-611.328,-44.434,-49.805,-56.152
1630094486.566,306.641,-34.180,-57.129,-30.273
1630094486.570,634.766,-28.320,-41.504,-20.020
1630094486.573,-273.438,-31.250,-33.691,-51.270
1630094486.577,-701.172,-45.898,-50.293,-71.777
1630094486.581,-0.488,-35.645,-54.199,-34.668
1630094486.585,707.031,-27.344,-42.969,-8.301
1630094486.589,-11.719,-42.480,-39.551,-49.316
1630094486.591,-722.656,-49.805,-47.852,-61.035
1630094486.595,-290.527,-46.875,-48.340,-38.086
1630094486.599,638.184,-35.156,-46.875,-25.391
1630094486.603,268.066,-34.180,-43.457,-48.340
1630094486.607,-629.883,-49.805,-48.828,-67.383
1630094486.611,-488.770,-44.922,-54.199,-46.387
1630094486.615,500.488,-26.855,-51.758,-20.020
1630094486.618,500.000,-34.668,-40.039,-34.180
1630094486.622,-490.234,-50.781,-46.387,-48.828
1630094486.626,-650.879,-47.852,-50.781,-45.898
1630094486.630,239.746,-37.109,-54.199,-26.367
1630094486.634,663.574,-34.180,-44.922,-25.391
1630094486.637,-216.797,-41.016,-32.715,-39.062
1630094486.641,-707.031,-43.945,-42.480,-24.902
1630094486.645,-57.617,-42.480,-57.617,-23.438
1630094486.649,698.242,-39.551,-48.828,-23.438
1630094486.653,55.664,-43.457,-38.086,-46.387
1630094486.657,-690.430,-49.805,-44.434,-54.688
1630094486.661,-323.242,-48.828,-45.898,-28.809
1630094486.664,604.004,-31.250,-44.434,-11.719
1630094486.668,302.246,-33.691,-41.504,-32.715
1630094486.672,-596.680,-44.922,-45.898,-46.875
1630094486.676,-534.668,-42.969,-54.688,-41.992
1630094486.680,432.617,-33.691,-58.594,-24.414
1630094486.696,565.918,-32.715,-48.340,-31.738
1630094486.700,-403.320,-45.410,-41.992,-51.270
1630094486.704,-668.457,-43.945,-46.875,-38.574
1630094486.708,170.410,-31.250,-52.734,-15.625
1630094486.712,689.941,-23.926,-41.992,-19.043
1630094486.716,-133.789,-28.809,-26.855,-27.344
1630094486.720,-694.336,-41.992,-39.062,-19.043
1630094486.723,-136.230,-46.875,-62.988,-24.414
1630094486.727,681.641,-39.551,-53.711,-25.391
1630094486.731,123.047,-40.039,-35.645,-29.297
1630094486.735,-690.918,-44.922,-43.457,-42.969
1630094486.739,-407.227,-42.969,-54.688,-41.504
1630094486.741,583.008,-24.414,-49.316,-16.602
1630094486.745,401.855,-25.391,-38.086,-25.391
1630094486.749,-543.457,-39.062,-37.598,-36.133
1630094486.753,-544.434,-34.180,-41.992,-27.832
1630094486.757,390.625,-32.227,-53.223,-14.648
1630094486.761,590.332,-29.785,-44.922,-16.113
1630094486.765,-362.793,-40.527,-45.410,-38.086
1630094486.768,-680.176,-48.828,-53.711,-39.551
1630094486.772,116.699,-36.621,-59.570,-12.695
1630094486.776,747.559,-8.789,-28.809,15.625
1630094486.780,-32.227,-18.555,-15.137,6.348
1630094486.784,-699.707,-46.875,-41.016,-31.250
1630094486.786,-210.938,-41.504,-58.594,-38.086
1630094486.790,674.805,-30.762,-57.129,-23.438
1630094486.794,202.637,-39.062,-47.363,-36.133
1630094486.798,-645.996,-48.340,-54.199,-42.969
1630094486.802,-306.152,-43.945,-54.688,-33.691
1630094486.806,611.816,-30.273,-56.152,-27.832
1630094486.810,442.871,-34.180,-54.688,-32.715
1630094486.813,-494.629,-50.781,-52.246,-40.527
1630094486.817,-573.242,-34.180,-34.668,-22.949
1630094486.821,348.633,-27.832,-49.805,-15.137
1630094486.825,630.371,-37.598,-59.082,-28.320
1630094486.829,-294.922,-35.645,-39.551,-35.645
1630094486.831,-676.758,-33.203,-33.691,-34.180
1630094486.835,49.805,-40.527,-51.270,-32.227
1630094486.839,704.590,-38.574,-51.270,-29.297
1630094486.843,-32.715,-41.992,-37.598,-52.734
1630094486.847,-709.961,-52.734,-44.922,-64.941
1630094486.851,-241.699,-44.434,-60.547,-39.551
1630094486.855,642.090,-35.156,-57.617,-27.344
1630094486.858,236.328,-44.434,-38.086,-41.504
1630094486.862,-608.887,-40.527,-35.156,-38.086
1630094486.866,-456.055,-38.574,-45.410,-35.645
1630094486.870,484.375,-41.016,-55.664,-33.691
1630094486.874,468.262,-40.039,-46.387,-41.992
1630094486.877,-485.352,-56.152,-39.062,-55.664
1630094486.881,-626.953,-53.223,-46.875,-64.453
1630094486.885,241.211,-36.133,-61.523,-51.270
1630094486.889,630.859,-32.715,-47.852,-33.203
1630094486.893,-231.445,-41.016,-38.086,-49.805
1630094486.897,-681.152,-42.969,-50.293,-58.594
1630094486.901,-44.434,-41.016,-60.547,-36.133
1630094486.904,670.898,-28.809,-44.434,-15.625
1630094486.908,26.367,-37.598,-31.250,-38.574
1630094486.912,-713.379,-62.500,-51.270,-57.617
1630094486.916,-333.008,-52.734,-61.523,-45.898
1630094486.920,610.352,-28.809,-57.617,-33.203
1630094486.921,305.664,-33.691,-50.781,-39.551
1630094486.925,-604.980,-53.223,-54.688,-55.176
1630094486.929,-530.273,-50.293,-54.688,-68.848
1630094486.933,438.965,-34.668,-59.570,-47.363
1630094486.937,537.598,-35.156,-50.781,-46.387
1630094486.941,-421.875,-48.340,-41.504,-65.430
1630094486.945,-654.297,-48.828,-48.340,-62.012
1630094486.948,161.133,-42.969,-59.082,-41.016
1630094486.952,633.301,-43.457,-53.223,-39.551
1630094486.956,-182.129,-41.992,-41.992,-53.223
1630094486.960,-714.355,-49.805,-48.828,-50.293
1630094486.964,-133.301,-45.898,-57.129,-37.598
1630094486.967,663.574,-33.203,-50.293,-31.250
1630094486.971,99.609,-44.434,-43.945,-51.270
1630094486.975,-677.734,-53.223,-43.945,-58.105
1630094486.979,-394.531,-52.734,-49.805,-42.480
1630094486.983,558.105,-41.992,-48.828,-35.645
1630094486.987,351.562,-35.645,-32.715,-53.711
1630094486.991,-576.172,-43.945,-36.621,-58.594
1630094486.994,-553.711,-46.387,-43.457,-49.805
1630094486.998,368.164,-37.598,-53.223,-32.715
1630094487.002,534.180,-36.133,-37.109,-38.086
1630094487.006,-388.184,-47.363,-32.715,-59.082
1630094487.010,-701.172,-59.570,-53.711,-68.848
1630094487.011,80.566,-45.898,-53.223,-59.082
1630094487.015,681.152,-31.738,-35.156,-39.062
1630094487.019,-105.469,-40.527,-29.785,-55.664
1630094487.023,-719.727,-53.223,-42.969,-77.148
1630094487.027,-169.922,-56.152,-55.176,-64.453
1630094487.031,644.531,-39.551,-44.922,-40.039
1630094487.035,154.297,-33.691,-26.855,-51.270
1630094487.038,-668.945,-46.875,-37.109,-63.477
1630094487.042,-453.613,-47.363,-47.852,-45.898
1630094487.046,536.133,-21.484,-31.250,-21.484
1630094487.050,423.828,-26.367,-18.066,-50.293
1630094487.054,-541.504,-54.688,-40.039,-81.543
1630094487.058,-626.953,-55.176,-50.293,-68.848
1630094487.062,291.992,-41.504,-49.805,-37.109
1630094487.066,605.469,-32.227,-34.668,-26.367
1630094487.070,-304.688,-37.109,-27.832,-48.828
1630094487.074,-696.777,-48.340,-44.434,-51.270
1630094487.078,39.551,-39.062,-47.363,-32.227
1630094487.082,691.406,-31.250,-33.691,-29.785
1630094487.085,-61.523,-45.898,-31.250,-50.293
1630094487.089,-728.516,-52.734,-38.574,-51.758
1630094487.093,-256.348,-40.039,-44.434,-31.738
1630094487.097,624.023,-29.297,-47.363,-40.527
1630094487.101,210.449,-39.062,-36.621,-61.035
1630094487.117,-647.949,-50.293,-40.039,-65.918
1630094487.121,-479.492,-42.480,-41.504,-53.711
1630094487.125,467.285,-35.156,-47.852,-34.180
1630094487.129,454.102,-39.062,-43.945,-42.969
1630094487.133,-479.492,-41.504,-28.809,-48.340
1630094487.137,-606.934,-35.156,-29.297,-40.039
1630094487.141,257.324,-35.645,-49.316,-34.180
1630094487.144,611.816,-39.062,-40.039,-25.391
1630094487.148,-240.234,-41.016,-28.809,-37.109
1630094487.152,-697.754,-54.688,-47.852,-64.941
1630094487.156,-69.824,-62.012,-67.871,-63.477
1630094487.160,668.945,-43.457,-57.129,-43.457
1630094487.161,28.320,-44.434,-36.133,-58.594
1630094487.165,-702.637,-56.152,-42.480,-71.289
1630094487.169,-317.871,-49.316,-56.152,-52.246
1630094487.173,617.188,-29.785,-49.316,-32.715
1630094487.177,322.754,-26.855,-33.691,-50.293
1630094487.181,-572.266,-42.969,-40.527,-65.918
1630094487.185,-495.117,-49.316,-54.688,-54.199
1630094487.188,442.871,-39.062,-52.246,-35.156
1630094487.192,497.070,-44.922,-41.992,-54.688
1630094487.196,-432.129,-53.223,-42.969,-77.637
1630094487.200,-641.602,-55.176,-43.945,-60.547
1630094487.204,191.895,-41.992,-50.781,-38.574
1630094487.206,686.523,-27.344,-41.016,-35.645
1630094487.210,-147.949,-29.785,-35.156,-44.434
1630094487.214,-697.266,-33.203,-46.875,-47.363
1630094487.218,-97.168,-29.785,-51.270,-29.785
1630094487.222,689.941,-25.879,-47.363,-29.785
1630094487.226,94.238,-35.156,-40.527,-55.664
1630094487.230,-661.621,-41.016,-49.805,-72.754
1630094487.233,-349.609,-38.086,-55.176,-57.129
1630094487.237,596.191,-19.531,-39.062,-6.836
1630094487.241,368.652,-19.043,-30.762,-34.668
1630094487.245,-566.895,-39.062,-36.133,-60.547
1630094487.249,-550.293,-48.340,-49.316,-50.293
1630094487.251,395.996,-40.039,-54.688,-37.598
1630094487.255,563.477,-39.551,-40.527,-42.969
1630094487.259,-362.793,-46.875,-55.176,-47.363
1630094487.263,-650.879,-52.734,-66.406,-52.734
1630094487.267,185.059,-47.363,-61.035,-42.480
1630094487.271,719.238,-37.598,-47.363,-11.230
1630094487.275,-108.398,-49.316,-30.273,-8.789
1630094487.278,-681.152,-70.801,-46.875,-32.227
1630094487.282,-129.883,-68.848,-52.246,-12.207
1630094487.286,678.223,-48.828,-38.086,8.301
1630094487.290,200.195,-49.805,-34.180,-7.812
1630094487.294,-601.562,-61.523,-46.875,-22.949
1630094487.297,-397.461,-60.547,-54.199,-23.926
1630094487.301,556.641,-50.781,-46.875,3.906
1630094487.305,441.895,-48.828,-39.062,-9.766
1630094487.309,-486.328,-60.547,-47.852,-29.297
1630094487.313,-532.715,-59.082,-54.199,-20.996
1630094487.317,405.273,-39.062,-58.594,2.930
1630094487.321,647.949,-43.457,-51.270,8.301
1630094487.324,-310.547,-63.965,-38.086,-11.230
1630094487.328,-669.922,-65.430,-38.086,-20.508
1630094487.332,106.934,-47.363,-46.387,1.953
1630094487.336,738.281,-46.875,-48.828,16.113
1630094487.340,-24.902,-59.570,-41.992,-19.531
1630094487.342,-677.734,-65.918,-47.363,-16.113
1630094487.346,-199.219,-58.105,-54.688,-4.883
1630094487.350,698.730,-36.621,-39.551,-7.324
1630094487.354,270.020,-49.805,-32.227,-14.648
1630094487.358,-616.211,-65.918,-44.434,-30.273
1630094487.362,-445.801,-50.781,-50.781,-43.945
1630094487.366,541.016,-34.180,-49.805,-15.625
1630094487.369,506.836,-33.691,-31.250,-7.812
1630094487.373,-456.055,-49.316,-35.156,-38.086
1630094487.377,-597.656,-48.340,-47.852,-33.691
1630094487.381,295.410,-38.574,-55.664,-3.906
1630094487.385,657.227,-38.574,-42.969,-4.395
1630094487.386,-247.070,-47.852,-35.645,-18.555
1630094487.390,-695.312,-56.152,-43.945,-24.414
1630094487.394,-7.812,-50.293,-47.363,-11.230
1630094487.398,694.824,-42.969,-41.016,7.812
1630094487.402,-3.418,-52.246,-34.180,-32.715
1630094487.406,-694.824,-53.711,-40.527,-53.711
1630094487.410,-271.973,-36.621,-42.969,-25.879
1630094487.413,626.953,-38.574,-47.363,-18.555
1630094487.417,289.551,-46.875,-38.086,-44.922
1630094487.421,-583.496,-43.457,-33.691,-48.828
1630094487.425,-477.051,-41.504,-45.898,-32.715
1630094487.429,467.285,-34.668,-46.875,1.465
1630094487.446,507.324,-31.250,-34.180,-26.855
1630094487.450,-421.387,-41.016,-36.133,-55.664
1630094487.454,-618.652,-42.969,-46.875,-52.246
1630094487.458,210.938,-37.109,-60.059,-43.457
1630094487.462,657.227,-32.227,-47.852,-33.203
1630094487.466,-179.688,-30.762,-32.715,-38.086
1630094487.470,-683.594,-38.086,-51.270,-44.434
1630094487.473,-87.891,-42.969,-69.336,-45.898
1630094487.477,680.664,-31.738,-62.500,-26.367
1630094487.481,111.816,-24.414,-34.668,-20.996
1630094487.485,-658.203,-37.109,-39.551,-41.016
1630094487.489,-337.402,-40.527,-57.129,-47.363
1630094487.491,590.332,-30.762,-51.758,-23.438
1630094487.495,350.586,-33.691,-36.621,-35.645
1630094487.499,-541.504,-43.457,-40.527,-50.293
1630094487.503,-533.203,-38.086,-44.922,-32.715
1630094487.507,389.160,-33.203,-46.875,-22.949
1630094487.511,536.621,-36.133,-36.621,-24.902
1630094487.515,-381.836,-34.180,-34.180,-50.781
1630094487.518,-661.133,-40.527,-45.898,-70.801
1630094487.522,132.812,-36.133,-45.898,-39.551
1630094487.526,692.383,-17.090,-25.879,-6.836
1630094487.530,-121.582,-32.227,-24.414,-45.410
1630094487.534,-712.402,-43.945,-38.574,-76.172
1630094487.537,-150.391,-33.203,-47.852,-33.691
1630094487.541,680.664,-28.320,-39.551,-13.672
1630094487.545,145.508,-35.156,-31.738,-46.875
1630094487.549,-662.598,-36.621,-39.551,-62.500
1630094487.553,-399.902,-35.645,-47.852,-53.711
1630094487.557,539.551,-26.367,-54.199,-48.340
1630094487.561,377.930,-30.762,-42.480,-56.641
1630094487.564,-527.832,-32.227,-33.691,-41.992
1630094487.568,-558.105,-20.996,-37.598,-51.270
1630094487.572,323.730,-22.461,-48.340,-51.758
