timestamps,TP9,AF7,AF8,TP10
1630094699.861,52.734,-17.578,51.758,5.371
1630094699.865,276.855,-21.484,-2.930,46.875
1630094699.869,18.066,-30.273,-100.098,-26.367
1630094699.873,-340.332,-32.715,-80.078,-80.566
1630094699.877,-100.098,-26.367,44.434,-0.488
1630094699.881,231.934,-33.203,21.484,26.367
1630094699.885,97.656,-38.086,-90.820,-44.922
1630094699.888,-308.594,-31.738,-106.445,-92.773
1630094699.892,-196.289,-20.020,20.020,-14.160
1630094699.896,194.336,-20.020,37.598,45.410
1630094699.900,161.133,-37.109,-39.551,-4.883
1630094699.904,-240.723,-44.922,-101.074,-86.426
1630094699.921,-342.285,-47.363,-0.977,-90.332
1630094699.925,67.871,-56.641,52.734,-11.230
1630094699.929,221.191,-64.941,-18.066,-21.484
1630094699.933,-118.652,-71.777,-96.680,-77.637
1630094699.937,-383.301,-78.613,-39.551,-74.707
1630094699.941,-33.203,-77.637,50.781,-10.254
1630094699.945,230.469,-80.566,6.836,8.789
1630094699.948,-1.953,-86.426,-84.473,-36.133
1630094699.952,-353.027,-90.332,-70.801,-53.711
1630094699.956,-145.020,-124.023,29.297,-14.160
1630094699.960,216.309,-127.930,16.602,28.320
1630094699.964,169.922,-96.680,-54.688,49.316
1630094699.967,-239.746,-109.375,-85.938,5.859
1630094699.971,-195.312,-103.516,33.691,13.672
1630094699.975,226.074,-91.797,60.547,66.895
1630094699.979,283.691,-89.355,-31.738,82.520
1630094699.983,-117.676,-104.980,-96.191,37.598
1630094699.987,-280.762,-110.352,-6.836,10.742
1630094699.991,135.254,-92.285,56.641,67.871
1630094699.994,346.680,-83.984,0.977,90.820
1630094699.998,6.836,-95.703,-81.543,38.574
1630094700.002,-315.918,-104.492,-38.086,5.859
1630094700.006,52.734,-79.590,69.336,77.148
1630094700.010,344.238,-78.125,39.551,95.703
1630094700.010,120.117,-83.984,-62.988,50.781
1630094700.014,-287.109,-82.520,-61.035,5.371
1630094700.018,-62.988,-75.195,59.082,39.551
1630094700.022,325.684,-66.406,46.387,80.566
1630094700.026,230.957,-65.918,-49.805,52.246
1630094700.030,-202.637,-73.242,-90.820,6.836
1630094700.034,-208.008,-73.730,22.949,7.324
1630094700.037,242.676,-56.641,55.664,52.734
1630094700.041,298.828,-73.730,-36.133,30.762
1630094700.045,-149.414,-85.449,-118.164,-39.062
1630094700.049,-319.336,-57.129,-20.508,-20.996
1630094700.053,134.277,-45.898,58.594,45.410
1630094700.056,348.145,-52.734,-3.418,54.688
1630094700.060,-2.441,-60.547,-91.797,14.160
1630094700.064,-365.723,-60.059,-54.688,-17.090
1630094700.068,-12.695,-49.316,37.598,22.949
1630094700.072,336.426,-42.969,-2.930,45.898
1630094700.076,138.672,-44.434,-88.379,0.488
1630094700.080,-311.523,-48.340,-95.703,-37.109
1630094700.083,-162.109,-54.199,16.113,-9.766
1630094700.087,258.789,-55.664,7.812,33.203
1630094700.091,227.051,-48.340,-69.824,26.367
1630094700.095,-223.145,-44.922,-108.398,-26.367
1630094700.099,-288.574,-43.945,-11.719,-29.297
1630094700.100,175.293,-42.969,28.320,22.461
1630094700.104,314.941,-37.109,-49.316,26.367
1630094700.108,-101.562,-40.527,-121.094,-23.438
1630094700.112,-347.168,-39.551,-41.504,-34.668
1630094700.116,79.590,-32.227,31.250,10.254
1630094700.120,333.496,-36.133,-19.043,33.691
1630094700.124,59.082,-36.621,-98.633,-14.160
1630094700.127,-361.816,-59.570,-93.750,-78.125
1630094700.131,-87.402,-60.059,7.324,-29.785
1630094700.135,316.895,-33.203,15.625,21.484
1630094700.139,168.945,-47.363,-66.406,9.277
1630094700.143,-287.598,-41.504,-88.867,-12.695
1630094700.146,-198.242,-17.578,20.996,-37.109
1630094700.150,200.684,-19.043,27.344,-49.316
1630094700.154,158.691,-24.414,-62.500,-66.895
1630094700.158,-325.195,-23.926,-112.305,-152.344
1630094700.162,-446.777,-5.859,-7.324,-212.891
1630094700.166,8.789,11.230,35.645,-173.828
1630094700.170,134.766,6.836,-49.805,-187.012
1630094700.173,-294.434,-4.883,-130.859,-269.043
1630094700.177,-577.148,23.438,-59.082,-277.832
1630094700.181,-195.312,44.922,27.344,-241.699
1630094700.185,62.988,54.688,-19.531,-269.043
1630094700.189,-229.004,62.988,-112.305,-337.891
1630094700.191,-638.184,71.289,-104.980,-363.770
1630094700.195,-360.840,90.820,0.488,-317.383
1630094700.199,22.949,95.703,-19.043,-310.059
1630094700.203,-144.043,91.797,-119.629,-363.281
1630094700.207,-580.566,84.961,-147.461,-376.465
1630094700.211,-458.984,104.004,-29.785,-318.359
1630094700.215,-32.227,86.914,-32.227,-302.246
1630094700.218,-3.418,54.688,-133.789,-302.246
1630094700.222,-395.020,70.801,-165.039,-296.387
1630094700.226,-509.277,69.824,-66.895,-262.695
1630094700.230,-35.645,63.965,-11.719,-190.918
1630094700.234,156.250,56.641,-64.453,-177.246
1630094700.236,-173.340,36.621,-144.043,-207.031
1630094700.240,-461.426,29.297,-99.609,-202.637
1630094700.244,-54.199,30.762,-8.789,-128.906
1630094700.248,270.508,30.273,-44.922,-79.102
1630094700.252,37.109,26.367,-133.789,-77.148
1630094700.256,-364.746,10.254,-122.070,-98.633
1630094700.260,-137.695,2.930,-4.883,-59.570
1630094700.263,239.258,5.371,-15.137,-9.766
1630094700.267,150.391,2.930,-102.051,-14.648
1630094700.271,-260.254,-5.371,-136.230,-48.828
1630094700.275,-233.398,-14.648,-23.438,-32.715
1630094700.279,194.336,-8.789,9.277,15.625
1630094700.296,252.441,-7.324,-67.871,7.812
1630094700.300,-145.020,-21.973,-131.348,-32.715
1630094700.304,-315.430,-24.902,-53.711,-23.438
1630094700.308,88.867,-14.648,14.160,31.250
1630094700.312,290.527,-12.207,-36.133,46.387
1630094700.316,-20.996,-29.785,-117.676,-4.395
1630094700.320,-339.355,-31.250,-81.543,-20.020
1630094700.323,-4.883,-16.602,7.812,26.367
1630094700.327,306.641,-16.113,-14.648,64.453
1630094700.331,108.887,-36.133,-104.980,34.668
1630094700.335,-326.660,-45.410,-117.676,-23.438
1630094700.339,-154.785,-27.344,10.742,13.672
1630094700.341,266.602,-24.902,7.812,58.594
1630094700.345,212.402,-28.809,-94.727,34.180
1630094700.349,-217.285,-31.250,-125.977,-9.277
1630094700.353,-229.492,-30.762,-12.695,0.977
1630094700.357,196.289,-30.762,16.602,44.922
1630094700.361,299.805,-24.902,-54.688,51.270
1630094700.365,-74.707,-29.785,-124.023,-2.441
1630094700.368,-309.570,-37.598,-50.781,-16.113
1630094700.372,75.195,-34.180,15.625,35.156
1630094700.376,286.621,-36.133,-39.062,47.363
1630094700.380,7.324,-32.227,-108.398,3.906
1630094700.384,-309.082,-32.227,-75.195,-28.320
1630094700.386,-16.113,-27.344,18.555,1.953
1630094700.390,283.203,-24.902,-3.906,20.508
1630094700.394,116.699,-30.273,-87.891,7.812
1630094700.398,-286.621,-34.180,-104.004,-26.855
1630094700.402,-166.016,-34.180,11.230,0.488
1630094700.406,235.840,-33.203,13.672,50.293
1630094700.410,230.469,-33.691,-75.684,30.762
1630094700.413,-177.246,-46.875,-118.652,-23.438
1630094700.417,-262.207,-42.969,-15.137,-8.301
1630094700.421,143.555,-30.762,33.691,40.527
1630094700.425,264.160,-36.621,-35.645,40.527
1630094700.429,-78.125,-45.898,-104.492,-0.488
1630094700.431,-328.125,-42.480,-43.457,-18.066
1630094700.435,24.414,-26.855,27.344,28.809
1630094700.439,275.879,-25.879,-9.766,38.574
1630094700.443,21.484,-33.691,-84.473,4.883
1630094700.447,-335.449,-44.434,-77.148,-26.367
1630094700.451,-80.566,-38.574,19.531,4.395
1630094700.455,237.793,-41.016,4.395,25.879
1630094700.458,100.586,-51.270,-79.102,-16.113
1630094700.462,-284.180,-53.223,-97.656,-49.805
1630094700.466,-208.984,-44.434,6.836,-13.672
1630094700.470,168.457,-43.457,17.090,32.715
1630094700.474,183.105,-48.828,-62.500,13.672
1630094700.476,-184.570,-38.086,-116.699,-40.527
1630094700.480,-286.133,-33.203,-26.855,-36.621
1630094700.484,94.238,-37.598,26.855,19.043
1630094700.488,227.539,-36.133,-30.273,6.836
1630094700.492,-90.820,-44.434,-93.750,-53.223
1630094700.496,-334.961,-42.969,-47.852,-42.480
1630094700.500,-12.207,-31.250,24.414,1.953
1630094700.503,226.074,-30.762,-10.254,5.371
1630094700.507,33.203,-38.086,-88.867,-12.695
1630094700.511,-310.059,-45.410,-83.008,-43.457
1630094700.515,-127.441,-40.039,22.949,-14.160
1630094700.519,187.988,-38.574,12.207,14.648
1630094700.521,111.328,-34.180,-82.031,-16.113
1630094700.525,-240.723,-34.180,-114.258,-57.617
1630094700.529,-203.125,-33.203,-2.930,-37.109
1630094700.533,155.762,-31.250,26.367,22.949
1630094700.537,189.453,-40.039,-51.758,7.324
1630094700.541,-129.395,-44.434,-108.398,-46.387
1630094700.545,-284.180,-51.758,-36.621,-52.246
1630094700.548,53.711,-43.945,19.043,1.465
1630094700.552,233.887,-32.227,-25.391,7.324
1630094700.556,-32.227,-41.016,-96.191,-28.809
1630094700.560,-300.293,-53.711,-62.500,-41.992
1630094700.564,-45.410,-51.270,23.926,-17.578
1630094700.566,195.312,-40.039,-14.648,3.906
1630094700.570,41.016,-39.551,-97.168,-27.832
1630094700.574,-277.832,-46.387,-87.891,-61.523
1630094700.578,-125.000,-41.016,11.719,-33.203
1630094700.582,162.109,-37.109,4.883,-2.930
1630094700.586,139.160,-42.480,-71.289,-28.320
1630094700.590,-169.922,-49.805,-104.980,-79.102
1630094700.593,-192.871,-49.316,-12.207,-54.688
1630094700.597,140.137,-36.621,17.090,-2.441
1630094700.601,201.660,-36.133,-48.340,-17.090
1630094700.605,-101.562,-44.434,-104.004,-55.664
1630094700.609,-275.879,-41.016,-33.203,-57.617
1630094700.612,32.227,-33.691,31.250,0.977
1630094700.616,207.520,-26.855,-21.484,-8.789
1630094700.620,-27.344,-33.691,-95.703,-72.754
1630094700.624,-283.691,-47.852,-62.012,-71.777
1630094700.628,-57.617,-43.457,20.020,-15.137
1630094700.632,196.289,-32.227,-4.395,12.207
1630094700.636,87.402,-31.738,-81.055,-20.508
1630094700.639,-229.004,-40.039,-94.727,-66.406
1630094700.643,-146.484,-41.992,5.371,-20.996
1630094700.647,155.273,-39.551,9.766,22.949
1630094700.651,138.672,-41.016,-64.941,-14.160
1630094700.655,-162.109,-43.945,-100.586,-52.734
1630094700.671,-217.285,-42.969,-17.090,-45.898
1630094700.675,69.336,-42.480,24.414,-9.766
1630094700.679,162.598,-40.039,-32.227,-6.348
1630094700.683,-81.055,-44.922,-95.703,-45.410
1630094700.687,-245.605,-48.340,-42.480,-77.637
1630094700.691,8.789,-32.227,27.344,-41.992
1630094700.695,160.645,-32.227,-10.742,-2.441
1630094700.698,-22.461,-46.387,-86.914,-36.133
1630094700.702,-250.488,-45.410,-67.383,-68.359
1630094700.706,-91.797,-37.109,29.785,-25.879
1630094700.710,115.723,-39.551,11.719,-11.230
1630094700.714,34.668,-38.086,-69.336,-39.062
1630094700.716,-214.355,-39.551,-77.148,-56.641
1630094700.720,-166.992,-38.086,9.277,-34.668
1630094700.724,83.984,-31.738,15.137,-2.930
1630094700.728,108.887,-36.133,-48.828,-0.977
1630094700.732,-123.535,-39.062,-91.309,-31.738
1630094700.736,-209.961,-35.645,-18.066,-55.176
1630094700.740,21.973,-37.109,25.879,-28.320
1630094700.743,116.699,-39.062,-24.414,-20.020
1630094700.747,-70.801,-42.969,-81.055,-52.246
1630094700.751,-235.352,-37.598,-35.645,-70.312
1630094700.755,-43.457,-32.227,25.879,-43.457
1630094700.759,111.816,-34.180,-0.977,-23.438
1630094700.761,-13.184,-34.668,-68.359,-28.320
1630094700.765,-211.914,-43.457,-69.824,-54.199
1630094700.769,-75.684,-38.574,13.184,-35.645
1630094700.773,105.957,-35.645,5.859,-21.484
1630094700.777,43.945,-42.969,-64.453,-56.641
1630094700.781,-171.875,-48.340,-87.402,-84.473
1630094700.785,-168.457,-47.852,-10.742,-63.477
1630094700.788,49.316,-45.898,3.906,-36.133
1630094700.792,81.055,-53.711,-55.176,-61.523
1630094700.796,-118.164,-57.129,-101.562,-80.078
1630094700.800,-193.359,-45.898,-34.180,-53.223
1630094700.804,11.230,-42.969,9.277,-38.086
1630094700.806,97.656,-46.387,-31.738,-47.363
1630094700.810,-40.527,-46.387,-82.520,-57.129
1630094700.814,-179.688,-47.852,-51.270,-64.453
1630094700.818,-24.902,-42.480,16.113,-36.133
1630094700.822,94.727,-41.504,-11.230,-16.602
1630094700.826,-4.883,-45.410,-71.289,-51.270
1630094700.830,-190.430,-44.922,-72.266,-98.633
1630094700.833,-107.422,-39.062,4.395,-73.730
1630094700.837,89.355,-36.621,4.883,-27.344
1630094700.841,57.617,-40.527,-56.641,-44.922
1630094700.845,-155.273,-49.805,-86.426,-80.078
1630094700.849,-144.043,-48.828,-13.672,-61.035
1630094700.851,52.734,-41.016,9.766,-33.203
1630094700.855,65.430,-41.992,-46.387,-38.086
1630094700.859,-86.914,-51.270,-91.797,-66.406
1630094700.863,-143.066,-59.570,-36.133,-48.828
1630094700.867,3.906,-46.387,4.883,-23.926
1630094700.871,56.152,-27.832,-32.715,-64.453
1630094700.875,-37.598,-33.691,-75.195,-88.379
1630094700.878,-126.953,-45.410,-66.895,-68.359
1630094700.882,-31.250,-36.133,-21.973,-25.879
1630094700.886,95.215,-17.578,-29.785,17.090
1630094700.890,71.289,-5.371,-89.844,-3.418
1630094700.894,-42.969,-9.766,-92.773,-29.785
1630094700.896,3.418,-8.789,-16.113,5.859
1630094700.900,113.770,-4.395,-17.090,33.203
1630094700.904,114.746,-3.906,-71.289,27.832
1630094700.908,31.738,-1.953,-96.191,15.625
1630094700.912,18.066,-1.465,-31.250,31.738
1630094700.916,93.262,3.418,-7.812,58.105
1630094700.920,130.859,-4.395,-50.781,62.012
1630094700.923,49.805,-11.719,-81.543,23.926
1630094700.927,-22.949,-0.977,-47.852,15.625
1630094700.931,33.203,2.930,-14.648,38.574
1630094700.935,80.078,0.488,-41.016,29.785
1630094700.939,45.410,-4.395,-89.355,-8.789
1630094700.941,-8.301,-13.184,-71.777,-14.648
1630094700.945,4.395,-14.648,-10.742,8.301
1630094700.949,22.461,-16.602,-19.531,20.020
1630094700.953,23.438,-17.578,-68.359,7.812
1630094700.957,-8.301,-18.066,-86.914,-6.348
1630094700.961,-33.691,-22.949,-18.555,8.789
1630094700.965,3.906,-21.973,2.441,30.273
1630094700.968,28.320,-15.625,-48.828,29.297
1630094700.972,0.000,-20.996,-85.449,-1.953
1630094700.976,-10.742,-24.902,-33.691,2.441
1630094700.980,-3.906,-22.949,-7.324,37.109
1630094700.984,12.207,-18.066,-36.133,16.602
1630094700.986,17.578,-16.602,-75.684,-15.137
1630094700.990,-25.879,-26.367,-51.270,-18.555
1630094700.994,-21.973,-16.113,-11.230,-16.602
1630094700.998,1.465,-14.648,-31.250,-13.672
1630094701.002,-2.441,-38.574,-70.312,-4.395
1630094701.006,-6.836,-35.645,-57.129,-2.441
1630094701.010,-31.250,-26.855,-3.906,0.000
1630094701.013,-36.133,-29.785,-23.438,-1.953
1630094701.017,0.488,-28.320,-68.848,-30.273
1630094701.021,23.438,-38.574,-75.684,-20.020
1630094701.025,-16.113,-45.898,-22.949,-18.066
1630094701.029,-66.895,-30.762,-19.531,-45.410
1630094701.046,-60.059,-31.250,-60.059,-54.199
1630094701.050,0.000,-33.203,-79.102,-50.293
1630094701.054,-10.254,-23.926,-37.109,-53.223
1630094701.058,-73.730,-25.879,-7.812,-20.996
1630094701.062,-76.660,-32.227,-35.645,-18.555
1630094701.066,-11.719,-34.668,-68.848,-32.715
1630094701.070,13.672,-38.086,-50.781,-15.625
1630094701.073,-59.082,-38.086,-19.531,-41.016
1630094701.077,-71.777,-41.504,-40.527,-37.598
1630094701.081,-7.324,-35.156,-67.871,-19.043
1630094701.085,52.734,-28.809,-61.035,-42.480
1630094701.089,-19.531,-34.668,-18.066,-36.133
1630094701.091,-85.938,-37.109,-14.648,-18.066
1630094701.095,-39.551,-36.133,-59.082,-27.344
1630094701.099,34.668,-46.875,-81.055,-42.480
1630094701.103,18.555,-47.852,-29.297,-26.855
1630094701.107,-63.477,-42.969,-15.625,0.488
1630094701.111,-70.801,-42.969,-53.223,-19.043
1630094701.115,23.926,-40.039,-84.473,-46.387
1630094701.118,41.992,-47.363,-42.969,-20.996
1630094701.122,-45.410,-26.855,1.465,-6.348
1630094701.126,-58.105,-3.906,-9.766,-3.906
1630094701.130,-20.020,-36.133,-58.594,-13.184
1630094701.134,48.340,-45.410,-51.758,-33.203
1630094701.136,-16.113,-37.109,-1.953,-13.672
1630094701.140,-105.469,-35.645,-21.973,-6.348
1630094701.144,-42.480,-40.039,-71.289,-37.109
1630094701.148,81.055,-39.551,-73.730,-53.711
1630094701.152,18.555,-20.996,-14.648,-31.738
1630094701.156,-85.938,-13.672,-10.254,-20.508
1630094701.160,-66.406,-26.855,-53.711,-21.484
1630094701.163,72.266,-36.621,-74.707,-33.203
1630094701.167,91.797,-15.625,-18.066,-10.254
1630094701.171,-63.965,-13.184,5.371,4.883
1630094701.175,-120.605,-38.574,-52.734,-37.598
1630094701.179,38.086,-44.922,-87.402,-39.551
1630094701.181,102.539,-41.504,-54.199,-20.508
1630094701.185,-70.312,-40.039,-19.531,-8.789
1630094701.189,-150.879,-41.016,-42.480,-29.785
1630094701.193,7.324,-39.062,-72.266,-53.223
1630094701.197,146.484,-41.992,-60.547,-43.457
1630094701.201,-2.930,-42.969,-15.137,-29.785
1630094701.205,-148.438,-45.410,-19.043,-24.902
1630094701.208,-63.965,-40.527,-56.152,1.953
1630094701.212,159.180,-29.297,-50.781,9.766
1630094701.216,54.688,-36.621,-17.578,-40.527
1630094701.220,-152.344,-37.598,-29.785,-39.551
1630094701.224,-93.750,-28.320,-50.293,-31.250
1630094701.226,132.324,-41.504,-31.738,-12.207
1630094701.230,101.562,-51.270,-29.297,-26.367
1630094701.234,-179.688,-47.363,-17.578,-76.172
1630094701.238,-250.488,-61.523,-17.090,-88.867
1630094701.242,-64.453,-74.707,-61.523,-114.746
1630094701.246,53.223,-76.172,-20.996,-131.836
1630094701.250,-194.824,-80.566,24.414,-144.531
1630094701.253,-390.137,-87.402,-10.742,-201.172
1630094701.257,-272.461,-99.121,-41.504,-251.953
1630094701.261,-117.676,-114.746,-25.391,-268.555
1630094701.265,-308.105,-115.234,16.602,-274.414
1630094701.269,-504.883,-106.934,24.902,-279.297
1630094701.271,-457.520,-124.512,-4.883,-299.316
1630094701.275,-201.660,-141.602,-5.371,-318.359
1630094701.279,-250.488,-144.531,35.645,-326.660
1630094701.283,-565.430,-144.043,40.039,-343.750
1630094701.287,-566.406,-130.859,14.648,-358.887
1630094701.291,-254.395,-125.000,3.906,-344.727
1630094701.295,-193.848,-137.207,39.062,-332.520
1630094701.298,-477.539,-133.301,51.758,-305.664
1630094701.302,-558.594,-116.699,18.555,-299.316
1630094701.306,-279.785,-113.770,-6.348,-290.039
1630094701.310,-36.621,-110.840,14.160,-240.234
1630094701.314,-298.828,-97.168,36.621,-253.906
1630094701.319,-495.605,-86.426,10.254,-249.512
1630094701.323,-274.414,-86.426,-20.508,-201.172
1630094701.327,46.387,-76.172,-14.160,-191.895
1630094701.331,-123.047,-72.754,11.230,-165.039
1630094701.335,-406.738,-72.266,-2.441,-152.344
1630094701.339,-282.227,-64.453,-32.227,-139.648
1630094701.343,120.117,-66.895,-43.945,-106.934
1630094701.346,82.520,-69.336,-18.066,-88.867
1630094701.350,-281.250,-62.012,-16.113,-94.727
1630094701.354,-317.871,-60.547,-41.016,-66.406
1630094701.358,67.383,-50.781,-54.688,-41.504
1630094701.362,232.910,-39.062,-38.574,-44.922
1630094701.361,-145.996,-46.387,-23.438,-41.016
1630094701.365,-331.055,-53.223,-39.062,-53.223
1630094701.369,-8.301,-51.758,-62.012,-35.156
1630094701.373,308.105,-47.852,-55.664,-30.762
1630094701.377,-21.973,-47.363,-34.668,-50.293
1630094701.381,-318.848,-49.805,-37.598,-32.227
1630094701.385,-98.145,-54.688,-60.059,-22.949
1630094701.388,308.105,-47.363,-62.012,-10.742
1630094701.392,125.488,-44.434,-44.434,-2.441
1630094701.396,-263.184,-43.945,-55.176,-32.715
1630094701.400,-188.965,-36.133,-66.895,-20.508
1630094701.404,254.883,-36.621,-64.941,21.484
1630094701.421,245.605,-41.504,-41.992,4.395
1630094701.425,-193.848,-43.945,-35.645,-17.578
1630094701.429,-273.438,-44.434,-59.082,-12.695
1630094701.433,134.766,-43.457,-65.918,-0.977
1630094701.437,344.238,-37.109,-50.781,-11.719
1630094701.441,-67.871,-25.391,-39.062,-9.277
1630094701.445,-280.762,-27.344,-45.898,2.930
1630094701.448,18.066,-32.227,-69.336,-5.859
1630094701.452,335.938,-26.367,-70.312,-12.207
1630094701.456,24.902,-32.715,-42.969,-12.695
1630094701.460,-314.941,-43.457,-45.898,-22.461
1630094701.464,-130.371,-38.086,-63.477,-25.879
1630094701.466,320.801,-33.203,-63.477,5.859
1630094701.470,160.156,-35.156,-47.852,-11.719
1630094701.474,-264.160,-35.645,-43.457,-25.391
1630094701.478,-223.633,-38.574,-63.477,-20.508
1630094701.482,185.059,-40.527,-67.871,-10.254
1630094701.486,255.859,-31.738,-36.133,14.160
1630094701.490,-180.176,-34.180,-30.273,-5.859
1630094701.493,-308.594,-41.504,-50.781,-37.598
1630094701.497,82.031,-37.109,-64.453,-15.137
1630094701.501,317.383,-31.250,-49.316,-1.465
1630094701.505,-66.406,-39.551,-32.715,-30.273
1630094701.509,-329.590,-44.434,-46.875,-42.480
1630094701.510,-59.082,-34.180,-68.359,-9.766
1630094701.514,318.848,-33.203,-62.988,0.977
1630094701.518,35.645,-41.016,-43.457,-19.043
1630094701.522,-316.406,-38.574,-43.457,-29.785
1630094701.526,-163.086,-37.598,-60.059,-23.926
1630094701.530,272.461,-37.109,-63.965,-0.488
1630094701.534,164.062,-41.016,-34.668,-2.930
1630094701.537,-266.113,-47.363,-39.551,-10.742
1630094701.541,-273.438,-32.715,-50.293,-16.113
1630094701.545,147.949,-28.320,-46.387,-17.090
1630094701.549,260.254,-40.039,-39.062,-32.227
1630094701.553,-169.922,-38.574,-24.414,-35.156
1630094701.556,-329.102,-38.574,-37.598,-14.648
1630094701.560,11.719,-29.297,-67.383,-15.137
1630094701.564,299.316,-31.738,-52.734,-21.484
1630094701.568,-34.180,-36.621,-27.344,-31.250
1630094701.572,-313.965,-32.227,-40.039,-41.016
1630094701.576,-103.027,-35.156,-62.988,-25.391
1630094701.580,250.000,-32.715,-62.500,-37.109
1630094701.583,48.828,-30.273,-24.414,-68.848
1630094701.587,-296.387,-27.832,-20.020,-47.363
1630094701.591,-232.910,-33.203,-60.059,-39.551
1630094701.595,184.082,-43.457,-66.406,-38.574
1630094701.599,163.574,-32.227,-33.691,-32.715
1630094701.601,-237.793,-27.832,-29.785,-26.855
1630094701.605,-276.367,-30.762,-56.152,-44.434
1630094701.609,95.703,-24.902,-70.312,-65.430
1630094701.613,219.727,-20.508,-37.109,-42.969
1630094701.617,-145.020,-23.926,-21.973,-30.273
1630094701.621,-333.008,-29.297,-43.945,-40.039
1630094701.625,-42.480,-28.320,-65.430,-41.016
1630094701.628,263.184,-18.066,-50.781,-29.785
1630094701.632,-26.367,-16.113,-23.926,-32.227
1630094701.636,-332.520,-28.320,-41.016,-34.668
1630094701.640,-151.855,-29.297,-73.730,-42.480
1630094701.644,224.121,-22.461,-65.430,-46.387
1630094701.645,64.453,-20.508,-28.320,-42.480
1630094701.649,-282.715,-26.367,-33.203,-54.688
1630094701.653,-224.609,-32.715,-60.059,-60.547
1630094701.657,157.227,-22.461,-68.848,-28.809
1630094701.661,169.434,-18.555,-37.598,-22.949
1630094701.665,-200.684,-27.344,-31.738,-60.547
1630094701.669,-284.180,-26.367,-52.734,-47.363
1630094701.672,65.430,-22.949,-62.500,-32.227
1630094701.676,247.070,-26.367,-41.504,-33.691
1630094701.680,-111.816,-29.297,-24.902,-32.227
1630094701.684,-309.082,-25.879,-42.969,-35.645
1630094701.688,-39.551,-22.949,-67.871,-27.344
1630094701.691,252.930,-23.926,-55.664,-20.996
1630094701.695,2.930,-31.738,-21.973,-20.020
1630094701.699,-270.020,-31.738,-31.250,-25.391
1630094701.703,-141.602,-22.949,-67.383,-40.527
1630094701.707,205.566,-26.367,-69.336,-34.668
1630094701.711,105.469,-28.320,-30.762,-39.062
1630094701.715,-221.680,-24.414,-21.484,-31.250
1630094701.718,-203.125,-23.438,-44.922,-28.809
1630094701.722,125.488,-27.344,-67.383,-37.109
1630094701.726,168.945,-31.738,-41.016,-43.945
1630094701.730,-186.523,-33.203,-30.762,-44.922
1630094701.734,-298.828,-31.738,-53.223,-30.273
1630094701.736,-11.230,-28.809,-78.613,-47.363
1630094701.740,179.199,-28.809,-54.688,-61.035
1630094701.744,-92.773,-30.273,-29.785,-65.918
1630094701.748,-336.426,-30.762,-47.852,-50.293
1630094701.752,-119.141,-35.645,-77.637,-37.109
1630094701.756,220.703,-27.832,-60.059,-46.875
1630094701.760,21.973,-23.438,-15.625,-32.715
1630094701.763,-274.902,-33.691,-39.551,-43.945
1630094701.767,-182.129,-32.227,-73.242,-67.383
1630094701.771,183.594,-23.438,-67.871,-51.758
1630094701.775,122.070,-20.508,-28.809,-32.227
1630094701.779,-232.422,-26.367,-29.785,-32.715
1630094701.784,-257.812,-30.762,-64.453,-35.645
1630094701.788,95.215,-23.926,-78.613,-36.133
1630094701.792,190.430,-25.391,-38.574,-43.945
1630094701.796,-148.438,-25.879,-35.156,-51.758
1630094701.800,-269.531,-21.973,-60.547,-54.199
1630094701.804,15.625,-23.926,-75.684,-59.082
1630094701.808,243.164,-30.762,-53.711,-41.992
1630094701.811,-40.039,-40.039,-28.320,-42.969
1630094701.815,-283.691,-39.551,-49.805,-45.898
1630094701.819,-91.797,-18.066,-64.453,-27.832
1630094701.823,246.094,-13.672,-56.641,-34.668
1630094701.827,55.176,-30.762,-30.762,-66.895
1630094701.841,-252.930,-33.203,-40.039,-69.336
1630094701.845,-158.691,-34.668,-73.730,-64.941
1630094701.849,179.688,-34.668,-76.660,-66.406
1630094701.853,139.160,-30.762,-49.805,-61.523
1630094701.857,-205.078,-31.738,-40.527,-58.594
1630094701.861,-234.863,-28.809,-49.805,-47.852
1630094701.865,86.914,-31.250,-75.195,-43.945
1630094701.868,187.500,-32.227,-48.340,-52.734
1630094701.872,-122.559,-16.602,-27.832,-39.062
1630094701.876,-237.793,-14.648,-49.805,4.883
1630094701.880,-6.348,-27.832,-71.289,-24.902
1630094701.884,208.008,-36.621,-41.992,-62.988
1630094701.886,-55.176,-45.410,-6.836,-67.383
1630094701.890,-293.945,-49.316,-27.832,-53.223
1630094701.894,-129.883,-59.082,-62.012,-31.250
1630094701.898,155.762,-68.359,-59.082,-43.945
1630094701.902,34.180,-75.684,-15.625,-51.270
1630094701.906,-282.227,-75.684,-20.020,-53.711
1630094701.910,-227.539,-74.219,-49.316,-61.523
1630094701.913,127.441,-77.148,-60.059,-52.246
1630094701.917,135.742,-56.152,-8.301,-44.922
1630094701.921,-176.758,-40.039,14.648,-33.203
1630094701.925,-259.766,-56.152,-35.156,-39.551
1630094701.929,16.602,-58.594,-71.289,-40.039
1630094701.931,159.668,-53.711,-32.227,-23.926
1630094701.935,-123.535,-57.617,-9.766,-40.039
1630094701.939,-278.320,-51.758,-42.480,-38.574
1630094701.943,-64.941,-46.875,-75.195,-38.574
1630094701.947,187.500,-46.875,-53.223,-40.039
1630094701.951,-28.320,-47.852,-9.766,-29.297
1630094701.955,-267.578,-53.223,-28.809,-29.785
1630094701.958,-161.621,-46.387,-60.059,-27.832
1630094701.962,132.812,-40.527,-53.223,-16.602
1630094701.966,49.805,-45.410,-21.484,-25.391
1630094701.970,-266.602,-43.945,-29.297,-45.898
1630094701.974,-255.371,-42.969,-52.246,-44.434
1630094701.976,71.289,-40.527,-60.059,-18.555
1630094701.980,107.422,-37.598,-31.738,-17.578
1630094701.984,-205.078,-38.086,-22.461,-20.996
1630094701.988,-287.109,-39.062,-51.270,-31.250
1630094701.992,2.930,-36.621,-80.078,-32.227
1630094701.996,192.871,-35.645,-45.898,-11.230
1630094702.000,-89.844,-41.992,-14.648,-34.668
1630094702.003,-275.391,-39.551,-31.738,-55.176
1630094702.007,-80.078,-38.086,-66.406,-27.832
1630094702.011,178.711,-42.969,-69.824,-45.898
1630094702.015,-5.371,-40.039,-29.785,-66.895
1630094702.019,-244.141,-45.410,-34.180,-50.781
1630094702.026,-138.184,-45.410,-71.777,-46.875
1630094702.030,162.109,-44.922,-75.195,-42.969
1630094702.034,114.746,-41.504,-24.414,-34.668
1630094702.038,-194.336,-41.016,-19.043,-31.250
1630094702.042,-217.773,-41.016,-59.570,-54.688
1630094702.046,105.469,-36.621,-82.031,-51.270
1630094702.050,179.199,-39.062,-39.551,-36.621
1630094702.053,-130.859,-41.504,-18.555,-32.227
1630094702.057,-249.023,-47.363,-46.875,-26.855
1630094702.061,5.859,-49.805,-76.172,-19.531
1630094702.065,203.613,-44.434,-53.223,-36.621
1630094702.069,-58.105,-42.969,-24.414,-61.035
1630094702.066,-256.836,-41.992,-42.969,-40.527
1630094702.070,-77.637,-34.180,-80.078,-36.133
1630094702.074,220.703,-26.855,-63.965,-45.898
1630094702.078,74.707,-27.344,-11.719,-32.715
1630094702.082,-215.332,-25.879,-26.367,-31.738
1630094702.086,-148.926,-25.391,-58.105,-40.039
1630094702.090,184.082,-21.973,-60.547,-32.715
1630094702.093,172.852,-20.996,-18.555,-17.578
1630094702.097,-170.410,-28.320,-16.602,-14.648
1630094702.101,-244.141,-32.227,-49.316,-23.926
1630094702.105,67.383,-28.809,-71.777,-25.391
1630094702.109,183.594,-27.832,-36.621,-34.668
1630094702.110,-116.699,-22.949,-16.113,-24.902
1630094702.114,-272.949,-27.344,-47.363,-36.133
1630094702.118,-35.156,-36.621,-71.289,-40.527
1630094702.122,211.914,-32.227,-49.805,-20.020
1630094702.126,-58.594,-27.832,-17.090,-29.297
1630094702.130,-296.875,-30.762,-25.391,-36.133
1630094702.134,-121.094,-30.273,-57.617,-25.391
1630094702.137,161.621,-29.785,-59.570,-20.020
1630094702.141,38.086,-32.227,-15.137,-0.488
1630094702.145,-236.328,-27.344,-21.484,-10.254
1630094702.149,-199.219,-28.809,-58.594,-33.203
1630094702.153,119.141,-34.180,-65.430,-22.949
1630094702.171,88.867,-32.227,-21.484,-39.062
1630094702.175,-219.727,-29.297,-5.371,-37.598
1630094702.179,-249.023,-38.574,-41.504,-35.645
1630094702.183,41.504,-41.016,-73.730,-36.621
1630094702.187,208.496,-28.320,-38.086,-42.480
1630094702.191,-90.332,-31.250,-14.648,-38.086
1630094702.195,-263.672,-33.691,-42.480,-25.879
1630094702.198,-26.367,-28.809,-70.801,-15.625
1630094702.202,237.305,-25.879,-46.875,-0.977
1630094702.206,20.508,-19.531,-6.348,-2.441
1630094702.210,-225.098,-18.066,-24.902,-5.859
1630094702.214,-100.586,-29.297,-62.988,-35.645
1630094702.217,215.820,-30.273,-58.594,-39.551
1630094702.221,107.910,-25.879,-15.137,-40.039
1630094702.225,-205.078,-28.809,-21.973,-46.875
1630094702.229,-189.941,-30.762,-59.082,-35.645
1630094702.233,144.531,-28.320,-68.359,-24.414
1630094702.237,193.359,-29.297,-28.320,-13.672
1630094702.241,-134.766,-31.738,-18.555,-6.836
1630094702.244,-229.004,-28.320,-42.480,-19.043
1630094702.248,56.641,-24.902,-67.871,-15.137
1630094702.252,227.539,-30.273,-38.574,-28.320
1630094702.256,-59.570,-31.738,-8.789,-40.527
1630094702.260,-240.723,-32.227,-31.250,-30.273
1630094702.261,-40.527,-37.109,-64.453,-32.715
1630094702.265,208.496,-34.668,-56.641,-21.484
1630094702.269,4.883,-30.762,-19.043,-39.062
1630094702.273,-246.094,-31.738,-24.902,-34.180
1630094702.277,-132.812,-44.434,-61.035,-18.555
1630094702.281,185.547,-45.898,-68.359,-34.180
1630094702.285,108.887,-38.086,-18.555,-28.320
1630094702.288,-213.867,-41.016,-24.902,-17.578
1630094702.292,-228.027,-36.621,-61.523,-33.203
1630094702.296,87.891,-34.668,-67.871,-38.086
1630094702.300,152.344,-42.480,-36.621,-31.250
1630094702.304,-157.227,-37.598,-22.461,-25.879
1630094702.306,-273.438,-31.250,-47.852,-28.809
1630094702.310,-16.602,-34.668,-72.754,-26.855
1630094702.314,182.617,-38.086,-48.828,-40.039
1630094702.318,-84.961,-36.133,-20.508,-52.246
1630094702.322,-287.109,-28.809,-36.133,-35.645
1630094702.326,-84.473,-24.414,-63.477,-29.297
1630094702.330,198.242,-28.320,-60.547,-36.621
1630094702.333,0.000,-35.156,-17.090,-40.039
1630094702.337,-271.484,-36.133,-23.438,-38.086
1630094702.341,-186.523,-31.250,-67.383,-37.109
1630094702.345,138.184,-32.227,-67.383,-34.668
1630094702.349,115.234,-35.156,-16.602,-33.691
1630094702.351,-200.195,-31.250,-19.531,-46.387
1630094702.355,-229.004,-32.715,-61.035,-35.645
1630094702.359,80.566,-32.715,-77.148,-8.789
1630094702.363,192.871,-25.391,-26.855,-46.875
1630094702.367,-92.773,-31.250,-5.859,-50.293
1630094702.371,-249.023,-39.551,-42.480,-31.250
1630094702.375,0.000,-39.062,-69.336,-35.645
1630094702.378,229.980,-47.363,-52.734,-36.621
1630094702.382,-32.227,-52.246,-17.578,-33.691
1630094702.386,-262.207,-42.480,-26.855,-28.809
1630094702.390,-106.934,-37.109,-61.035,-38.086
1630094702.394,218.262,-39.062,-51.270,-34.180
1630094702.397,86.914,-38.086,-9.277,-30.273
1630094702.401,-229.492,-37.109,-22.461,-46.875
1630094702.405,-189.941,-48.340,-62.012,-74.707
1630094702.409,145.996,-44.922,-67.871,-67.383
1630094702.413,142.090,-37.598,-22.461,-44.922
1630094702.417,-172.363,-40.527,-14.648,-39.551
1630094702.421,-229.004,-41.992,-46.875,-32.227
1630094702.424,49.316,-45.410,-78.613,-34.668
1630094702.428,182.617,-39.062,-39.062,-45.898
1630094702.432,-106.934,-38.574,-9.277,-51.758
1630094702.436,-273.926,-43.457,-42.480,-45.410
1630094702.440,-47.363,-46.875,-72.754,-31.738
1630094702.441,218.262,-43.457,-51.758,-48.828
1630094702.445,-16.602,-32.227,-18.066,-50.293
1630094702.449,-287.598,-39.551,-34.180,-53.223
1630094702.453,-150.391,-49.805,-65.918,-54.199
1630094702.457,177.734,-42.480,-62.500,-31.738
1630094702.461,75.684,-34.668,-13.672,-33.691
1630094702.465,-238.770,-37.598,-19.531,-43.457
1630094702.468,-229.980,-44.922,-60.547,-53.223
1630094702.472,97.168,-44.922,-68.848,-39.062
1630094702.476,128.418,-44.434,-14.648,-48.828
1630094702.480,-196.777,-43.945,1.953,-32.715
1630094702.484,-273.438,-42.969,-39.551,-17.090
1630094702.487,10.742,-45.410,-75.195,-40.527
1630094702.491,165.527,-50.781,-40.039,-43.457
1630094702.495,-115.723,-48.340,-6.348,-45.898
1630094702.499,-300.781,-42.969,-30.762,-57.129
1630094702.503,-92.773,-38.574,-62.012,-58.594
1630094702.507,201.172,-35.645,-43.457,-49.805
1630094702.511,-6.836,-47.852,-10.742,-55.664
1630094702.514,-304.199,-54.688,-33.203,-48.828
1630094702.518,-179.199,-47.852,-68.848,-47.363
1630094702.522,156.738,-43.945,-69.824,-56.152
1630094702.526,74.219,-38.574,-22.461,-42.480
1630094702.530,-226.562,-36.621,-18.066,-41.016
1630094702.545,-226.074,-35.645,-50.781,-54.688
1630094702.549,91.309,-36.133,-71.289,-63.477
1630094702.553,158.691,-38.574,-25.879,-60.059
1630094702.557,-149.902,-39.062,-3.418,-45.898
1630094702.561,-259.277,-37.598,-37.109,-41.504
1630094702.565,0.977,-51.270,-78.125,-56.152
1630094702.569,208.008,-52.246,-52.734,-59.570
1630094702.572,-55.664,-44.922,-9.766,-40.039
1630094702.576,-266.113,-50.293,-32.715,-44.434
1630094702.580,-79.102,-44.922,-66.406,-47.363
1630094702.584,210.938,-45.898,-46.875,-38.086
1630094702.588,25.391,-41.992,-4.883,-28.809
1630094702.591,-252.441,-39.062,-20.020,-34.180
1630094702.595,-159.180,-42.969,-62.500,-54.688
1630094702.599,164.062,-39.062,-68.359,-38.574
1630094702.603,123.047,-36.621,-13.184,-29.785
1630094702.607,-183.594,-41.016,-6.836,-33.691
1630094702.611,-217.285,-39.551,-45.410,-37.109
1630094702.615,102.539,-37.109,-62.500,-31.738
1630094702.618,206.055,-34.668,-16.602,-32.715
1630094702.622,-128.418,-36.133,3.906,-38.086
1630094702.626,-282.715,-44.434,-31.250,-20.508
1630094702.630,-16.113,-46.875,-68.359,-33.691
1630094702.634,215.332,-40.527,-47.363,-55.664
1630094702.636,-49.805,-40.039,-6.348,-39.062
1630094702.640,-285.645,-39.551,-25.879,-41.016
1630094702.644,-102.539,-32.715,-61.523,-46.387
1630094702.648,210.938,-35.645,-48.828,-36.621
1630094702.652,20.508,-42.480,-9.277,-40.527
1630094702.656,-256.836,-37.598,-11.719,-31.738
1630094702.660,-175.293,-32.715,-50.293,-36.133
1630094702.663,154.785,-33.691,-62.012,-36.621
1630094702.667,147.461,-30.762,-4.883,-19.531
1630094702.671,-195.312,-39.062,0.488,-23.438
1630094702.675,-266.602,-44.922,-45.410,-30.273
1630094702.679,40.039,-36.133,-65.918,-25.391
1630094702.680,167.969,-36.621,-25.391,-6.348
1630094702.684,-138.672,-40.039,-3.906,-12.695
1630094702.688,-272.949,-28.809,-26.855,-28.809
1630094702.692,-29.785,-25.879,-63.965,-42.480
1630094702.696,223.633,-31.738,-51.758,-44.434
1630094702.700,-0.977,-34.668,-7.324,-21.973
1630094702.704,-256.348,-40.527,-26.855,-29.297
1630094702.707,-100.586,-34.180,-68.359,-29.785
1630094702.711,229.004,-24.902,-55.176,-19.531
1630094702.715,86.426,-32.715,-7.324,-19.531
1630094702.719,-223.145,-34.668,-17.578,-25.879
1630094702.723,-180.176,-32.715,-59.570,-37.109
1630094702.727,156.738,-31.738,-77.148,-41.016
1630094702.731,185.547,-30.273,-31.250,-44.434
1630094702.735,-157.227,-29.785,-15.137,-19.531
1630094702.739,-227.539,-27.832,-38.574,-8.301
1630094702.743,72.266,-29.785,-64.941,-48.340
1630094702.747,221.680,-28.809,-38.086,-55.176
1630094702.751,-45.410,-28.809,-10.254,-36.133
1630094702.754,-229.980,-21.484,-28.809,-27.832
1630094702.758,-26.367,-18.066,-59.570,-27.832
1630094702.762,230.469,-30.273,-51.758,-43.945
1630094702.766,17.090,-28.320,-9.277,-47.852
1630094702.770,-238.770,-30.273,-22.949,-35.645
1630094702.771,-142.090,-41.992,-60.059,-38.086
1630094702.775,191.895,-37.109,-58.105,-29.297
1630094702.779,108.398,-36.133,-9.277,-20.508
1630094702.783,-207.520,-37.598,-12.695,-26.855
1630094702.787,-203.125,-41.504,-53.223,-33.203
1630094702.791,130.859,-35.645,-69.336,-35.645
1630094702.795,194.336,-31.250,-26.855,-24.902
1630094702.798,-160.156,-43.945,-14.648,-36.133
1630094702.802,-277.832,-43.457,-47.363,-45.898
1630094702.806,19.531,-38.574,-81.055,-30.273
1630094702.810,218.750,-44.434,-51.270,-29.785
1630094702.814,-62.500,-41.992,-6.836,-29.785
1630094702.817,-274.414,-37.109,-30.273,-25.391
1630094702.821,-77.148,-38.574,-58.594,-27.344
1630094702.825,222.168,-37.109,-35.645,-26.855
1630094702.829,6.348,-37.109,0.977,-20.508
1630094702.833,-293.457,-40.039,-17.578,-18.066
1630094702.837,-174.316,-41.016,-59.570,-25.879
1630094702.841,166.992,-44.922,-65.918,-33.203
1630094702.844,76.172,-48.340,-18.066,-26.367
1630094702.848,-250.000,-43.457,-16.602,-25.879
1630094702.852,-261.230,-42.969,-51.758,-41.016
1630094702.856,74.219,-41.016,-66.895,-41.504
1630094702.860,175.781,-38.574,-23.926,-23.926
1630094702.861,-159.180,-33.691,-7.812,-21.973
1630094702.865,-290.527,-35.645,-41.992,-35.645
1630094702.869,-29.785,-39.551,-68.359,-38.574
1630094702.873,211.914,-35.645,-42.480,-37.598
1630094702.877,-40.039,-32.715,-15.137,-39.551
1630094702.881,-277.832,-36.621,-38.086,-35.645
1630094702.885,-95.215,-42.969,-73.242,-39.551
1630094702.888,220.215,-40.039,-54.199,-44.922
1630094702.892,42.480,-42.969,-8.789,-43.457
1630094702.896,-256.348,-44.434,-21.484,-38.574
1630094702.900,-172.363,-44.922,-56.641,-35.645
1630094702.904,163.086,-48.340,-60.059,-22.461
1630094702.921,141.113,-46.387,-7.812,-16.602
1630094702.925,-186.523,-42.480,-1.465,-32.715
1630094702.929,-238.281,-41.504,-38.574,-40.527
1630094702.933,75.684,-43.457,-64.453,-39.551
1630094702.937,217.773,-41.504,-23.438,-22.949
1630094702.941,-90.820,-38.086,-0.977,-27.832
1630094702.945,-256.348,-40.039,-31.738,-38.086
1630094702.948,-15.137,-44.434,-67.383,-32.715
1630094702.952,219.238,-48.340,-46.387,-41.992
1630094702.956,-42.480,-48.828,-10.254,-40.039
1630094702.960,-279.297,-38.086,-28.320,-33.691
1630094702.964,-124.023,-32.227,-61.523,-41.992
1630094702.966,204.102,-28.809,-53.711,-38.086
1630094702.970,83.496,-28.320,-4.883,-29.785
1630094702.974,-231.934,-34.180,-14.160,-17.090
1630094702.978,-188.965,-33.203,-43.945,-27.344
1630094702.982,158.691,-27.832,-59.082,-43.945
1630094702.986,172.363,-22.461,-21.973,-33.203
1630094702.990,-161.133,-19.531,-7.812,-32.715
1630094702.993,-247.559,-30.273,-48.828,-35.156
1630094702.997,52.734,-30.762,-67.383,-25.391
1630094703.001,226.074,-23.438,-15.625,-14.160
1630094703.005,-101.074,-33.691,2.930,-24.414
1630094703.009,-287.109,-36.133,-28.320,-28.809
1630094703.011,-52.246,-37.109,-57.129,-29.297
1630094703.015,211.426,-36.133,-45.410,-34.180
1630094703.019,-28.809,-32.715,-7.812,-36.133
1630094703.023,-307.617,-39.551,-13.184,-28.809
1630094703.027,-156.738,-39.062,-52.246,-37.598
1630094703.031,191.895,-32.715,-52.246,-50.293
1630094703.035,96.191,-32.227,-1.465,-38.574
1630094703.038,-225.586,-33.691,-2.930,-29.785
1630094703.042,-220.703,-53.223,-44.922,-41.992
1630094703.046,127.441,-54.199,-70.312,-34.180
1630094703.050,178.223,-33.203,-21.973,-36.133
1630094703.054,-172.852,-33.691,-5.371,-46.875
1630094703.056,-279.297,-38.086,-43.457,-46.387
1630094703.060,50.293,-31.250,-68.359,-43.457
1630094703.064,249.512,-28.320,-39.551,-32.715
1630094703.068,-82.031,-38.574,-12.207,-26.367
1630094703.072,-275.391,-40.527,-34.180,-27.832
1630094703.076,-57.617,-41.504,-64.941,-48.340
1630094703.080,221.680,-45.410,-54.199,-55.176
1630094703.083,21.973,-41.016,-16.113,-47.852
1630094703.087,-264.160,-40.527,-28.809,-50.293
1630094703.091,-166.016,-38.086,-66.895,-48.340
1630094703.095,191.406,-34.180,-69.824,-33.203
1630094703.099,124.512,-31.250,-23.926,-46.387
1630094703.101,-227.051,-36.621,-20.508,-56.152
1630094703.105,-236.328,-40.039,-50.293,-48.340
1630094703.109,102.539,-31.738,-68.848,-39.551
1630094703.113,184.570,-33.203,-30.762,-50.293
1630094703.117,-145.020,-33.691,-7.812,-41.504
1630094703.121,-275.391,-34.668,-34.180,-24.414
1630094703.125,4.395,-44.922,-68.848,-43.945
1630094703.128,230.957,-39.062,-45.410,-50.293
1630094703.132,-71.289,-37.598,-14.160,-52.246
1630094703.136,-295.410,-45.898,-28.809,-47.852
1630094703.140,-103.516,-51.270,-68.359,-58.105
1630094703.144,183.105,-49.316,-63.477,-54.688
1630094703.146,10.742,-44.922,-12.207,-46.387
1630094703.150,-267.090,-40.527,-24.414,-36.621
1630094703.154,-181.152,-42.480,-61.523,-24.902
1630094703.158,159.668,-45.898,-69.824,-29.785
1630094703.162,127.930,-44.434,-22.949,-23.926
1630094703.166,-207.520,-47.852,-11.719,-32.227
1630094703.170,-238.770,-40.527,-44.434,-51.758
1630094703.173,78.613,-32.715,-65.430,-44.434
1630094703.177,195.312,-41.016,-25.879,-39.551
1630094703.181,-125.488,-44.434,-8.301,-36.133
1630094703.185,-291.016,-39.551,-41.016,-35.156
1630094703.189,-24.414,-40.039,-69.336,-34.180
1630094703.192,213.867,-39.551,-44.434,-32.715
1630094703.196,-47.852,-38.086,-8.789,-49.316
1630094703.200,-292.480,-41.992,-26.855,-51.270
1630094703.204,-141.113,-44.434,-61.523,-36.621
1630094703.208,167.480,-41.504,-56.641,-23.438
1630094703.212,13.184,-39.062,-13.672,-27.832
1630094703.216,-259.277,-30.273,-3.906,-31.250
1630094703.219,-197.266,-28.320,-39.551,-48.340
1630094703.223,89.355,-41.992,-74.707,-68.848
1630094703.227,107.422,-41.016,-29.297,-55.664
1630094703.231,-205.078,-41.016,-22.949,-48.340
1630094703.235,-288.574,-42.969,-47.363,-50.781
1630094703.236,10.254,-42.969,-59.570,-63.477
1630094703.240,145.996,-42.480,-27.344,-62.988
1630094703.244,-134.766,-44.434,-6.348,-49.316
1630094703.248,-282.227,-47.852,-28.809,-53.223
1630094703.252,-53.223,-47.363,-61.035,-53.711
1630094703.256,198.730,-48.828,-36.621,-46.387
1630094703.260,1.465,-41.504,17.090,-14.648
1630094703.263,-254.395,-42.969,-11.719,-30.273
1630094703.267,-126.953,-48.828,-65.430,-47.852
1630094703.271,198.730,-42.969,-62.500,-25.879
1630094703.275,87.891,-44.434,-5.859,-29.785
1630094703.279,-194.336,-51.270,-9.277,-10.254
1630094703.296,-170.898,-52.246,-52.246,10.742
1630094703.300,153.320,-45.410,-66.406,-2.441
1630094703.304,203.613,-41.016,-20.996,-16.113
1630094703.308,-113.770,-43.945,-8.301,-7.812
1630094703.312,-222.656,-45.898,-39.551,-2.930
1630094703.316,73.730,-42.480,-65.430,-18.066
1630094703.320,236.328,-39.551,-38.574,-6.836
1630094703.323,-50.781,-34.180,-12.695,-9.277
1630094703.327,-222.168,-36.133,-34.668,-22.949
1630094703.331,-13.184,-40.527,-63.965,6.836
1630094703.335,264.160,-40.039,-42.480,9.766
1630094703.339,31.738,-39.551,-5.859,-19.531
1630094703.341,-237.793,-44.434,-23.926,-21.484
1630094703.345,-112.305,-43.945,-61.523,-16.602
1630094703.349,219.238,-40.039,-60.059,-6.348
1630094703.353,148.926,-40.527,-7.324,2.930
1630094703.357,-174.316,-41.504,-11.719,-7.812
1630094703.361,-187.988,-47.852,-52.246,-6.836
1630094703.365,139.648,-45.898,-68.359,-13.672
1630094703.368,206.055,-45.898,-31.250,-21.973
1630094703.372,-113.281,-48.340,-12.207,-0.488
1630094703.376,-211.426,-44.922,-35.645,4.395
1630094703.380,33.691,-41.992,-74.219,-24.902
1630094703.384,213.867,-39.551,-52.734,-31.738
1630094703.386,-63.965,-46.387,-6.836,-35.156
1630094703.390,-298.828,-49.805,-30.762,-52.246
1630094703.394,-110.840,-42.480,-81.055,-65.918
1630094703.398,185.547,-49.805,-60.059,-79.590
1630094703.402,17.090,-46.387,-9.277,-74.219
1630094703.406,-264.160,-42.969,-23.438,-67.383
1630094703.410,-169.434,-43.457,-62.988,-53.711
1630094703.413,193.359,-38.086,-72.754,-39.062
1630094703.417,166.016,-30.273,-17.578,-40.039
1630094703.421,-178.711,-27.832,-10.742,-42.480
1630094703.425,-224.609,-33.203,-53.223,-51.270
1630094703.429,113.281,-29.297,-67.871,-44.922
1630094703.447,237.793,-27.344,-24.902,-36.133
1630094703.451,-102.539,-30.273,-7.324,-21.973
1630094703.455,-256.348,-35.156,-39.062,-30.273
1630094703.459,3.906,-36.621,-66.406,-41.504
1630094703.463,238.281,-28.809,-37.598,-37.598
1630094703.467,-26.855,-25.879,-12.207,-43.457
1630094703.471,-269.531,-32.227,-38.086,-37.109
1630094703.474,-106.445,-31.250,-70.801,-41.504
1630094703.478,234.375,-26.367,-56.152,-28.320
1630094703.482,83.984,-39.062,-11.719,-26.367
1630094703.486,-255.371,-38.086,-27.832,-34.668
1630094703.490,-199.219,-32.715,-67.871,-27.832
1630094703.476,148.438,-32.227,-78.125,-39.551
1630094703.480,138.184,-33.203,-32.715,-32.715
1630094703.484,-191.406,-36.133,-21.484,-22.461
1630094703.488,-256.836,-39.551,-54.688,-9.766
1630094703.492,48.828,-44.922,-75.195,-28.320
1630094703.496,207.520,-47.852,-30.762,-36.133
1630094703.500,-109.375,-44.922,-7.324,-23.926
1630094703.503,-298.828,-47.363,-43.457,-55.664
1630094703.507,-54.199,-45.898,-78.613,-45.898
1630094703.511,229.004,-38.086,-55.664,-41.504
1630094703.515,-36.133,-37.598,-20.996,-58.594
1630094703.519,-277.344,-28.809,-20.996,-22.949
1630094703.521,-98.633,-20.508,-56.641,-25.879
1630094703.525,201.660,-30.762,-67.871,-29.785
1630094703.529,76.172,-37.598,-15.625,-31.250
1630094703.533,-245.117,-39.062,-24.902,-45.410
1630094703.537,-221.680,-41.504,-66.406,-50.293
1630094703.541,126.953,-34.180,-81.543,-51.758
1630094703.545,166.016,-28.320,-29.785,-41.992
1630094703.548,-179.199,-35.156,-16.113,-52.246
1630094703.552,-271.484,-41.016,-56.641,-60.547
1630094703.556,32.715,-39.062,-86.426,-41.016
1630094703.560,208.008,-40.527,-50.293,-34.180
1630094703.564,-89.355,-44.434,-19.043,-56.641
1630094703.566,-278.320,-41.504,-38.574,-64.453
1630094703.570,-48.340,-36.621,-66.895,-37.109
1630094703.574,222.168,-30.762,-56.641,-36.133
1630094703.578,-6.348,-30.762,-16.113,-38.086
1630094703.582,-269.043,-40.039,-24.902,-27.832
1630094703.586,-140.625,-41.504,-67.383,-39.062
1630094703.590,208.984,-41.992,-64.453,-41.504
1630094703.593,113.281,-43.945,-15.625,-39.062
1630094703.597,-228.516,-40.039,-27.344,-40.527
1630094703.601,-230.469,-37.598,-66.406,-32.227
1630094703.605,101.562,-41.992,-79.590,-45.410
1630094703.609,160.156,-49.805,-34.668,-52.246
1630094703.611,-167.969,-44.922,-16.602,-43.945
1630094703.615,-263.184,-37.109,-43.457,-46.387
1630094703.619,20.020,-38.574,-77.148,-34.668
1630094703.623,215.820,-37.598,-45.898,-42.480
1630094703.627,-70.312,-34.668,-7.812,-52.246
1630094703.631,-281.250,-38.086,-27.832,-34.668
1630094703.635,-77.148,-38.574,-65.430,-27.832
1630094703.638,214.355,-36.621,-62.012,-44.922
1630094703.642,15.137,-39.551,-21.973,-55.664
1630094703.646,-270.996,-42.480,-29.297,-38.574
1630094703.650,-167.969,-40.039,-67.383,-45.898
1630094703.654,164.551,-34.180,-71.289,-47.852
1630094703.657,109.375,-38.086,-14.648,-33.691
1630094703.661,-222.168,-45.410,-8.789,-31.738
1630094703.665,-243.164,-47.363,-48.828,-33.691
1630094703.669,76.172,-40.039,-69.824,-35.156
1630094703.673,176.758,-41.992,-22.949,-33.203
1630094703.677,-116.211,-41.992,-0.488,-24.902
1630094703.681,-249.023,-39.551,-33.203,-31.738
1630094703.684,12.695,-42.969,-76.172,-36.621
1630094703.688,218.750,-39.551,-51.758,-36.621
1630094703.692,-60.547,-47.852,-13.184,-30.273
1630094703.696,-281.738,-47.852,-41.016,-32.227
1630094703.700,-104.492,-28.320,-68.848,-30.273
1630094703.716,212.891,-24.902,-53.711,-34.180
1630094703.720,57.617,-30.273,-5.371,-38.086
1630094703.724,-243.652,-32.227,-10.254,-30.273
1630094703.728,-163.574,-33.203,-52.246,-35.156
1630094703.732,160.645,-35.156,-63.965,-40.039
1630094703.736,149.414,-37.598,-14.648,-34.668
1630094703.740,-182.617,-41.016,-13.184,-35.645
1630094703.743,-256.348,-44.434,-48.828,-41.992
1630094703.747,64.941,-35.645,-66.406,-30.273
1630094703.751,219.727,-28.320,-25.391,-31.738
1630094703.755,-103.027,-32.227,-7.812,-37.598
1630094703.759,-265.137,-35.645,-33.203,-38.086
1630094703.761,-6.348,-32.715,-70.312,-51.270
1630094703.765,238.281,-28.320,-54.688,-33.691
1630094703.769,-6.836,-32.227,-10.254,-35.645
1630094703.773,-265.137,-36.621,-26.367,-45.898
1630094703.777,-116.699,-39.551,-61.523,-35.645
1630094703.781,221.680,-44.434,-52.734,-29.785
1630094703.785,81.055,-46.875,-4.395,-31.738
1630094703.788,-229.980,-39.062,-10.742,-21.484
1630094703.792,-194.336,-41.016,-59.570,-39.062
1630094703.796,118.652,-54.688,-85.449,-58.594
1630094703.800,157.715,-45.410,-31.250,-49.316
1630094703.804,-173.340,-40.527,-11.230,-47.852
1630094703.806,-249.512,-41.992,-39.062,-36.133
1630094703.810,35.645,-44.922,-62.012,-25.391
1630094703.814,205.566,-43.457,-30.273,-21.973
1630094703.818,-64.453,-37.598,-0.977,-22.461
1630094703.822,-265.137,-35.645,-30.762,-35.645
1630094703.826,-45.898,-36.621,-69.336,-48.828
1630094703.830,237.793,-36.133,-53.711,-30.762
1630094703.833,12.207,-34.180,-2.930,-37.109
1630094703.837,-262.207,-37.109,-13.672,-34.668
1630094703.841,-130.371,-31.738,-61.523,-25.391
1630094703.845,216.797,-27.832,-61.523,-41.992
1630094703.849,117.676,-26.367,-3.906,-39.551
1630094703.851,-229.980,-27.344,-8.301,-12.207
1630094703.855,-232.422,-34.180,-58.105,-25.879
1630094703.859,116.699,-35.156,-71.777,-52.734
1630094703.863,175.293,-29.785,-21.484,-40.527
1630094703.867,-146.973,-29.297,-14.160,-34.668
1630094703.871,-262.695,-36.621,-45.410,-37.109
1630094703.875,23.438,-37.598,-70.801,-50.293
1630094703.878,237.793,-20.508,-21.973,-41.016
1630094703.882,-46.875,-20.996,21.973,-11.719
1630094703.886,-295.898,-42.480,-28.809,-30.273
1630094703.890,-99.609,-37.598,-72.266,-44.434
1630094703.894,208.008,-36.621,-48.340,-26.855
1630094703.897,27.344,-40.527,-1.953,-6.348
1630094703.901,-237.305,-34.668,-31.738,-15.137
1630094703.905,-167.480,-32.715,-72.266,-56.641
1630094703.909,162.109,-31.738,-68.848,-48.828
1630094703.913,135.254,-25.879,-15.137,-18.555
1630094703.917,-187.500,-24.902,-15.137,-20.508
1630094703.921,-212.402,-32.715,-58.594,-24.414
1630094703.924,99.121,-38.086,-76.660,-37.109
1630094703.928,189.941,-31.250,-29.785,-28.809
1630094703.932,-128.906,-31.250,-15.137,-26.855
1630094703.936,-279.785,-34.668,-43.457,-23.926
1630094703.940,5.371,-27.832,-72.754,-24.902
1630094703.941,246.582,-25.391,-48.340,-45.410
1630094703.945,-40.039,-36.621,-7.812,-30.762
1630094703.949,-277.344,-37.109,-31.250,-8.301
1630094703.953,-91.797,-30.762,-68.848,-33.203
1630094703.957,213.867,-33.691,-60.547,-40.039
1630094703.961,58.105,-34.180,-14.648,-32.227
1630094703.965,-238.281,-34.668,-20.996,-23.926
1630094703.968,-176.758,-36.133,-62.012,-19.531
1630094703.972,182.129,-29.297,-67.871,-9.766
1630094703.976,154.785,-24.902,-11.719,-19.043
1630094703.980,-189.453,-28.809,-4.883,-34.668
1630094703.984,-228.516,-24.902,-43.945,-32.227
1630094703.986,90.332,-24.414,-72.754,-20.508
1630094703.990,218.750,-31.738,-31.250,-9.277
1630094703.994,-125.488,-32.227,-4.883,-22.461
1630094703.998,-286.621,-34.668,-37.598,-35.156
1630094704.002,0.488,-34.668,-70.801,-41.016
1630094704.006,255.859,-31.738,-51.270,-37.598
1630094704.010,-3.418,-37.598,-13.184,-32.227
1630094704.013,-248.047,-36.621,-28.320,-30.762
1630094704.017,-80.078,-25.879,-62.988,-26.367
1630094704.021,223.145,-32.715,-56.152,-18.066
1630094704.025,66.406,-35.156,-4.883,-24.902
1630094704.029,-234.375,-28.809,-14.160,-36.133
1630094704.046,-193.359,-24.414,-61.523,-35.645
1630094704.050,145.996,-20.020,-74.707,-30.273
1630094704.054,152.344,-32.715,-24.902,-27.344
1630094704.058,-189.453,-36.133,-17.578,-30.273
1630094704.062,-245.117,-35.156,-50.293,-22.949
1630094704.066,67.383,-38.086,-82.520,-36.621
1630094704.070,223.145,-37.109,-41.504,-59.082
1630094704.073,-68.848,-39.062,-0.488,-31.250
1630094704.077,-255.859,-33.691,-29.297,-22.949
1630094704.081,-27.832,-33.203,-62.012,-30.762
1630094704.085,240.234,-33.691,-47.852,-26.367
1630094704.089,1.953,-37.109,-7.324,-27.344
1630094704.091,-252.441,-35.645,-17.090,-20.996
1630094704.095,-105.469,-25.391,-57.129,-24.902
1630094704.099,210.938,-30.273,-58.105,-30.273
1630094704.103,95.703,-40.527,-8.301,-25.879
1630094704.107,-209.961,-44.434,-9.277,-26.855
1630094704.111,-203.125,-43.945,-47.852,-30.762
1630094704.115,116.699,-45.410,-79.590,-28.320
1630094704.118,149.902,-43.945,-36.133,-20.020
1630094704.122,-173.828,-39.551,-11.230,-29.785
1630094704.126,-262.207,-41.992,-45.410,-61.035
1630094704.130,14.160,-40.039,-79.102,-54.688
1630094704.134,212.891,-38.086,-37.109,-37.598
1630094704.136,-58.594,-36.133,3.906,-38.574
1630094704.140,-271.484,-39.551,-29.785,-44.434
1630094704.144,-81.055,-41.504,-72.266,-44.922
1630094704.148,216.797,-33.203,-53.711,-36.133
1630094704.152,29.297,-35.156,-5.859,-34.180
1630094704.156,-236.328,-38.086,-17.578,-15.625
1630094704.160,-110.352,-44.434,-57.129,-15.137
1630094704.163,193.848,-48.828,-61.035,-29.785
1630094704.167,111.816,-46.875,-10.742,-15.625
1630094704.171,-186.035,-43.457,-8.789,-12.207
1630094704.175,-221.191,-43.945,-47.852,-38.086
1630094704.179,64.453,-48.828,-70.312,-61.523
1630094704.180,145.508,-52.734,-28.320,-52.734
1630094704.184,-166.504,-47.363,-9.277,-47.363
1630094704.188,-291.992,-46.875,-41.504,-51.270
1630094704.192,-24.902,-52.246,-67.383,-72.754
1630094704.196,187.500,-49.805,-32.227,-63.477
1630094704.200,-73.730,-43.457,0.488,-55.176
1630094704.204,-279.785,-51.758,-28.320,-65.918
1630094704.207,-103.027,-59.082,-69.336,-67.871
1630094704.211,184.570,-50.781,-57.129,-66.895
1630094704.215,27.344,-47.363,-3.418,-46.875
1630094704.219,-258.301,-45.410,-18.555,-47.363
1630094704.223,-184.082,-42.480,-59.570,-47.852
1630094704.226,159.180,-38.574,-62.988,-53.711
1630094704.230,135.254,-36.621,-16.602,-51.758
1630094704.234,-189.941,-41.504,-13.672,-43.457
1630094704.238,-233.398,-47.363,-46.875,-50.293
1630094704.242,89.355,-45.410,-63.965,-45.410
1630094704.246,210.449,-35.645,-16.113,-33.203
1630094704.250,-112.305,-39.062,0.488,-37.598
1630094704.253,-257.324,-33.203,-19.531,-25.391
1630094704.257,5.859,-19.043,-38.574,-22.461
1630094704.261,208.008,-36.133,-35.645,-38.574
1630094704.265,-54.199,-43.945,-10.742,-45.410
1630094704.269,-268.555,-42.969,-32.227,-56.152
1630094704.271,-117.188,-39.551,-68.848,-49.805
1630094704.275,187.988,-35.645,-64.941,-48.340
1630094704.279,55.176,-41.504,-9.277,-42.969
1630094704.283,-233.887,-44.922,-11.230,-27.344
1630094704.287,-198.242,-50.293,-55.664,-21.973
1630094704.291,125.000,-51.758,-76.660,-31.738
1630094704.295,156.250,-37.109,-20.020,-34.180
1630094704.298,-176.270,-23.438,2.930,-23.926
1630094704.302,-259.766,-34.668,-49.805,-52.734
1630094704.306,42.969,-41.016,-78.613,-67.383
1630094704.310,186.523,-35.156,-34.668,-60.547
1630094704.314,-112.793,-40.039,-7.324,-57.617
1630094704.331,-298.828,-47.363,-33.691,-57.617
1630094704.335,-52.246,-43.457,-65.918,-47.852
1630094704.339,216.309,-35.156,-47.363,-48.340
1630094704.343,-17.578,-37.598,-8.789,-37.598
1630094704.347,-277.344,-45.898,-21.484,-29.785
1630094704.351,-128.418,-43.457,-59.082,-57.617
1630094704.355,206.543,-40.527,-64.941,-54.199
1630094704.358,78.125,-43.945,-10.254,-44.434
1630094704.362,-233.887,-41.504,-15.137,-43.945
1630094704.366,-235.840,-43.945,-58.105,-52.246
1630094704.370,87.402,-42.480,-66.895,-64.941
1630094704.374,137.695,-35.156,-19.043,-57.617
1630094704.362,-180.176,-39.551,-8.301,-43.945
1630094704.366,-255.371,-42.969,-40.039,-45.898
1630094704.370,43.945,-36.133,-63.965,-38.086
1630094704.374,206.543,-36.621,-34.668,-22.949
1630094704.378,-92.773,-47.363,-3.418,-35.156
1630094704.382,-276.367,-49.805,-25.391,-52.246
1630094704.386,-73.242,-50.293,-66.406,-59.082
1630094704.389,209.473,-47.363,-50.781,-55.664
1630094704.393,8.789,-42.969,-2.930,-39.062
1630094704.397,-278.320,-43.457,-20.508,-25.879
1630094704.401,-172.852,-45.410,-64.941,-50.781
1630094704.405,165.039,-39.551,-66.406,-54.688
1630094704.421,91.309,-35.645,-17.090,-43.945
1630094704.425,-220.703,-41.016,-16.602,-41.992
1630094704.429,-230.469,-40.527,-53.711,-46.875
1630094704.433,107.422,-35.156,-65.918,-46.387
1630094704.437,200.195,-30.762,-16.113,-27.344
1630094704.441,-146.973,-42.480,-8.789,-20.508
1630094704.445,-267.090,-50.781,-44.922,-47.852
1630094704.448,4.395,-40.527,-72.266,-48.340
1630094704.452,221.680,-36.621,-40.039,-25.391
1630094704.456,-49.316,-36.621,-14.648,-33.691
1630094704.460,-300.293,-39.062,-46.875,-55.176
1630094704.464,-114.746,-35.645,-76.660,-41.504
1630094704.466,197.266,-31.738,-57.617,-42.969
1630094704.470,32.227,-31.738,-9.766,-51.758
1630094704.474,-248.535,-31.250,-18.066,-35.156
1630094704.478,-168.945,-31.738,-54.199,-19.043
1630094704.482,159.180,-28.320,-67.871,-33.203
1630094704.486,133.789,-30.273,-18.555,-44.434
1630094704.490,-180.176,-34.180,-13.184,-34.668
1630094704.493,-232.422,-30.273,-51.758,-41.504
1630094704.497,62.988,-42.480,-82.031,-49.316
1630094704.501,152.344,-58.594,-49.316,-57.617
1630094704.505,-147.461,-47.363,-22.949,-49.316
1630094704.509,-276.855,-35.156,-43.945,-37.109
1630094704.511,-16.602,-31.738,-69.336,-17.090
1630094704.515,218.750,-28.809,-43.945,-14.648
1630094704.519,-45.898,-26.367,-7.324,-44.434
1630094704.523,-271.484,-31.250,-23.926,-39.062
1630094704.527,-101.562,-35.156,-61.035,-36.621
1630094704.531,196.777,-32.227,-51.758,-23.926
1630094704.535,55.176,-35.156,0.488,-35.156
1630094704.538,-239.746,-32.715,-19.043,-48.340
1630094704.542,-211.426,-44.922,-71.777,-37.598
1630094704.546,120.117,-52.246,-81.055,-55.664
1630094704.550,139.160,-36.133,-20.996,-51.270
1630094704.554,-200.684,-44.434,-12.695,-37.109
1630094704.556,-264.648,-49.316,-46.387,-42.480
1630094704.560,60.547,-38.574,-66.895,-35.156
1630094704.564,206.543,-38.574,-29.785,-34.180
1630094704.568,-102.539,-35.156,0.977,-22.949
1630094704.572,-263.184,-32.227,-27.344,-21.484
1630094704.576,-21.484,-36.133,-62.988,-52.246
1630094704.580,207.520,-40.039,-48.340,-54.199
1630094704.583,-41.992,-40.039,-9.766,-15.137
1630094704.587,-266.602,-39.062,-20.508,-18.066
1630094704.591,-118.652,-38.086,-59.570,-46.875
1630094704.595,198.730,-33.203,-59.570,-29.297
1630094704.599,88.867,-34.180,-7.812,-26.855
1630094704.602,-219.238,-39.551,-10.742,-19.043
1630094704.606,-176.758,-41.992,-54.199,-26.367
1630094704.610,143.555,-41.016,-72.754,-35.156
1630094704.614,166.504,-31.250,-28.809,-34.180
1630094704.618,-158.203,-29.785,-17.090,-32.715
1630094704.622,-252.930,-41.016,-46.875,-36.621
1630094704.626,39.551,-38.086,-74.219,-47.363
1630094704.629,214.355,-32.715,-42.480,-33.691
1630094704.633,-76.172,-39.062,-12.695,-24.902
1630094704.637,-258.789,-39.062,-39.551,-35.645
1630094704.641,-33.691,-33.691,-72.754,-29.297
1630094704.645,229.492,-31.250,-53.223,-38.574
1630094704.646,-8.789,-35.156,-7.812,-35.156
1630094704.650,-266.113,-38.574,-20.996,-31.250
1630094704.654,-140.625,-37.598,-66.895,-37.109
1630094704.658,176.758,-40.527,-68.848,-38.086
1630094704.662,97.168,-37.598,-4.395,-45.898
1630094704.666,-213.867,-33.691,-4.883,-33.203
1630094704.670,-224.609,-43.457,-60.059,-37.598
1630094704.673,83.496,-46.875,-85.449,-50.781
1630094704.677,159.180,-40.527,-32.715,-40.039
1630094704.681,-147.949,-41.992,-14.160,-31.738
1630094704.685,-252.930,-41.016,-49.316,-29.297
1630094704.689,15.625,-36.621,-76.172,-38.574
1630094704.691,211.426,-35.156,-42.480,-26.367
1630094704.695,-65.918,-33.691,2.930,-16.113
1630094704.699,-270.996,-31.738,-12.695,-13.672
1630094704.703,-75.195,-31.738,-55.664,-12.695
1630094704.707,213.379,-34.180,-45.410,-29.785
1630094704.711,26.367,-36.621,-0.977,-35.156
1630094704.715,-259.766,-37.598,-16.602,-24.902
1630094704.718,-161.621,-42.480,-61.035,-38.086
1630094704.722,182.617,-41.992,-72.266,-27.344
1630094704.726,127.930,-36.621,-18.555,-16.113
1630094704.730,-208.008,-35.156,-10.742,-32.715
1630094704.734,-222.168,-32.715,-43.945,-22.949
1630094704.736,97.168,-35.645,-62.988,-22.949
1630094704.740,187.988,-38.086,-27.832,-38.574
1630094704.744,-130.371,-33.203,-10.254,-34.668
1630094704.748,-265.625,-28.809,-36.133,-32.715
1630094704.752,-7.324,-31.250,-73.242,-47.852
1630094704.756,243.652,-34.668,-53.223,-29.785
1630094704.760,-23.438,-31.738,-5.859,-17.090
1630094704.763,-268.555,-34.180,-22.949,-42.480
1630094704.767,-104.004,-42.480,-59.570,-34.668
1630094704.771,207.031,-40.527,-48.340,-13.184
1630094704.775,71.289,-36.621,-6.348,-15.625
1630094704.779,-249.512,-40.527,-23.926,-17.578
1630094704.796,-188.965,-41.504,-66.406,-38.086
1630094704.800,162.598,-40.527,-72.754,-42.969
1630094704.804,132.812,-39.551,-21.484,-23.438
1630094704.808,-189.453,-43.945,-13.672,-23.926
1630094704.812,-242.188,-49.316,-48.340,-29.785
1630094704.816,65.918,-42.480,-65.430,-27.832
1630094704.820,216.309,-41.016,-25.391,-18.555
1630094704.823,-91.309,-45.898,-4.883,0.977
1630094704.827,-266.113,-46.387,-35.645,-13.672
1630094704.831,-30.273,-42.480,-62.500,-24.902
1630094704.835,219.238,-38.086,-41.992,-25.879
1630094704.839,-33.203,-45.410,-7.812,-42.480
1630094704.841,-270.020,-52.734,-27.344,-16.602
1630094704.845,-111.816,-48.340,-66.895,-24.414
1630094704.849,187.500,-46.387,-67.383,-65.430
1630094704.853,57.129,-51.758,-20.020,-45.898
1630094704.857,-250.488,-59.570,-27.832,-37.109
1630094704.861,-223.145,-62.988,-64.941,-50.293
1630094704.865,116.699,-62.500,-82.520,-41.992
1630094704.868,133.789,-61.523,-38.086,-27.832
1630094704.872,-198.730,-63.477,-24.902,-47.363
1630094704.876,-278.320,-69.336,-65.430,-70.312
1630094704.880,30.273,-64.941,-86.914,-58.105
1630094704.884,210.938,-54.199,-45.410,-41.016
1630094704.886,-92.773,-54.199,-21.484,-45.898
1630094704.890,-274.414,-55.664,-49.316,-41.504
1630094704.894,-58.594,-51.270,-85.449,-47.852
1630094704.898,211.426,-55.176,-64.453,-57.129
1630094704.902,4.883,-56.152,-21.484,-37.598
1630094704.906,-264.648,-54.688,-36.621,-44.922
1630094704.910,-143.066,-48.828,-64.941,-54.688
1630094704.913,187.988,-51.758,-74.707,-72.266
1630094704.917,102.539,-51.758,-22.461,-52.246
1630094704.921,-205.078,-44.922,-16.602,-31.250
1630094704.925,-210.938,-46.387,-61.035,-43.457
1630094704.929,125.000,-41.992,-71.777,-39.062
1630094704.931,166.016,-44.434,-25.391,-49.805
1630094704.935,-162.598,-45.410,-11.230,-40.527
1630094704.939,-247.070,-41.992,-43.945,-29.785
1630094704.943,25.879,-44.434,-83.496,-56.641
1630094704.947,224.121,-45.410,-54.688,-55.664
1630094704.951,-52.246,-43.457,-22.949,-43.945
1630094704.955,-267.578,-47.852,-47.363,-43.457
1630094704.958,-72.266,-50.293,-84.473,-56.641
1630094704.962,211.914,-48.340,-69.824,-48.828
1630094704.966,26.367,-43.457,-22.949,-20.508
1630094704.970,-263.184,-47.363,-38.574,-43.457
1630094704.974,-167.969,-43.457,-74.707,-55.664
1630094704.976,175.781,-37.598,-78.613,-46.387
1630094704.980,112.793,-44.434,-30.762,-46.387
1630094704.984,-213.379,-45.410,-28.809,-45.898
1630094704.988,-229.004,-45.410,-61.035,-48.828
1630094704.992,83.496,-41.992,-82.031,-49.805
1630094704.996,164.551,-38.574,-35.645,-53.711
1630094705.000,-126.465,-44.434,-14.648,-42.480
1630094705.003,-224.609,-30.762,-32.715,-21.484
1630094705.007,24.414,-27.832,-56.641,-36.621
1630094705.011,204.590,-43.945,-50.781,-54.199
1630094705.015,-57.617,-41.504,-16.113,-39.551
1630094705.019,-267.090,-39.062,-39.062,-25.391
1630094705.021,-96.191,-37.598,-80.078,-42.969
1630094705.025,207.031,-35.645,-67.871,-58.594
1630094705.029,54.199,-34.180,-19.043,-52.246
1630094705.033,-253.906,-38.574,-36.133,-43.945
1630094705.037,-191.895,-40.527,-73.242,-43.945
1630094705.041,168.457,-39.551,-77.637,-44.922
1630094705.045,151.367,-35.156,-25.391,-37.598
1630094705.048,-187.500,-34.668,-18.555,-32.227
1630094705.052,-249.512,-46.387,-62.012,-41.992
1630094705.056,56.152,-45.410,-85.449,-54.688
1630094705.060,186.035,-41.016,-41.992,-41.016
1630094705.064,-125.488,-41.016,-15.137,-29.785
1630094705.067,-281.738,-38.574,-42.969,-59.082
1630094705.071,-57.129,-41.992,-79.102,-80.566
1630094705.075,201.660,-41.504,-55.176,-57.129
1630094705.079,-18.066,-44.434,-9.766,-43.945
1630094705.083,-271.484,-40.527,-25.391,-51.758
1630094705.087,-108.398,-38.086,-67.383,-52.246
1630094705.091,214.355,-37.598,-63.477,-48.340
1630094705.094,70.801,-32.715,-6.836,-38.086
1630094705.098,-252.441,-35.156,-18.555,-43.945
1630094705.102,-207.031,-34.668,-62.988,-56.641
1630094705.106,123.047,-29.785,-75.684,-49.316
1630094705.110,150.391,-28.809,-18.066,-41.504
1630094705.111,-166.992,-31.250,-6.348,-27.832
1630094705.115,-250.488,-28.320,-43.457,-35.156
1630094705.119,47.363,-30.273,-67.383,-46.875
1630094705.123,209.473,-28.809,-32.227,-40.527
1630094705.127,-80.078,-32.715,-1.953,-21.973
1630094705.131,-273.438,-38.574,-32.227,-43.945
1630094705.135,-47.852,-32.227,-66.406,-54.688
1630094705.138,210.938,-35.156,-49.805,-44.922
1630094705.142,-18.555,-36.133,-14.648,-55.176
1630094705.146,-271.484,-35.645,-33.691,-42.480
1630094705.150,-138.672,-36.621,-72.754,-31.250
1630094705.154,193.359,-37.598,-69.336,-19.043
1630094705.171,93.750,-40.039,-15.625,-37.598
1630094705.175,-214.355,-38.086,-16.113,-47.363
1630094705.179,-209.961,-37.109,-57.129,-34.668
1630094705.183,125.000,-34.180,-75.684,-38.574
1630094705.187,179.688,-35.156,-23.438,-41.016
1630094705.191,-157.227,-39.551,-5.859,-33.203
1630094705.195,-242.188,-35.645,-39.062,-34.668
1630094705.198,48.340,-41.016,-75.684,-48.828
1630094705.202,216.309,-41.016,-48.340,-51.270
1630094705.206,-77.637,-41.992,-17.090,-46.387
1630094705.210,-289.062,-47.363,-43.945,-46.387
1630094705.214,-76.660,-40.039,-79.102,-45.410
1630094705.216,230.957,-30.762,-60.059,-40.527
1630094705.220,15.137,-26.855,-9.277,-38.086
1630094705.224,-265.137,-35.156,-22.949,-52.246
1630094705.228,-163.574,-37.598,-64.453,-66.406
1630094705.232,163.574,-40.527,-70.801,-60.547
1630094705.236,117.676,-48.828,-19.043,-39.062
1630094705.240,-205.078,-45.898,-20.020,-31.738
1630094705.243,-231.934,-48.340,-54.688,-39.551
1630094705.247,84.473,-46.387,-75.195,-39.062
1630094705.251,168.945,-38.574,-38.086,-36.621
1630094705.255,-145.020,-39.062,-14.648,-35.156
1630094705.259,-277.832,-42.969,-37.109,-20.020
1630094705.261,-13.184,-51.270,-71.777,-36.621
1630094705.265,198.242,-53.711,-44.434,-59.570
1630094705.269,-74.219,-43.945,-0.488,-42.480
1630094705.273,-280.273,-43.457,-24.902,-40.527
1630094705.277,-89.355,-46.387,-63.965,-53.223
1630094705.281,215.332,-38.574,-56.152,-41.504
1630094705.285,49.316,-36.621,-5.371,-35.645
1630094705.288,-237.793,-40.527,-14.160,-31.738
1630094705.292,-182.617,-46.875,-69.824,-34.180
1630094705.296,137.695,-52.246,-85.938,-47.363
1630094705.300,126.953,-40.527,-20.020,-34.180
1630094705.304,-199.219,-38.574,-7.812,-22.949
1630094705.307,-240.723,-45.898,-50.781,-26.855
1630094705.311,93.262,-46.387,-71.777,-17.090
1630094705.315,204.102,-39.551,-36.621,-23.438
1630094705.319,-124.023,-42.969,-15.625,-25.879
1630094705.323,-269.043,-48.828,-34.668,-13.672
1630094705.327,3.418,-38.574,-60.059,-22.461
1630094705.331,243.652,-33.691,-36.133,-33.203
1630094705.334,-21.973,-48.340,-5.371,-28.809
1630094705.338,-263.672,-54.688,-34.668,-30.762
1630094705.342,-89.355,-31.738,-66.895,-44.434
1630094705.346,215.820,-30.273,-59.082,-23.926
1630094705.350,73.730,-27.344,-4.883,-4.395
1630094705.351,-214.355,-23.926,-3.418,-0.488
1630094705.355,-177.246,-27.344,-41.504,-16.602
1630094705.359,138.672,-33.203,-58.594,-39.062
1630094705.363,141.113,-35.645,-14.160,-30.762
1630094705.367,-153.809,-27.344,-4.883,-30.273
1630094705.371,-227.539,-33.203,-37.598,-42.480
1630094705.375,58.105,-36.133,-62.988,-39.062
1630094705.378,199.219,-44.922,-33.203,-45.410
1630094705.382,-128.418,-62.012,-19.531,-47.852
1630094705.386,-283.203,-53.711,-34.180,-47.852
1630094705.390,-34.668,-48.828,-56.152,-30.273
1630094705.394,214.355,-50.781,-52.246,-29.297
1630094705.396,-17.090,-43.945,-16.113,-42.969
1630094705.400,-264.160,-41.992,-23.926,-45.898
1630094705.404,-114.746,-47.363,-63.477,-53.223
1630094705.408,213.379,-39.551,-62.988,-41.992
1630094705.412,90.332,-34.668,-11.230,-31.250
1630094705.416,-222.168,-36.621,-14.648,-41.992
1630094705.420,-202.637,-43.457,-56.641,-27.344
1630094705.423,129.395,-48.340,-71.777,-38.086
1630094705.427,173.340,-42.480,-24.902,-66.406
1630094705.431,-155.273,-41.504,-6.836,-37.109
1630094705.435,-255.371,-40.039,-37.109,-32.227
1630094705.439,13.184,-37.109,-72.266,-50.293
1630094705.441,210.449,-39.551,-38.086,-34.180
1630094705.445,-71.289,-40.039,-3.906,-26.855
1630094705.449,-281.250,-40.039,-27.832,-39.551
1630094705.453,-50.781,-43.457,-71.289,-41.992
1630094705.457,222.656,-42.969,-59.570,-48.828
1630094705.461,0.488,-43.457,-6.348,-40.527
1630094705.465,-269.043,-50.293,-27.344,-36.133
1630094705.468,-174.316,-56.641,-77.148,-59.570
1630094705.472,160.645,-50.781,-73.730,-59.082
1630094705.476,88.379,-44.922,-20.996,-39.551
1630094705.480,-236.328,-47.363,-22.949,-44.922
1630094705.484,-232.910,-42.969,-58.105,-54.199
1630094705.486,115.723,-36.133,-70.801,-40.039
1630094705.490,170.898,-32.715,-25.879,-35.645
1630094705.494,-176.270,-33.691,-18.555,-41.992
1630094705.498,-288.574,-40.527,-51.758,-41.016
1630094705.502,0.488,-43.945,-69.336,-38.574
1630094705.506,217.773,-38.086,-36.621,-35.645
1630094705.510,-68.848,-37.598,-8.301,-27.344
1630094705.513,-299.805,-36.621,-33.203,-36.621
1630094705.517,-125.488,-35.645,-69.336,-61.523
1630094705.521,180.664,-40.039,-54.199,-58.594
1630094705.525,14.160,-43.945,-8.301,-45.898
1630094705.529,-282.227,-37.598,-24.414,-44.922
1630094705.532,-209.473,-29.785,-59.082,-59.570
1630094705.536,143.066,-44.922,-59.570,-65.918
1630094705.540,120.605,-41.504,0.488,-46.875
1630094705.544,-225.586,-32.227,5.371,-62.012
1630094705.548,-311.523,-51.270,-49.316,-107.422
1630094705.552,-14.160,-63.477,-73.730,-117.676
1630094705.556,143.066,-31.738,-6.836,-99.609
1630094705.559,-204.590,-26.855,16.113,-117.188
1630094705.563,-404.297,-49.805,-19.531,-145.996
1630094705.567,-171.387,-46.875,-47.363,-181.641
1630094705.571,18.066,-48.340,-20.508,-223.145
1630094705.575,-291.504,-55.664,25.879,-270.996
1630094705.591,-560.059,-52.246,11.719,-301.758
1630094705.595,-427.734,-52.246,-27.344,-338.379
1630094705.599,-166.016,-56.152,-36.133,-386.719
1630094705.603,-321.777,-56.641,19.531,-388.184
1630094705.607,-639.648,-59.570,12.207,-408.203
1630094705.611,-568.848,-58.105,-26.367,-415.039
1630094705.615,-222.168,-63.965,-34.668,-398.926
1630094705.618,-214.355,-60.059,14.160,-383.301
1630094705.622,-504.883,-57.617,20.508,-351.562
1630094705.626,-561.035,-65.918,-19.043,-339.355
1630094705.630,-222.656,-55.176,-40.527,-318.359
1630094705.634,-22.461,-52.246,-4.395,-273.926
1630094705.636,-298.828,-57.617,17.578,-228.516
1630094705.640,-440.918,-50.293,-12.695,-220.703
1630094705.644,-181.152,-48.828,-52.246,-215.332
1630094705.648,109.863,-50.293,-29.785,-180.664
1630094705.652,-96.680,-45.898,5.859,-132.812
1630094705.656,-331.543,-45.410,-21.973,-122.559
1630094705.660,-164.551,-47.852,-61.523,-113.770
1630094705.663,166.016,-50.293,-59.082,-87.402
1630094705.667,61.035,-50.293,-11.719,-74.707
1630094705.671,-241.699,-45.410,-14.648,-56.152
1630094705.675,-199.219,-49.316,-54.199,-46.387
1630094705.679,141.602,-55.176,-78.613,-49.316
1630094705.680,176.270,-46.875,-30.273,-43.945
1630094705.684,-150.391,-49.805,-17.578,-25.879
1630094705.688,-226.562,-50.293,-45.898,-10.254
1630094705.692,82.031,-41.992,-73.242,-12.207
1630094705.696,255.371,-45.410,-45.410,-12.207
1630094705.700,-36.621,-49.805,-12.695,22.949
1630094705.704,-213.379,-48.828,-40.527,22.461
1630094705.707,-2.930,-51.758,-85.449,-1.465
1630094705.711,276.855,-54.688,-69.336,12.695
1630094705.715,89.355,-41.016,-20.996,30.273
1630094705.719,-181.641,-38.574,-32.227,30.273
1630094705.723,-76.172,-49.316,-80.566,19.531
1630094705.726,254.395,-43.457,-87.402,22.949
1630094705.730,170.410,-43.945,-30.762,30.762
1630094705.734,-150.391,-50.781,-30.762,41.992
1630094705.738,-144.531,-41.992,-70.312,41.992
1630094705.742,188.965,-39.551,-87.891,19.043
1630094705.746,266.113,-38.086,-38.086,24.902
1630094705.750,-56.152,-35.156,-19.531,39.551
1630094705.753,-173.340,-39.551,-47.852,42.480
1630094705.757,85.449,-41.504,-82.520,27.832
1630094705.761,282.227,-36.133,-51.270,24.902
1630094705.765,0.000,-37.109,-13.672,30.762
1630094705.769,-206.055,-34.668,-37.109,40.039
1630094705.772,4.883,-30.762,-77.148,35.645
1630094705.776,310.059,-31.250,-66.895,29.297
1630094705.780,126.465,-33.203,-23.926,39.551
1630094705.784,-168.457,-42.480,-44.434,43.457
1630094705.788,-91.309,-38.086,-76.660,41.992
1630094705.792,251.465,-30.273,-74.219,35.156
1630094705.796,207.031,-36.133,-27.832,47.363
1630094705.799,-133.789,-41.504,-26.367,70.801
1630094705.803,-167.969,-29.297,-60.059,49.805
1630094705.807,149.902,-27.832,-84.473,20.020
1630094705.811,263.672,-32.715,-44.434,32.227
1630094705.815,-52.734,-27.832,-20.020,53.223
1630094705.816,-196.777,-33.691,-49.316,41.504
1630094705.820,52.246,-35.645,-77.637,26.367
1630094705.824,262.207,-29.785,-48.828,36.133
1630094705.828,20.508,-33.203,-15.625,41.992
1630094705.832,-199.219,-29.785,-33.203,46.387
1630094705.836,-39.062,-27.344,-67.383,47.852
1630094705.840,272.949,-41.504,-67.871,18.555
1630094705.843,103.516,-45.410,-23.926,17.578
1630094705.847,-190.430,-31.250,-24.902,32.715
1630094705.851,-122.070,-31.738,-69.824,4.883
1630094705.855,203.613,-37.109,-85.938,-1.953
1630094705.859,197.266,-31.738,-24.414,17.090
1630094705.861,-146.973,-32.227,-12.695,14.160
1630094705.865,-211.914,-37.109,-50.293,10.742
1630094705.869,115.234,-37.598,-74.707,14.160
1630094705.873,255.371,-30.762,-39.062,8.301
1630094705.877,-63.965,-29.785,-16.602,6.836
1630094705.881,-229.980,-36.133,-41.016,5.371
1630094705.885,13.672,-42.969,-76.172,-2.930
1630094705.888,243.164,-39.062,-56.641,5.371
1630094705.892,11.230,-32.715,-8.789,34.668
1630094705.896,-232.910,-37.598,-33.203,22.461
1630094705.900,-101.562,-36.133,-72.754,5.859
1630094705.904,219.238,-30.273,-58.105,4.883
1630094705.921,102.539,-27.344,-11.719,5.371
1630094705.925,-196.777,-29.297,-23.926,14.648
1630094705.929,-168.457,-36.133,-65.918,12.695
1630094705.933,173.340,-35.156,-75.195,4.883
1630094705.937,209.473,-25.879,-25.391,5.371
1630094705.941,-141.602,-28.320,-18.066,39.551
1630094705.945,-233.887,-39.062,-49.316,27.832
1630094705.948,62.012,-41.016,-75.195,-9.277
1630094705.952,243.164,-41.016,-41.992,8.301
1630094705.956,-67.871,-46.875,-18.555,7.812
1630094705.960,-250.000,-42.480,-42.969,3.418
1630094705.964,-19.531,-26.855,-67.383,4.395
1630094705.966,241.699,-27.344,-43.457,0.488
1630094705.970,23.926,-34.668,-1.465,4.883
1630094705.974,-242.676,-33.691,-20.508,4.395
1630094705.978,-107.910,-24.414,-57.129,9.766
1630094705.982,224.121,-27.344,-55.664,20.996
1630094705.986,140.625,-32.715,-10.254,20.996
1630094705.990,-183.594,-33.691,-26.367,19.531
1630094705.993,-180.664,-29.297,-61.035,7.324
1630094705.997,149.414,-28.809,-71.777,-12.695
1630094706.001,195.801,-40.527,-37.598,-22.949
1630094706.005,-129.395,-37.598,-16.602,-9.766
1630094706.009,-223.145,-28.809,-43.945,-3.906
1630094706.012,47.852,-32.227,-80.566,-19.043
1630094706.016,256.836,-33.691,-44.922,-13.184
1630094706.020,-9.766,-29.785,-2.441,7.324
1630094706.024,-219.238,-30.273,-31.250,4.883
1630094706.028,-24.902,-33.691,-77.637,-11.719
1630094706.032,270.508,-25.879,-64.453,-17.090
1630094706.036,66.406,-22.949,-13.672,-9.766
1630094706.039,-221.680,-30.273,-26.367,-2.441
1630094706.043,-125.488,-42.969,-67.871,-17.090
1630094706.047,187.012,-47.852,-72.266,-34.180
1630094706.051,138.672,-38.574,-19.043,-17.578
1630094706.055,-159.668,-37.109,-14.160,-14.648
1630094706.056,-191.895,-37.109,-52.246,-34.180
1630094706.060,101.562,-35.645,-72.266,-25.879
1630094706.064,221.680,-28.320,-21.484,9.766
1630094706.068,-87.891,-24.414,2.930,5.371
1630094706.072,-242.188,-29.297,-37.109,-11.230
1630094706.076,23.438,-36.133,-73.242,-2.441
1630094706.080,238.281,-34.180,-45.898,-19.531
1630094706.083,-38.574,-42.480,-15.625,-37.109
1630094706.087,-290.039,-68.359,-52.734,-50.781
1630094706.091,-112.793,-48.828,-84.961,-40.527
1630094706.095,211.914,-34.180,-65.918,-25.391
1630094706.099,57.617,-42.480,-16.602,-25.879
1630094706.101,-215.332,-37.109,-17.578,-10.254
1630094706.105,-144.043,-32.227,-55.176,-20.508
1630094706.109,184.082,-28.320,-63.965,-25.879
1630094706.113,175.293,-33.203,-16.602,-19.043
1630094706.117,-174.805,-40.039,-18.066,-31.738
1630094706.121,-234.375,-41.504,-48.828,-50.781
1630094706.125,87.402,-37.109,-59.570,-35.156
1630094706.128,198.242,-54.688,-35.645,-23.438
1630094706.132,-130.859,-77.637,-33.691,-43.457
1630094706.136,-292.480,-54.688,-48.340,-48.828
1630094706.140,-34.180,-43.945,-66.895,-47.363
1630094706.144,236.816,-49.805,-43.457,-16.602
1630094706.145,-0.488,-47.363,-1.953,-7.324
1630094706.149,-247.070,-50.293,-21.973,-35.645
1630094706.153,-123.535,-51.758,-67.383,-43.457
1630094706.157,182.617,-58.594,-54.199,-12.695
1630094706.161,70.312,-64.453,-8.789,-3.906
1630094706.165,-244.629,-45.898,-27.832,-37.109
1630094706.169,-199.707,-43.945,-64.941,-58.594
1630094706.172,121.582,-58.594,-89.844,-66.895
1630094706.176,155.273,-39.551,-37.109,-46.387
1630094706.180,-147.949,-33.203,-19.531,-32.715
1630094706.184,-232.910,-45.410,-56.641,-40.039
1630094706.188,41.016,-49.805,-78.125,-54.199
1630094706.191,177.246,-46.875,-43.457,-54.688
1630094706.195,-100.586,-42.969,-18.555,-39.551
1630094706.199,-260.254,-44.922,-49.805,-35.156
1630094706.203,-42.480,-41.504,-86.914,-40.527
1630094706.207,225.586,-40.039,-63.965,-41.016
1630094706.211,14.160,-36.621,-14.160,-26.367
1630094706.215,-272.461,-56.641,-45.898,-43.457
1630094706.218,-166.016,-80.566,-98.633,-53.711
1630094706.222,189.941,-56.641,-78.613,-29.297
1630094706.226,85.938,-44.434,-15.137,-39.062
1630094706.230,-233.887,-43.945,-13.672,-31.738
1630094706.234,-215.820,-41.016,-59.570,-36.133
1630094706.237,124.023,-39.551,-79.102,-40.039
1630094706.241,190.918,-40.527,-28.320,-34.180
1630094706.245,-163.086,-40.527,-17.090,-28.320
1630094706.249,-269.531,-37.598,-50.781,-25.879
1630094706.253,34.180,-41.504,-77.148,-39.551
1630094706.257,220.703,-48.828,-43.945,-36.621
1630094706.261,-97.656,-61.035,-21.484,-38.574
1630094706.264,-302.734,-52.246,-35.156,-29.785
1630094706.268,-64.941,-43.945,-56.641,-42.480
1630094706.272,224.609,-42.969,-47.363,-50.293
1630094706.276,27.344,-41.016,-8.301,-34.668
1630094706.280,-246.094,-42.969,-19.531,-24.902
1630094706.296,-151.855,-42.480,-59.082,-23.926
1630094706.300,168.457,-41.504,-63.965,-14.160
1630094706.304,116.699,-36.133,-6.348,-14.648
1630094706.308,-218.750,-34.668,-7.324,-30.762
1630094706.312,-245.605,-31.250,-46.875,-34.668
1630094706.316,87.891,-35.156,-78.613,-36.133
1630094706.320,169.922,-45.410,-43.945,-32.715
1630094706.323,-159.668,-39.551,-11.230,-24.902
1630094706.327,-291.016,-34.180,-32.715,-20.508
1630094706.331,-22.949,-41.992,-64.941,-29.785
1630094706.335,186.523,-39.062,-39.551,-37.598
1630094706.339,-61.035,-30.273,0.977,-19.531
1630094706.341,-269.043,-35.156,-20.508,5.371
1630094706.345,-98.145,-43.457,-67.383,-18.066
1630094706.349,181.641,-44.922,-59.570,-48.340
1630094706.353,13.672,-42.480,-4.395,-51.758
1630094706.357,-266.113,-45.410,-15.625,-39.062
1630094706.361,-181.641,-46.875,-54.688,-31.738
1630094706.365,162.598,-42.480,-66.406,-40.039
1630094706.368,134.277,-31.738,-13.672,-35.156
1630094706.372,-180.176,-35.156,-2.930,-22.949
1630094706.376,-224.121,-45.898,-49.316,-32.227
1630094706.380,86.426,-39.062,-70.312,-33.691
1630094706.384,210.938,-33.691,-20.996,-20.508
1630094706.386,-125.977,-37.598,0.977,-36.133
1630094706.390,-284.668,-42.480,-31.250,-31.250
1630094706.394,-14.160,-44.434,-62.012,-22.949
1630094706.398,244.629,-35.156,-32.227,-16.113
1630094706.402,-2.930,-30.762,7.812,-18.066
1630094706.406,-235.840,-33.203,-16.113,-43.457
1630094706.410,-72.754,-32.715,-62.500,-40.039
1630094706.413,215.820,-33.203,-54.688,-39.551
1630094706.417,80.566,-42.969,-7.812,-35.645
1630094706.421,-219.238,-49.316,-28.320,-41.992
1630094706.425,-199.707,-49.316,-65.430,-61.523
1630094706.429,135.254,-48.828,-73.242,-51.758
1630094706.431,152.832,-42.969,-24.414,-41.016
1630094706.435,-160.645,-37.598,-8.301,-37.598
1630094706.439,-209.473,-36.133,-44.922,-30.273
1630094706.443,76.172,-42.969,-73.242,-32.715
1630094706.447,208.496,-39.062,-29.785,-42.969
1630094706.451,-71.777,-29.785,-0.977,-35.645
1630094706.455,-246.094,-32.715,-27.832,-24.902
1630094706.458,-60.059,-40.527,-58.594,-32.715
1630094706.462,199.219,-49.316,-40.527,-41.992
1630094706.466,-0.488,-48.828,-1.953,-42.969
1630094706.470,-275.391,-48.828,-20.996,-44.434
1630094706.474,-139.160,-45.898,-64.941,-38.086
1630094706.477,193.359,-41.016,-64.941,-44.922
1630094706.481,85.938,-43.945,-10.254,-41.016
1630094706.485,-211.426,-41.992,-12.695,-23.926
1630094706.489,-192.383,-42.480,-60.059,-34.668
1630094706.493,117.188,-44.922,-76.660,-31.250
1630094706.497,149.902,-42.480,-21.484,-19.531
1630094706.501,-161.133,-39.062,-0.977,-33.691
1630094706.504,-258.789,-50.293,-42.969,-53.711
1630094706.508,8.301,-65.430,-84.961,-55.176
1630094706.512,204.590,-46.875,-41.992,-35.156
1630094706.516,-84.473,-40.527,-12.695,-31.738
1630094706.520,-293.945,-48.340,-33.691,-34.668
1630094706.521,-88.867,-45.898,-64.941,-37.109
1630094706.525,190.918,-38.574,-49.805,-35.645
1630094706.529,4.883,-36.621,-6.836,-42.480
1630094706.533,-267.578,-34.180,-20.996,-40.527
1630094706.537,-175.293,-35.645,-59.082,-33.203
1630094706.541,159.668,-46.875,-70.801,-39.062
1630094706.545,95.215,-44.434,-18.066,-42.969
1630094706.548,-244.629,-52.734,-21.973,-49.805
1630094706.552,-258.789,-56.152,-62.012,-55.664
1630094706.556,63.477,-44.922,-77.148,-46.875
1630094706.560,154.297,-35.156,-35.645,-31.250
1630094706.564,-136.719,-35.156,-16.113,-22.949
1630094706.566,-271.973,-36.621,-43.457,-44.434
1630094706.570,-4.883,-32.715,-71.289,-44.922
1630094706.574,222.168,-41.016,-47.363,-41.992
1630094706.578,-61.035,-53.711,-17.578,-51.758
1630094706.582,-268.555,-55.664,-38.574,-56.641
1630094706.586,-69.824,-42.480,-69.336,-54.199
1630094706.590,203.613,-53.223,-66.406,-58.105
1630094706.593,30.273,-62.500,-28.320,-59.570
1630094706.597,-234.863,-45.898,-31.250,-41.992
1630094706.601,-148.438,-41.016,-65.430,-40.039
1630094706.605,187.500,-39.062,-77.148,-41.992
1630094706.609,147.949,-39.551,-25.879,-36.621
1630094706.611,-180.664,-41.992,-18.066,-31.738
1630094706.615,-221.191,-48.828,-59.570,-24.902
1630094706.619,99.609,-50.781,-76.172,-31.250
1630094706.623,208.008,-41.504,-38.086,-50.293
1630094706.627,-122.559,-37.598,-11.230,-39.551
1630094706.631,-257.324,-39.551,-33.691,-48.828
1630094706.635,5.859,-45.898,-78.613,-61.523
1630094706.638,244.141,-41.016,-52.246,-25.879
1630094706.642,-18.555,-41.016,-11.719,-21.484
1630094706.646,-253.418,-41.992,-26.367,-37.598
1630094706.650,-70.312,-31.250,-58.594,-30.273
1630094706.654,223.145,-25.391,-60.547,-41.504
1630094706.671,47.363,-36.133,-2.930,-35.645
1630094706.675,-250.488,-39.551,-10.254,-32.715
1630094706.679,-201.172,-35.645,-62.500,-49.316
1630094706.683,136.719,-36.133,-73.730,-57.617
1630094706.687,132.812,-38.086,-23.438,-42.969
1630094706.691,-187.012,-35.645,-14.648,-25.879
1630094706.695,-245.117,-32.227,-52.246,-38.574
1630094706.698,47.363,-36.621,-76.660,-35.645
1630094706.702,177.246,-35.645,-35.645,-24.902
1630094706.706,-146.973,-51.758,-19.531,-55.176
1630094706.710,-306.152,-49.316,-45.410,-58.105
1630094706.714,-43.945,-29.297,-62.988,-41.016
1630094706.717,215.332,-37.598,-40.527,-50.293
1630094706.721,-18.066,-34.668,-2.441,-33.203
1630094706.725,-293.457,-33.203,-28.809,-23.926
1630094706.729,-158.203,-40.039,-69.336,-35.645
1630094706.733,168.457,-42.480,-62.988,-34.668
1630094706.737,54.199,-42.969,-14.160,-37.598
1630094706.741,-251.953,-38.574,-21.484,-21.973
1630094706.744,-220.703,-40.527,-58.105,-8.301
1630094706.748,104.980,-45.410,-78.613,-59.082
1630094706.752,136.719,-48.828,-41.504,-74.707
1630094706.756,-183.105,-37.598,-22.461,-50.293
1630094706.760,-270.020,-32.715,-53.223,-53.711
1630094706.761,31.738,-39.551,-81.543,-52.734
1630094706.765,206.543,-33.203,-45.898,-44.434
1630094706.769,-96.191,-29.785,-16.113,-45.410
1630094706.773,-277.344,-33.203,-36.133,-32.227
1630094706.777,-47.852,-34.668,-73.242,-39.062
1630094706.781,229.492,-31.250,-56.641,-59.082
1630094706.785,11.230,-34.668,-9.277,-53.711
1630094706.788,-260.742,-37.598,-24.414,-45.410
1630094706.792,-157.715,-55.176,-87.891,-78.613
1630094706.796,147.949,-68.359,-110.840,-91.797
1630094706.800,96.191,-41.016,-34.180,-47.852
1630094706.804,-195.312,-29.785,-16.113,-32.715
1630094706.806,-201.660,-34.668,-54.199,-35.645
1630094706.810,134.766,-28.809,-71.289,-26.855
1630094706.814,225.586,-29.297,-29.297,-45.410
1630094706.818,-122.070,-39.551,-9.766,-51.270
1630094706.822,-265.625,-43.945,-45.410,-38.086
1630094706.826,40.039,-41.016,-75.684,-42.969
1630094706.830,252.930,-34.668,-43.457,-34.668
1630094706.833,-49.805,-38.574,-11.719,-31.738
1630094706.837,-284.180,-59.082,-41.016,-55.176
1630094706.841,-76.660,-53.223,-66.895,-63.965
1630094706.845,236.816,-38.574,-46.875,-48.340
1630094706.849,36.621,-41.504,3.418,-31.250
1630094706.851,-248.047,-38.574,-8.789,-18.555
1630094706.855,-145.508,-27.344,-56.152,-18.066
1630094706.859,191.895,-25.879,-62.500,-22.461
1630094706.863,136.719,-33.691,-18.066,-30.273
1630094706.867,-191.895,-31.738,-9.766,-15.137
1630094706.871,-212.891,-31.250,-41.504,-28.320
1630094706.875,92.773,-32.227,-68.359,-42.480
1630094706.878,173.340,-41.992,-43.457,-29.785
1630094706.882,-149.414,-46.875,-24.902,-34.180
1630094706.886,-297.852,-41.504,-45.898,-41.992
1630094706.890,-41.016,-37.598,-74.219,-30.273
1630094706.894,190.430,-38.086,-47.852,-30.273
1630094706.896,-58.105,-31.738,-14.160,-22.461
1630094706.900,-271.484,-30.762,-31.250,-12.207
1630094706.904,-103.516,-36.133,-66.895,-29.785
1630094706.908,184.570,-36.621,-54.199,-33.691
1630094706.912,11.719,-38.574,-4.883,-37.598
1630094706.916,-268.066,-34.180,-16.602,-27.344
1630094706.920,-191.895,-39.551,-62.500,-41.016
1630094706.923,115.723,-56.152,-80.566,-58.105
1630094706.927,111.328,-40.039,-27.832,-48.340
1630094706.931,-192.383,-27.832,-16.602,-36.133
1630094706.935,-247.070,-33.203,-46.875,-21.973
1630094706.939,41.016,-41.016,-71.777,-35.645
1630094706.942,163.086,-45.410,-35.645,-40.527
1630094706.946,-125.000,-44.434,-6.348,-25.391
1630094706.950,-282.715,-50.781,-42.969,-41.504
1630094706.954,-56.152,-53.711,-78.125,-58.594
1630094706.958,203.613,-45.410,-47.852,-38.086
1630094706.962,-14.160,-34.180,-7.324,-23.438
1630094706.966,-267.578,-50.781,-45.410,-62.500
1630094706.969,-153.809,-72.266,-104.004,-81.055
1630094706.973,178.223,-51.758,-79.590,-50.293
1630094706.977,64.941,-38.086,-21.484,-49.316
1630094706.981,-253.906,-40.039,-22.461,-53.711
1630094706.985,-208.496,-42.969,-57.129,-57.617
1630094706.986,146.484,-35.645,-75.195,-46.387
1630094706.990,158.203,-33.691,-27.832,-49.316
1630094706.994,-200.684,-42.969,-21.973,-58.105
1630094706.998,-266.113,-45.410,-57.617,-62.988
1630094707.002,51.758,-41.016,-74.219,-68.359
1630094707.006,214.844,-41.504,-41.504,-49.316
1630094707.010,-124.023,-66.895,-44.922,-69.824
1630094707.013,-311.523,-63.965,-57.129,-81.055
1630094707.017,-39.551,-41.504,-58.594,-59.082
1630094707.021,234.375,-34.180,-51.758,-35.645
1630094707.025,12.695,-23.926,-7.324,-23.438
1630094707.029,-245.117,-27.832,-13.184,-30.762
1630094707.046,-126.465,-31.738,-58.105,-49.316
1630094707.050,196.289,-31.738,-63.965,-48.828
1630094707.054,96.680,-36.133,-11.719,-35.156
1630094707.058,-218.262,-40.039,-13.184,-44.434
1630094707.062,-210.938,-41.504,-49.805,-53.711
1630094707.066,125.977,-36.621,-64.941,-46.875
1630094707.070,187.012,-36.621,-19.531,-34.180
1630094707.073,-157.227,-35.645,-9.277,-52.246
1630094707.077,-261.230,-31.250,-36.133,-51.758
1630094707.081,13.184,-54.688,-80.078,-59.570
1630094707.085,182.129,-63.965,-64.453,-71.289
1630094707.089,-72.266,-38.574,-10.742,-45.898
1630094707.091,-272.461,-37.109,-30.273,-38.574
1630094707.095,-82.520,-44.434,-69.824,-49.805
1630094707.099,229.004,-41.504,-58.594,-28.320
1630094707.103,33.691,-40.527,-12.695,-27.344
1630094707.107,-264.160,-47.363,-21.973,-41.504
1630094707.111,-168.457,-47.852,-66.406,-41.992
1630094707.115,179.199,-43.945,-70.801,-43.945
1630094707.118,122.559,-42.969,-15.625,-46.387
1630094707.122,-208.008,-43.945,-14.160,-41.016
1630094707.126,-237.305,-50.293,-56.641,-39.551
1630094707.130,108.398,-39.551,-73.730,-50.293
1630094707.134,219.238,-35.645,-24.414,-42.480
1630094707.136,-102.051,-53.223,-9.277,-4.883
1630094707.140,-252.441,-44.434,-46.387,-27.832
1630094707.144,-24.414,-37.109,-69.824,-77.637
1630094707.148,205.566,-43.457,-41.504,-58.594
1630094707.152,-30.762,-33.691,-16.113,-24.902
1630094707.156,-237.305,-22.949,-32.715,-31.738
1630094707.160,-47.363,-16.602,-61.523,-28.320
1630094707.163,253.906,-9.766,-54.688,-18.555
1630094707.167,65.918,-39.062,-20.996,-34.180
1630094707.171,-250.488,-55.176,-32.715,-42.969
1630094707.175,-178.711,-21.484,-52.246,-28.320
1630094707.179,173.828,-9.277,-67.383,-28.320
1630094707.182,158.203,-15.137,-29.297,-24.414
1630094707.186,-181.641,-19.531,-21.973,-16.113
1630094707.190,-235.352,-16.602,-51.758,-22.949
1630094707.194,89.844,-15.625,-76.660,-14.160
1630094707.198,231.934,-18.066,-37.109,-15.625
1630094707.202,-82.031,-21.484,-10.742,-19.043
1630094707.206,-241.211,-22.461,-40.527,-22.461
1630094707.209,1.465,-29.785,-82.031,-47.363
1630094707.213,218.262,-35.645,-63.965,-43.945
1630094707.217,-31.250,-23.926,-16.113,-24.902
1630094707.221,-250.000,-24.414,-31.250,-20.508
1630094707.225,-93.262,-31.738,-78.125,-27.344
1630094707.226,221.680,-30.273,-69.336,-34.668
1630094707.230,89.355,-29.785,-19.531,-33.203
1630094707.234,-215.820,-34.180,-29.785,-21.484
1630094707.238,-169.922,-35.645,-63.965,-13.184
1630094707.242,160.645,-34.668,-79.102,-40.039
1630094707.246,160.645,-34.668,-28.809,-41.504
1630094707.250,-165.039,-30.273,-11.230,-16.602
1630094707.253,-246.582,-44.434,-58.594,-38.574
1630094707.257,30.762,-64.941,-103.027,-59.570
1630094707.261,196.289,-41.504,-46.387,-47.852
1630094707.265,-82.031,-25.879,-1.465,-41.016
1630094707.269,-264.160,-31.250,-35.156,-49.316
1630094707.271,-40.039,-32.227,-71.777,-54.199
1630094707.275,219.727,-29.785,-53.223,-50.781
1630094707.279,6.348,-32.715,-9.277,-23.438
1630094707.283,-241.699,-35.645,-21.973,-9.766
1630094707.287,-146.484,-38.086,-55.176,-28.809
1630094707.291,193.359,-35.156,-43.945,-32.715
1630094707.295,116.211,-34.668,-8.789,-50.293
1630094707.298,-214.844,-48.340,-23.438,-45.410
1630094707.302,-200.195,-43.457,-53.223,-33.691
1630094707.306,134.766,-33.203,-66.406,-34.668
1630094707.310,174.316,-41.016,-19.043,-33.203
1630094707.314,-150.391,-41.992,-3.906,-34.180
1630094707.316,-255.371,-34.180,-31.250,-33.691
1630094707.320,25.879,-35.645,-61.035,-48.828
1630094707.324,235.352,-30.762,-28.320,-36.133
1630094707.328,-49.805,-25.879,8.301,-5.371
1630094707.332,-262.207,-29.297,-19.043,-11.719
1630094707.336,-57.617,-25.879,-58.594,-36.621
1630094707.340,207.520,-35.645,-57.617,-39.551
1630094707.343,-15.137,-51.270,-33.691,-50.293
1630094707.347,-259.766,-37.109,-31.738,-41.504
1630094707.351,-146.973,-29.297,-63.477,-32.227
1630094707.355,184.570,-31.250,-68.359,-39.062
1630094707.359,127.930,-36.133,-19.531,-37.109
1630094707.362,-208.496,-40.039,-18.555,-33.691
1630094707.366,-224.609,-40.527,-51.270,-24.414
1630094707.370,90.332,-38.574,-80.566,-36.621
1630094707.374,160.156,-37.598,-36.133,-47.852
1630094707.378,-140.137,-39.551,-2.930,-20.020
1630094707.382,-249.512,-41.504,-37.598,-1.465
1630094707.386,-8.789,-49.805,-80.078,-40.039
1630094707.389,214.844,-41.016,-46.387,-46.875
1630094707.393,-15.625,-30.762,-4.395,-26.367
1630094707.397,-259.277,-39.551,-25.391,-34.668
1630094707.401,-106.934,-48.340,-66.406,-28.809
1630094707.405,205.566,-37.598,-57.617,-15.137
1630094707.421,41.504,-32.715,-9.766,-19.531
1630094707.425,-259.766,-34.668,-20.996,-12.207
1630094707.429,-172.363,-33.691,-61.035,-17.578
1630094707.433,158.203,-41.504,-74.707,-26.855
1630094707.437,112.793,-42.969,-19.531,-33.691
1630094707.441,-212.891,-52.734,-12.207,-48.828
1630094707.445,-239.258,-57.129,-66.406,-51.270
1630094707.448,94.238,-37.109,-81.543,-38.574
1630094707.452,207.520,-29.785,-32.227,-27.344
1630094707.456,-120.117,-38.086,-11.230,-30.273
1630094707.460,-279.785,-41.504,-33.203,-44.922
1630094707.464,-22.949,-30.273,-54.688,-22.949
1630094707.466,222.656,-37.109,-37.109,-23.926
1630094707.470,-27.832,-41.992,0.488,-36.133
1630094707.474,-264.160,-34.668,-12.695,-27.832
1630094707.478,-104.980,-29.297,-54.199,-29.297
1630094707.482,215.820,-29.785,-50.293,-31.738
1630094707.486,87.402,-33.203,-2.930,-31.738
1630094707.490,-215.820,-35.645,-18.066,-23.926
1630094707.493,-185.059,-35.645,-56.641,-17.578
1630094707.497,145.508,-40.039,-60.547,-32.227
1630094707.501,144.531,-56.641,-23.926,-41.016
1630094707.505,-185.547,-47.363,-8.789,-17.578
1630094707.509,-251.953,-35.645,-37.109,-47.852
1630094707.511,44.922,-42.480,-67.871,-57.617
1630094707.515,206.055,-40.527,-35.645,-50.293
1630094707.519,-104.004,-37.109,-6.348,-54.199
1630094707.523,-299.316,-35.645,-29.785,-45.898
1630094707.527,-57.617,-35.156,-64.453,-45.898
1630094707.531,227.051,-34.180,-40.039,-37.598
1630094707.535,0.977,-30.762,-3.418,-40.039
1630094707.538,-268.066,-30.273,-25.391,-47.852
1630094707.542,-153.809,-46.875,-70.312,-54.688
1630094707.546,161.621,-60.547,-81.055,-52.246
1630094707.550,76.172,-45.898,-25.879,-33.691
1630094707.554,-223.145,-37.109,-20.508,-30.762
1630094707.556,-215.332,-42.969,-54.199,-45.410
1630094707.560,118.164,-39.551,-66.895,-32.715
1630094707.564,149.902,-31.250,-21.484,-32.715
1630094707.568,-180.664,-32.715,-3.906,-52.246
1630094707.572,-249.512,-44.434,-36.621,-49.805
1630094707.576,43.457,-42.969,-66.895,-46.875
1630094707.580,216.797,-29.297,-34.668,-40.527
1630094707.583,-73.242,-41.504,-12.207,-51.270
1630094707.587,-289.551,-60.059,-43.945,-48.340
1630094707.591,-65.918,-44.434,-69.824,-37.109
1630094707.595,221.191,-29.785,-45.898,-46.387
1630094707.599,9.766,-37.598,-6.348,-46.387
1630094707.601,-269.531,-39.551,-27.832,-41.992
1630094707.605,-151.855,-31.250,-60.059,-37.598
1630094707.609,191.895,-29.785,-62.988,-31.250
1630094707.613,107.422,-30.273,-16.113,-32.227
1630094707.617,-207.520,-35.645,-12.207,-36.133
1630094707.621,-212.891,-37.598,-48.828,-37.109
1630094707.625,110.840,-36.133,-67.871,-40.527
1630094707.628,179.688,-42.969,-36.133,-44.922
1630094707.632,-155.762,-51.758,-24.414,-30.762
1630094707.636,-284.668,-43.945,-46.875,-30.762
1630094707.640,-4.883,-37.109,-77.637,-51.758
1630094707.644,212.891,-33.203,-46.387,-42.480
1630094707.646,-65.430,-34.668,-8.789,-38.574
1630094707.650,-265.137,-34.180,-23.926,-36.621
1630094707.654,-59.082,-28.320,-59.570,-34.668
1630094707.658,216.309,-33.691,-60.547,-44.922
1630094707.662,32.227,-35.156,-16.113,-37.109
1630094707.666,-227.539,-24.902,-24.414,-19.043
1630094707.670,-149.902,-25.879,-63.477,-24.902
1630094707.673,153.809,-37.109,-76.172,-55.664
1630094707.677,107.910,-33.691,-20.996,-51.270
1630094707.681,-198.730,-28.809,-4.395,-22.461
1630094707.685,-217.773,-29.297,-40.527,-17.578
1630094707.689,82.520,-29.297,-69.824,-33.203
1630094707.691,176.758,-27.832,-30.762,-39.062
1630094707.695,-123.047,-32.715,-1.953,-16.113
1630094707.699,-277.344,-39.062,-35.645,-27.344
1630094707.703,-28.809,-37.109,-74.219,-57.617
1630094707.707,205.566,-31.738,-39.062,-48.340
1630094707.711,-27.832,-25.879,6.836,-20.020
1630094707.715,-264.160,-42.480,-24.414,-30.762
1630094707.718,-132.812,-56.641,-74.219,-65.430
1630094707.722,184.082,-47.852,-60.059,-60.059
1630094707.726,36.621,-38.574,-3.418,-45.410
1630094707.730,-256.836,-37.109,-16.113,-36.621
1630094707.734,-189.941,-40.039,-57.617,-31.738
1630094707.736,139.648,-37.109,-63.477,-37.109
1630094707.740,128.418,-37.109,-13.184,-49.805
1630094707.744,-186.035,-35.645,-5.371,-31.738
1630094707.748,-241.211,-33.203,-40.527,-26.367
1630094707.752,48.340,-35.156,-66.406,-41.992
1630094707.756,200.684,-39.551,-30.762,-44.434
1630094707.760,-97.656,-46.875,-5.859,-35.645
1630094707.763,-278.809,-45.410,-36.133,-31.250
1630094707.767,-33.203,-41.504,-62.500,-55.176
1630094707.771,215.332,-51.758,-53.711,-52.246
1630094707.775,-29.297,-55.176,-26.367,-41.016
1630094707.779,-271.973,-41.992,-28.809,-44.434
1630094707.796,-123.047,-35.156,-59.570,-48.340
1630094707.800,188.477,-33.691,-53.711,-44.922
1630094707.804,75.195,-28.320,-0.488,-34.668
1630094707.808,-215.820,-28.320,-6.348,-21.973
1630094707.812,-178.223,-35.645,-42.480,-31.250
1630094707.816,132.324,-39.551,-62.012,-52.246
1630094707.820,160.645,-35.156,-19.043,-40.039
1630094707.823,-151.855,-33.203,-8.301,-32.227
1630094707.827,-268.555,-38.086,-45.410,-40.039
1630094707.831,8.789,-53.711,-83.496,-56.641
1630094707.835,207.031,-53.711,-51.270,-47.852
1630094707.839,-55.664,-31.738,-2.930,-13.672
1630094707.841,-263.672,-33.691,-25.879,-22.461
1630094707.845,-69.336,-43.457,-63.965,-57.129
1630094707.849,220.703,-39.551,-47.363,-37.598
1630094707.853,50.293,-33.691,-14.160,-3.418
1630094707.857,-239.746,-40.039,-23.926,-24.414
1630094707.861,-181.152,-49.805,-54.688,-73.730
1630094707.865,149.902,-48.828,-74.219,-87.891
1630094707.868,66.406,-47.363,-14.648,-65.918
1630094707.872,-282.227,-62.012,-7.324,-68.359
1630094707.876,-294.434,-75.684,-54.688,-84.961
1630094707.880,46.387,-60.547,-55.664,-87.402
1630094707.884,128.906,-49.805,-3.906,-78.613
1630094707.887,-182.129,-55.176,12.207,-58.594
1630094707.891,-294.922,-60.547,-18.555,-66.406
1630094707.895,-8.789,-57.129,-49.805,-65.430
1630094707.899,224.609,-53.223,-20.020,-44.434
1630094707.903,-78.613,-58.594,2.441,-67.871
1630094707.907,-283.203,-53.711,-19.531,-64.453
1630094707.911,-45.410,-43.457,-50.293,-55.664
1630094707.914,239.258,-43.945,-39.551,-61.523
1630094707.918,22.461,-59.570,-1.953,-66.406
1630094707.922,-297.852,-72.266,-29.297,-68.848
1630094707.926,-184.082,-60.059,-52.246,-55.664
1630094707.930,162.109,-55.664,-48.340,-62.988
1630094707.931,109.375,-49.805,-1.465,-55.176
1630094707.935,-212.891,-44.434,5.371,-41.504
1630094707.939,-248.535,-40.039,-28.320,-46.875
1630094707.943,69.336,-38.086,-48.340,-55.664
1630094707.947,183.594,-34.668,0.000,-50.781
1630094707.951,-126.953,-36.621,19.531,-34.180
1630094707.955,-272.461,-41.016,-15.137,-30.762
1630094707.958,-20.508,-46.387,-50.293,-48.828
1630094707.962,174.316,-66.406,-48.340,-70.801
1630094707.966,-82.520,-55.176,-5.371,-58.594
1630094707.970,-276.855,-41.016,-12.695,-45.898
1630094707.974,-112.305,-44.434,-51.270,-55.176
1630094707.976,195.312,-38.086,-42.480,-35.156
1630094707.980,50.781,-36.621,6.836,-6.348
1630094707.984,-256.348,-42.969,-0.977,-38.574
1630094707.988,-186.035,-44.434,-42.969,-56.641
1630094707.992,161.133,-41.016,-50.293,-48.828
1630094707.996,139.648,-39.062,0.000,-37.598
1630094708.000,-180.176,-35.645,7.812,-26.367
1630094708.003,-252.930,-51.270,-35.156,-57.129
1630094708.007,11.719,-73.242,-75.684,-83.008
1630094708.011,181.641,-52.734,-31.250,-57.129
1630094708.015,-112.793,-33.691,9.766,-39.062
1630094708.019,-294.434,-32.227,-11.230,-43.945
1630094708.021,-42.969,-31.250,-48.340,-44.434
1630094708.025,221.680,-36.621,-28.809,-37.598
1630094708.029,-10.742,-34.668,16.113,-25.391
1630094708.033,-279.297,-38.086,-4.395,-29.785
1630094708.037,-143.555,-41.504,-43.457,-39.551
1630094708.041,196.777,-28.809,-34.180,-21.484
1630094708.045,83.496,-37.109,-1.953,-41.504
1630094708.048,-250.977,-59.570,-22.461,-56.641
1630094708.052,-223.633,-41.992,-39.551,-39.062
1630094708.056,109.863,-31.738,-51.758,-46.875
1630094708.060,145.996,-43.457,-6.836,-36.621
1630094708.064,-172.363,-40.039,11.230,-18.066
1630094708.066,-255.371,-39.062,-25.879,-19.531
1630094708.070,34.180,-43.457,-54.199,-48.828
1630094708.074,195.312,-45.898,-27.344,-41.992
1630094708.078,-87.402,-48.828,1.953,-1.465
1630094708.082,-276.855,-41.992,-15.625,-21.484
1630094708.086,-57.617,-37.598,-54.199,-45.898
1630094708.090,184.082,-56.641,-54.199,-54.199
1630094708.093,-47.363,-70.312,-16.113,-58.105
1630094708.097,-277.344,-53.711,-9.277,-40.039
1630094708.101,-164.062,-44.434,-44.922,-33.691
1630094708.105,186.035,-36.621,-49.316,-25.879
1630094708.109,121.582,-38.086,-0.488,-30.762
1630094708.111,-216.797,-39.062,-3.418,-30.273
1630094708.115,-226.562,-38.574,-47.363,-44.434
1630094708.119,97.168,-41.504,-68.848,-48.828
1630094708.123,158.691,-38.086,-20.996,-28.320
1630094708.127,-159.668,-32.715,2.441,-32.715
1630094708.131,-260.254,-37.109,-32.227,-43.945
1630094708.135,6.348,-54.688,-81.543,-55.176
1630094708.138,192.383,-48.828,-44.434,-46.387
1630094708.142,-66.895,-38.574,1.953,-29.785
1630094708.146,-259.277,-35.645,-22.461,-26.855
1630094708.150,-70.312,-34.180,-62.988,-41.504
1630094708.154,214.355,-41.504,-53.223,-41.992
1630094708.171,25.879,-40.527,-2.930,-19.043
1630094708.175,-256.348,-37.109,-17.090,-25.879
1630094708.179,-163.574,-36.621,-61.035,-42.480
1630094708.183,156.738,-35.645,-63.965,-42.969
1630094708.187,115.234,-38.086,-16.113,-39.551
1630094708.191,-200.195,-39.062,-17.578,-21.484
1630094708.195,-238.281,-38.574,-52.734,-23.926
1630094708.198,84.961,-42.969,-65.918,-48.340
1630094708.202,191.895,-39.062,-31.250,-50.781
1630094708.206,-138.672,-44.434,-15.625,-51.270
1630094708.210,-283.203,-54.688,-43.945,-52.246
1630094708.214,-15.137,-46.387,-74.219,-46.875
1630094708.216,215.332,-41.504,-49.316,-37.109
1630094708.220,-51.270,-41.016,-12.207,-24.902
1630094708.224,-270.996,-35.645,-28.809,-36.133
1630094708.228,-77.637,-32.227,-56.641,-41.992
1630094708.232,208.008,-41.992,-44.922,-43.457
1630094708.236,51.270,-49.316,-5.859,-34.180
1630094708.240,-238.281,-46.875,-20.996,-11.230
1630094708.243,-178.711,-42.480,-54.199,-13.672
1630094708.247,164.551,-43.945,-62.988,-33.691
1630094708.251,131.348,-52.734,-20.020,-37.598
1630094708.255,-195.312,-47.363,-8.301,-25.879
1630094708.259,-236.816,-35.156,-39.551,-25.879
1630094708.261,56.641,-34.668,-60.547,-46.387
1630094708.265,191.895,-40.527,-27.832,-39.551
1630094708.269,-101.562,-41.504,-8.789,-14.160
1630094708.273,-270.996,-42.480,-34.180,-22.949
1630094708.277,-34.180,-41.016,-64.941,-46.387
1630094708.281,228.516,-32.227,-44.434,-12.695
1630094708.285,-12.695,-31.738,-8.301,-2.441
1630094708.288,-269.043,-38.086,-23.438,-39.062
1630094708.292,-131.836,-44.922,-63.965,-46.387
1630094708.296,171.875,-55.176,-65.430,-51.758
1630094708.300,58.105,-46.387,-8.301,-32.227
1630094708.304,-225.098,-33.203,-5.859,-13.184
1630094708.306,-191.895,-37.109,-48.828,-26.855
1630094708.310,121.582,-42.480,-68.359,-43.457
1630094708.314,158.203,-46.387,-21.973,-27.832
1630094708.318,-183.105,-48.340,-16.113,-17.090
1630094708.322,-257.324,-44.434,-48.828,-25.391
1630094708.326,60.059,-40.039,-65.430,-14.160
1630094708.330,226.562,-40.039,-24.414,-5.371
1630094708.333,-65.430,-35.156,2.930,1.465
1630094708.337,-270.996,-32.715,-32.715,-12.695
1630094708.341,-66.406,-33.203,-64.941,-57.129
1630094708.345,211.914,-27.344,-47.363,-39.062
1630094708.349,5.371,-23.438,-14.160,-26.855
1630094708.351,-257.324,-23.438,-23.926,-48.828
1630094708.355,-127.441,-23.926,-63.965,-52.734
1630094708.359,193.848,-23.926,-66.895,-47.852
1630094708.363,104.492,-23.438,-16.602,-39.551
1630094708.367,-211.914,-25.879,-15.137,-43.457
1630094708.371,-210.449,-29.297,-51.758,-42.969
1630094708.375,118.652,-30.273,-79.102,-57.617
1630094708.378,171.875,-32.715,-36.621,-47.852
1630094708.382,-161.133,-41.016,-21.973,-41.016
1630094708.386,-264.160,-37.109,-54.199,-48.340
1630094708.390,20.996,-33.203,-74.707,-45.898
1630094708.394,222.168,-30.762,-37.109,-33.691
1630094708.396,-65.918,-29.297,-7.812,-37.109
1630094708.400,-287.109,-34.180,-31.738,-44.922
1630094708.404,-75.195,-31.738,-66.895,-48.340
1630094708.408,221.191,-31.738,-48.340,-55.176
1630094708.412,17.578,-38.574,3.418,-44.922
1630094708.416,-264.648,-38.086,-17.090,-14.648
1630094708.420,-163.574,-38.086,-63.477,-31.250
1630094708.423,164.551,-49.805,-71.777,-65.430
1630094708.427,109.375,-45.410,-13.672,-44.922
1630094708.431,-195.801,-33.691,-4.395,-34.180
1630094708.435,-212.891,-34.180,-45.898,-36.133
1630094708.439,109.863,-34.668,-72.266,-31.738
1630094708.441,183.594,-35.156,-30.762,-26.367
1630094708.445,-124.512,-37.598,-4.883,-22.461
1630094708.449,-240.234,-42.969,-41.016,-36.621
1630094708.453,13.184,-36.621,-76.172,-33.203
1630094708.457,220.703,-30.762,-45.410,-28.320
1630094708.461,-28.320,-36.133,-6.836,-26.367
1630094708.465,-256.836,-40.039,-28.809,-18.066
1630094708.468,-90.332,-44.434,-65.918,-25.879
1630094708.472,225.098,-41.504,-51.270,-33.691
1630094708.476,49.316,-34.668,-8.301,-46.387
1630094708.480,-260.254,-33.691,-22.949,-71.777
1630094708.484,-228.516,-37.109,-64.453,-98.633
1630094708.486,81.543,-45.410,-72.754,-100.586
1630094708.490,37.109,-52.734,-20.996,-107.910
1630094708.494,-301.758,-54.688,-11.230,-133.789
1630094708.498,-352.051,-58.105,-47.363,-139.648
1630094708.502,-53.223,-61.035,-73.730,-148.926
1630094708.506,77.637,-64.941,-35.156,-153.320
1630094708.510,-208.984,-66.406,-15.625,-138.672
1630094708.513,-345.215,-63.477,-42.969,-135.742
1630094708.517,-96.191,-60.547,-74.707,-113.770
1630094708.521,147.949,-60.059,-57.617,-100.586
1630094708.525,-85.938,-62.012,-22.949,-93.750
1630094708.529,-306.152,-60.547,-33.691,-89.355
1630094708.546,-155.273,-53.223,-62.012,-86.914
1630094708.550,139.648,-51.758,-62.500,-73.242
1630094708.554,27.344,-52.246,-12.207,-71.777
1630094708.558,-257.324,-51.270,-20.996,-72.266
1630094708.562,-229.980,-53.223,-67.383,-57.129
1630094708.566,87.402,-59.082,-76.172,-77.637
1630094708.570,116.211,-57.617,-24.414,-83.008
1630094708.573,-187.500,-47.852,-13.184,-49.805
1630094708.577,-267.578,-43.945,-50.293,-72.266
1630094708.581,0.977,-52.734,-85.449,-89.844
1630094708.585,154.785,-52.734,-46.387,-56.641
1630094708.589,-84.473,-42.480,-3.906,-36.621
1630094708.591,-252.930,-41.504,-29.785,-40.039
1630094708.595,-70.801,-43.945,-69.336,-45.410
1630094708.599,216.309,-41.992,-47.852,-46.875
1630094708.603,19.043,-40.039,-2.441,-39.551
1630094708.607,-250.488,-43.457,-21.973,-52.246
1630094708.611,-136.230,-50.293,-63.477,-24.902
1630094708.615,197.266,-48.340,-57.617,-7.324
1630094708.618,105.957,-40.527,-2.441,-27.344
1630094708.622,-216.797,-39.062,-12.695,-37.109
1630094708.626,-208.984,-46.875,-68.848,-80.566
1630094708.630,125.488,-35.645,-78.125,-76.172
1630094708.634,174.805,-36.133,-20.996,-31.250
1630094708.636,-149.414,-41.992,-12.207,-26.855
1630094708.640,-257.812,-43.945,-50.781,-32.227
1630094708.644,42.480,-45.410,-77.148,-34.668
1630094708.648,237.305,-38.574,-47.852,-38.574
1630094708.652,-57.617,-31.738,-20.020,-54.688
1630094708.656,-256.348,-29.297,-35.156,-55.664
1630094708.660,-43.457,-27.344,-69.336,-54.199
1630094708.663,255.371,-21.973,-64.941,-68.359
1630094708.667,22.949,-37.598,-33.691,-69.824
1630094708.671,-299.316,-61.035,-55.664,-68.848
1630094708.675,-161.621,-43.457,-84.961,-74.219
1630094708.679,191.895,-22.949,-76.172,-64.453
1630094708.681,117.188,-28.809,-21.973,-39.062
1630094708.685,-206.055,-35.645,-19.531,-55.176
1630094708.689,-232.910,-37.598,-60.059,-66.406
1630094708.693,84.961,-38.086,-79.590,-62.012
1630094708.697,187.500,-30.762,-30.762,-45.410
1630094708.701,-121.094,-25.391,-12.207,-35.156
1630094708.705,-245.605,-34.668,-44.434,-47.852
1630094708.708,12.207,-45.410,-70.312,-33.691
1630094708.712,188.965,-44.922,-52.246,-28.320
1630094708.716,-84.473,-40.527,-19.531,-62.500
1630094708.720,-266.602,-34.180,-32.715,-62.500
1630094708.724,-73.242,-40.039,-70.312,-63.965
1630094708.726,201.660,-46.387,-60.547,-66.895
1630094708.730,38.086,-30.273,-4.395,-42.969
1630094708.734,-259.766,-32.715,-10.254,-41.016
1630094708.738,-190.430,-41.504,-53.223,-56.152
1630094708.742,162.598,-39.551,-64.941,-38.574
1630094708.746,100.098,-38.574,-12.695,-42.480
1630094708.750,-215.820,-39.551,-5.859,-46.387
1630094708.753,-254.883,-52.246,-60.059,-55.176
1630094708.757,31.738,-61.035,-94.238,-82.520
1630094708.761,149.902,-41.992,-37.109,-61.035
1630094708.765,-165.039,-38.574,-7.324,-58.105
1630094708.769,-298.828,-41.016,-38.574,-50.781
1630094708.771,-46.875,-42.480,-69.824,-53.223
1630094708.775,182.129,-41.016,-50.781,-56.641
1630094708.779,-63.965,-34.180,-19.043,-57.129
1630094708.783,-309.570,-40.527,-40.527,-63.477
1630094708.787,-160.645,-47.852,-78.125,-57.617
1630094708.791,168.945,-42.480,-61.035,-48.340
1630094708.795,47.363,-39.062,-18.066,-22.461
1630094708.798,-270.508,-48.340,-34.668,-49.316
1630094708.802,-239.746,-45.410,-58.105,-77.637
1630094708.806,126.953,-35.156,-69.336,-73.242
1630094708.810,122.559,-28.809,-29.785,-67.383
1630094708.814,-238.770,-37.598,-11.719,-56.152
1630094708.816,-284.668,-43.945,-39.551,-46.387
1630094708.820,35.156,-35.645,-60.547,-52.246
1630094708.824,186.523,-34.668,-27.344,-44.922
1630094708.828,-129.395,-42.480,-5.859,-36.133
1630094708.832,-305.176,-33.203,-22.949,-50.781
1630094708.836,-63.477,-31.250,-49.805,-71.289
1630094708.840,189.453,-39.062,-38.574,-79.102
1630094708.843,-59.570,-35.645,-3.418,-58.105
1630094708.847,-314.941,-30.273,-18.555,-64.453
1630094708.851,-176.758,-39.551,-54.688,-82.031
1630094708.855,155.762,-38.574,-39.062,-62.988
1630094708.859,25.391,-33.203,0.977,-51.270
1630094708.861,-311.523,-42.969,-5.859,-86.426
1630094708.865,-270.508,-34.180,-32.715,-118.164
1630094708.869,47.852,-21.484,-46.387,-116.699
1630094708.873,74.219,-33.203,-4.395,-124.512
1630094708.877,-274.414,-45.898,2.441,-136.230
1630094708.881,-390.137,-34.668,-19.531,-138.184
1630094708.885,-75.195,-19.043,-38.574,-162.598
1630094708.888,89.844,-24.902,-9.277,-204.590
1630094708.892,-260.742,-42.969,22.461,-210.938
1630094708.896,-507.812,-44.434,2.930,-231.445
1630094708.900,-308.594,-40.039,-37.109,-286.133
1630094708.904,-44.434,-42.480,-18.066,-299.316
1630094708.906,-276.855,-47.363,22.949,-309.082
1630094708.910,-541.016,-52.246,2.930,-325.195
1630094708.914,-443.848,-55.176,-36.133,-335.938
1630094708.918,-112.305,-56.641,-34.180,-347.656
1630094708.922,-183.105,-56.152,24.414,-312.988
1630094708.926,-475.098,-53.711,17.578,-290.039
1630094708.930,-450.195,-55.664,-26.855,-257.812
1630094708.933,-98.633,-60.547,-38.574,-220.703
1630094708.937,24.902,-64.453,-1.953,-213.867
1630094708.941,-241.211,-47.852,17.578,-171.875
1630094708.945,-331.055,-37.109,-9.277,-137.207
1630094708.949,-25.879,-44.434,-55.664,-126.953
1630094708.966,181.152,-49.805,-38.574,-110.840
1630094708.970,-104.492,-52.734,-2.930,-86.914
1630094708.974,-286.621,-48.828,-24.902,-51.270
1630094708.978,-58.594,-44.434,-62.988,-40.039
1630094708.982,253.418,-47.852,-53.223,-33.691
1630094708.986,79.102,-44.434,-12.207,-20.020
1630094708.990,-185.059,-42.969,-28.320,-4.883
1630094708.993,-112.305,-51.270,-72.266,11.230
1630094708.997,229.492,-46.875,-77.637,12.695
1630094709.001,191.406,-47.852,-28.809,23.926
1630094709.005,-148.438,-53.711,-34.668,22.461
1630094709.009,-156.738,-44.434,-73.730,5.371
1630094709.011,182.617,-38.574,-87.891,21.973
1630094709.015,289.062,-38.574,-42.480,49.316
1630094709.019,-48.828,-37.109,-29.785,36.621
1630094709.023,-206.055,-33.691,-59.570,32.227
1630094709.027,57.617,-38.086,-82.520,61.523
1630094709.031,303.223,-34.668,-59.082,49.316
1630094709.035,40.527,-31.738,-28.320,41.504
1630094709.038,-193.848,-41.016,-46.875,47.852
1630094709.042,-23.438,-34.668,-78.125,32.715
1630094709.046,275.879,-27.344,-72.266,42.480
1630094709.050,116.699,-34.180,-28.809,54.199
1630094709.054,-204.102,-39.551,-34.668,43.945
1630094709.056,-156.250,-44.922,-76.172,42.480
1630094709.060,215.332,-37.598,-88.379,47.852
1630094709.064,228.516,-24.902,-38.574,41.504
1630094709.068,-125.977,-30.762,-26.855,62.500
1630094709.072,-192.871,-36.133,-58.594,44.922
1630094709.076,144.531,-31.738,-88.867,30.762
1630094709.080,277.832,-31.738,-56.641,42.969
1630094709.083,-59.570,-33.691,-13.672,46.387
1630094709.087,-199.707,-31.250,-31.738,45.410
1630094709.091,30.273,-35.645,-80.566,24.902
1630094709.095,259.766,-38.086,-58.105,43.945
1630094709.099,27.344,-39.551,-13.672,58.594
1630094709.101,-225.586,-40.527,-27.832,51.270
1630094709.105,-80.566,-33.691,-65.918,42.480
1630094709.109,244.141,-26.855,-61.035,34.668
1630094709.113,125.488,-27.344,-9.277,35.156
1630094709.117,-181.152,-36.621,-20.508,53.711
1630094709.121,-145.996,-38.086,-62.988,54.199
1630094709.125,167.969,-32.715,-77.148,9.766
1630094709.128,205.078,-25.391,-19.531,26.855
1630094709.132,-83.984,-15.137,2.441,60.059
1630094709.136,-208.008,-23.926,-40.527,31.738
1630094709.140,67.383,-40.039,-77.637,25.391
1630094709.144,242.676,-41.992,-41.992,28.320
1630094709.146,-68.359,-43.457,-9.766,19.043
1630094709.150,-242.676,-41.992,-37.109,1.953
1630094709.154,-9.766,-42.480,-72.266,-0.488
1630094709.158,254.883,-42.969,-51.270,31.738
1630094709.162,29.297,-38.086,-13.184,40.039
1630094709.166,-207.520,-37.598,-33.691,18.066
1630094709.170,-92.773,-39.551,-67.871,1.465
1630094709.173,220.703,-39.551,-60.059,-2.930
1630094709.177,146.973,-25.879,-15.137,4.883
1630094709.181,-172.363,-28.320,-23.926,9.766
1630094709.185,-176.758,-44.434,-53.711,-10.254
1630094709.189,145.996,-48.340,-68.359,-5.371
1630094709.191,213.867,-48.340,-24.902,17.090
1630094709.195,-93.750,-46.387,-6.836,22.461
1630094709.199,-236.328,-43.945,-49.316,9.277
1630094709.203,44.434,-37.109,-78.125,4.883
1630094709.207,253.418,-32.715,-43.945,0.000
1630094709.211,-32.227,-33.691,-10.742,16.602
1630094709.215,-212.891,-27.832,-19.043,29.297
1630094709.218,-5.859,-20.020,-50.781,20.020
1630094709.222,274.902,-27.832,-46.387,24.902
1630094709.226,60.059,-33.691,-11.719,7.324
1630094709.230,-214.355,-37.598,-37.598,1.953
1630094709.234,-109.863,-37.598,-71.777,4.883
1630094709.237,218.750,-36.133,-66.406,-2.930
1630094709.241,160.645,-37.109,-16.602,12.207
1630094709.245,-159.668,-34.668,-19.043,9.277
1630094709.249,-167.969,-32.715,-55.664,12.695
1630094709.253,148.926,-43.457,-72.754,18.555
1630094709.257,228.516,-40.039,-31.738,0.488
1630094709.261,-87.891,-34.180,-20.020,-9.766
1630094709.264,-225.098,-41.992,-48.340,-4.395
1630094709.268,18.066,-44.434,-75.195,-3.418
1630094709.272,231.445,-32.227,-50.781,-8.789
1630094709.276,-15.625,-22.461,-10.254,-8.301
1630094709.280,-232.422,-31.250,-40.039,-18.066
1630094709.296,-82.520,-33.203,-78.125,-15.625
1630094709.300,207.520,-33.691,-61.523,-19.531
1630094709.304,60.547,-33.203,-15.625,-25.391
1630094709.308,-195.801,-31.738,-23.438,-5.371
1630094709.312,-126.953,-37.109,-57.617,-6.348
1630094709.316,180.176,-36.621,-64.453,-25.391
1630094709.320,153.320,-38.574,-18.066,-24.902
1630094709.323,-176.758,-32.227,-11.230,-6.348
1630094709.327,-215.820,-27.832,-47.852,-17.090
1630094709.331,82.520,-36.133,-76.172,-45.898
1630094709.335,178.711,-39.062,-32.227,-14.160
1630094709.339,-106.934,-34.180,-8.301,-10.254
1630094709.341,-245.117,-31.250,-42.480,-27.832
1630094709.345,-23.926,-36.133,-69.336,-26.855
1630094709.349,216.309,-35.645,-47.852,-48.340
1630094709.353,-10.254,-36.621,-21.973,-46.875
1630094709.357,-253.906,-42.480,-39.551,-42.969
1630094709.361,-115.234,-41.504,-60.059,-58.594
1630094709.365,200.684,-34.668,-46.387,-29.785
1630094709.368,73.730,-38.574,-4.395,-12.207
1630094709.372,-231.934,-37.598,-15.625,-37.109
1630094709.376,-149.902,-20.508,-38.574,-23.438
1630094709.380,181.641,-22.949,-51.270,-29.297
1630094709.384,166.016,-34.668,-18.066,-31.250
1630094709.386,-166.504,-41.016,-11.230,-19.531
1630094709.390,-254.883,-41.992,-57.129,-44.434
1630094709.394,44.922,-32.227,-81.055,-49.805
1630094709.398,219.238,-33.691,-38.086,-46.875
1630094709.402,-86.426,-41.504,-9.277,-24.414
1630094709.406,-258.789,-38.574,-25.879,-26.367
1630094709.410,-23.438,-32.715,-58.594,-36.621
1630094709.413,230.957,-35.645,-49.316,-31.250
1630094709.417,7.324,-24.414,-1.465,-22.949
1630094709.421,-235.352,-12.695,-3.906,-3.418
1630094709.425,-107.910,-33.691,-50.293,-4.883
1630094709.429,206.055,-49.316,-57.617,-31.250
1630094709.431,112.793,-44.922,-7.812,-41.016
1630094709.435,-203.125,-38.086,-7.812,-17.090
1630094709.439,-210.938,-37.109,-46.875,-25.879
1630094709.443,122.070,-36.621,-68.359,-28.320
1630094709.447,177.734,-40.527,-28.320,-30.273
1630094709.451,-156.250,-39.062,-9.766,-42.480
1630094709.455,-259.277,-34.668,-44.922,-39.551
1630094709.458,37.598,-38.086,-67.871,-44.434
1630094709.462,238.770,-42.480,-23.438,-21.484
1630094709.466,-59.570,-46.875,-5.371,-28.320
1630094709.470,-273.438,-48.340,-38.086,-29.297
1630094709.474,-67.383,-41.016,-66.895,-26.855
1630094709.476,238.281,-36.133,-51.758,-41.992
1630094709.480,47.363,-40.527,-13.184,-31.738
1630094709.484,-240.234,-39.062,-27.344,-23.926
1630094709.488,-132.812,-34.668,-60.547,-22.949
1630094709.492,198.730,-35.156,-69.824,-28.320
1630094709.496,118.164,-35.156,-20.508,-29.297
1630094709.500,-199.707,-45.410,-17.090,-34.668
1630094709.503,-195.312,-37.598,-41.504,-20.996
1630094709.507,137.695,-23.926,-53.711,-10.254
1630094709.511,202.148,-39.062,-34.180,-20.508
1630094709.515,-132.812,-44.922,-11.230,-10.742
1630094709.519,-243.652,-49.316,-35.645,-10.254
1630094709.521,18.555,-43.945,-67.871,-26.367
1630094709.525,241.211,-36.621,-45.898,-19.043
1630094709.529,-26.855,-33.691,-17.090,-26.367
1630094709.533,-265.625,-30.273,-27.344,-33.691
1630094709.537,-85.449,-38.086,-60.547,-31.250
1630094709.541,224.609,-38.574,-53.223,-29.297
1630094709.545,55.176,-35.645,0.000,-9.277
1630094709.548,-232.422,-30.273,-4.883,-6.836
1630094709.552,-160.645,-34.668,-56.152,-29.297
1630094709.556,144.531,-42.480,-69.824,-35.156
1630094709.560,109.375,-43.457,-16.602,-16.602
1630094709.564,-196.777,-36.133,-14.648,-19.043
1630094709.566,-227.539,-32.715,-53.223,-22.949
1630094709.570,75.195,-37.109,-70.312,-28.320
1630094709.574,194.336,-33.691,-29.785,-35.156
1630094709.578,-100.098,-20.996,-10.742,-23.438
1630094709.582,-265.625,-25.391,-35.156,-14.160
1630094709.586,-22.461,-39.062,-64.941,-9.277
1630094709.590,241.699,-34.668,-41.016,-10.742
1630094709.593,-5.371,-27.344,-0.488,-16.113
1630094709.597,-255.371,-39.062,-29.785,-38.086
1630094709.601,-109.375,-44.922,-71.289,-42.480
1630094709.605,211.914,-32.715,-65.918,-40.527
1630094709.609,82.520,-29.297,-23.438,-24.414
1630094709.611,-227.051,-38.574,-30.273,-3.418
1630094709.615,-198.730,-41.992,-62.500,-27.832
1630094709.619,141.602,-39.062,-71.777,-53.223
1630094709.623,165.527,-35.645,-25.391,-43.945
1630094709.627,-168.457,-36.133,-17.578,-37.598
1630094709.631,-241.699,-37.109,-52.246,-36.621
1630094709.635,67.383,-41.992,-75.684,-40.527
1630094709.638,208.008,-44.922,-43.945,-40.527
1630094709.642,-91.797,-42.480,-16.113,-41.504
1630094709.646,-270.508,-48.828,-37.109,-43.457
1630094709.650,-64.453,-52.734,-71.777,-39.062
1630094709.654,207.520,-46.387,-50.781,-34.668
1630094709.671,-13.672,-43.945,-3.906,-27.344
1630094709.675,-277.344,-39.062,-19.043,-24.902
1630094709.679,-135.742,-37.109,-64.941,-43.457
1630094709.683,203.613,-36.133,-71.777,-53.711
1630094709.687,92.773,-39.062,-14.160,-36.621
1630094709.691,-208.984,-35.645,-7.324,-24.902
1630094709.695,-193.359,-36.621,-50.293,-28.320
1630094709.698,122.070,-38.086,-68.848,-43.945
1630094709.702,161.133,-37.598,-28.320,-51.758
1630094709.706,-140.625,-30.273,2.441,-10.742
1630094709.710,-241.211,-32.715,-22.461,-13.184
1630094709.714,14.648,-43.457,-68.359,-43.945
1630094709.716,223.145,-37.598,-36.621,-24.902
1630094709.720,-64.453,-41.016,-8.301,-26.367
1630094709.724,-286.133,-42.969,-35.645,-44.434
1630094709.728,-100.586,-42.480,-70.801,-62.500
1630094709.732,188.965,-43.945,-55.664,-55.664
1630094709.736,7.812,-38.086,-6.836,-41.992
1630094709.740,-283.203,-39.551,-15.625,-41.504
1630094709.743,-184.570,-47.852,-62.988,-41.016
1630094709.747,164.551,-33.203,-63.477,-38.574
1630094709.751,119.629,-20.508,-4.883,-14.160
1630094709.755,-204.102,-39.062,-8.301,-20.996
1630094709.759,-236.328,-41.016,-54.199,-62.988
1630094709.761,97.168,-28.809,-72.266,-64.453
1630094709.765,179.199,-34.668,-19.531,-41.504
1630094709.769,-158.691,-40.039,-0.488,-41.992
1630094709.773,-278.809,-31.738,-29.785,-55.664
1630094709.777,-23.926,-27.344,-53.711,-57.129
1630094709.781,209.473,-20.020,-31.738,-52.734
1630094709.785,-51.270,-23.926,-10.742,-31.738
1630094709.788,-260.254,-37.109,-35.156,-41.504
1630094709.792,-63.965,-31.738,-64.941,-70.312
1630094709.796,209.473,-28.320,-41.016,-36.133
1630094709.800,45.898,-41.016,-6.348,-27.832
1630094709.804,-237.793,-35.645,-22.949,-37.109
1630094709.806,-159.180,-35.156,-69.824,-52.246
1630094709.810,183.105,-45.898,-81.055,-40.527
1630094709.814,116.211,-44.922,-24.902,-20.508
1630094709.818,-203.125,-42.969,-16.602,-48.828
1630094709.822,-222.656,-40.039,-46.875,-66.895
1630094709.826,91.309,-36.621,-72.266,-50.781
1630094709.830,190.918,-44.922,-35.156,-51.758
1630094709.833,-109.375,-49.316,-7.324,-34.180
1630094709.837,-200.684,-20.996,-13.672,10.742
1630094709.841,20.996,-26.367,-58.105,-3.906
1630094709.845,192.383,-48.828,-55.176,-57.617
1630094709.849,-41.504,-39.062,-4.883,-49.316
