timestamps,TP9,AF7,AF8,TP10
1630096161.788,-50.781,-35.645,-53.223,-317.383
1630096161.792,-78.613,-57.129,-33.203,-1000.000
1630096161.796,-61.035,-47.363,17.090,179.199
1630096161.800,-35.645,-30.273,-1.465,-918.457
1630096161.804,-58.105,-54.688,-71.777,48.828
1630096161.808,-82.031,-64.941,-67.871,-1000.000
1630096161.812,-25.879,-53.223,2.930,-208.984
1630096161.815,19.531,-24.902,11.230,-958.496
1630096161.819,-10.742,-4.883,-20.020,488.770
1630096161.823,-74.707,-35.156,-61.035,-905.273
1630096161.827,-44.434,-33.691,-6.348,-581.055
1630096161.831,8.789,2.930,33.203,844.727
1630096161.833,-31.738,-11.719,-12.695,769.531
1630096161.837,-74.707,-49.316,-69.336,-604.004
1630096161.841,-66.895,-42.969,-24.414,-854.492
1630096161.845,-30.762,-28.809,15.625,479.980
1630096161.849,-23.438,-37.598,-30.273,952.637
1630096161.853,-69.824,-59.570,-97.656,-262.695
1630096161.857,-78.125,-62.500,-66.895,-1000.000
1630096161.860,-14.648,-16.602,23.926,137.207
1630096161.864,27.832,12.695,21.973,-914.551
1630096161.868,-40.039,-41.016,-59.082,100.098
1630096161.872,-78.613,-55.176,-71.289,-1000.000
1630096161.876,-41.016,-25.879,2.930,-307.617
1630096161.879,-18.066,-26.855,0.488,-978.027
1630096161.883,-50.293,-62.500,-58.105,580.566
1630096161.887,-61.035,-68.848,-76.660,-828.125
1630096161.891,-30.273,-20.996,5.371,-645.996
1630096161.895,6.348,2.441,29.785,753.418
1630096161.899,-8.789,-14.648,-27.344,827.637
1630096161.903,-83.496,-36.621,-80.566,-493.652
1630096161.906,-36.621,-17.578,-19.531,-870.605
1630096161.910,-2.930,-20.508,15.137,437.988
1630096161.914,-46.387,-49.805,-47.363,969.238
1630096161.918,-50.293,-46.875,-81.543,-202.148
1630096161.922,-20.020,-53.711,-46.875,-1000.000
1630096161.923,19.531,-51.758,13.672,22.461
1630096161.927,-24.414,-24.414,-7.324,-934.082
1630096161.931,-51.270,-28.320,-68.848,203.125
1630096161.935,-52.734,-49.805,-71.777,-1000.000
1630096161.939,-30.762,-33.203,5.859,-377.930
1630096161.943,-5.371,-25.391,8.301,976.562
1630096161.947,-8.789,-20.508,-29.297,706.543
1630096161.950,1.465,10.742,-22.461,-666.992
1630096161.954,11.719,-8.301,21.973,-739.258
1630096161.958,-4.395,-29.297,7.324,643.066
1630096161.962,-9.766,-19.043,-40.039,852.051
1630096161.966,-47.852,-24.414,-80.566,-430.664
1630096161.968,-72.266,-47.852,-40.039,-962.891
1630096161.972,-2.930,-38.086,6.836,269.043
1630096161.976,11.719,-13.672,-20.508,-925.781
1630096161.980,-39.062,-28.809,-81.543,-15.137
1630096161.984,-65.918,-66.406,-69.824,-1000.000
1630096161.988,2.441,-56.641,31.738,-42.969
1630096161.992,35.645,2.441,43.457,-898.926
1630096161.995,-38.086,-7.812,-40.527,356.445
1630096161.999,-67.383,-47.852,-69.824,-996.582
1630096162.003,2.441,-18.066,20.996,-461.426
1630096162.007,24.902,-8.789,30.762,952.148
1630096162.011,-25.879,-36.133,-61.523,682.129
1630096162.028,-53.711,-26.855,-104.004,-697.266
1630096162.032,-32.227,-20.508,-22.949,-753.906
1630096162.036,10.254,-9.277,22.949,609.375
1630096162.040,-26.855,-9.766,-20.020,948.730
1630096162.044,-62.012,-33.203,-88.379,-315.430
1630096162.048,-48.828,-48.340,-43.945,-957.520
1630096162.052,-5.371,-34.180,32.715,278.809
1630096162.055,19.531,-24.414,-10.742,-913.086
1630096162.059,-36.621,-55.176,-83.008,62.500
1630096162.063,-31.738,-26.855,-34.668,-1000.000
1630096162.067,43.457,24.414,62.988,-101.074
1630096162.071,6.836,-4.883,11.230,-944.336
1630096162.073,-42.969,-16.602,-67.383,417.480
1630096162.077,-24.902,-9.766,-70.801,-923.828
1630096162.081,5.859,-20.020,15.625,-574.707
1630096162.085,-38.086,-29.297,8.789,817.871
1630096162.089,-70.312,-26.855,-58.594,770.996
1630096162.093,-52.246,-35.156,-78.613,-579.102
1630096162.097,-34.668,-51.758,-9.277,-797.363
1630096162.100,-31.738,-69.336,6.348,533.203
1630096162.104,-13.672,-32.715,-37.598,976.074
1630096162.108,-4.395,18.066,-49.316,-213.867
1630096162.112,-35.645,-12.695,-23.926,-1000.000
1630096162.116,2.930,-30.762,12.695,124.512
1630096162.119,9.277,-23.926,-13.184,-917.969
1630096162.123,-30.762,-20.508,-62.012,178.711
1630096162.127,-42.480,-20.508,-65.918,-1000.000
1630096162.131,-34.668,-28.320,-7.324,-333.008
1630096162.135,-7.324,-24.414,19.531,-980.957
1630096162.139,-38.086,-41.504,-19.043,602.051
1630096162.143,-53.711,-65.430,-74.707,-821.777
1630096162.146,-30.762,-52.246,-19.531,-653.320
1630096162.150,28.809,18.066,44.922,750.000
1630096162.154,78.613,70.801,31.738,895.020
1630096162.158,-30.762,-0.977,-51.758,-445.801
1630096162.162,-58.594,-35.156,-16.602,-892.090
1630096162.164,10.742,-13.184,25.879,429.199
1630096162.168,-1.953,-10.742,-13.184,-959.473
1630096162.172,-37.109,-14.648,-72.754,-129.883
1630096162.176,-30.762,-16.602,-66.406,-1000.000
1630096162.180,10.254,-8.789,21.973,66.406
1630096162.184,4.883,-20.996,8.301,-903.809
1630096162.188,-50.293,-57.617,-72.754,190.918
1630096162.191,-54.688,-58.105,-66.895,-1000.000
1630096162.195,-18.066,-1.953,40.527,-329.102
1630096162.199,-20.508,-1.465,19.531,981.445
1630096162.203,-44.922,-32.715,-63.477,548.828
1630096162.207,-64.453,-37.598,-74.219,-787.598
1630096162.208,-50.293,-41.504,10.742,-703.613
1630096162.212,-13.672,-25.879,27.832,665.039
1630096162.216,-27.344,-13.672,-40.527,896.484
1630096162.220,-58.105,-31.738,-81.055,-393.555
1630096162.224,-35.645,-45.410,-36.133,-941.895
1630096162.228,-25.391,-32.715,3.906,327.148
1630096162.232,-41.992,-39.062,-36.621,-957.520
1630096162.235,-26.367,-24.902,-68.848,-37.109
1630096162.239,3.906,23.438,-11.230,-1000.000
1630096162.243,-7.812,0.488,31.250,-66.895
1630096162.247,-11.719,-30.762,-5.859,-910.156
1630096162.251,-41.016,-58.105,-74.219,321.777
1630096162.253,-59.082,-68.359,-98.145,-1000.000
1630096162.257,-39.062,-41.504,-10.742,-484.863
1630096162.261,-0.977,-35.156,15.137,901.855
1630096162.265,-22.949,-39.551,-32.227,742.188
1630096162.269,-56.641,-38.574,-67.871,-646.973
1630096162.273,-20.508,-42.969,-16.602,-762.695
1630096162.277,-2.441,-20.996,22.949,611.328
1630096162.280,13.184,13.672,-11.230,941.895
1630096162.284,-69.824,-22.949,-87.891,-326.172
1630096162.288,-74.219,-40.039,-71.289,-1000.000
1630096162.292,0.488,-12.207,1.953,211.426
1630096162.296,-16.113,-24.902,-23.438,-953.125
1630096162.298,-41.016,-35.645,-101.562,-21.973
1630096162.302,-46.875,-31.738,-91.309,-1000.000
1630096162.306,6.348,-11.719,0.977,-136.230
1630096162.310,25.391,-6.348,-11.719,-930.176
1630096162.314,11.719,-20.020,-88.379,428.711
1630096162.318,-25.879,-36.621,-90.820,-923.340
1630096162.322,-15.137,5.371,32.715,-493.164
1630096162.325,26.855,48.340,81.055,926.758
1630096162.329,-12.207,-13.672,-12.695,717.773
1630096162.333,-68.359,-39.062,-84.961,-647.461
1630096162.337,-54.688,-35.156,-36.621,-810.547
1630096162.341,-16.602,-28.809,10.254,543.457
1630096162.344,-44.434,-27.832,-33.203,957.031
1630096162.348,-75.684,-24.414,-100.586,-276.367
1630096162.352,-26.855,-18.066,-47.363,-1000.000
1630096162.356,31.250,-40.527,36.621,163.086
1630096162.360,6.836,-38.574,-11.230,-937.988
1630096162.364,-48.340,-13.672,-83.008,88.867
1630096162.368,-42.480,1.953,-50.293,-1000.000
1630096162.371,-14.648,-20.020,18.555,-340.820
1630096162.375,-27.832,-24.902,2.441,957.031
1630096162.379,-13.184,-6.836,-62.012,509.766
1630096162.383,-34.180,-25.391,-78.613,-862.793
1630096162.387,-30.273,-37.598,5.859,-618.164
1630096162.388,-5.371,-35.645,7.324,771.484
1630096162.392,-29.785,-48.340,-46.387,816.406
1630096162.396,-25.391,-54.199,-70.801,-501.465
1630096162.400,20.996,-15.625,-20.020,-869.629
1630096162.404,6.348,2.930,18.555,422.852
1630096162.408,18.066,12.695,12.207,-936.035
1630096162.412,6.348,20.020,-48.828,-72.754
1630096162.415,-42.969,-6.836,-57.129,-1000.000
1630096162.419,-12.207,-15.625,15.137,-2.930
1630096162.423,36.133,17.090,37.109,-887.207
1630096162.427,19.043,10.742,-9.277,301.758
1630096162.431,-61.523,-43.945,-63.965,-1000.000
1630096162.448,-9.766,-13.672,0.000,-365.234
1630096162.452,21.484,-9.277,-2.930,988.770
1630096162.456,-20.508,-40.527,-67.871,595.703
1630096162.460,-49.316,-56.152,-80.078,-798.340
1630096162.464,2.441,-24.414,20.020,-673.828
1630096162.468,45.898,18.066,57.617,737.305
1630096162.472,-14.648,-9.277,-24.902,877.441
1630096162.475,-65.430,-41.992,-81.055,-435.547
1630096162.479,-46.875,-26.367,-23.926,-935.059
1630096162.483,12.207,15.625,34.668,362.793
1630096162.487,6.348,0.000,-19.531,-987.305
1630096162.491,-37.109,-33.203,-81.055,-131.836
1630096162.495,-30.273,-29.785,-42.969,-1000.000
1630096162.499,18.066,-22.461,31.250,-41.992
1630096162.503,30.273,-26.855,0.488,-920.410
1630096162.507,-16.602,-42.480,-75.195,314.453
1630096162.511,-50.781,-40.527,-79.590,-1000.000
1630096162.515,-18.066,-30.273,12.695,-433.105
1630096162.519,-4.395,-28.320,27.832,945.312
1630096162.522,-37.109,-45.410,-37.598,680.664
1630096162.526,-28.320,-11.719,-35.645,-694.824
1630096162.530,10.742,30.273,43.457,-724.121
1630096162.534,-9.277,-16.602,24.902,647.461
1630096162.538,-27.344,-36.133,-32.227,887.695
1630096162.538,-48.340,-18.555,-80.078,-380.371
1630096162.542,-45.898,-21.484,-49.805,-995.605
1630096162.546,-2.930,-30.273,11.719,207.520
1630096162.550,-15.137,-20.020,-8.789,-927.734
1630096162.554,-42.480,-31.738,-70.801,31.250
1630096162.558,-55.664,-58.594,-60.547,-1000.000
1630096162.562,-49.316,-43.457,24.414,-156.738
1630096162.565,-1.465,3.418,32.227,-940.918
1630096162.569,-4.395,18.555,-21.973,416.992
1630096162.573,-65.430,-21.484,-60.059,-938.965
1630096162.577,-45.410,-55.176,-6.348,-557.617
1630096162.581,-14.160,-50.781,7.324,861.328
1630096162.584,-33.203,-45.410,-53.223,738.281
1630096162.588,-43.945,-46.387,-79.102,-648.926
1630096162.592,-20.508,-30.273,-10.254,-786.133
1630096162.596,21.973,-6.348,40.039,565.430
1630096162.600,19.043,-20.020,-27.344,961.426
1630096162.604,-53.711,-44.434,-99.121,-283.203
1630096162.608,-104.004,-41.992,-41.016,-1000.000
1630096162.611,2.930,6.836,67.871,199.707
1630096162.615,66.406,31.738,73.730,-890.137
1630096162.619,-27.832,-31.738,-49.316,97.168
1630096162.623,-53.711,-45.898,-76.172,-1000.000
1630096162.627,-14.648,-18.066,11.719,-240.234
1630096162.628,-19.043,-17.578,3.906,-960.449
1630096162.632,-43.457,-38.574,-62.988,466.797
1630096162.636,-76.172,-52.246,-89.355,-896.973
1630096162.640,-29.785,-41.992,-15.625,-572.266
1630096162.644,16.602,-25.879,5.371,823.242
1630096162.648,-30.762,-31.738,-32.227,824.219
1630096162.652,-55.176,-28.320,-87.402,-506.348
1630096162.655,-21.973,10.742,-14.648,-844.238
1630096162.659,31.738,5.371,51.270,475.098
1630096162.663,-2.930,-25.879,4.883,962.402
1630096162.667,-33.691,-32.715,-53.711,-227.051
1630096162.671,-34.668,-44.434,-54.688,-1000.000
1630096162.673,-5.859,-21.973,4.883,41.992
1630096162.677,-8.301,3.906,4.883,-935.547
1630096162.681,-69.824,-22.461,-57.129,187.012
1630096162.685,-80.566,-40.039,-68.848,-1000.000
1630096162.689,-29.785,-35.156,7.324,-364.258
1630096162.693,-16.113,-45.410,-3.418,966.797
1630096162.697,-20.020,-28.320,-62.012,585.449
1630096162.700,-43.457,-19.531,-81.543,-774.902
1630096162.704,-54.688,-44.434,-20.508,-731.934
1630096162.708,-22.949,-46.387,10.742,631.348
1630096162.712,-6.836,4.395,-1.953,901.855
1630096162.716,2.930,23.926,-23.438,-397.461
1630096162.718,-14.160,-30.273,-21.973,-938.477
1630096162.722,-43.457,-38.574,0.977,336.914
1630096162.726,-53.223,-26.855,-29.785,943.848
1630096162.730,-59.570,-35.645,-81.055,-203.613
1630096162.734,-72.266,-45.410,-59.570,-1000.000
1630096162.738,-25.391,-23.926,22.949,-38.086
1630096162.742,-8.301,-5.371,19.531,-915.527
1630096162.745,-38.574,-55.664,-76.660,239.258
1630096162.749,-52.246,-79.590,-95.703,-1000.000
1630096162.753,-38.574,-34.668,4.395,-420.410
1630096162.757,0.000,-20.996,27.832,949.707
1630096162.761,-20.996,-38.086,-40.039,714.844
1630096162.764,-61.035,-50.293,-102.051,-662.598
1630096162.768,-27.832,-21.484,-12.207,-746.094
1630096162.772,27.832,5.859,50.293,646.484
1630096162.776,-29.297,-25.879,-32.715,900.391
1630096162.780,-89.844,-56.641,-106.445,-407.227
1630096162.784,-27.344,-37.598,-29.297,-920.410
1630096162.788,0.488,-20.020,35.645,355.957
1630096162.791,-18.555,-27.832,-35.645,-960.449
1630096162.795,-72.266,-44.434,-103.027,-65.430
1630096162.799,-46.875,-19.043,-58.105,-1000.000
1630096162.803,11.230,10.742,23.438,-89.355
1630096162.807,-18.555,-18.066,-12.695,-950.684
1630096162.824,-68.359,-32.227,-83.496,354.980
1630096162.828,-83.984,-39.551,-86.426,-988.281
1630096162.832,-26.367,-22.949,15.625,-477.051
1630096162.836,-10.254,-18.066,19.531,904.785
1630096162.840,-20.508,-45.898,-50.781,747.070
1630096162.844,-16.113,-30.273,-66.406,-589.844
1630096162.848,-19.043,-28.809,-26.855,-812.988
1630096162.851,1.953,-37.109,4.883,521.973
1630096162.855,-15.137,-2.930,-1.953,981.934
1630096162.859,-40.039,-10.742,-60.059,-239.746
1630096162.863,-43.457,-54.199,-51.758,-1000.000
1630096162.867,-28.320,-35.156,1.465,185.059
1630096162.868,-33.691,-12.695,-17.578,-944.336
1630096162.872,-50.781,-18.555,-75.684,33.203
1630096162.876,-92.773,-34.668,-81.055,-1000.000
1630096162.880,-71.777,-36.133,12.695,-238.770
1630096162.884,-34.668,-41.504,14.160,-938.477
1630096162.888,-58.594,-47.363,-66.895,502.930
1630096162.892,-72.754,-53.223,-96.191,-895.508
1630096162.895,-40.527,-51.758,-25.391,-596.680
1630096162.899,35.645,4.395,27.832,804.688
1630096162.903,72.266,52.734,27.344,846.680
1630096162.907,-39.062,-0.977,-48.340,-509.766
1630096162.911,-70.801,-37.598,-15.625,-859.375
1630096162.913,-2.930,-16.602,30.762,481.445
1630096162.917,-8.301,-20.996,-37.109,992.188
1630096162.921,-60.547,-39.551,-90.820,-212.891
1630096162.925,-65.430,-41.992,-44.922,-1000.000
1630096162.929,-30.273,-38.086,23.438,54.688
1630096162.933,-4.395,-32.715,4.883,-907.715
1630096162.937,-35.645,-41.992,-64.941,200.684
1630096162.940,-72.754,-43.945,-68.848,-1000.000
1630096162.944,18.555,20.508,53.223,-248.047
1630096162.948,33.691,18.555,31.250,-980.957
1630096162.952,-37.109,-26.855,-73.242,487.793
1630096162.956,-47.363,-57.617,-88.867,-827.637
1630096162.958,-23.438,-53.711,-15.625,-670.898
1630096162.962,3.418,-29.785,20.996,722.168
1630096162.966,-13.184,-46.387,-20.996,833.496
1630096162.970,-28.809,-24.414,-65.430,-490.234
1630096162.974,-26.855,-6.836,-9.277,-904.297
1630096162.978,-17.578,-33.691,32.227,390.137
1630096162.982,-36.621,-51.758,-29.785,-983.398
1630096162.985,-57.129,-20.508,-60.059,-126.465
1630096162.989,-20.508,16.113,-3.418,-1000.000
1630096162.993,6.348,0.977,27.832,-21.973
1630096162.997,-20.996,-16.602,-8.789,-947.266
1630096163.001,-54.688,-37.598,-79.102,232.422
1630096163.003,-78.613,-45.898,-97.656,-1000.000
1630096163.007,-26.367,-38.086,3.906,-472.168
1630096163.011,12.695,-42.480,28.809,916.504
1630096163.015,-7.812,-56.152,-35.156,695.801
1630096163.019,-52.246,-41.504,-69.336,-708.496
1630096163.023,-53.711,-34.668,-8.789,-723.145
1630096163.027,-13.184,-27.832,10.742,666.504
1630096163.030,8.789,12.207,-15.625,916.016
1630096163.034,-46.387,-20.020,-87.891,-366.211
1630096163.038,-55.664,-43.457,-79.590,-975.586
1630096163.042,18.555,-22.461,-1.953,272.949
1630096163.046,24.414,-28.809,-24.902,-936.035
1630096163.049,-64.453,-32.715,-94.727,-22.461
1630096163.053,-74.707,-41.992,-68.359,-1000.000
1630096163.057,40.527,-21.973,44.434,-53.711
1630096163.061,52.246,-9.766,21.973,-882.812
1630096163.065,-58.105,-36.621,-87.891,349.121
1630096163.069,-91.309,-52.734,-98.633,-1000.000
1630096163.073,2.441,-0.488,17.090,-442.871
1630096163.076,62.988,51.758,49.316,965.332
1630096163.080,-23.926,-5.859,-47.852,687.988
1630096163.084,-80.078,-58.594,-97.656,-667.480
1630096163.088,-27.832,-57.129,-29.297,-776.367
1630096163.092,-9.277,-25.391,5.859,573.242
1630096163.093,-21.484,-16.602,-36.133,941.406
1630096163.097,-55.176,-47.852,-84.961,-289.551
1630096163.101,-60.059,-55.176,-57.617,-1000.000
1630096163.105,-8.301,-40.039,7.812,145.020
1630096163.109,-1.953,-52.246,-10.742,-927.734
1630096163.113,-28.320,-70.312,-67.383,96.191
1630096163.117,3.418,-0.488,-6.348,-1000.000
1630096163.120,29.785,25.879,41.504,-162.109
1630096163.124,-19.531,-29.785,-15.625,-978.516
1630096163.128,-64.941,-31.250,-62.988,404.297
1630096163.132,-64.941,-20.996,-84.473,-929.199
1630096163.136,-9.766,-17.090,-24.902,-580.566
1630096163.153,2.441,-29.297,-9.277,813.965
1630096163.157,-52.734,-46.387,-41.016,770.020
1630096163.161,-81.055,-37.109,-68.848,-565.918
1630096163.165,-55.176,-30.762,-24.902,-852.051
1630096163.169,-32.227,-39.062,-4.883,455.078
1630096163.173,-12.207,-13.672,-28.320,-973.145
1630096163.177,-14.648,-29.297,-54.688,-144.043
1630096163.180,-57.129,-72.754,-42.480,-1000.000
1630096163.184,-28.320,-79.102,-5.371,54.199
1630096163.188,25.391,-11.230,14.648,-878.418
1630096163.192,4.883,48.340,-6.348,239.258
1630096163.196,-70.312,-17.578,-65.430,-1000.000
1630096163.198,-48.340,-39.062,-10.742,-368.164
1630096163.202,8.301,-19.043,3.418,969.727
1630096163.206,-28.809,-25.391,-58.105,579.590
1630096163.210,-59.570,-41.504,-94.727,-808.594
1630096163.214,0.488,-36.621,-17.090,-660.645
1630096163.218,15.625,-48.828,25.879,742.676
1630096163.222,-25.391,-55.664,-31.250,863.770
1630096163.225,-63.965,-58.105,-91.309,-461.914
1630096163.229,-71.289,-58.105,-27.832,-899.902
1630096163.233,10.254,-4.883,52.734,426.270
1630096163.237,-3.906,-4.395,-9.277,-988.770
1630096163.241,-97.168,-37.109,-87.891,-156.738
1630096163.244,-59.570,-20.508,-33.203,-1000.000
1630096163.248,13.184,-9.277,37.598,44.922
1630096163.252,-30.762,-50.293,-8.789,-930.664
1630096163.256,-60.059,-64.941,-72.754,215.332
1630096163.260,-78.125,-59.570,-75.195,-1000.000
1630096163.264,-27.832,-35.645,22.949,-377.930
1630096163.268,14.648,-10.254,19.531,987.305
1630096163.271,-45.898,-32.715,-81.543,666.992
1630096163.275,-35.645,-9.277,-66.406,-724.121
1630096163.279,19.531,27.344,49.316,-708.008
1630096163.283,7.324,-24.902,39.551,673.340
1630096163.287,-22.949,-44.922,-38.086,881.836
1630096163.288,-59.082,-37.598,-89.355,-351.562
1630096163.292,-43.945,-17.090,-43.457,-902.344
1630096163.296,-2.441,0.000,11.719,299.805
1630096163.300,-4.395,-15.137,-12.207,-955.078
1630096163.304,-76.660,-29.297,-58.594,-48.340
1630096163.308,-81.543,-42.480,-39.551,-1000.000
1630096163.312,-19.531,-37.109,7.324,-110.840
1630096163.315,-10.254,-25.879,-7.812,-973.633
1630096163.319,-13.672,-8.789,-37.598,349.121
1630096163.323,-34.668,-31.738,-56.152,-971.680
1630096163.327,-11.719,-38.574,0.000,-502.930
1630096163.331,4.883,-22.949,2.930,877.441
1630096163.333,-15.137,-28.809,-40.039,677.734
1630096163.337,-54.199,-36.621,-80.566,-660.645
1630096163.341,-50.781,-20.508,-50.781,-796.387
1630096163.345,-11.230,-0.977,-5.371,550.293
1630096163.349,-19.531,-22.949,-37.109,944.336
1630096163.353,-70.801,-42.480,-79.590,-312.988
1630096163.357,-86.914,-46.875,-35.645,-983.398
1630096163.360,-22.461,-7.812,51.270,257.812
1630096163.364,33.691,38.574,60.547,-890.137
1630096163.368,-26.855,-24.414,-44.922,56.152
1630096163.372,-41.992,-65.918,-83.008,-1000.000
1630096163.376,-4.395,-42.480,-13.672,-230.957
1630096163.378,-33.203,-24.414,-5.371,-994.629
1630096163.382,-46.387,-29.785,-54.688,430.176
1630096163.386,-57.617,-62.012,-90.820,-922.363
1630096163.390,-40.527,-53.711,-25.391,-594.238
1630096163.394,-30.273,-33.203,0.000,795.898
1630096163.398,-51.758,-43.457,-64.453,798.340
1630096163.402,-63.477,-46.387,-110.352,-550.781
1630096163.405,-30.273,-25.879,-22.949,-813.965
1630096163.409,-3.418,-15.137,21.484,527.832
1630096163.413,-22.461,-32.227,-41.992,977.051
1630096163.417,-33.203,-38.086,-70.801,-224.121
1630096163.421,-14.648,-45.898,-22.949,-1000.000
1630096163.423,9.277,-39.551,16.602,77.637
1630096163.427,-19.531,-20.996,-17.578,-952.148
1630096163.431,-31.250,-24.414,-76.660,149.414
1630096163.435,-20.020,-20.508,-62.988,-1000.000
1630096163.439,-4.395,-29.297,9.277,-300.781
1630096163.443,14.648,-45.898,-11.719,-993.652
1630096163.447,-4.883,-26.367,-45.410,608.887
1630096163.450,-31.738,-0.488,-33.203,-766.602
1630096163.454,-36.133,-14.648,-4.883,-680.176
1630096163.458,-19.531,-24.414,-3.906,718.262
1630096163.462,-33.203,-39.551,-44.922,814.941
1630096163.466,-58.105,-67.383,-100.098,-509.766
1630096163.469,-46.875,-72.754,-49.805,-892.578
1630096163.473,-38.574,-33.691,1.953,394.531
1630096163.477,-9.277,-1.465,-25.391,-991.699
1630096163.481,-31.250,-16.602,-66.406,-130.371
1630096163.485,-53.711,-39.062,-52.734,-1000.000
1630096163.489,0.000,-20.020,7.324,-3.906
1630096163.493,11.230,5.371,14.648,-899.414
1630096163.496,-31.738,-20.020,-57.129,252.930
1630096163.500,-51.270,-37.109,-88.867,-1000.000
1630096163.504,-20.020,-33.203,-7.324,-425.293
1630096163.508,-16.602,-51.758,8.301,954.590
1630096163.512,-32.715,-46.387,-62.012,625.488
1630096163.528,-43.457,-25.391,-112.305,-773.926
1630096163.532,-46.387,-5.859,-23.438,-715.332
1630096163.536,-31.738,3.906,28.320,665.039
1630096163.540,-29.297,-10.742,-35.645,899.414
1630096163.544,-55.176,-21.973,-86.426,-388.184
1630096163.548,-30.273,-6.348,-5.859,-942.383
1630096163.552,10.254,3.418,62.500,347.168
1630096163.555,-7.324,-31.250,-20.996,998.535
1630096163.559,-33.203,-67.871,-88.379,-127.930
1630096163.563,-41.504,-59.082,-55.176,-1000.000
1630096163.567,-17.090,-22.461,5.371,-127.930
1630096163.571,-8.301,-19.531,-16.113,-992.188
1630096163.573,-42.480,-29.785,-67.871,325.684
1630096163.577,-41.992,-15.137,-50.781,-981.445
1630096163.581,-14.648,-15.625,26.855,-466.309
1630096163.585,-7.812,-28.809,13.184,939.453
1630096163.589,-27.344,-17.090,-54.199,714.844
1630096163.593,-74.707,-16.113,-96.191,-662.109
1630096163.597,-70.801,-24.414,-39.062,-767.578
1630096163.600,1.465,-17.578,1.953,584.473
1630096163.604,14.160,-21.484,-41.016,945.801
1630096163.608,9.277,-6.348,-43.945,-263.672
1630096163.612,-9.766,-24.414,9.766,-993.164
1630096163.616,-5.859,-31.738,27.344,204.102
1630096163.618,-1.465,-5.859,-21.973,-945.312
1630096163.622,-46.875,-11.719,-81.543,31.250
1630096163.626,-71.777,-32.227,-63.965,-1000.000
1630096163.630,-5.859,-28.809,5.859,-211.914
1630096163.634,12.695,-6.836,2.441,-960.449
1630096163.638,-25.391,-11.230,-54.199,484.375
1630096163.642,-43.945,-32.227,-84.961,-900.391
1630096163.645,-42.969,-39.551,-27.344,-579.590
1630096163.649,17.090,-15.137,13.184,827.637
1630096163.653,40.527,19.043,7.324,812.988
1630096163.657,-35.645,-3.418,-60.547,-542.480
1630096163.661,-32.227,-11.719,-32.715,-840.820
1630096163.664,10.254,9.766,18.555,500.977
1630096163.668,-11.230,-3.418,-18.066,996.094
1630096163.672,-40.527,-24.414,-79.590,-233.887
1630096163.676,-35.156,-19.531,-61.035,-1000.000
1630096163.680,5.859,-11.719,29.785,151.855
1630096163.684,6.836,-18.555,23.438,-910.645
1630096163.688,-59.082,-41.504,-62.500,134.277
1630096163.691,-65.918,-44.434,-62.988,-1000.000
1630096163.695,29.297,3.906,43.457,-228.027
1630096163.699,25.879,-3.418,27.832,-936.523
1630096163.703,-48.828,-33.203,-61.035,518.066
1630096163.707,-54.688,-4.395,-70.801,-858.887
1630096163.708,7.812,20.996,0.000,-636.230
1630096163.712,39.551,-14.648,8.301,765.625
1630096163.716,-18.555,-45.898,-27.344,832.520
1630096163.720,-96.680,-50.293,-66.895,-490.234
1630096163.724,-78.613,-37.109,-37.598,-906.738
1630096163.728,-10.742,-19.043,8.789,394.531
1630096163.732,-53.711,-41.992,-17.578,-983.887
1630096163.735,-70.312,-37.598,-30.762,-140.625
1630096163.739,-21.484,-2.930,41.016,-1000.000
1630096163.743,-18.555,-35.645,73.242,12.207
1630096163.747,-45.410,-59.570,20.020,-925.781
1630096163.751,-66.406,-63.965,-45.898,245.605
1630096163.754,-69.336,-71.289,-51.758,-1000.000
1630096163.758,-43.945,-69.336,14.648,-420.410
1630096163.762,3.906,-57.617,13.184,961.914
1630096163.766,-40.527,-46.387,-38.086,647.461
1630096163.770,-118.652,-58.594,-69.336,-764.160
1630096163.774,-91.309,-66.406,-7.324,-696.289
1630096163.778,-42.969,-30.762,38.574,686.035
1630096163.781,-8.301,1.465,22.949,932.129
1630096163.785,-56.641,-35.645,-49.805,-358.398
1630096163.789,-66.406,-50.781,-43.457,-955.566
1630096163.793,-11.719,-30.273,26.855,324.707
1630096163.797,-33.203,-38.086,4.883,-980.469
1630096163.798,-59.570,-42.480,-76.660,-103.516
1630096163.802,-43.457,-37.109,-68.359,-1000.000
1630096163.806,-9.277,-27.832,17.578,-42.969
1630096163.810,-0.977,-22.461,0.000,-902.832
1630096163.814,-26.367,-41.016,-56.152,336.426
1630096163.818,-63.477,-53.223,-65.918,-1000.000
1630096163.822,-8.789,-2.441,32.715,-438.477
1630096163.825,67.871,49.805,94.238,973.633
1630096163.829,19.531,10.254,2.930,700.684
1630096163.833,-46.387,-30.762,-70.801,-681.152
1630096163.837,-40.527,-38.086,-0.488,-781.250
1630096163.841,-22.949,-45.410,17.578,576.660
1630096163.843,-25.391,-50.293,-35.645,912.109
1630096163.847,-40.039,-58.105,-65.430,-341.309
1630096163.851,-33.691,-44.434,-20.020,-1000.000
1630096163.855,21.484,-16.602,29.785,206.543
1630096163.859,0.000,-28.320,-3.906,-961.426
1630096163.863,-62.988,-41.504,-69.824,-11.719
1630096163.867,-42.969,-15.137,-48.340,-1000.000
1630096163.870,6.836,-19.531,9.277,-170.898
1630096163.874,38.086,-27.344,-22.461,-967.773
1630096163.878,-3.418,-20.020,-65.430,473.145
1630096163.882,-43.457,-18.555,-65.430,-871.094
1630096163.886,-13.184,-20.508,10.742,-583.496
1630096163.888,-16.113,-22.461,39.551,821.777
1630096163.892,-26.855,-37.109,-35.645,747.070
1630096163.896,-31.738,-41.992,-85.938,-619.141
1630096163.900,-59.570,-43.457,-20.020,-794.922
1630096163.904,-48.340,-31.738,25.391,543.945
1630096163.908,-9.766,1.953,1.953,-998.535
1630096163.912,-33.203,-16.113,-60.547,-194.824
1630096163.915,-63.477,-55.176,-58.105,-1000.000
1630096163.919,-17.090,-60.059,-20.996,88.379
1630096163.923,41.016,-0.488,2.441,-890.137
1630096163.927,8.301,33.691,-1.465,235.352
1630096163.931,-56.152,-35.645,-48.340,-1000.000
1630096163.948,-23.438,-39.062,-9.766,-354.980
1630096163.952,-0.977,11.230,2.930,976.562
1630096163.956,-32.227,-0.488,-44.434,535.645
1630096163.960,-64.453,-38.574,-83.984,-860.840
1630096163.964,-40.527,-33.691,-6.348,-643.066
1630096163.968,0.000,-27.832,47.363,766.602
1630096163.972,22.461,-35.645,0.977,844.727
1630096163.975,-15.625,-63.477,-67.383,-486.816
1630096163.979,-39.551,-53.711,-27.344,-891.602
1630096163.983,-6.836,-5.859,23.926,416.016
1630096163.987,-33.203,-9.766,-28.809,-987.305
1630096163.991,-67.871,-30.762,-79.590,-164.551
1630096163.993,-54.688,-37.109,-47.363,-1000.000
1630096163.997,-8.301,-26.367,21.973,84.961
1630096164.001,0.488,-25.391,-3.906,-905.762
1630096164.005,-47.363,-41.504,-75.195,211.914
1630096164.009,-49.316,-15.137,-49.316,-1000.000
1630096164.013,-12.695,-9.277,19.531,-330.566
1630096164.017,27.832,-20.996,-6.348,-985.352
1630096164.020,10.742,-19.043,-55.664,624.512
1630096164.024,-10.742,-2.441,-37.109,-766.602
1630096164.028,44.922,38.574,75.684,-665.527
1630096164.032,24.902,-21.484,50.293,713.379
1630096164.036,-28.320,-71.289,-22.461,871.094
1630096164.038,-74.219,-53.711,-63.965,-418.945
1630096164.042,-54.688,-32.227,-42.969,-948.242
1630096164.046,14.648,-24.414,7.324,313.965
1630096164.050,-13.672,-35.645,-15.137,-973.145
1630096164.054,-68.359,-41.504,-71.777,-76.660
1630096164.058,-56.641,-38.574,-65.918,-1000.000
1630096164.062,-8.789,-30.762,-22.461,-52.246
1630096164.065,5.859,-12.695,-24.902,-911.133
1630096164.069,5.371,18.066,-29.297,402.344
1630096164.073,-41.992,-15.625,-56.641,-954.102
1630096164.077,-47.363,-56.641,-16.113,-523.438
1630096164.081,-19.043,-36.133,12.695,864.258
1630096164.084,-29.297,-47.363,-38.086,702.148
1630096164.088,-42.969,-68.848,-77.148,-678.223
1630096164.092,-28.320,-33.691,-17.578,-755.859
1630096164.096,-20.508,-1.465,16.113,606.934
1630096164.100,-7.324,-8.301,-22.461,918.457
1630096164.104,-28.809,-8.789,-72.266,-333.984
1630096164.108,-51.758,-22.461,-56.641,-975.098
1630096164.111,24.414,-6.348,2.441,257.812
1630096164.115,56.152,38.574,27.832,-903.809
1630096164.119,-15.137,-8.789,-39.551,41.992
1630096164.123,-55.176,-45.898,-67.383,-1000.000
1630096164.127,-18.555,-34.668,-5.371,-169.434
1630096164.128,-3.418,-41.504,-26.855,-953.125
1630096164.132,-22.949,-39.062,-68.848,390.625
1630096164.136,-57.617,-28.809,-75.684,-937.500
1630096164.140,-36.621,-27.344,-7.812,-521.973
1630096164.144,17.090,-41.504,6.348,856.934
1630096164.148,-3.418,-40.527,-46.875,821.777
1630096164.152,-91.309,-21.973,-89.355,-519.043
1630096164.155,-90.820,-23.926,-21.484,-860.352
1630096164.159,-62.012,-36.133,13.672,473.633
1630096164.163,-58.594,-38.574,-31.250,946.289
1630096164.167,-93.262,-36.133,-71.289,-286.133
1630096164.171,-148.438,-35.645,-34.668,-1000.000
1630096164.174,-91.797,-33.691,18.066,101.562
1630096164.178,-85.938,-41.504,-15.137,976.562
1630096164.182,-118.652,-32.715,-61.523,14.648
1630096164.186,-106.934,-39.551,-57.129,-1000.000
1630096164.190,-58.105,-41.504,15.137,-306.641
1630096164.194,-35.156,-34.668,15.625,982.910
1630096164.198,-53.223,-15.625,-26.367,592.285
1630096164.201,-37.598,20.508,-33.203,-781.738
1630096164.205,-45.410,-22.461,-21.484,-666.504
1630096164.209,-60.059,-42.480,-38.086,698.242
1630096164.213,-69.336,-33.203,-78.125,746.094
1630096164.217,-93.750,-62.012,-93.750,-540.039
1630096164.218,-73.730,-66.406,-15.137,-870.605
1630096164.222,-31.738,-36.133,37.598,430.176
1630096164.226,-37.598,-21.973,-16.113,993.652
1630096164.230,-77.148,-33.691,-87.402,-187.012
1630096164.234,-80.566,-47.852,-51.758,-1000.000
1630096164.238,-18.555,-33.203,31.738,27.344
1630096164.242,25.391,9.766,34.180,-865.723
1630096164.245,-26.855,0.000,-55.664,252.441
1630096164.249,-69.336,-46.387,-93.750,-1000.000
1630096164.253,-13.184,-41.992,0.977,-381.348
1630096164.257,-19.043,-29.297,10.742,979.004
1630096164.261,-45.410,-36.621,-33.203,621.582
1630096164.263,-61.523,-52.734,-72.266,-776.367
1630096164.267,-28.809,-32.227,-19.531,-700.684
1630096164.271,15.625,-9.766,9.277,680.176
1630096164.275,-19.043,-12.695,-32.227,891.602
1630096164.279,-61.035,-39.551,-66.895,-404.297
1630096164.283,-23.438,-18.066,-13.184,-894.043
1630096164.287,14.160,-9.766,17.578,402.344
1630096164.290,-24.414,-48.340,-62.988,-990.723
1630096164.294,-69.336,-52.246,-116.211,-141.113
1630096164.298,-58.105,-19.043,-32.227,-1000.000
1630096164.302,55.176,35.156,86.426,45.410
1630096164.306,35.645,-7.324,18.555,-912.598
1630096164.323,-40.039,-38.086,-82.520,248.047
1630096164.327,-60.547,-41.504,-87.402,-1000.000
1630096164.331,-34.180,-49.805,-7.324,-474.609
1630096164.335,-13.184,-42.480,12.207,900.391
1630096164.339,-45.898,-31.250,-51.758,683.105
1630096164.343,-67.383,-32.227,-90.820,-685.059
1630096164.347,-40.527,-43.457,-23.926,-771.484
1630096164.350,1.953,-46.387,-7.812,581.543
1630096164.354,-4.395,-41.992,-53.223,921.387
1630096164.358,-18.555,-8.301,-52.734,-316.406
1630096164.362,-44.434,-19.043,-21.973,-1000.000
1630096164.366,-24.414,-45.410,0.000,187.500
1630096164.368,-8.301,-39.551,-16.602,-970.703
1630096164.372,-30.273,-35.645,-65.430,1.465
1630096164.376,-54.688,-47.363,-72.266,-1000.000
1630096164.380,-29.785,-55.664,-14.160,-195.312
1630096164.384,4.395,-43.457,-8.301,-947.266
1630096164.388,-24.902,-40.039,-62.988,456.543
1630096164.392,-51.758,-33.203,-72.266,-920.410
1630096164.395,-28.320,-43.457,-11.230,-566.895
1630096164.399,22.461,4.883,28.809,809.570
1630096164.403,45.898,57.617,24.414,835.449
1630096164.407,-25.879,-18.066,-57.129,-530.762
1630096164.411,-53.223,-45.898,-29.297,-840.820
1630096164.413,-13.672,-28.320,26.855,526.855
1630096164.417,-15.625,-41.016,-21.973,947.266
1630096164.421,-66.406,-49.316,-90.820,-292.969
1630096164.425,-68.848,-33.691,-58.105,-1000.000
1630096164.429,-38.574,-32.227,-1.953,113.281
1630096164.433,-43.457,-50.293,-23.438,-953.125
1630096164.437,-60.547,-48.828,-68.848,81.543
1630096164.440,-74.707,-43.945,-52.734,-1000.000
1630096164.444,-38.086,-16.602,27.344,-232.910
1630096164.448,-16.602,-8.789,1.465,-983.887
1630096164.452,-46.875,-39.062,-68.359,461.914
1630096164.456,-64.453,-49.316,-78.613,-887.695
1630096164.458,-41.016,-25.391,-9.766,-620.117
1630096164.462,-23.438,-36.133,7.324,769.531
1630096164.466,-15.137,-57.129,-54.688,837.891
1630096164.470,-21.973,-31.738,-98.145,-498.047
1630096164.474,-27.344,-18.555,-37.598,-861.816
1630096164.478,-18.555,-33.203,12.695,456.055
1630096164.482,-37.109,-41.992,-16.113,994.141
1630096164.485,-46.387,-12.695,-47.852,-173.828
1630096164.489,-36.133,15.625,-4.395,-1000.000
1630096164.493,-17.090,-22.949,13.672,2.930
1630096164.497,-25.879,-42.480,-34.668,-997.559
1630096164.501,-44.922,-46.875,-75.195,142.578
1630096164.503,-50.781,-50.781,-59.570,-1000.000
1630096164.507,-38.086,-35.156,16.602,-372.559
1630096164.511,-12.695,-30.762,21.484,-994.629
1630096164.515,-28.809,-66.895,-51.270,619.141
1630096164.519,-80.566,-84.473,-94.238,-805.664
1630096164.523,-59.082,-45.410,-31.738,-681.641
1630096164.527,-13.184,-16.113,-17.578,709.961
1630096164.530,-7.324,9.766,-24.902,903.809
1630096164.534,-37.598,-18.066,-53.223,-397.949
1630096164.538,-59.570,-52.734,-39.062,-948.242
1630096164.542,-21.484,-19.531,14.160,342.285
1630096164.546,-33.203,-10.254,-15.137,-976.074
1630096164.548,-74.707,-37.598,-75.684,-117.676
1630096164.552,-79.590,-51.758,-50.293,-1000.000
1630096164.556,-26.855,-36.133,24.414,-42.969
1630096164.560,8.789,-28.320,11.230,-901.367
1630096164.564,-42.969,-47.363,-47.852,308.594
1630096164.568,-80.566,-60.059,-64.941,-1000.000
1630096164.572,-19.531,-20.996,18.555,-421.875
1630096164.575,27.832,17.578,43.457,977.539
1630096164.579,-10.742,-16.602,-39.062,674.805
1630096164.583,-58.105,-51.270,-97.168,-713.379
1630096164.587,-49.316,-41.992,-39.551,-754.883
1630096164.591,-8.301,-32.227,1.465,612.305
1630096164.593,-16.602,-36.621,-42.969,872.559
1630096164.597,-67.383,-37.598,-87.402,-389.160
1630096164.601,-50.293,-38.086,-40.527,-969.238
1630096164.605,-16.113,-35.156,11.719,269.531
1630096164.609,-21.484,-55.664,-17.090,-930.664
1630096164.613,-32.227,-67.871,-69.824,28.320
1630096164.617,-12.695,-5.371,-33.203,-1000.000
1630096164.620,-8.789,7.812,14.160,-227.539
1630096164.624,-25.391,-31.738,-20.996,952.148
1630096164.628,-35.645,-32.715,-71.777,363.770
1630096164.632,-80.566,-19.531,-93.262,-952.637
1630096164.636,-46.387,-9.766,-21.484,-548.340
1630096164.639,-5.859,-5.859,-22.949,831.543
1630096164.643,0.000,-1.953,-71.289,719.727
1630096164.647,-14.160,1.465,-85.938,-606.934
1630096164.651,-10.254,-13.672,-49.316,-794.922
1630096164.655,20.508,-41.504,-22.949,524.902
1630096164.659,18.066,2.441,-23.926,-978.516
1630096164.663,-4.395,21.973,-47.363,-162.109
1630096164.666,-53.711,-34.668,-48.828,-1000.000
1630096164.670,-36.133,-29.785,-10.742,73.730
1630096164.674,8.301,12.695,-4.883,-936.035
1630096164.678,2.441,6.836,-68.359,82.520
1630096164.682,-47.852,-31.738,-84.473,-1000.000
1630096164.698,-28.320,-12.695,12.695,-230.469
1630096164.702,-2.441,-12.207,3.906,-995.117
1630096164.706,-5.371,-26.855,-66.895,471.680
1630096164.710,-13.672,-38.086,-91.309,-867.188
1630096164.714,-15.137,-46.875,-39.062,-642.578
1630096164.718,-21.973,-4.395,8.301,762.695
1630096164.722,-39.062,-8.301,-25.879,818.359
1630096164.725,-61.035,-37.109,-97.168,-535.645
1630096164.729,-42.480,-27.832,-29.297,-847.168
1630096164.733,14.648,-8.301,47.852,491.211
1630096164.737,6.836,-16.113,-5.859,-997.559
1630096164.741,-71.289,-48.340,-97.656,-208.496
1630096164.743,-51.758,-41.504,-69.336,-1000.000
1630096164.747,9.766,-20.508,16.602,90.332
1630096164.751,-19.043,-32.227,-4.883,-929.199
1630096164.755,-45.898,-42.480,-74.707,137.207
1630096164.759,-53.223,-43.945,-68.848,-1000.000
1630096164.763,-17.090,-41.504,7.812,-244.141
1630096164.767,8.301,-12.695,-1.465,-993.164
1630096164.770,-19.043,-9.766,-73.242,598.633
1630096164.774,-50.293,-14.648,-76.172,-792.480
1630096164.778,14.648,39.062,46.875,-618.652
1630096164.782,20.508,18.555,54.688,777.344
1630096164.786,-31.738,-33.203,-33.203,820.801
1630096164.788,-59.570,-26.855,-75.684,-461.914
1630096164.792,-40.039,-35.156,-32.715,-919.434
1630096164.796,-19.531,-44.922,13.672,309.570
1630096164.800,-20.020,-22.949,-19.531,953.613
1630096164.804,-2.930,-11.719,-70.312,-139.160
1630096164.808,-15.625,-23.438,-36.621,-1000.000
1630096164.812,-35.645,-30.762,18.066,-38.574
1630096164.815,-8.301,-20.020,-4.883,966.309
1630096164.819,2.930,13.672,-32.715,286.133
1630096164.823,-49.805,-0.488,-52.246,-932.129
1630096164.827,-34.668,-19.043,-26.855,-474.609
1630096164.831,23.438,-2.930,-6.348,864.258
1630096164.833,2.930,-23.926,-37.109,641.602
1630096164.837,-52.734,-50.293,-82.520,-701.660
1630096164.841,-31.250,-33.691,-4.883,-728.027
1630096164.845,4.883,-33.691,21.484,609.375
1630096164.849,-26.367,-20.996,-26.367,834.473
1630096164.853,-52.734,-23.926,-60.059,-393.066
1630096164.857,-39.062,-63.965,-58.594,-930.664
1630096164.860,17.578,-26.855,5.371,292.969
1630096164.864,67.871,31.738,33.203,-972.168
1630096164.868,-8.301,-14.648,-59.570,-44.434
1630096164.872,-85.449,-49.805,-68.848,-1000.000
1630096164.876,-29.297,-33.203,10.254,-105.957
1630096164.879,-18.555,-30.273,-2.441,948.242
1630096164.883,-49.805,-34.180,-65.918,249.023
1630096164.887,-30.273,-20.020,-95.215,-941.406
1630096164.891,19.043,-9.277,1.465,-432.617
1630096164.895,-1.953,-20.996,48.340,849.121
1630096164.899,-63.965,-44.434,-25.391,600.586
1630096164.903,-87.402,-47.363,-80.566,-652.832
1630096164.906,-51.270,-21.484,-14.648,-733.887
1630096164.910,-10.254,-25.391,6.836,532.715
1630096164.914,-37.598,-39.551,-21.484,784.668
1630096164.918,-86.426,-57.129,-41.992,-338.379
1630096164.922,-98.145,-76.172,-27.832,-981.934
1630096164.923,-37.598,-58.594,28.320,131.836
1630096164.927,-45.410,-52.734,11.230,940.430
1630096164.931,-79.102,-51.270,-50.293,36.621
1630096164.935,-90.332,-40.039,-57.129,-1000.000
1630096164.939,-53.711,-28.809,7.324,-230.469
1630096164.943,-9.277,-37.598,12.207,939.453
1630096164.947,-25.879,-31.738,-27.344,480.469
1630096164.950,-21.484,16.602,-20.020,-770.996
1630096164.954,3.906,6.836,20.508,-570.312
1630096164.958,-9.277,-26.855,6.836,663.574
1630096164.962,-16.113,-44.922,-25.391,625.488
1630096164.966,-25.879,-60.059,-53.223,-570.801
1630096164.968,-29.785,-52.246,-11.719,-838.867
1630096164.972,-24.414,-44.922,16.113,392.578
1630096164.976,-33.203,-46.387,-16.602,851.074
1630096164.980,-66.895,-38.086,-62.012,-263.184
1630096164.984,-87.402,-34.180,-30.762,-1000.000
1630096164.988,-22.461,-17.578,20.996,77.148
1630096164.992,14.160,13.672,3.906,960.449
1630096164.995,-51.758,-16.602,-48.828,125.488
1630096164.999,-85.938,-62.500,-64.453,-1000.000
1630096165.003,-21.484,-43.945,8.789,-288.086
1630096165.007,18.066,-21.973,24.902,902.344
1630096165.011,-12.207,-36.133,-40.527,437.500
1630096165.028,-48.828,-62.012,-86.914,-802.734
1630096165.032,-33.203,-70.801,-12.695,-646.973
1630096165.036,-6.836,-50.781,21.973,638.672
1630096165.040,-37.598,-41.992,-26.367,705.078
1630096165.044,-85.449,-52.246,-69.336,-514.160
1630096165.048,-53.223,-37.109,-10.742,-851.074
1630096165.052,13.184,-11.719,38.574,439.453
1630096165.055,-6.348,-26.367,-21.973,927.246
1630096165.059,-52.246,-57.617,-82.031,-235.352
1630096165.063,-31.738,-30.762,-38.086,-1000.000
1630096165.067,35.645,13.184,29.785,46.875
1630096165.071,0.488,-22.461,-17.090,890.137
1630096165.073,-64.941,-38.574,-84.961,97.168
1630096165.077,-81.055,-37.109,-91.309,-1000.000
1630096165.081,-38.574,-57.617,-9.766,-391.602
1630096165.085,2.441,-69.824,20.996,790.039
1630096165.089,-33.203,-55.664,-23.438,490.723
1630096165.093,-71.777,-40.039,-56.152,-692.871
1630096165.097,-40.039,-36.621,2.441,-704.102
1630096165.100,-46.875,-39.551,6.348,501.953
1630096165.104,-37.109,-27.832,-52.246,680.664
1630096165.108,-32.715,-18.066,-58.594,-415.527
1630096165.112,-57.129,-42.480,-21.973,-926.758
1630096165.116,-27.344,-35.156,11.230,209.473
1630096165.118,-4.883,-16.113,-25.391,845.703
1630096165.122,-20.508,-26.855,-77.148,-136.719
1630096165.126,-60.059,-74.707,-52.246,-1000.000
1630096165.130,-46.387,-56.152,7.812,-109.863
1630096165.134,-19.531,-20.508,-6.348,896.484
1630096165.138,-27.832,-41.504,-48.828,235.840
1630096165.142,-33.203,-50.293,-50.781,-924.316
1630096165.145,-33.691,-44.434,-4.395,-523.438
1630096165.149,-0.977,-7.324,2.930,714.844
1630096165.153,19.043,10.254,-8.301,600.586
1630096165.157,-50.293,-39.551,-71.289,-646.484
1630096165.161,-45.898,-50.293,-42.480,-786.133
1630096165.163,-11.719,-41.992,20.996,564.453
1630096165.167,-47.363,-58.594,-17.578,-910.156
1630096165.171,-73.730,-55.664,-87.402,-103.516
1630096165.175,-59.570,-32.715,-59.082,-1000.000
1630096165.179,-14.648,-16.602,13.672,113.770
1630096165.183,15.137,-19.531,0.488,-810.059
1630096165.187,-31.738,-47.363,-82.520,246.582
1630096165.190,-58.594,-47.363,-77.148,-1000.000
1630096165.194,17.578,-14.160,45.898,-229.004
1630096165.198,2.441,-29.785,15.137,-847.656
1630096165.202,-42.969,-62.012,-87.891,589.355
1630096165.206,-20.508,-43.457,-99.609,-949.219
1630096165.208,-9.277,-20.996,7.812,-527.832
1630096165.212,3.906,-27.832,29.297,937.988
1630096165.216,5.859,-33.203,-30.273,985.352
1630096165.220,-43.457,-47.852,-87.891,-402.832
1630096165.224,-42.969,-51.270,-31.250,-855.957
1630096165.228,-3.418,-30.273,16.602,529.785
1630096165.232,-14.160,-33.203,-33.691,-812.012
1630096165.235,-28.320,-21.484,-98.145,38.574
1630096165.239,20.020,17.578,-20.508,-1000.000
1630096165.243,11.230,-21.484,67.871,107.910
1630096165.247,-41.016,-59.570,3.418,-785.156
1630096165.251,-44.434,-50.781,-88.379,301.270
1630096165.253,-50.781,-62.988,-80.078,-1000.000
1630096165.257,-13.672,-46.875,31.738,-270.508
1630096165.261,-2.441,-25.879,12.207,-867.188
1630096165.265,-38.086,-44.922,-77.637,693.359
1630096165.269,-64.941,-51.270,-117.676,-839.355
1630096165.273,-46.875,-29.785,-9.277,-581.543
1630096165.277,-12.207,-22.949,30.762,882.812
1630096165.280,0.488,-7.812,-42.969,-941.895
1630096165.284,-14.648,-33.691,-116.699,-274.902
1630096165.288,-28.809,-69.336,-45.898,-900.879
1630096165.292,-2.441,-51.758,41.504,469.238
1630096165.296,-8.789,-26.367,-6.348,-799.805
1630096165.298,-57.617,-27.832,-99.609,72.266
1630096165.302,-55.664,-27.344,-61.523,-1000.000
1630096165.306,-12.695,-27.832,60.547,50.781
1630096165.310,-8.301,-49.316,21.484,-778.809
1630096165.314,-44.922,-50.293,-90.332,339.355
1630096165.318,-78.125,-57.617,-99.121,-1000.000
1630096165.322,-28.809,-28.320,37.109,-255.859
1630096165.325,20.020,9.277,54.199,-862.305
1630096165.329,-19.531,-34.180,-70.312,748.047
1630096165.333,-70.312,-53.223,-124.512,-796.387
1630096165.337,-29.785,-41.504,-8.301,-574.219
1630096165.341,30.273,-34.180,37.598,897.949
1630096165.344,1.953,-29.785,-38.574,-911.133
1630096165.348,-48.828,-38.086,-114.258,-214.355
1630096165.352,-53.223,-42.480,-28.320,-917.969
1630096165.356,-37.598,-49.805,49.805,454.102
1630096165.360,-51.270,-52.246,-8.789,-791.504
1630096165.364,-73.242,-42.969,-85.449,124.512
1630096165.368,-46.875,-26.367,-59.082,-1000.000
1630096165.371,-3.418,-30.273,41.992,-24.414
1630096165.375,-14.648,-54.199,11.230,-786.621
1630096165.379,-10.254,-56.641,-112.793,425.293
1630096165.383,-6.836,-42.969,-134.277,-1000.000
1630096165.387,-15.625,-31.250,23.438,-329.102
1630096165.388,-24.902,-19.043,54.688,-902.832
1630096165.392,-51.270,-32.227,-45.898,850.586
1630096165.396,-71.289,-55.176,-116.211,-666.504
1630096165.400,-35.156,-48.340,-13.184,-647.461
1630096165.404,-12.695,-47.363,45.898,811.523
1630096165.408,-19.043,-44.922,-13.672,-853.027
1630096165.412,-16.602,-44.922,-87.891,-59.570
1630096165.415,-10.254,-54.199,-49.316,-990.234
1630096165.419,5.859,-41.016,34.180,314.941
1630096165.423,5.859,-47.363,0.000,-776.855
1630096165.427,-10.742,-60.059,-95.215,195.312
1630096165.431,-30.273,-54.688,-95.215,-1000.000
1630096165.448,14.160,-37.598,37.109,-86.426
1630096165.452,37.598,-36.133,36.133,-797.363
1630096165.456,-22.461,-50.293,-68.848,509.766
1630096165.460,-47.852,-39.062,-108.887,-1000.000
1630096165.464,-13.184,-14.160,27.832,-391.602
1630096165.468,-8.301,-20.020,56.152,-952.637
1630096165.472,-22.949,-33.691,-59.082,957.520
1630096165.475,-44.434,-41.016,-112.793,-493.164
1630096165.479,-46.387,-48.340,-9.277,-759.766
1630096165.483,-0.488,-29.297,63.477,700.684
1630096165.487,-4.395,-14.648,3.906,-835.938
1630096165.491,-28.320,-19.531,-88.379,-31.738
1630096165.493,-22.461,-42.480,-41.992,-1000.000
1630096165.497,2.930,-55.664,47.852,236.816
1630096165.501,3.418,-38.574,-4.883,-775.879
1630096165.505,-4.395,-30.273,-110.352,248.535
1630096165.509,7.812,-20.508,-74.219,-1000.000
1630096165.513,2.441,-16.602,70.312,-156.250
1630096165.517,-19.531,-29.785,46.875,-818.848
1630096165.520,-13.672,-35.156,-71.289,603.027
1630096165.524,-35.156,-11.230,-106.445,-955.566
1630096165.528,-18.555,19.531,37.598,-447.266
1630096165.532,17.090,-9.277,55.176,-992.676
1630096165.536,-12.695,-37.109,-37.598,-989.258
1630096165.538,-43.457,-30.762,-106.934,-375.488
1630096165.542,-22.949,-27.344,-29.785,-834.961
1630096165.546,10.742,-30.273,47.852,586.914
1630096165.550,-13.184,-38.086,5.859,-804.688
1630096165.554,-46.875,-39.062,-82.520,63.965
1630096165.558,-47.852,-33.203,-56.641,-1000.000
1630096165.562,-14.160,-35.156,54.199,117.676
1630096165.565,-5.859,-33.691,26.367,-776.855
1630096165.569,-35.645,-33.203,-97.656,309.082
1630096165.573,-57.129,-52.734,-125.488,-1000.000
1630096165.577,-14.160,-44.922,32.227,-238.770
1630096165.581,9.766,-16.602,60.547,-857.422
1630096165.584,-22.461,-18.066,-51.270,737.793
1630096165.588,-35.645,-23.926,-110.840,-814.941
1630096165.592,-0.488,-18.066,10.742,-549.805
1630096165.596,4.883,-20.020,47.363,927.246
1630096165.600,-20.508,-28.809,-38.086,-925.781
1630096165.604,-58.105,-36.133,-107.422,-253.418
1630096165.608,-51.758,-48.828,-28.809,-891.602
1630096165.611,17.090,-25.879,81.055,503.906
1630096165.615,24.414,1.465,40.039,-793.457
1630096165.619,-10.742,-11.719,-90.820,108.398
1630096165.623,-32.715,-22.949,-73.242,-1000.000
1630096165.627,-20.996,-36.621,52.246,6.836
1630096165.628,-17.578,-54.199,17.578,-783.203
1630096165.632,-34.668,-50.781,-107.422,406.738
1630096165.636,-39.062,-25.391,-126.465,-1000.000
1630096165.640,-15.137,0.000,26.855,-303.223
1630096165.644,15.137,2.441,54.199,-893.555
1630096165.648,-19.043,-21.484,-36.133,838.379
1630096165.652,-71.777,-32.227,-116.211,-677.246
1630096165.655,-22.949,-27.832,-20.020,-645.020
1630096165.659,14.160,-37.598,46.387,820.801
1630096165.663,-17.090,-37.598,-1.465,-864.258
1630096165.667,-52.246,-33.203,-66.406,-99.609
1630096165.671,-58.594,-29.785,-28.809,-976.562
1630096165.673,8.301,-12.207,46.387,347.168
1630096165.677,9.766,-24.902,-3.906,-780.273
1630096165.681,-34.668,-59.082,-103.027,170.410
1630096165.685,-33.691,-61.035,-100.586,-1000.000
1630096165.689,-13.184,-34.668,20.508,-74.219
1630096165.693,-28.320,-22.461,29.785,-798.828
1630096165.697,-30.762,-11.230,-43.457,512.207
1630096165.700,-35.156,-13.672,-62.500,-1000.000
1630096165.704,-29.785,-35.156,32.227,-402.832
1630096165.708,-19.043,-26.855,38.086,-945.312
1630096165.712,-39.062,-16.602,-53.223,915.039
1630096165.716,-53.223,-25.879,-116.211,-562.988
1630096165.718,-43.457,-33.203,-14.648,-738.281
1630096165.722,-22.949,-20.508,58.594,718.750
1630096165.726,-17.090,-12.695,-4.395,-842.285
1630096165.730,-39.551,-30.273,-102.051,-42.480
1630096165.734,-53.223,-38.086,-51.758,-1000.000
1630096165.738,3.906,-14.648,68.359,245.605
1630096165.742,-0.977,-2.930,37.598,-776.367
1630096165.745,-51.758,-9.766,-70.801,229.004
1630096165.749,-58.594,-34.180,-70.801,-1000.000
1630096165.753,-26.855,-27.344,53.223,-154.297
1630096165.757,-10.742,-2.441,66.895,-819.824
1630096165.761,-39.062,-9.277,-49.316,600.098
1630096165.763,-36.621,-15.625,-106.445,-959.961
1630096165.767,-46.387,-19.531,43.945,-461.426
1630096165.771,-42.480,-1.953,91.797,-988.281
1630096165.775,-60.059,15.137,-16.602,970.703
1630096165.779,-120.117,18.066,-101.562,-453.613
1630096165.783,-112.793,23.926,31.250,-806.152
1630096165.787,-77.148,36.133,104.980,633.301
1630096165.790,-67.383,32.715,5.859,-827.148
1630096165.794,-135.742,13.184,-66.406,18.555
1630096165.798,-156.738,20.996,12.207,-1000.000
1630096165.802,-98.633,41.016,113.770,100.586
1630096165.806,-135.254,16.113,46.875,-781.738
1630096165.823,-187.012,15.625,-75.195,277.344
1630096165.827,-209.961,12.207,-93.750,-1000.000
1630096165.831,-186.523,-4.395,75.684,-268.555
1630096165.835,-135.254,-7.812,97.168,-852.539
1630096165.839,-139.160,-15.137,-41.016,651.367
1630096165.843,-166.016,-8.301,-116.211,-906.250
1630096165.847,-116.699,5.859,-12.207,-566.895
1630096165.850,-74.707,-6.348,46.875,900.391
1630096165.854,-90.332,-17.090,6.836,-939.941
1630096165.858,-126.953,-11.230,-61.523,-293.457
1630096165.862,-87.402,-19.531,7.324,-885.254
1630096165.866,-43.945,-25.879,53.711,514.160
1630096165.868,-69.824,-22.949,-22.949,-793.945
1630096165.872,-97.656,-49.316,-106.445,94.238
1630096165.876,-65.430,-73.730,-95.215,-1000.000
1630096165.880,2.441,-49.316,25.391,43.945
1630096165.884,-12.207,-7.324,33.691,-781.738
1630096165.888,-33.691,-9.766,-78.613,391.113
1630096165.892,-30.273,-51.270,-124.512,-1000.000
1630096165.895,-4.883,-75.684,-4.883,-294.434
1630096165.899,38.574,-40.039,44.922,-887.207
1630096165.903,63.477,-17.578,-23.438,826.660
1630096165.907,17.578,-53.223,-116.211,-700.684
1630096165.911,18.066,-52.734,-17.578,-625.488
1630096165.913,59.570,-27.832,43.945,843.262
1630096165.917,38.574,-20.508,-34.180,-870.605
1630096165.921,-25.391,-50.781,-129.395,-120.605
1630096165.925,2.441,-78.613,-62.988,-952.637
1630096165.929,59.082,-75.684,42.969,391.113
1630096165.933,23.438,-61.035,2.930,-777.832
1630096165.937,-17.578,-62.500,-113.770,166.016
1630096165.940,-12.695,-75.195,-102.051,-1000.000
1630096165.944,64.453,-36.621,60.059,-25.879
1630096165.948,79.102,-41.992,35.645,-790.039
1630096165.952,27.832,-79.590,-106.934,477.539
1630096165.956,9.766,-65.918,-137.207,-1000.000
1630096165.958,38.574,-32.227,-1.953,-358.398
1630096165.962,36.621,-23.926,16.602,-930.176
1630096165.966,14.160,-35.645,-78.125,929.688
1630096165.970,1.465,-52.734,-134.277,-547.363
1630096165.974,6.836,-61.523,-36.621,-692.383
1630096165.978,55.176,-35.645,29.297,761.230
1630096165.982,51.270,-36.621,-16.113,-832.031
1630096165.985,26.367,-53.711,-103.516,-8.789
1630096165.989,40.527,-44.434,-55.664,-1000.000
1630096165.993,34.180,-35.156,48.340,279.785
1630096165.997,31.250,-24.414,-1.953,-773.438
1630096166.001,-3.418,-25.391,-116.211,228.027
1630096166.003,-16.602,-41.016,-112.793,-1000.000
1630096166.007,40.527,-44.434,26.367,-120.605
1630096166.011,25.879,-53.223,33.203,-812.012
1630096166.015,-18.555,-69.824,-69.824,594.238
1630096166.019,-37.109,-80.566,-126.465,-964.355
1630096166.023,-14.648,-62.012,-3.906,-405.762
1630096166.027,25.879,-44.434,27.832,-958.984
1630096166.030,11.719,-60.547,-67.871,982.422
1630096166.034,-33.203,-71.777,-125.977,-434.570
1630096166.038,-23.438,-53.711,-20.020,-765.625
1630096166.042,31.738,-32.227,51.758,676.270
1630096166.046,37.109,-20.996,-23.926,-809.082
1630096166.049,-9.277,-30.273,-120.605,71.777
1630096166.053,-45.898,-40.039,-68.848,-1000.000
1630096166.057,-17.578,-34.180,63.965,156.250
1630096166.061,14.160,-45.410,41.992,-772.949
1630096166.065,-5.371,-73.242,-66.895,295.898
1630096166.069,-31.250,-75.195,-81.543,-1000.000
1630096166.073,6.348,-53.223,29.297,-203.613
1630096166.076,19.043,-51.758,20.996,-837.402
1630096166.080,-9.766,-57.129,-64.453,668.457
1630096166.084,-26.367,-72.266,-114.258,-880.859
1630096166.088,0.488,-63.477,-5.371,-537.109
1630096166.092,22.461,-43.457,45.898,918.945
1630096166.093,-5.371,-39.551,-11.719,-915.039
1630096166.097,-51.270,-35.156,-101.074,-231.934
1630096166.101,-43.457,-37.598,-41.016,-894.531
1630096166.105,9.766,-28.320,58.105,496.094
1630096166.109,24.414,-23.438,2.930,-790.039
1630096166.113,1.465,-20.508,-85.938,121.582
1630096166.117,-31.250,-34.668,-70.312,-1000.000
1630096166.120,-8.789,-43.945,34.668,27.832
1630096166.124,5.859,-56.641,23.438,-819.336
1630096166.128,-26.367,-62.012,-71.289,561.035
1630096166.132,-46.875,-35.645,-84.961,-901.367
1630096166.136,3.418,-4.395,26.855,-574.707
1630096166.138,46.387,-11.230,40.039,855.469
1630096166.142,10.742,-29.785,-49.316,711.426
1630096166.146,-36.133,-41.504,-91.309,-669.922
1630096166.150,-22.949,-42.969,-25.879,-638.672
1630096166.154,11.230,-24.414,16.113,723.145
1630096166.158,3.418,-16.602,-10.254,-954.590
1630096166.162,3.418,-21.973,-73.242,-144.043
1630096166.165,-6.348,-18.066,-43.457,-779.297
1630096166.169,0.488,-22.949,16.602,455.078
1630096166.173,28.320,-19.043,0.977,-865.234
1630096166.177,-7.324,-20.996,-45.410,250.000
1630096166.181,-57.617,-47.363,-35.156,-831.055
1630096166.198,-24.902,-42.480,25.391,87.891
1630096166.202,2.930,-29.785,6.348,-872.070
1630096166.206,-14.648,-26.855,-57.129,597.168
1630096166.210,-25.391,-34.180,-66.406,-690.430
1630096166.214,-6.836,-50.781,7.324,-255.371
1630096166.218,11.719,-41.504,17.090,-996.582
1630096166.222,-26.367,-20.020,-30.273,883.301
1630096166.225,-74.219,-28.320,-78.125,-438.965
1630096166.229,-30.762,-27.344,-20.020,-637.695
1630096166.233,31.738,6.836,27.832,732.910
1630096166.237,8.789,-19.531,-22.461,-952.148
1630096166.241,-62.500,-52.246,-92.773,-115.234
1630096166.243,-45.410,-31.250,-48.828,-865.234
1630096166.247,0.977,-17.090,47.363,350.098
1630096166.251,-20.996,-23.926,11.230,-870.605
1630096166.255,-45.410,-27.832,-67.383,250.000
1630096166.259,-58.105,-30.762,-57.617,-914.551
1630096166.263,0.488,-37.109,26.367,-33.203
1630096166.267,7.812,-41.992,7.324,-872.559
1630096166.270,-36.621,-43.457,-78.125,600.586
1630096166.274,-56.152,-30.273,-75.195,-741.211
1630096166.278,-9.766,-8.789,31.250,-415.527
1630096166.282,19.531,-4.883,32.715,915.527
1630096166.286,-39.062,-30.273,-48.340,826.660
1630096166.288,-73.730,-45.410,-105.957,-468.750
1630096166.292,-37.598,-28.809,-30.762,-771.484
1630096166.296,17.578,-26.855,20.508,558.594
1630096166.300,-19.043,-28.809,-32.715,-996.094
1630096166.304,-60.547,-36.133,-74.707,-154.297
1630096166.308,-26.367,-43.945,-44.434,-951.660
1630096166.312,-6.836,-22.461,14.648,199.219
1630096166.315,-26.855,-10.254,15.137,-909.668
1630096166.319,-9.766,-16.602,-28.320,293.945
1630096166.323,-16.602,-37.109,-44.922,-952.148
1630096166.327,-28.809,-31.738,18.555,-317.871
1630096166.331,-20.508,-13.184,16.113,977.051
1630096166.333,-9.766,-17.578,-55.176,660.156
1630096166.337,-44.434,-33.691,-76.172,-705.566
1630096166.341,-38.574,-26.855,0.488,-640.625
1630096166.345,7.324,-25.879,20.020,761.719
1630096166.349,-5.859,-45.410,-34.180,859.863
1630096166.353,-44.434,-51.758,-91.797,-421.387
1630096166.357,-64.941,-42.480,-37.598,-868.164
1630096166.360,15.137,-9.277,36.621,426.270
1630096166.364,36.621,9.766,5.859,983.398
1630096166.368,-50.781,-37.598,-65.918,-175.293
1630096166.372,-75.684,-56.152,-61.523,-1000.000
1630096166.376,-16.602,-24.902,15.625,-23.438
1630096166.378,-8.789,-15.137,-2.441,924.316
1630096166.382,-43.945,-13.184,-69.336,97.168
1630096166.386,-42.969,-12.695,-60.059,-1000.000
1630096166.390,0.977,-23.926,23.438,-498.047
1630096166.394,14.160,-32.227,22.949,726.074
1630096166.398,3.906,-42.969,-50.781,410.645
1630096166.402,-38.086,-28.320,-88.867,-801.270
1630096166.405,-21.973,9.766,-1.953,-799.805
1630096166.409,13.184,-14.648,36.621,360.840
1630096166.413,-18.555,-35.645,-29.297,504.883
1630096166.417,-28.320,-14.648,-90.332,-572.266
1630096166.421,-20.508,-20.508,-41.992,-1000.000
1630096166.423,-1.953,-42.969,15.137,-21.484
1630096166.427,-18.066,-50.781,-23.438,564.453
1630096166.431,-52.734,-26.367,-78.125,-346.191
1630096166.435,-66.895,-13.672,-47.852,-1000.000
1630096166.439,-33.203,-25.879,34.668,-387.207
1630096166.443,-8.789,-28.809,9.277,640.625
1630096166.447,-44.434,-26.367,-67.383,-12.695
1630096166.450,-32.227,-11.719,-79.590,-1000.000
1630096166.454,34.668,-22.949,14.648,-658.203
1630096166.458,20.508,-42.969,18.555,459.961
1630096166.462,-9.766,-20.020,-60.059,216.797
1630096166.466,-39.062,-6.836,-94.238,-865.723
1630096166.468,-54.688,-28.809,-23.438,-930.664
1630096166.472,-2.930,-29.297,27.832,127.441
1630096166.476,-6.348,-21.484,-16.113,380.859
1630096166.480,-59.570,-36.621,-91.309,-622.559
1630096166.484,-49.805,-36.133,-43.945,-1000.000
1630096166.488,-16.113,-23.926,40.527,-184.570
1630096166.492,2.441,-24.902,-8.301,551.758
1630096166.495,-13.672,-49.316,-90.820,-337.402
1630096166.499,-39.551,-53.223,-65.918,-1000.000
1630096166.503,-25.391,-20.020,39.062,-483.887
1630096166.507,-40.039,-10.742,24.414,518.555
1630096166.511,-53.711,-13.672,-57.617,0.488
1630096166.514,-44.434,-19.043,-84.473,-1000.000
1630096166.518,-15.137,-5.859,-7.324,-730.957
1630096166.522,-46.875,15.625,4.395,410.156
1630096166.526,-100.586,17.578,-80.566,364.258
1630096166.530,-117.676,8.789,-143.066,-761.230
1630096166.534,-81.543,11.719,-44.922,-907.715
1630096166.538,-26.367,23.438,24.414,325.195
1630096166.541,-18.555,-11.719,-47.363,763.184
1630096166.545,-54.688,-32.227,-132.812,-401.367
1630096166.549,-75.195,6.348,-81.543,-1000.000
1630096166.553,-15.625,23.926,11.719,-32.227
1630096166.557,-20.508,-7.324,-31.250,916.016
1630096166.573,-58.105,-38.086,-106.445,-19.043
1630096166.577,-69.336,-41.504,-101.562,-1000.000
1630096166.581,-38.086,-21.973,-14.648,-390.625
1630096166.585,-2.441,0.488,-17.090,952.637
1630096166.589,-20.508,12.207,-86.426,454.102
1630096166.593,-58.594,1.953,-115.723,-931.641
1630096166.597,-38.574,-2.930,-39.551,-687.988
1630096166.600,-12.207,-0.977,-8.301,698.242
1630096166.604,-31.250,-9.766,-55.176,787.109
1630096166.608,-27.832,-12.207,-103.027,-517.090
1630096166.612,-23.438,-23.926,-36.133,-925.781
1630096166.616,-3.418,-34.668,21.484,354.980
1630096166.633,0.000,-43.457,-34.180,-989.258
1630096166.637,-35.156,-47.852,-109.863,-159.180
1630096166.641,-26.367,-26.855,-68.359,-1000.000
1630096166.645,9.277,-11.719,26.367,-43.945
1630096166.649,18.555,-9.766,-9.766,-895.020
1630096166.653,-3.906,-20.508,-102.539,254.883
1630096166.657,-21.973,-30.273,-120.117,-1000.000
1630096166.660,13.184,-18.066,-27.832,-417.969
1630096166.664,63.965,8.789,3.906,992.676
1630096166.668,47.852,23.926,-39.062,683.105
1630096166.672,-33.203,-16.113,-100.586,-759.277
1630096166.676,-27.832,-30.762,-18.555,-697.266
1630096166.663,4.883,-20.508,26.855,726.562
1630096166.667,-21.484,-35.645,-47.363,945.312
1630096166.671,-60.059,-40.527,-111.816,-351.562
1630096166.675,-48.828,-40.039,-51.270,-933.594
1630096166.679,-4.395,-22.949,28.320,334.473
1630096166.683,-9.277,-17.090,-0.488,-853.027
1630096166.687,-52.246,-37.598,-88.379,92.285
1630096166.690,-77.637,-37.109,-82.520,-1000.000
1630096166.694,-1.465,-19.043,26.367,-31.250
1630096166.698,15.137,-46.875,5.859,-838.867
1630096166.702,-35.645,-50.781,-103.516,457.520
1630096166.706,-47.363,-14.648,-122.559,-979.004
1630096166.707,-26.367,-2.441,24.902,-392.090
1630096166.711,-27.344,-27.832,63.477,-978.027
1630096166.715,-43.945,-35.645,-23.926,812.012
1630096166.719,-67.871,-43.457,-90.332,-580.078
1630096166.723,-53.711,-55.176,14.160,-723.145
1630096166.727,-1.953,-44.434,77.148,681.641
1630096166.731,-10.254,-52.734,12.695,-964.844
1630096166.734,-56.641,-58.105,-63.965,-207.520
1630096166.738,-31.250,-61.523,-12.695,-1000.000
1630096166.742,-7.324,-77.637,70.801,240.723
1630096166.746,-38.086,-80.078,34.180,-841.797
1630096166.750,-54.199,-92.285,-47.363,154.297
1630096166.754,-49.805,-101.562,-28.320,-1000.000
1630096166.758,-33.203,-91.309,83.984,-150.391
1630096166.762,-1.465,-82.031,66.406,-864.746
1630096166.766,-4.883,-83.008,-18.066,555.664
1630096166.770,-67.383,-112.793,-57.129,-902.344
1630096166.774,-32.227,-112.793,45.898,-497.559
1630096166.778,29.297,-70.801,78.125,946.777
1630096166.781,0.488,-45.898,-7.812,881.348
1630096166.785,-46.875,-62.012,-71.289,-486.816
1630096166.789,-43.457,-71.777,30.762,-791.992
1630096166.793,-2.930,-55.176,100.586,587.402
1630096166.797,1.953,-62.500,5.371,-928.223
1630096166.798,-49.805,-75.195,-96.191,-144.043
1630096166.802,-67.871,-62.012,-34.180,-1000.000
1630096166.806,-8.789,-28.809,89.844,187.500
1630096166.810,10.742,-26.367,49.316,-827.148
1630096166.814,-52.246,-57.129,-71.289,200.684
1630096166.818,-61.035,-74.219,-65.430,-1000.000
1630096166.822,-19.043,-47.852,69.336,-194.824
1630096166.825,-4.883,-40.039,75.684,-857.910
1630096166.829,-26.367,-62.012,-34.668,558.594
1630096166.833,-68.359,-66.406,-93.262,-893.066
1630096166.837,-32.715,-62.500,30.762,-618.652
1630096166.841,29.297,-44.434,62.500,833.984
1630096166.843,5.859,-32.715,-38.086,869.629
1630096166.847,-44.922,-37.109,-111.328,-487.305
1630096166.851,-25.879,-43.457,-19.043,-901.855
1630096166.855,39.551,-23.926,79.590,440.430
1630096166.859,27.344,-23.926,11.230,-960.938
1630096166.863,-47.852,-59.570,-100.586,-172.852
1630096166.867,-53.711,-61.035,-63.965,-1000.000
1630096166.870,-4.883,-28.809,36.621,42.480
1630096166.874,-4.883,-32.227,9.277,-848.145
1630096166.878,-40.527,-42.480,-62.012,239.258
1630096166.882,-43.945,-31.250,-63.965,-1000.000
1630096166.886,0.000,-13.184,30.273,-361.328
1630096166.888,15.625,-7.812,20.020,-946.777
1630096166.892,14.160,-27.832,-51.270,665.039
1630096166.896,-27.832,-37.598,-93.262,-811.523
1630096166.900,-10.254,-30.273,-0.977,-662.109
1630096166.904,-12.695,-13.184,46.875,776.855
1630096166.908,-54.199,-26.855,-15.625,981.445
1630096166.912,-46.875,-52.246,-84.961,-318.359
1630096166.915,-44.922,-48.340,-18.066,-938.477
1630096166.919,-1.465,-47.852,59.082,360.840
1630096166.923,51.270,-21.484,19.043,-841.797
1630096166.927,-4.883,-12.207,-83.984,68.359
1630096166.931,-62.012,-30.273,-72.754,-1000.000
1630096166.948,6.348,-19.043,60.547,-36.621
1630096166.952,6.348,-21.484,27.344,-820.801
1630096166.956,-51.270,-40.039,-87.891,378.418
1630096166.960,-63.965,-62.988,-100.098,-1000.000
1630096166.964,-42.480,-43.457,27.344,-390.625
1630096166.968,4.395,-3.418,44.434,-965.820
1630096166.972,4.883,9.766,-50.781,800.293
1630096166.975,-30.273,-17.090,-124.023,-643.066
1630096166.979,-37.598,-25.391,-17.578,-713.867
1630096166.983,-45.410,-5.859,54.688,724.121
1630096166.987,-23.438,-14.648,-7.324,-950.195
1630096166.991,-38.086,-37.109,-88.867,-229.980
1630096166.993,-59.082,-40.039,-29.297,-955.078
1630096166.997,-17.578,-20.508,55.664,344.727
1630096167.001,-12.207,-16.113,-0.488,-828.125
1630096167.005,-14.160,-40.527,-91.797,124.512
1630096167.009,-21.973,-64.453,-71.777,-1000.000
1630096167.013,-6.836,-37.109,62.012,-100.098
1630096167.017,-19.531,-27.832,39.551,-820.801
1630096167.020,-43.457,-47.363,-81.543,472.168
1630096167.024,-77.148,-44.434,-115.234,-1000.000
1630096167.028,-22.461,-20.020,25.879,-446.777
1630096167.032,17.090,-4.395,57.129,-990.234
1630096167.036,-40.527,-14.160,-59.082,820.801
1630096167.038,-53.223,-34.668,-128.418,-551.270
1630096167.042,-23.438,-51.270,-3.418,-714.844
1630096167.046,34.180,-18.066,86.914,648.926
1630096167.050,28.320,-11.230,5.859,-900.879
1630096167.054,-52.734,-55.176,-97.656,-134.766
1630096167.058,-54.688,-69.824,-41.504,-1000.000
1630096167.062,-5.859,-32.715,40.039,220.215
1630096167.065,6.348,0.000,-19.531,-805.664
1630096167.069,-16.602,-20.020,-97.168,224.121
1630096167.073,-46.875,-38.574,-60.547,-1000.000
1630096167.077,-7.812,-18.555,74.707,-138.184
1630096167.081,-0.977,-29.297,49.805,-856.934
1630096167.083,18.066,-50.781,-57.129,698.242
1630096167.087,-10.254,-54.199,-99.609,-781.738
1630096167.091,-40.039,-34.180,17.090,-512.695
1630096167.095,-16.602,-10.254,54.688,950.195
1630096167.099,-25.879,-10.254,-30.273,974.121
1630096167.103,-60.059,-21.484,-113.281,-373.047
1630096167.107,-59.570,-35.156,-30.273,-782.227
1630096167.110,-17.090,-16.602,49.805,613.770
1630096167.114,5.371,9.277,-33.691,-854.980
1630096167.118,-47.363,-0.488,-143.555,-31.250
1630096167.122,-83.984,-4.395,-94.727,-1000.000
1630096167.126,-26.855,-0.977,36.621,166.504
1630096167.128,-1.465,-12.207,-3.418,-798.340
1630096167.132,-51.270,-27.832,-123.047,348.145
1630096167.136,-84.961,-29.297,-131.348,-1000.000
1630096167.140,-2.441,-13.184,19.531,-192.871
1630096167.144,16.602,-15.625,23.926,-871.582
1630096167.148,-60.059,-34.180,-85.449,769.531
1630096167.152,-70.801,-38.086,-134.277,-685.547
1630096167.155,-27.344,-21.484,-11.719,-533.691
1630096167.159,4.395,-20.508,48.340,911.133
1630096167.163,-14.648,-33.691,-34.668,-934.570
1630096167.167,-39.062,-46.387,-123.047,-221.191
1630096167.171,-26.367,-41.016,-36.621,-809.082
1630096167.172,17.578,-20.996,64.941,544.922
1630096167.176,6.836,-12.207,6.836,-791.992
1630096167.180,-53.223,-20.996,-97.656,191.406
1630096167.184,-40.039,-34.668,-69.336,-993.164
1630096167.188,9.766,-25.879,49.805,164.062
1630096167.192,11.719,-24.414,24.414,-832.031
1630096167.196,-9.766,-27.832,-82.031,667.480
1630096167.199,-44.434,-43.457,-108.887,-749.023
1630096167.203,8.301,-41.016,23.926,-182.129
1630096167.207,41.016,-22.949,47.852,-915.039
1630096167.211,2.441,-21.973,-46.387,-978.027
1630096167.215,-49.805,-38.574,-102.539,-275.879
1630096167.219,-23.926,-39.062,-6.348,-370.117
1630096167.223,32.715,-11.230,52.246,970.703
1630096167.227,-7.324,-26.855,-13.672,-852.539
1630096167.231,-42.480,-49.805,-102.051,149.414
1630096167.235,-17.090,-39.551,-36.621,-540.039
1630096167.239,14.160,-30.273,67.871,679.199
1630096167.243,-6.348,-22.949,3.418,-817.871
1630096167.246,-45.898,-34.668,-104.980,394.531
1630096167.250,-65.918,-42.969,-88.867,-852.539
1630096167.254,-18.555,-27.344,23.926,95.215
1630096167.258,25.391,-28.320,17.090,-840.820
1630096167.262,1.953,-47.852,-77.637,719.238
1630096167.263,-35.645,-52.246,-107.910,-680.176
1630096167.267,4.395,-18.066,5.859,-270.508
1630096167.271,55.664,-13.184,25.879,-945.801
1630096167.275,38.574,-34.180,-36.133,-976.074
1630096167.279,-45.898,-33.691,-87.402,-257.812
1630096167.283,-17.578,-12.695,-13.184,-607.422
1630096167.287,29.297,-0.977,41.992,795.410
1630096167.290,-12.695,-18.555,-28.809,-867.676
1630096167.294,-70.801,-36.621,-109.863,6.836
1630096167.298,-48.340,-37.598,-51.270,-824.707
1630096167.302,25.879,-19.531,58.105,410.645
1630096167.306,17.578,-15.625,22.949,-824.707
1630096167.323,-22.461,-16.602,-71.289,442.383
1630096167.327,-47.363,-33.691,-77.148,-864.746
1630096167.331,-16.602,-50.781,12.695,-66.895
1630096167.335,-9.277,-43.457,-0.488,-850.098
1630096167.339,-47.363,-38.086,-87.402,653.809
1630096167.343,-82.520,-47.363,-111.816,-733.887
1630096167.347,-59.082,-32.715,-5.859,-695.801
1630096167.350,-17.090,-28.320,28.320,689.941
1630096167.354,-34.668,-46.387,-48.340,579.590
1630096167.358,-62.012,-37.598,-117.676,-675.293
1630096167.362,-43.457,-30.762,-48.828,-909.180
1630096167.366,-17.578,-34.668,22.461,302.246
1630096167.368,-31.250,-40.039,-26.367,760.742
1630096167.372,-65.430,-48.340,-93.262,-360.352
1630096167.376,-55.176,-59.082,-47.852,-1000.000
1630096167.380,-22.461,-53.223,51.758,-164.062
1630096167.384,-43.457,-58.105,30.273,704.590
1630096167.388,-79.102,-71.777,-48.340,-137.207
1630096167.392,-98.145,-76.172,-51.270,-1000.000
1630096167.395,-79.590,-74.219,44.434,-592.285
1630096167.399,-52.246,-55.176,44.922,461.426
1630096167.403,-57.129,-54.688,-20.020,140.137
1630096167.407,-64.453,-82.520,-59.570,-931.641
1630096167.411,-59.570,-75.195,5.859,-833.984
1630096167.413,-54.688,-56.152,29.297,173.828
1630096167.417,-52.734,-71.777,-34.668,238.281
1630096167.421,-58.594,-97.656,-59.082,-697.266
1630096167.425,-55.664,-87.402,14.648,-1000.000
1630096167.429,-44.434,-66.406,53.711,-183.594
1630096167.433,-60.059,-50.293,2.441,280.762
1630096167.437,-63.477,-49.316,-72.266,-507.812
1630096167.440,-51.758,-55.176,-48.828,-1000.000
1630096167.444,-36.133,-45.898,38.086,-468.750
1630096167.448,-28.809,-50.293,13.672,230.957
1630096167.452,-51.758,-57.617,-57.617,-353.516
1630096167.456,-66.406,-57.129,-72.266,-1000.000
1630096167.459,-44.922,-46.387,16.113,-726.562
1630096167.463,-28.809,-39.551,24.414,102.051
1630096167.467,-32.227,-49.805,-36.133,-107.422
1630096167.471,-52.734,-53.223,-68.848,-941.895
1630096167.475,-29.297,-55.664,-2.930,-871.582
1630096167.479,22.949,-43.457,38.086,31.738
1630096167.483,-15.625,-46.387,-7.812,171.387
1630096167.486,-49.316,-56.152,-63.477,-662.109
1630096167.490,-16.602,-32.227,-22.461,-1000.000
1630096167.494,-24.902,-27.344,27.832,-314.941
1630096167.498,-37.109,-34.668,-17.090,254.883
1630096167.502,-49.805,-45.898,-85.938,-431.641
1630096167.503,-60.547,-63.965,-81.055,-1000.000
1630096167.507,-40.527,-52.734,-1.465,-540.527
1630096167.511,-44.922,-48.828,-6.348,224.609
1630096167.515,-56.152,-57.129,-62.500,-170.898
1630096167.519,-67.383,-53.711,-82.520,-997.070
1630096167.523,-34.668,-46.387,-13.672,-702.148
1630096167.527,-34.180,-42.480,-9.766,230.469
1630096167.530,-61.035,-51.270,-69.824,125.000
1630096167.534,-67.871,-62.500,-105.469,-766.113
1630096167.538,-52.246,-57.617,-42.480,-869.141
1630096167.542,-24.414,-62.012,-8.789,-8.789
1630096167.546,-55.176,-69.824,-61.523,172.363
1630096167.548,-81.543,-62.988,-102.051,-625.977
1630096167.552,-65.918,-60.059,-52.246,-958.496
1630096167.556,-29.785,-52.246,14.648,-135.254
1630096167.560,-50.293,-48.828,-17.090,378.906
1630096167.564,-72.754,-52.734,-80.566,-287.598
1630096167.568,-51.270,-36.621,-55.176,-894.043
1630096167.572,-20.996,-33.691,9.766,-250.977
1630096167.575,-27.832,-72.266,-41.992,422.852
1630096167.579,-53.711,-87.891,-109.375,32.227
1630096167.583,-72.754,-69.336,-115.234,-730.469
1630096167.587,-39.551,-56.152,-38.086,-496.094
1630096167.591,-37.109,-43.945,-16.602,329.102
1630096167.593,-55.664,-38.574,-75.684,318.848
1630096167.597,-42.480,-39.551,-104.004,-356.445
1630096167.601,-19.531,-42.480,-30.273,-347.656
1630096167.605,-26.367,-47.363,3.418,457.520
1630096167.609,-64.453,-51.270,-48.828,568.848
1630096167.613,-68.848,-61.523,-89.355,-141.602
1630096167.617,-46.387,-47.852,-42.969,-402.832
1630096167.620,-39.062,-44.434,7.812,175.293
1630096167.624,-62.988,-69.824,-38.574,462.402
1630096167.628,-60.547,-58.594,-103.027,-32.227
1630096167.632,-56.152,-50.293,-96.191,-492.188
1630096167.636,-54.688,-45.410,-31.738,-148.926
1630096167.638,-67.383,-39.551,-48.828,208.008
1630096167.642,-73.730,-43.457,-104.004,-174.805
1630096167.646,-72.266,-46.875,-105.469,-727.539
1630096167.650,-55.176,-55.664,-28.809,-576.172
1630096167.654,-42.969,-50.781,-5.859,-97.656
1630096167.658,-64.941,-37.598,-43.945,-154.297
1630096167.662,-68.359,-39.551,-85.449,-642.578
1630096167.665,-53.223,-51.758,-54.688,-708.984
1630096167.669,-33.691,-39.551,-19.043,-203.613
1630096167.673,-14.648,-23.926,-38.574,-103.516
1630096167.677,-46.387,-36.133,-79.590,-559.570
1630096167.681,-59.570,-67.871,-74.219,-717.285
1630096167.698,-41.016,-55.176,-10.254,-255.859
1630096167.702,-47.852,-39.551,-31.250,0.000
1630096167.706,-72.754,-54.688,-101.074,-422.852
1630096167.710,-104.004,-58.594,-115.723,-768.555
1630096167.714,-86.914,-62.988,-53.711,-439.453
1630096167.718,-61.523,-59.082,-38.086,-10.742
1630096167.722,-57.617,-56.641,-73.242,-239.258
1630096167.725,-53.223,-59.570,-87.891,-681.152
1630096167.729,-57.617,-51.270,-38.086,-450.684
1630096167.733,-26.855,-49.805,-16.113,-82.031
1630096167.737,-64.941,-62.500,-54.199,-194.336
1630096167.741,-94.238,-72.266,-101.562,-543.945
1630096167.743,-56.641,-67.871,-79.590,-492.188
1630096167.747,-59.082,-72.754,-38.086,-101.074
1630096167.751,-68.848,-70.801,-44.434,-40.527
1630096167.755,-75.195,-62.988,-86.426,-379.883
1630096167.759,-46.387,-58.594,-73.730,-458.984
1630096167.763,-37.598,-50.293,-8.789,-73.242
1630096167.767,-60.059,-33.691,-22.949,115.234
1630096167.770,-76.660,-45.898,-98.633,-282.715
1630096167.774,-65.430,-41.992,-91.309,-509.766
1630096167.778,-28.809,-7.324,9.277,-154.785
1630096167.782,-46.387,-36.133,-17.090,33.691
1630096167.786,-62.500,-55.664,-79.102,-180.664
1630096167.788,-54.688,-62.500,-96.191,-401.855
1630096167.792,-46.875,-69.336,-63.477,-273.438
1630096167.796,-54.688,-57.129,-43.945,33.691
1630096167.800,-66.406,-60.059,-68.848,21.484
1630096167.804,-66.895,-66.406,-105.469,-355.957
1630096167.808,-58.105,-60.547,-66.406,-326.660
1630096167.812,-62.500,-50.781,-13.672,43.945
1630096167.815,-53.223,-42.969,-47.363,39.551
1630096167.819,-40.039,-8.301,-61.035,-212.402
1630096167.823,-45.410,-5.859,-53.223,-225.098
1630096167.827,-39.062,-56.152,-41.992,-30.273
1630096167.831,-23.438,-80.078,-36.621,124.512
1630096167.833,-41.504,-61.035,-68.359,-106.934
1630096167.837,-72.266,-33.203,-91.797,-349.609
1630096167.841,-57.617,-41.504,-47.363,-156.738
1630096167.845,-58.594,-52.734,-24.414,92.285
1630096167.849,-62.988,-58.105,-49.805,-49.316
1630096167.853,-64.941,-52.734,-72.266,-324.707
1630096167.857,-75.195,-47.363,-50.781,-176.758
1630096167.860,-17.578,-32.227,-23.926,125.977
1630096167.864,26.855,2.441,-18.555,114.258
1630096167.868,-26.855,-30.762,-75.195,-275.391
1630096167.872,-66.895,-62.500,-83.496,-373.047
1630096167.876,-51.270,-46.875,-26.855,-64.453
1630096167.878,-44.922,-47.852,-47.852,75.195
1630096167.882,-96.680,-56.152,-121.094,-252.930
1630096167.886,-108.398,-44.434,-121.094,-357.422
1630096167.890,-79.590,-24.902,-57.617,-130.371
1630096167.894,-67.871,-24.414,-62.500,20.508
1630096167.898,-77.148,-38.574,-118.164,-136.230
1630096167.902,-76.660,-40.039,-129.883,-317.871
1630096167.905,-17.578,-2.930,-68.359,-79.590
1630096167.909,-26.367,-2.930,-83.984,59.570
1630096167.913,-79.102,-19.043,-137.695,-126.953
1630096167.917,-75.195,-21.484,-154.297,-334.473
1630096167.921,-57.129,-25.879,-116.211,-206.055
1630096167.924,-76.172,-16.602,-80.078,62.500
1630096167.928,-98.633,-29.785,-116.211,-34.180
1630096167.932,-60.059,-29.297,-137.695,-340.820
1630096167.936,-29.297,-8.789,-109.863,-253.906
1630096167.940,-44.922,-15.137,-91.309,-22.461
1630096167.944,-53.711,-27.832,-95.703,55.176
1630096167.948,-42.480,-19.531,-115.723,-126.953
1630096167.951,-0.977,10.254,-102.051,-173.828
1630096167.955,17.090,2.441,-55.176,19.531
1630096167.959,15.137,-17.578,-47.363,165.039
1630096167.963,-21.484,-22.949,-89.355,-19.531
1630096167.967,-59.082,-24.902,-112.305,-270.020
1630096167.968,-48.340,-19.043,-66.406,-54.199
1630096167.972,-26.855,-21.484,-48.828,192.383
1630096167.976,-25.879,-23.438,-68.848,122.559
1630096167.980,-62.500,-25.391,-97.168,-121.582
1630096167.984,-75.195,-24.414,-71.289,-55.176
1630096167.988,-42.969,-23.926,-36.133,233.887
1630096167.992,-5.859,6.348,-11.230,367.676
1630096167.995,3.418,-6.348,-46.875,63.965
1630096167.999,-6.836,-39.551,-73.242,-138.672
1630096168.003,-3.906,-17.578,-20.020,174.805
1630096168.007,-24.414,-8.789,-49.805,314.453
1630096168.011,-44.434,-12.207,-104.004,35.156
1630096168.013,-37.109,-19.043,-96.191,-114.746
1630096168.017,-18.555,-21.484,-24.414,134.766
1630096168.021,-17.090,-32.715,-8.301,379.883
1630096168.025,-27.344,-28.320,-39.062,209.473
1630096168.029,-16.602,-24.902,-55.664,-113.770
1630096168.033,-9.277,-21.484,-8.301,19.043
1630096168.037,-12.207,-9.277,5.371,398.926
1630096168.040,-22.949,-18.066,-52.734,307.129
1630096168.044,-32.227,-23.438,-79.102,-130.859
1630096168.048,-18.066,-14.648,-45.898,-118.652
1630096168.052,-16.113,-12.207,-14.648,241.699
1630096168.056,-39.551,-36.133,-41.992,312.012
1630096168.073,-44.922,-52.246,-83.496,-54.199
1630096168.077,-39.062,-60.059,-77.148,-200.684
1630096168.081,-46.387,-59.570,-25.879,117.676
1630096168.085,-36.133,-44.434,-29.785,315.430
1630096168.089,-32.715,-32.715,-67.383,68.848
1630096168.093,-20.508,-23.438,-59.570,-200.195
1630096168.097,-18.066,-19.043,-3.906,2.930
1630096168.100,-25.879,-19.043,-4.883,307.617
1630096168.104,-16.113,-5.859,-37.598,159.668
1630096168.108,2.441,-1.465,-62.500,-155.762
1630096168.112,-21.973,-24.414,-36.621,-108.398
1630096168.116,-39.551,-37.598,-3.906,170.410
1630096168.118,-38.574,-35.156,-20.020,170.898
1630096168.122,-39.551,-31.250,-51.270,-202.637
1630096168.126,-44.434,-36.133,-43.945,-244.629
1630096168.130,-50.781,-30.273,-16.602,108.887
1630096168.134,-44.434,-26.855,-35.156,230.469
1630096168.138,-43.457,-41.992,-64.453,-104.492
1630096168.142,-44.434,-42.480,-65.430,-251.953
1630096168.145,-32.715,-40.527,-26.367,37.109
1630096168.149,-51.758,-42.969,-22.949,214.844
1630096168.153,-41.992,-27.344,-45.898,-6.348
1630096168.157,-9.766,-32.227,-62.500,-315.430
1630096168.161,-32.227,-50.293,-20.996,-107.422
1630096168.163,-46.387,-49.805,-14.648,233.887
1630096168.167,-68.359,-37.109,-59.082,104.004
1630096168.171,-77.148,-41.504,-89.355,-231.934
1630096168.175,-18.555,-49.805,-35.156,-96.191
1630096168.179,14.160,-51.270,14.160,330.566
1630096168.183,-34.668,-51.270,-32.715,326.660
1630096168.187,-89.844,-42.969,-89.844,-153.809
1630096168.190,-71.289,-39.062,-73.730,-261.719
1630096168.194,-54.688,-38.574,-34.668,104.980
1630096168.198,-47.363,-30.762,-54.199,246.582
1630096168.202,-21.484,-20.508,-96.191,-11.719
1630096168.206,-33.691,-23.926,-100.098,-181.641
1630096168.208,-36.133,-21.973,-48.340,84.473
1630096168.212,-29.785,-22.949,-45.410,290.527
1630096168.216,-31.250,-35.645,-84.473,24.902
1630096168.220,-28.320,-23.926,-101.074,-204.590
1630096168.224,-32.227,-13.184,-56.641,6.836
1630096168.228,-44.922,-33.691,-40.527,272.949
1630096168.232,-41.016,-48.828,-70.801,179.199
1630096168.235,-40.039,-61.523,-117.188,-173.828
1630096168.239,-35.645,-64.453,-95.703,-115.234
1630096168.243,-23.438,-54.688,-48.340,208.496
1630096168.247,-38.086,-49.316,-48.340,186.035
1630096168.251,-19.531,-51.758,-81.543,-107.910
1630096168.253,-27.344,-75.684,-83.984,-142.090
1630096168.257,-52.734,-69.824,-31.738,98.145
1630096168.261,-46.875,-56.152,-44.434,203.125
1630096168.265,-38.574,-42.969,-91.309,-76.172
1630096168.269,-39.062,-19.531,-81.055,-224.609
1630096168.273,-45.410,-22.949,-34.668,35.645
1630096168.277,-53.711,-27.344,-36.133,220.703
1630096168.280,-59.082,-27.832,-66.406,-32.227
1630096168.284,-55.664,-37.598,-80.566,-335.449
1630096168.288,-32.227,-34.180,-28.320,-77.148
1630096168.292,-29.785,-36.133,-10.254,185.547
1630096168.296,-30.762,-39.062,-45.410,-5.859
1630096168.298,-43.457,-52.246,-83.008,-326.172
1630096168.302,-51.270,-68.848,-61.523,-180.664
1630096168.306,-49.805,-62.988,-25.879,119.629
1630096168.310,-38.574,-55.176,-46.387,72.754
1630096168.314,-37.598,-59.082,-86.426,-257.324
1630096168.318,-49.316,-62.988,-76.172,-163.086
1630096168.322,-57.617,-68.848,-34.668,182.129
1630096168.325,-75.684,-75.195,-55.176,179.688
1630096168.329,-83.008,-67.871,-93.750,-162.109
1630096168.333,-66.406,-68.359,-98.633,-318.359
1630096168.337,-45.898,-58.105,-44.922,39.551
1630096168.341,-54.688,-54.688,-38.574,266.113
1630096168.344,-73.242,-53.711,-71.777,88.867
1630096168.348,-64.941,-47.363,-95.703,-206.543
1630096168.352,-49.316,-49.805,-63.477,-73.730
1630096168.356,-21.973,-43.945,-37.109,341.797
1630096168.360,-28.809,-42.969,-64.453,364.746
1630096168.364,-59.570,-42.480,-85.449,-80.566
1630096168.368,-60.059,-46.875,-52.734,-245.117
1630096168.371,-38.574,-50.293,-7.812,214.844
1630096168.375,-42.480,-49.805,-22.949,481.445
1630096168.379,-49.316,-59.570,-75.195,16.602
1630096168.383,-31.738,-61.523,-72.754,-360.840
1630096168.387,-44.434,-46.875,-18.555,51.270
1630096168.389,-54.199,-41.016,-28.320,577.148
1630096168.393,-60.059,-54.688,-78.613,362.305
1630096168.397,-71.289,-51.270,-93.750,-263.672
1630096168.401,-45.898,-36.621,-25.391,-165.527
1630096168.405,-29.297,-41.992,-10.742,462.891
1630096168.409,-50.781,-45.898,-50.781,467.773
1630096168.413,-54.199,-51.270,-86.426,-180.664
1630096168.416,-51.758,-68.359,-70.801,-409.180
1630096168.420,-54.688,-75.684,-43.457,239.746
1630096168.424,-51.758,-62.988,-65.918,613.281
1630096168.428,-71.777,-62.988,-118.164,1.465
1630096168.432,-52.734,-60.547,-92.285,-518.066
1630096168.448,-14.648,-51.270,-14.160,80.566
1630096168.452,-41.504,-62.012,-35.156,622.559
1630096168.456,-77.148,-71.777,-88.867,120.117
1630096168.460,-101.562,-79.102,-92.773,-624.512
1630096168.464,-103.027,-69.824,-34.180,-266.602
1630096168.468,-67.383,-54.688,-23.438,550.293
1630096168.472,-63.965,-66.406,-65.918,389.160
1630096168.475,-47.852,-75.195,-83.496,-479.980
1630096168.479,-29.785,-53.711,-27.344,-461.914
1630096168.483,-29.785,-42.969,-4.395,442.383
1630096168.487,-28.320,-50.781,-46.875,583.008
1630096168.491,-62.500,-60.547,-98.633,-270.020
1630096168.493,-74.219,-62.012,-71.777,-631.836
1630096168.497,-51.270,-70.801,-41.504,150.879
1630096168.501,-12.695,-73.730,-68.359,638.184
1630096168.505,-64.941,-59.570,-102.539,-15.625
1630096168.509,-130.371,-69.336,-90.332,-759.277
1630096168.513,-109.375,-72.266,-34.180,-163.086
1630096168.517,-95.215,-59.570,-48.340,591.309
1630096168.520,-88.867,-71.777,-64.453,176.758
1630096168.524,-131.836,-96.191,-60.547,-694.336
1630096168.528,-191.406,-89.355,-30.762,-517.578
1630096168.532,-195.801,-68.848,-43.945,277.344
1630096168.536,-167.969,-89.844,-77.637,177.246
1630096168.538,-161.621,-106.445,-113.770,-588.867
1630096168.542,-187.988,-98.633,-76.172,-685.059
1630096168.546,-202.637,-93.750,-20.508,81.543
1630096168.550,-215.332,-86.426,-52.734,298.340
1630096168.554,-213.867,-92.285,-99.609,-387.207
1630096168.558,-180.176,-86.914,-69.336,-731.445
1630096168.562,-160.156,-66.895,-22.461,-18.066
1630096168.565,-164.062,-70.312,-37.598,384.766
1630096168.569,-138.184,-77.637,-77.637,-127.441
1630096168.573,-108.887,-86.914,-90.332,-656.738
1630096168.577,-115.234,-85.449,-46.875,-261.230
1630096168.581,-148.438,-87.891,-59.570,343.750
1630096168.583,-144.531,-103.027,-102.051,70.801
1630096168.587,-122.559,-107.422,-99.609,-594.238
1630096168.591,-132.812,-87.891,-50.293,-438.965
1630096168.595,-131.836,-58.105,-44.434,237.305
1630096168.599,-112.305,-56.641,-83.008,198.730
1630096168.603,-79.590,-71.777,-105.469,-357.422
1630096168.607,-64.453,-80.566,-59.082,-429.688
1630096168.610,-106.445,-83.496,-32.715,100.098
1630096168.614,-117.676,-60.059,-60.059,248.535
1630096168.618,-89.355,-52.734,-81.055,-220.215
1630096168.622,-104.492,-85.449,-72.754,-512.695
1630096168.626,-117.188,-93.750,-35.645,-159.180
1630096168.630,-103.516,-66.406,-39.062,218.750
1630096168.634,-84.961,-48.340,-70.312,-27.344
1630096168.638,-80.566,-61.523,-74.707,-406.250
1630096168.642,-103.027,-85.449,-43.945,-245.605
1630096168.646,-86.914,-83.496,-57.129,148.926
1630096168.650,-64.453,-75.684,-96.680,31.738
1630096168.654,-90.332,-81.543,-105.469,-353.027
1630096168.657,-55.176,-67.871,-47.852,-289.062
1630096168.661,-51.270,-76.172,-41.992,57.617
1630096168.665,-81.543,-88.867,-79.102,61.523
1630096168.669,-83.496,-75.195,-99.609,-217.773
1630096168.673,-100.586,-69.336,-81.543,-327.637
1630096168.673,-67.383,-63.965,-39.551,-114.258
1630096168.677,-53.223,-79.590,-45.898,45.898
1630096168.681,-38.574,-83.496,-82.031,-137.207
1630096168.685,-50.293,-69.824,-71.777,-259.277
1630096168.689,-94.727,-59.570,-32.715,-184.570
1630096168.693,-93.750,-58.105,-44.922,-19.043
1630096168.697,-74.707,-60.547,-71.289,-39.062
1630096168.700,-42.480,-36.621,-62.500,-125.488
1630096168.704,-62.988,-47.363,-41.992,-179.199
1630096168.708,-48.828,-84.473,-40.527,-93.262
1630096168.712,-44.922,-79.102,-66.406,-80.078
1630096168.716,-88.867,-62.012,-100.098,-145.020
1630096168.718,-64.941,-59.082,-58.594,-150.879
1630096168.722,-74.707,-61.523,-30.273,-104.004
1630096168.726,-69.824,-65.430,-55.176,-95.215
1630096168.730,-48.828,-67.871,-76.172,-92.773
1630096168.734,-76.172,-81.543,-64.453,-89.844
1630096168.738,-70.801,-81.055,-48.340,-175.293
1630096168.742,-56.152,-58.594,-62.500,-201.660
1630096168.745,-36.133,-49.316,-87.402,-169.434
1630096168.749,-45.410,-50.293,-77.637,-40.039
1630096168.753,-53.223,-41.016,-35.156,-216.797
1630096168.757,-42.969,-35.156,-32.227,-271.973
1630096168.761,-33.203,-52.734,-70.312,-223.145
1630096168.763,-18.066,-60.547,-79.102,-36.621
1630096168.767,-57.617,-60.547,-41.992,-104.980
1630096168.771,-88.867,-77.148,-43.945,-315.430
1630096168.775,-77.148,-79.590,-62.500,-287.598
1630096168.779,-51.758,-65.918,-64.453,-9.277
1630096168.783,-65.918,-61.035,-56.641,62.988
1630096168.787,-71.289,-76.172,-54.199,-225.586
1630096168.790,-45.410,-86.914,-62.500,-288.574
1630096168.794,-35.156,-69.824,-75.684,-112.793
1630096168.798,-56.152,-41.504,-73.730,134.277
1630096168.802,-77.637,-28.320,-67.383,-147.461
1630096168.806,-50.781,-42.969,-52.734,-351.074
1630096168.823,-8.301,-67.383,-52.246,-165.039
1630096168.827,-2.930,-83.984,-59.082,176.758
1630096168.831,-48.340,-70.801,-43.945,-42.969
1630096168.835,-64.453,-52.734,-51.270,-339.844
1630096168.839,-44.922,-50.781,-71.777,-259.766
1630096168.843,-52.734,-43.457,-67.871,194.336
1630096168.847,-82.520,-57.617,-52.734,87.891
1630096168.850,-97.168,-79.590,-49.316,-412.109
1630096168.854,-79.102,-69.336,-60.547,-378.906
1630096168.858,-71.777,-50.293,-77.148,103.516
1630096168.862,-67.383,-60.059,-70.312,244.629
1630096168.866,-72.754,-71.289,-59.570,-228.027
1630096168.868,-89.844,-67.871,-51.270,-356.934
1630096168.872,-69.824,-66.406,-50.293,-32.227
1630096168.876,-69.336,-57.617,-51.758,252.441
1630096168.880,-81.543,-50.781,-34.668,-131.348
1630096168.884,-42.969,-62.988,-46.387,-334.473
1630096168.888,-32.227,-68.359,-59.570,-124.512
1630096168.892,-52.246,-48.828,-41.992,292.480
1630096168.895,-74.707,-39.551,-20.996,91.797
1630096168.899,-74.707,-48.340,-38.574,-331.543
1630096168.903,-56.641,-54.688,-72.754,-295.410
1630096168.907,-44.922,-41.992,-75.684,183.594
1630096168.911,-43.457,-22.461,-55.176,211.426
1630096168.913,-51.270,-32.227,-37.598,-238.281
1630096168.917,-43.945,-46.875,-23.926,-272.949
1630096168.921,-39.551,-52.734,-34.668,64.453
1630096168.925,-51.758,-53.223,-27.832,258.301
1630096168.929,-59.082,-52.246,-13.184,-98.145
1630096168.933,-63.965,-45.898,-23.438,-248.047
1630096168.937,-44.434,-41.504,-39.062,-48.340
1630096168.940,-29.785,-28.809,-41.992,230.957
1630096168.944,-46.875,-25.391,-27.832,4.395
1630096168.948,-65.430,-32.715,-39.551,-258.789
1630096168.952,-41.016,-37.109,-54.199,-128.418
1630096168.956,-17.090,-36.133,-35.156,280.762
1630096168.958,-43.945,-39.551,-0.977,145.020
1630096168.962,-71.289,-43.457,-0.977,-193.848
1630096168.966,-85.938,-36.133,-20.020,-177.246
1630096168.970,-37.598,-24.902,-21.973,171.387
1630096168.974,-10.742,-21.484,-9.766,219.727
1630096168.978,-2.441,-15.625,-12.207,-72.266
1630096168.982,-15.137,-12.695,-31.250,-121.094
1630096168.985,-29.297,-32.715,-39.551,85.938
1630096168.989,-0.488,-30.273,16.113,293.457
1630096168.993,1.953,-8.789,41.016,-50.293
1630096168.997,-17.090,-8.789,-1.465,-276.367
1630096169.001,-48.828,-6.836,-31.250,-90.820
1630096169.003,-39.551,-6.836,-20.020,264.648
1630096169.007,-47.852,-30.762,-4.395,33.203
1630096169.011,-51.758,-44.922,-17.090,-234.375
1630096169.015,-63.965,-41.992,-43.457,-169.434
1630096169.019,-44.922,-26.855,-45.410,208.496
1630096169.023,-23.926,-16.602,-19.531,173.340
1630096169.027,-52.734,-23.438,-12.207,-161.133
1630096169.030,-18.066,-6.836,-21.484,-195.312
1630096169.034,14.648,-7.812,-22.461,165.039
1630096169.038,0.488,-32.715,12.695,286.621
1630096169.042,-39.062,-36.133,0.000,-109.863
1630096169.046,-30.273,-15.137,-57.129,-269.043
1630096169.048,31.738,-11.230,-42.480,73.242
1630096169.052,20.996,-21.973,5.371,432.129
1630096169.056,-51.270,-32.715,23.438,-72.266
1630096169.060,-55.664,-47.852,11.719,-406.738
1630096169.064,-20.508,-49.316,-6.836,-100.098
1630096169.068,-37.109,-48.340,-17.578,346.680
1630096169.072,-73.242,-28.809,20.508,71.289
1630096169.075,-13.672,0.000,58.105,-196.777
1630096169.079,-1.465,-21.973,4.883,-159.668
1630096169.083,-33.691,-33.691,-38.574,211.914
1630096169.087,-31.250,-46.387,-20.996,191.406
1630096169.091,-55.664,-62.988,-11.719,-257.324
1630096169.094,-79.102,-48.340,-36.133,-348.145
1630096169.098,-44.922,-28.320,-44.434,129.883
1630096169.102,5.371,-13.672,-16.113,422.852
1630096169.106,-10.742,-24.902,-20.508,-133.301
1630096169.110,-48.828,-51.758,-33.691,-394.043
1630096169.114,-40.039,-52.246,-29.297,7.812
1630096169.118,-18.555,-32.227,-12.207,406.250
1630096169.121,-37.109,-32.227,-7.324,-96.191
1630096169.125,-37.598,-39.551,-37.109,-455.566
1630096169.129,-12.207,-38.086,-52.246,-124.512
1630096169.133,-30.273,-37.598,-41.992,414.062
1630096169.137,-49.805,-42.480,-21.973,73.730
1630096169.138,-24.414,-39.062,-23.438,-379.883
1630096169.142,-15.137,-36.621,-28.809,-242.188
1630096169.146,12.695,-44.922,-27.344,314.453
1630096169.150,3.418,-44.922,-28.809,251.465
1630096169.154,-21.973,-29.297,-28.320,-293.457
1630096169.158,-0.977,-16.113,-42.969,-318.848
1630096169.162,25.879,-0.488,-26.367,215.820
1630096169.165,-17.578,-13.184,-10.254,396.973
1630096169.169,-83.008,-45.898,-16.113,-283.203
1630096169.173,-58.105,-52.246,-13.672,-465.332
1630096169.177,-2.930,-38.086,-9.277,-6.348
1630096169.181,-3.906,-36.621,-5.859,447.754
1630096169.198,-27.344,-49.316,-20.020,-69.336
1630096169.202,-33.203,-38.086,-34.668,-443.848
1630096169.206,-10.254,-33.691,-37.598,-153.809
1630096169.210,-10.742,-49.805,-33.691,421.387
1630096169.214,-48.340,-48.828,-24.414,156.250
1630096169.218,-49.805,-44.922,-20.020,-353.027
1630096169.222,-30.273,-54.688,-38.086,-275.879
1630096169.225,3.418,-51.270,-49.316,252.441
1630096169.229,-23.438,-40.039,-47.852,280.762
1630096169.233,-46.875,-45.410,-34.668,-276.367
1630096169.237,-34.180,-46.875,-28.320,-348.145
1630096169.241,6.348,-51.270,-27.344,179.199
1630096169.243,15.625,-54.688,-21.973,488.281
1630096169.247,-66.406,-49.805,-30.273,-173.340
1630096169.251,-88.379,-42.480,-37.598,-481.445
1630096169.255,-27.832,-24.902,-51.758,-27.832
1630096169.259,-11.230,-18.066,-61.523,516.113
1630096169.263,-28.320,-20.508,-49.316,79.102
1630096169.267,-27.344,-26.855,-34.180,-321.289
1630096169.270,-34.668,-39.062,-20.996,-114.258
1630096169.274,-43.945,-50.293,-29.785,400.879
1630096169.278,-43.945,-52.734,-33.203,173.340
1630096169.282,-51.758,-49.316,-29.785,-382.324
1630096169.286,-40.039,-49.805,-37.598,-347.656
1630096169.288,-13.672,-56.152,-40.527,269.043
1630096169.292,-38.086,-50.781,-24.902,386.230
1630096169.296,-41.504,-38.574,-12.207,-226.562
1630096169.300,-36.621,-29.785,-27.832,-397.949
1630096169.304,-31.738,-27.344,-47.363,67.871
1630096169.308,-0.977,-26.367,-35.156,492.188
1630096169.312,-23.438,-28.320,-23.926,-62.500
1630096169.315,-23.926,-36.133,-39.062,-410.156
1630096169.319,-36.133,-31.250,-49.805,-63.477
1630096169.323,-52.246,-30.273,-35.156,447.266
1630096169.327,-45.898,-37.109,-18.066,61.035
1630096169.331,-28.320,-35.645,-36.621,-392.090
1630096169.334,5.859,-36.133,-51.270,-241.699
1630096169.338,12.695,-30.762,-44.434,411.133
1630096169.342,-28.809,-27.832,-26.367,316.406
1630096169.346,-39.062,-30.762,-24.414,-299.805
1630096169.350,-13.672,-40.527,-32.715,-280.273
1630096169.354,10.742,-40.527,-35.156,278.809
1630096169.358,3.418,-22.949,-37.598,460.449
1630096169.361,-32.227,-37.109,-42.969,-193.359
1630096169.365,-13.184,-42.480,-53.711,-452.148
1630096169.369,23.926,-20.020,-41.504,70.312
1630096169.373,23.926,-3.418,-22.461,593.750
1630096169.377,-7.324,-10.254,-24.902,3.906
1630096169.378,8.789,-23.926,-31.250,-435.547
1630096169.382,45.410,-10.742,-29.785,-43.945
1630096169.386,26.367,3.418,-32.715,570.312
1630096169.390,8.789,5.859,-23.926,166.992
1630096169.394,2.930,-6.836,-10.254,-342.285
1630096169.398,16.602,-12.695,-20.508,-157.227
1630096169.402,40.039,5.371,-20.020,420.410
1630096169.405,13.672,7.812,-5.859,306.641
1630096169.409,-1.953,-10.254,-9.277,-326.172
1630096169.413,0.000,-36.133,-23.926,-403.809
1630096169.417,19.043,-25.391,-27.832,209.473
1630096169.421,14.160,-8.301,-10.742,514.648
1630096169.423,-30.273,-18.066,-2.441,-193.848
1630096169.427,-33.203,-22.461,-13.672,-479.492
1630096169.431,-6.836,-19.531,-29.297,3.418
1630096169.435,24.414,-18.555,-18.066,536.621
1630096169.439,-17.090,-21.484,1.465,20.996
1630096169.443,-41.992,-25.391,-4.883,-383.789
1630096169.447,11.719,-19.531,-10.254,-47.363
1630096169.450,36.621,-3.418,-13.184,561.523
1630096169.454,-14.160,-15.625,-24.902,156.250
1630096169.458,-24.902,-27.832,-28.320,-513.184
1630096169.462,-14.160,-16.113,-29.785,-339.355
1630096169.466,2.441,-8.789,-29.785,378.906
1630096169.468,-17.578,-18.555,-16.113,390.137
1630096169.472,-47.852,-43.945,-3.418,-336.426
1630096169.476,-26.855,-38.574,-11.719,-482.910
1630096169.480,-14.160,-14.648,-18.066,136.719
1630096169.484,-33.691,-19.531,-17.578,510.742
1630096169.488,-47.363,-33.691,-21.484,-165.527
1630096169.492,-30.762,-34.668,-25.391,-473.633
1630096169.495,-1.465,-25.879,-44.434,-3.418
1630096169.499,6.348,-31.250,-52.246,565.430
1630096169.503,-52.246,-32.227,-30.762,4.883
1630096169.507,-49.316,-21.973,-23.926,-505.859
1630096169.511,-22.949,-25.391,-31.738,-228.027
1630096169.513,-32.715,-35.645,-38.574,407.227
1630096169.517,-41.992,-36.621,-23.926,195.801
1630096169.521,-56.152,-33.203,-13.672,-427.734
1630096169.525,-59.082,-27.832,-28.809,-399.414
1630096169.529,-32.227,-29.297,-39.062,272.461
1630096169.533,-53.711,-37.109,-29.785,427.246
1630096169.537,-80.566,-36.621,-21.484,-236.328
1630096169.540,-55.664,-40.039,-42.480,-477.539
1630096169.544,-34.668,-58.594,-57.617,46.875
1630096169.548,-14.160,-59.570,-22.949,502.441
1630096169.552,9.766,-29.785,-10.254,-138.672
1630096169.556,-33.203,-24.902,-40.039,-516.113
1630096169.573,-65.430,-24.414,-49.316,-71.777
1630096169.577,-30.273,-26.855,-51.270,566.895
1630096169.581,-37.109,-29.785,-49.805,70.312
1630096169.585,-54.199,-30.273,-61.035,-523.926
1630096169.589,-18.555,-30.273,-75.684,-308.105
1630096169.593,3.418,-8.301,-67.871,496.094
1630096169.597,-8.789,-5.371,-60.059,355.957
1630096169.600,-4.395,-20.020,-55.664,-452.637
1630096169.604,4.395,-17.090,-58.105,-475.098
1630096169.608,20.020,-12.207,-65.430,223.145
1630096169.612,-8.789,-27.832,-50.781,454.102
1630096169.616,-15.137,-33.203,-42.480,-277.832
1630096169.618,0.488,-24.902,-62.012,-512.695
1630096169.622,21.973,-22.461,-65.918,57.617
1630096169.626,31.738,-16.113,-55.176,576.660
1630096169.630,-11.719,-22.949,-51.270,-22.461
1630096169.634,-21.973,-37.598,-45.898,-493.652
1630096169.638,7.324,-45.410,-33.691,-124.023
1630096169.642,1.953,-37.598,-22.949,583.984
1630096169.645,-43.457,-26.855,-20.508,133.789
1630096169.649,-36.621,-30.273,-28.809,-527.832
1630096169.653,-38.574,-33.691,-52.734,-365.723
1630096169.657,-1.465,-24.414,-61.523,381.836
1630096169.661,11.719,-14.648,-34.180,371.582
1630096169.663,-20.020,-9.277,-16.602,-331.055
1630096169.667,-39.062,-20.996,-35.156,-468.262
1630096169.671,-6.836,-23.926,-29.785,161.133
1630096169.675,10.254,-22.461,-18.555,531.738
1630096169.679,-24.414,-26.367,-20.020,-189.453
1630096169.683,-22.461,-19.531,-12.695,-491.699
1630096169.687,30.273,-14.160,-17.090,52.246
1630096169.690,-4.395,-12.695,-21.484,585.938
1630096169.694,-49.805,-31.250,-24.414,-68.359
1630096169.698,-9.277,-36.133,-24.902,-584.961
1630096169.702,19.531,-10.742,-17.090,-170.898
1630096169.706,15.625,-5.859,-23.438,530.762
1630096169.708,-22.949,-16.113,-22.949,148.926
1630096169.712,-25.391,-15.137,-23.926,-492.676
1630096169.716,13.672,-13.184,-35.156,-358.887
1630096169.720,34.180,-20.996,-34.668,408.203
1630096169.724,-6.348,-34.668,-25.391,381.348
1630096169.728,-19.043,-29.297,-20.996,-341.309
1630096169.732,-11.230,-6.836,-34.668,-415.527
1630096169.735,-8.789,-9.766,-37.109,173.828
1630096169.739,-7.324,-35.645,-23.438,513.184
1630096169.743,7.324,-36.621,-3.418,-197.754
1630096169.747,0.000,-27.832,-11.230,-514.648
1630096169.751,-15.137,-32.227,-43.945,-19.531
1630096169.757,11.719,-24.414,-35.645,557.617
1630096169.761,-37.598,-14.160,-14.648,-24.902
1630096169.765,-37.598,-2.441,-20.508,-522.949
1630096169.769,20.996,5.371,-27.832,-196.777
1630096169.773,13.672,-6.348,-28.320,445.801
1630096169.777,-30.273,-19.531,-21.973,177.246
1630096169.781,-39.551,-29.785,-20.508,-473.633
1630096169.784,-4.883,-27.832,-19.043,-394.531
1630096169.788,0.488,-27.344,-25.879,319.824
1630096169.792,-39.551,-34.180,-30.273,399.902
1630096169.796,-35.156,-25.879,-27.344,-318.359
1630096169.800,-25.879,-23.926,-34.668,-510.254
1630096169.799,-2.930,-14.648,-39.062,83.496
1630096169.803,0.000,-9.766,-18.066,524.902
1630096169.807,-37.109,-33.691,-4.395,-131.836
1630096169.811,-24.902,-36.133,-24.902,-495.605
1630096169.815,-17.090,-29.297,-46.387,-83.008
1630096169.819,11.230,-17.578,-40.527,576.172
1630096169.823,0.488,-27.344,-21.973,110.840
1630096169.826,-54.199,-53.711,-27.344,-507.324
1630096169.830,-13.672,-23.438,-26.367,-281.250
1630096169.834,19.531,-3.906,-11.719,515.625
1630096169.838,-14.648,-10.254,2.930,350.586
1630096169.842,-34.668,4.395,4.395,-428.711
1630096169.843,-29.785,-4.883,-18.555,-427.734
1630096169.847,9.766,-6.836,-40.039,324.707
1630096169.851,47.363,5.371,-41.016,566.895
1630096169.855,-15.137,-21.973,4.395,-222.168
1630096169.859,-61.035,-36.133,25.391,-521.973
1630096169.863,-38.574,-9.766,4.883,28.320
1630096169.867,-20.508,-1.953,4.395,561.523
1630096169.870,-69.336,-21.484,17.090,-102.051
1630096169.874,-89.844,-28.320,7.324,-633.789
1630096169.878,-58.105,-12.695,-27.344,-228.516
1630096169.882,-79.102,-37.109,-4.395,481.934
1630096169.886,-162.598,-65.430,31.738,16.113
1630096169.888,-184.082,-34.180,27.344,-642.090
1630096169.892,-141.113,-16.113,12.695,-415.527
1630096169.896,-112.305,-27.832,0.000,393.555
1630096169.900,-125.000,-35.156,-1.465,290.039
1630096169.904,-159.180,-46.875,-9.277,-529.785
1630096169.908,-149.902,-49.316,-20.508,-543.457
1630096169.912,-93.262,-38.574,-27.344,226.074
1630096169.915,-74.707,-54.688,-27.832,525.879
1630096169.919,-110.352,-77.148,-35.156,-288.086
1630096169.923,-114.746,-64.453,-57.129,-629.883
1630096169.927,-80.566,-54.199,-56.641,-43.457
1630096169.931,-53.711,-42.969,-36.621,577.148
1630096169.948,-93.750,-38.086,-33.691,-53.711
1630096169.952,-64.941,-36.133,-29.297,-584.473
1630096169.956,-37.109,-21.484,-23.438,-195.801
1630096169.960,-63.965,-27.344,-22.461,578.125
1630096169.964,-78.125,-48.340,-21.484,175.293
1630096169.968,-70.801,-62.988,-41.992,-536.133
1630096169.972,-47.363,-58.594,-54.688,-375.000
1630096169.975,-37.598,-34.180,-37.598,393.555
1630096169.979,-47.852,-21.484,-23.438,397.461
1630096169.983,-82.520,-52.246,-35.156,-469.727
1630096169.987,-107.422,-59.570,-45.898,-613.770
1630096169.991,-66.406,-40.527,-47.852,168.945
1630096169.993,-52.246,-66.895,-71.777,535.645
1630096169.997,-50.293,-82.031,-58.594,-276.855
1630096170.001,-21.973,-62.988,-35.645,-594.727
1630096170.005,-55.664,-56.152,-43.945,-17.090
1630096170.009,-59.570,-49.805,-36.133,624.023
1630096170.013,-47.852,-47.852,-33.691,19.531
1630096170.017,-76.660,-62.012,-46.875,-580.566
1630096170.020,-61.035,-63.965,-44.434,-253.418
1630096170.024,-29.785,-49.805,-41.992,561.035
1630096170.028,-44.922,-49.805,-48.340,211.426
1630096170.032,-47.852,-33.203,-29.785,-599.121
1630096170.036,-24.902,-31.738,-29.297,-453.125
1630096170.039,-6.836,-40.039,-45.898,400.391
1630096170.043,-12.695,-31.250,-33.691,516.602
1630096170.047,-49.805,-27.832,-20.508,-383.301
1630096170.051,-70.801,-17.090,-14.160,-630.371
1630096170.055,-46.875,-15.625,-2.441,125.977
1630096170.059,-12.695,-27.344,-20.508,630.371
1630096170.063,-52.734,-46.387,-14.648,-218.750
1630096170.066,-55.176,-59.082,-12.695,-702.637
1630096170.070,-19.043,-43.457,-63.477,-180.176
1630096170.074,-10.254,-22.461,-57.617,545.410
1630096170.078,-38.574,-18.066,-15.137,43.457
1630096170.082,-20.020,-6.836,-1.953,-616.211
1630096170.083,23.926,-2.930,-4.395,-318.848
1630096170.087,25.391,-10.742,-15.137,537.598
1630096170.091,-31.250,-12.207,-19.531,326.660
1630096170.095,-61.523,-10.742,-26.367,-592.773
1630096170.099,-23.926,-2.930,-18.066,-635.254
1630096170.103,17.578,-6.836,-1.465,328.613
1630096170.107,-0.977,-15.625,-8.789,566.895
1630096170.110,-48.340,-20.996,-23.926,-447.266
1630096170.114,-84.961,-30.762,-38.086,-856.934
1630096170.118,-51.758,-29.297,-41.016,-106.445
1630096170.122,8.789,-14.648,-22.949,565.430
1630096170.126,-43.457,-12.207,-28.320,-291.504
1630096170.128,-58.594,-16.602,-33.691,-816.895
1630096170.132,-13.184,-18.555,-9.766,-232.422
1630096170.136,10.254,-15.625,-4.395,635.254
1630096170.140,-40.039,-19.531,-19.043,7.812
1630096170.144,-58.594,-27.832,-19.043,-873.535
1630096170.148,-5.371,-28.320,-6.348,-515.625
1630096170.152,23.438,-39.062,-13.184,538.574
1630096170.155,-13.184,10.254,-37.598,350.586
1630096170.159,-45.898,33.203,-38.574,-635.254
1630096170.163,-49.805,-20.996,-31.250,-708.008
1630096170.167,-19.531,-23.438,-31.738,222.168
1630096170.171,-11.230,-13.184,-15.625,573.242
1630096170.173,-42.480,-15.137,-2.441,-425.293
1630096170.177,-31.250,-19.531,-23.926,-768.066
1630096170.181,6.836,-15.137,-45.410,26.855
1630096170.185,33.691,-9.277,-19.531,758.301
1630096170.189,-14.648,-14.160,2.930,-97.168
1630096170.193,-46.875,-27.832,11.230,-720.215
1630096170.197,-12.207,26.855,8.789,-160.156
1630096170.200,14.648,97.168,-14.648,719.727
1630096170.204,-30.273,16.602,-11.719,224.121
1630096170.208,-31.250,-36.133,13.184,-638.184
1630096170.212,15.625,-4.395,10.742,-415.527
1630096170.216,46.387,3.906,-2.930,564.941
1630096170.218,12.207,-0.977,-5.859,524.414
1630096170.222,-17.090,-14.160,-5.859,-431.641
1630096170.226,10.742,-1.465,-15.625,-551.758
1630096170.230,29.297,-10.742,-18.555,309.082
1630096170.234,9.766,-47.852,-20.996,765.137
1630096170.238,-37.598,-58.105,-15.625,-165.039
1630096170.242,-58.594,-11.719,-33.691,-611.816
1630096170.245,-33.691,3.418,-43.945,45.898
1630096170.249,-2.441,-16.602,-23.926,830.078
1630096170.253,-22.949,-24.902,-15.625,117.188
1630096170.257,-61.035,-41.992,-19.043,-615.234
1630096170.261,-37.109,-27.832,-10.254,-165.527
1630096170.264,12.207,-22.949,-4.395,834.961
1630096170.268,-31.250,-3.906,-22.461,494.629
1630096170.272,-63.477,9.277,-31.250,-448.730
1630096170.276,-34.668,-50.293,-13.672,-363.281
1630096170.280,0.488,-67.871,-10.742,568.359
1630096170.284,-22.461,0.977,-27.832,719.727
1630096170.288,-53.223,21.973,-29.785,-199.219
1630096170.291,-16.602,-30.273,-12.695,-470.215
1630096170.295,1.953,-46.875,7.324,312.988
1630096170.299,-20.508,3.418,-3.418,855.469
1630096170.303,-62.012,29.785,-20.996,-25.879
1630096170.307,-34.180,-29.785,-25.879,-564.453
1630096170.324,10.254,-25.391,-31.738,60.547
1630096170.328,0.488,-20.996,-19.043,893.066
1630096170.332,-42.480,-40.039,-15.625,249.023
1630096170.336,-43.457,-54.688,-13.184,-506.348
1630096170.340,1.953,-41.992,1.465,-188.965
1630096170.344,2.441,23.438,-13.672,770.020
1630096170.348,-28.320,21.973,-29.297,562.012
1630096170.351,-17.578,-43.457,-10.742,-412.598
1630096170.355,-30.762,-43.457,-14.160,-462.402
1630096170.359,-25.879,-20.020,-23.438,425.781
1630096170.363,-19.043,-37.109,-13.672,668.945
1630096170.367,-65.918,-50.293,-11.230,-253.418
1630096170.368,-62.988,-39.551,-17.090,-519.531
1630096170.372,0.488,-21.973,-1.953,223.145
1630096170.376,8.789,-34.180,5.859,777.344
1630096170.380,-33.203,-61.523,-4.395,-23.926
1630096170.384,-42.480,-55.176,-13.672,-580.566
1630096170.388,-22.949,-29.297,-19.043,-87.402
1630096170.392,11.719,-13.672,-11.230,785.156
1630096170.395,-14.160,-29.785,3.418,253.418
1630096170.399,-24.902,-17.090,-3.906,-586.914
1630096170.403,-11.230,36.621,-29.785,-395.020
1630096170.407,-4.883,5.371,-20.020,549.805
1630096170.411,-34.180,-26.855,-3.906,473.633
1630096170.413,-45.898,-21.973,-9.277,-454.590
1630096170.417,-25.879,-20.996,-7.812,-524.414
1630096170.421,-5.859,-20.508,-11.719,320.801
1630096170.425,-19.043,-39.551,-5.371,624.023
1630096170.429,-35.156,-34.668,24.902,-239.746
1630096170.433,-20.020,-12.207,33.203,-563.965
1630096170.437,11.230,-14.648,15.625,121.094
1630096170.440,31.250,-18.555,6.836,773.438
1630096170.444,-15.137,-7.812,17.090,-39.062
1630096170.448,-27.344,-34.668,8.301,-692.383
1630096170.452,-0.488,-57.129,-19.043,-196.777
1630096170.456,-2.930,-43.457,-34.668,638.184
1630096170.458,-51.758,-35.156,-27.832,161.621
1630096170.462,-72.266,-47.363,-28.809,-577.637
1630096170.466,-46.875,-49.316,-30.273,-395.996
1630096170.470,-17.578,-47.852,-27.344,456.543
1630096170.474,-29.297,-65.430,-29.297,426.270
1630096170.478,-60.547,-56.152,-28.320,-470.703
1630096170.482,-42.969,-21.973,-37.598,-590.820
1630096170.485,-0.977,-11.719,-44.922,205.078
1630096170.489,-38.574,-22.461,-40.527,573.730
1630096170.493,-69.824,-32.715,-15.137,-294.434
1630096170.497,-9.766,-32.227,-2.930,-633.301
1630096170.501,-7.324,-42.480,-28.320,-32.715
1630096170.504,-40.527,-51.270,-43.945,614.258
1630096170.508,-56.152,-44.922,-31.250,-34.180
1630096170.512,-52.734,-47.852,-38.574,-662.109
1630096170.516,-18.555,-39.551,-50.781,-315.430
1630096170.520,12.207,-36.621,-32.227,531.738
1630096170.524,-27.344,-47.363,-0.488,264.648
1630096170.528,-75.195,-51.758,-10.742,-537.109
1630096170.531,-71.289,-50.293,-55.664,-533.691
1630096170.535,-31.250,-40.527,-52.246,323.730
1630096170.539,-43.457,-36.621,-28.320,443.359
1630096170.543,-87.891,-34.180,-35.156,-433.594
1630096170.547,-78.125,-37.109,-47.363,-627.441
1630096170.548,0.000,-32.715,-44.922,120.605
1630096170.552,11.719,-20.508,-28.809,645.508
1630096170.556,-64.453,-27.832,-0.488,-162.109
1630096170.560,-62.988,-35.156,8.789,-647.461
1630096170.564,-1.953,-32.715,-9.277,-61.035
1630096170.568,-13.672,-37.598,-17.090,693.848
1630096170.572,-64.941,-46.875,-14.648,66.895
1630096170.575,-50.293,-30.762,-22.949,-620.117
1630096170.579,-14.648,-29.297,-26.855,-315.430
1630096170.583,3.418,-47.852,-25.879,561.035
1630096170.587,-21.973,-51.758,-29.297,314.453
1630096170.591,-36.133,-56.641,-34.180,-531.738
1630096170.594,-32.715,-48.340,-31.250,-499.023
1630096170.598,4.883,-30.273,-17.578,392.090
1630096170.602,4.883,-42.480,-26.367,629.395
1630096170.606,-47.363,-55.176,-35.156,-324.707
1630096170.610,-30.762,-53.711,-29.785,-608.887
1630096170.614,3.418,-41.016,-35.645,161.133
1630096170.618,-13.184,-32.715,-41.992,706.055
1630096170.621,-48.828,-31.250,-17.578,-138.184
1630096170.625,-41.504,-21.973,-8.301,-617.188
1630096170.629,-26.367,-32.715,-24.902,-105.957
1630096170.633,-21.484,-31.738,-33.691,726.074
1630096170.637,-62.988,-36.621,-49.316,183.594
1630096170.638,-63.965,-36.621,-45.898,-652.344
1630096170.642,-16.113,-31.250,-27.344,-398.438
1630096170.646,-6.836,-33.203,-24.902,589.355
1630096170.650,-42.480,-28.320,-24.414,461.914
1630096170.654,-35.156,-32.227,-30.273,-479.004
1630096170.658,9.277,-39.062,-40.039,-458.008
1630096170.662,27.832,-32.227,-21.973,437.012
1630096170.665,-5.859,-28.809,-33.691,634.277
1630096170.669,-50.293,-32.227,-37.598,-368.652
1630096170.673,-30.762,-21.484,-13.672,-674.805
1630096170.677,1.465,-18.066,-1.953,126.465
1630096170.681,13.184,-34.668,-7.324,794.434
1630096170.698,-26.367,-34.668,-13.672,-50.293
1630096170.702,-45.898,-23.926,-2.930,-673.340
1630096170.706,-6.836,-32.227,-1.465,-182.129
1630096170.710,11.719,-29.297,-8.789,715.820
1630096170.714,-31.250,-24.414,-20.996,253.418
1630096170.718,-59.570,-14.160,-34.668,-570.312
1630096170.722,-37.598,-20.996,-35.645,-387.207
1630096170.725,22.461,-40.039,-21.484,533.691
1630096170.729,38.086,-41.504,-23.438,513.672
1630096170.733,-46.387,-39.062,-26.367,-517.578
1630096170.737,-78.125,-30.273,-40.039,-714.355
1630096170.741,-25.879,-40.039,-55.664,169.434
1630096170.744,-27.832,-28.809,-47.363,607.910
1630096170.748,-85.938,-5.371,-36.621,-297.363
1630096170.752,-110.840,-1.465,-44.434,-730.957
1630096170.756,-68.848,1.953,-57.129,-143.555
1630096170.760,-40.039,14.160,-35.645,639.160
1630096170.764,-71.289,2.930,-37.598,-71.289
1630096170.768,-112.305,-27.832,-61.035,-769.043
1630096170.771,-96.191,-25.879,-71.777,-356.934
1630096170.775,-64.941,-12.695,-76.172,505.371
1630096170.779,-94.727,-4.883,-76.660,169.922
1630096170.783,-75.195,-2.441,-79.590,-653.809
1630096170.787,-34.668,2.930,-74.219,-532.227
1630096170.788,-20.020,8.301,-69.824,394.531
1630096170.792,-29.297,-3.418,-61.035,471.680
1630096170.796,-32.715,-10.742,-40.527,-452.148
1630096170.800,-34.668,-13.184,-38.086,-625.000
1630096170.804,-22.949,-27.344,-40.527,184.082
1630096170.808,8.301,-5.371,-42.969,706.055
1630096170.812,-28.320,7.324,-48.340,-196.289
1630096170.815,-69.336,-9.766,-44.434,-708.496
1630096170.819,-17.578,0.000,-34.668,-51.758
1630096170.823,5.859,-16.602,-48.828,718.262
1630096170.827,-34.668,-22.949,-48.340,19.043
1630096170.831,-37.598,-4.883,-20.508,-596.680
1630096170.833,12.207,-31.250,-21.484,-280.762
1630096170.837,27.832,-44.922,-32.227,611.328
1630096170.841,-41.992,-31.250,-56.641,331.543
1630096170.845,-83.496,-26.855,-55.664,-636.230
1630096170.849,-34.668,-27.832,-43.457,-573.242
1630096170.853,-20.996,-34.180,-43.945,365.234
1630096170.857,-54.199,-36.621,-40.039,586.914
1630096170.860,-44.434,-36.133,-42.480,-352.539
1630096170.864,-54.688,-29.785,-54.688,-645.508
1630096170.868,-32.715,-16.602,-49.316,47.363
1630096170.872,-6.348,-23.926,-36.133,628.418
1630096170.876,-45.410,-34.668,-43.945,-199.707
1630096170.877,-32.227,-17.090,-45.898,-658.691
1630096170.881,-5.371,-8.789,-32.715,-49.805
1630096170.885,-11.230,-28.809,-30.762,718.262
1630096170.889,-45.410,-39.551,-28.320,108.398
1630096170.893,-66.406,-41.504,-30.762,-646.484
1630096170.897,-45.898,-41.992,-51.270,-385.254
1630096170.901,-45.410,-38.086,-56.152,512.695
1630096170.904,-89.355,-49.316,-59.570,360.352
1630096170.908,-71.289,-56.152,-42.480,-528.809
1630096170.912,-20.020,-57.617,-23.438,-555.664
1630096170.916,-7.812,-45.410,-17.090,375.977
1630096170.920,-35.156,-37.109,-28.809,636.719
1630096170.923,-66.895,-37.109,-40.039,-389.648
1630096170.927,-42.480,-27.344,-27.832,-689.941
1630096170.931,-8.301,-24.902,-28.320,83.984
1630096170.935,-18.066,-24.414,-41.992,749.512
1630096170.939,-58.105,-30.762,-43.457,-104.980
1630096170.943,-63.477,-38.574,-45.898,-692.871
1630096170.947,-43.945,-46.387,-44.922,-100.586
1630096170.950,-47.852,-55.176,-36.621,717.285
1630096170.954,-80.078,-51.758,-35.156,133.789
1630096170.958,-66.895,-31.738,-28.809,-674.805
1630096170.962,-27.344,-18.066,-28.809,-418.945
1630096170.966,-14.160,-36.621,-51.270,528.320
1630096170.969,-69.824,-63.965,-62.988,447.754
1630096170.973,-87.402,-50.781,-55.664,-537.109
1630096170.977,-83.008,-22.461,-43.457,-574.219
1630096170.981,-43.457,-15.625,-35.156,324.707
1630096170.985,-18.555,-25.879,-45.410,662.109
1630096170.989,-62.500,-32.227,-40.039,-259.277
1630096170.993,-75.684,-34.180,-35.156,-622.070
1630096170.996,-55.664,-32.715,-53.223,-25.879
1630096171.000,-30.762,-41.504,-62.988,636.719
1630096171.004,-63.477,-45.898,-51.758,-16.602
1630096171.008,-67.383,-44.434,-35.645,-638.184
1630096171.012,-47.363,-66.406,-42.969,-249.512
1630096171.013,-30.273,-62.012,-62.012,640.137
1630096171.017,-41.992,-39.062,-45.898,268.555
1630096171.021,-58.594,-27.832,-28.320,-573.242
1630096171.025,-49.316,-24.414,-35.645,-453.125
1630096171.029,-6.836,-33.203,-35.156,492.188
1630096171.033,-59.570,-66.895,-43.945,543.945
1630096171.037,-100.586,-83.984,-55.176,-443.359
1630096171.040,-38.086,-69.824,-51.270,-615.723
1630096171.044,-7.812,-49.316,-40.527,184.570
1630096171.048,-32.715,-66.406,-56.152,660.645
1630096171.052,-90.332,-93.262,-64.453,-248.047
1630096171.056,-71.289,-75.195,-34.668,-695.801
1630096171.073,-0.977,-44.434,-45.898,-40.039
1630096171.077,-16.602,-31.738,-64.453,709.473
1630096171.081,-85.938,-44.434,-68.359,-23.438
1630096171.085,-92.773,-62.012,-72.754,-781.250
1630096171.089,-62.500,-63.477,-63.965,-334.961
1630096171.093,-22.949,-58.105,-59.082,709.473
1630096171.097,-54.688,-65.430,-68.359,331.055
1630096171.100,-86.426,-74.219,-58.105,-670.898
1630096171.104,-68.848,-83.984,-47.852,-545.898
1630096171.108,-20.020,-75.684,-75.195,397.461
1630096171.112,-31.250,-56.641,-84.473,541.016
1630096171.116,-57.129,-51.758,-50.781,-481.445
1630096171.118,-34.668,-36.621,-24.414,-704.590
1630096171.122,-25.879,-37.109,-32.227,158.691
1630096171.126,-24.902,-49.316,-42.969,756.836
1630096171.130,-44.434,-58.105,-42.969,-242.188
1630096171.134,-61.035,-71.289,-56.641,-896.484
1630096171.138,-33.203,-56.152,-51.758,-104.004
1630096171.142,4.883,-43.457,-62.500,888.184
1630096171.145,-63.965,-44.922,-67.871,123.535
1630096171.149,-102.051,-58.594,-70.801,-837.402
1630096171.153,-80.078,-97.656,-100.586,-520.508
1630096171.157,-37.109,-105.469,-69.336,609.863
1630096171.161,-38.086,-76.172,-45.410,453.125
1630096171.163,-74.707,-59.082,-56.641,-654.297
1630096171.167,-58.594,-53.711,-51.270,-645.508
1630096171.171,-35.156,-42.969,-48.340,416.016
1630096171.175,-29.297,-34.180,-46.875,723.633
1630096171.179,-37.598,-30.762,-49.316,-388.672
1630096171.183,-20.996,-39.551,-66.895,-787.109
1630096171.187,13.184,-41.504,-49.316,147.461
1630096171.190,-26.367,-46.875,-39.551,875.977
1630096171.194,-79.590,-61.035,-60.059,-154.297
1630096171.198,-57.129,-47.852,-55.176,-900.879
1630096171.202,-44.922,-34.668,-32.715,-219.727
1630096171.206,-28.320,-43.457,-40.039,853.027
1630096171.209,-47.852,-45.410,-52.734,222.168
1630096171.213,-24.902,-47.363,-29.297,-800.781
1630096171.217,26.367,-41.992,-13.184,-441.406
1630096171.221,11.230,-46.387,-42.480,668.945
1630096171.225,-60.547,-51.758,-65.430,507.812
1630096171.229,-100.586,-42.969,-49.316,-637.695
1630096171.233,-42.969,-26.855,-29.785,-692.871
1630096171.236,-19.043,-27.832,-40.527,341.309
1630096171.240,-53.711,-41.016,-62.500,691.406
1630096171.244,-35.645,-23.438,-32.227,-380.371
1630096171.248,-17.090,-27.344,-13.184,-793.945
1630096171.252,-21.484,-31.738,-30.273,94.727
1630096171.253,-6.348,-28.809,-53.223,841.797
1630096171.257,-54.688,-34.180,-48.340,-88.867
1630096171.261,-69.336,-31.738,-24.414,-793.945
1630096171.265,18.555,-32.715,-16.113,-217.773
1630096171.269,29.297,-33.691,-21.973,836.914
1630096171.273,-32.715,-48.828,-37.598,380.371
1630096171.277,-49.316,-59.570,-54.688,-671.875
1630096171.280,-4.395,-42.969,-30.762,-514.648
1630096171.284,0.488,-26.367,-13.184,565.430
1630096171.288,-49.805,-27.832,-40.527,595.703
1630096171.292,-67.871,-20.996,-42.480,-557.129
1630096171.296,-56.641,-14.160,-29.785,-720.215
1630096171.298,24.414,-21.484,-30.762,308.594
1630096171.302,35.645,-21.484,-14.648,806.152
1630096171.306,-61.035,-28.320,0.488,-248.535
1630096171.310,-45.410,-44.922,-10.254,-768.066
1630096171.314,-24.414,-45.410,-25.879,-36.133
1630096171.318,-27.832,-30.273,-33.691,797.363
1630096171.322,-20.996,-16.113,-36.621,75.684
1630096171.325,-21.484,-20.020,-53.711,-723.145
1630096171.329,-2.930,-51.758,-62.988,-314.941
1630096171.333,8.301,-61.523,-37.109,669.922
1630096171.337,-31.250,-43.457,-24.414,306.641
1630096171.341,-52.734,-34.668,-29.297,-684.570
1630096171.343,-39.551,-39.551,-19.531,-599.609
1630096171.347,-23.438,-49.316,-19.531,415.039
1630096171.351,-48.340,-42.969,-61.035,542.480
1630096171.355,-49.805,-25.879,-83.984,-491.211
1630096171.359,-26.367,-31.250,-56.152,-723.145
1630096171.363,-17.090,-36.621,-26.367,108.887
1630096171.367,-45.410,-30.273,-27.832,659.180
1630096171.370,-90.820,-42.480,-28.320,-285.156
1630096171.374,-75.684,-54.199,-15.625,-829.590
1630096171.378,-23.926,-53.711,-6.348,-239.746
1630096171.382,-40.527,-49.316,-9.766,592.285
1630096171.386,-96.680,-58.105,-23.926,-87.402
1630096171.389,-85.938,-71.777,-26.855,-823.730
1630096171.393,-74.707,-79.102,-4.883,-439.941
1630096171.397,-49.316,-70.801,0.000,397.949
1630096171.401,-55.664,-58.594,-10.254,171.875
1630096171.405,-95.703,-66.895,6.836,-722.168
1630096171.409,-113.281,-83.008,18.555,-783.203
1630096171.413,-94.238,-90.332,18.555,70.801
1630096171.416,-68.359,-85.938,15.137,282.715
1630096171.420,-60.547,-91.797,5.371,-715.820
1630096171.424,-50.781,-100.586,4.395,-1000.000
1630096171.428,-24.414,-88.379,5.371,-358.887
1630096171.432,-47.363,-84.961,3.906,154.785
1630096171.449,-75.195,-86.914,2.441,-613.770
1630096171.453,-68.848,-83.984,-5.859,-1000.000
1630096171.457,-51.270,-87.891,-17.578,-628.906
1630096171.461,-20.508,-70.312,-31.738,133.789
1630096171.465,-44.922,-43.457,-26.855,-325.195
1630096171.469,-70.801,-45.898,-17.578,-942.871
1630096171.473,-66.895,-61.523,-15.137,-729.004
1630096171.476,-30.273,-54.688,-13.184,12.695
1630096171.480,-58.594,-52.246,-32.715,-71.289
1630096171.484,-60.547,-51.758,-36.133,-845.703
1630096171.488,-44.434,-49.316,-30.273,-835.449
1630096171.492,3.418,-57.129,-16.113,-14.160
1630096171.493,-25.879,-60.547,-20.020,275.879
1630096171.497,-83.984,-58.105,-28.320,-573.730
1630096171.501,-70.801,-64.941,-23.438,-834.473
1630096171.505,-40.039,-67.383,-20.020,-173.828
1630096171.509,-25.879,-56.641,-12.207,468.262
1630096171.513,-30.762,-41.504,-5.859,-145.020
1630096171.517,-34.668,-37.109,-14.648,-583.008
1630096171.520,-23.926,-41.504,-39.062,-158.203
1630096171.524,5.371,-37.598,-40.527,567.871
1630096171.528,-68.848,-47.852,-23.438,190.430
1630096171.532,-84.961,-60.059,-13.672,-458.496
1630096171.536,-48.828,-62.500,-18.555,-246.582
1630096171.538,-20.996,-62.988,-31.250,609.375
1630096171.542,-26.855,-43.945,-33.691,666.504
1630096171.546,-43.945,-28.809,-35.645,-138.672
1630096171.550,-14.160,-35.645,-36.621,-154.785
1630096171.554,-0.977,-32.715,-23.438,530.273
1630096171.558,-10.742,-23.438,-2.930,-984.375
1630096171.562,-31.738,-32.227,5.859,944.336
1630096171.565,-72.266,-40.527,-10.254,960.449
1630096171.569,-73.242,-35.156,-27.344,956.543
1630096171.573,-42.480,-23.438,-26.855,995.117
1630096171.577,-52.246,-22.461,-25.879,745.605
1630096171.581,-66.895,-35.645,-32.715,469.238
1630096171.583,-43.457,-39.551,-23.926,647.949
1630096171.587,-24.902,-44.434,-20.508,995.117
1630096171.591,-26.855,-43.457,-17.578,671.875
1630096171.595,-45.410,-47.363,-19.043,152.832
1630096171.599,-45.410,-47.363,-37.598,264.160
1630096171.603,-16.113,-32.227,-42.480,812.012
1630096171.607,-48.828,-30.762,-35.645,683.594
1630096171.610,-73.242,-38.574,-21.484,-3.906
1630096171.614,-44.434,-26.367,-8.301,-79.102
1630096171.618,-25.391,-21.484,-12.207,342.285
1630096171.622,-34.668,-30.273,-28.320,534.668
1630096171.626,-48.828,-35.156,-31.738,-58.105
1630096171.628,-64.453,-41.016,-41.504,-280.273
1630096171.632,-26.367,-36.133,-29.297,68.848
1630096171.636,9.766,-38.086,-7.324,520.508
1630096171.640,-46.875,-50.293,-10.742,25.879
1630096171.644,-44.922,-40.527,-20.020,-363.281
1630096171.648,-20.996,-38.086,-30.762,-82.520
1630096171.652,-8.301,-40.527,-38.574,434.570
1630096171.655,-47.852,-34.668,-35.156,131.348
1630096171.659,-64.453,-36.133,-39.062,-424.805
1630096171.663,-40.527,-33.203,-39.551,-277.832
1630096171.667,-33.691,-39.062,-24.414,291.504
1630096171.671,-32.227,-45.410,-20.508,386.230
1630096171.674,-48.828,-44.434,-11.230,-235.352
1630096171.678,-47.363,-50.293,-29.297,-362.305
1630096171.682,-23.438,-44.922,-42.480,79.102
1630096171.686,-39.062,-33.203,-23.438,405.762
1630096171.690,-58.105,-53.223,-12.207,-195.801
1630096171.694,-14.160,-68.359,-19.531,-372.070
1630096171.698,3.418,-32.227,-22.461,94.238
1630096171.701,-28.320,-15.137,-27.344,522.461
1630096171.705,-59.570,-34.668,-36.133,-65.918
1630096171.709,-62.988,-35.645,-33.691,-587.891
1630096171.713,-36.133,-27.344,-35.156,-261.719
1630096171.717,-8.301,-24.902,-36.133,414.551
1630096171.718,-30.273,-38.574,-32.227,175.781
1630096171.722,-61.523,-44.922,-35.645,-472.656
1630096171.726,-38.574,-40.527,-50.781,-373.535
1630096171.730,1.465,-35.156,-49.316,215.820
1630096171.734,18.555,-23.438,-36.621,346.191
1630096171.738,-26.367,-19.531,-25.391,-255.371
1630096171.742,-43.457,-20.996,-34.180,-388.672
1630096171.745,8.301,-8.789,-34.180,29.297
1630096171.749,14.160,-1.465,-41.016,407.227
1630096171.753,-14.648,-5.859,-44.922,-193.359
1630096171.757,-32.227,-11.719,-32.715,-471.191
1630096171.761,-19.043,-11.230,-34.668,-118.164
1630096171.763,6.348,-9.766,-40.039,380.859
1630096171.767,-21.973,-13.672,-40.527,-39.551
1630096171.771,-32.715,-21.973,-29.297,-562.988
1630096171.775,-0.488,-21.973,-15.625,-278.320
1630096171.779,20.020,-10.254,-9.766,394.531
1630096171.783,-18.555,-11.719,-16.113,239.258
1630096171.787,-53.711,-16.113,-20.508,-441.895
