timestamps,TP9,AF7,AF8,TP10,Right AUX
1626203038.226014,-174.805,-37.598,-33.691,-130.371,1.0
1626203038.2299201,-61.035,-46.387,-27.344,125.488,1.0
1626203038.2338264,123.535,-43.945,-13.672,88.37899999999999,1.0
1626203038.2377326,40.039,-40.527,-28.809,-181.641,1.0
1626203038.241639,-145.50799999999998,-40.039,-31.25,-191.895,1.0
1626203038.2455451,-115.723,-43.457,-26.366999999999997,64.941,1.0
1626203038.2494514,88.37899999999999,-42.968999999999994,-28.32,126.95299999999999,1.0
1626203038.2533574,104.98,-43.945,-29.296999999999997,-112.305,1.0
1626203038.257264,-105.95700000000001,-47.363,-27.344,-235.84,1.0
1626203038.2611701,-154.297,-36.133,-20.996,-11.23,1.0
1626203038.2650764,37.598,-23.438000000000002,-24.414,150.879,1.0
1626203038.2689826,132.812,-32.715,-20.996,-27.831999999999997,1.0
1626203038.272889,-41.504,-46.387,-21.973000000000003,-85.449,1.0
1626203038.2767951,-154.297,-41.016000000000005,-26.855,-218.75,1.0
1626203038.2807014,40.527,-21.484,-1.953,25.879,1.0
1626203038.2846076,187.5,-12.695,-2.441,201.66,1.0
1626203038.288514,35.645,-15.625,-27.344,-4.883,1.0
1626203038.2924201,-168.945,-27.831999999999997,-37.598,-228.02700000000002,1.0
1626203038.2963264,-83.008,-7.324,-21.973000000000003,-74.707,1.0
1626203038.300233,129.88299999999998,3.906,-4.883,183.59400000000002,1.0
1626203038.304139,83.49600000000001,-30.761999999999997,-23.926,82.031,1.0
1626203038.308045,-115.234,-45.898,-19.043,-166.016,1.0
1626203038.3119516,-124.023,-40.527,-22.949,-129.395,1.0
1626203038.3158574,71.777,-26.855,-30.273000000000003,116.211,1.0
1626203038.3197637,-197.266,-10.254000000000001,-51.758,-242.676,1.0
1626203038.32367,-16.602,-1.953,-37.109,-3.906,1.0
1626203038.3275762,124.023,-15.137,-21.973000000000003,163.57399999999998,1.0
1626203038.331483,-30.761999999999997,-20.996,-24.414,-36.133,1.0
1626203038.335389,-193.84799999999998,-38.086,-30.273000000000003,-233.398,1.0
1626203038.3392951,-58.105,-47.852,-21.484,-55.176,1.0
1626203038.3432014,124.512,-30.761999999999997,-14.16,179.688,1.0
1626203038.3471074,22.949,-33.203,-31.738000000000003,42.48,1.0
1626203038.351014,-169.43400000000003,-23.926,-43.945,-208.00799999999998,1.0
1626203038.3549201,-117.676,-0.977,-30.273000000000003,-127.441,1.0
1626203038.3588262,78.125,-7.324,-28.32,128.418,1.0
1626203038.3627326,92.285,-20.996,-23.926,116.699,1.0
1626203038.366639,-110.84,-38.574,-27.831999999999997,1.0,1.0
1626203038.3705451,-174.805,-43.457,-38.086,1.0,1.0
1626203038.3744514,24.414,-29.785,-37.598,1.0,1.0
1626203038.3783576,97.16799999999999,-31.738000000000003,-44.434,1.0,1.0
1626203038.382264,-62.5,-21.484,-35.645,1.0,1.0
1626203038.3861701,-163.57399999999998,-17.578,-39.062,1.0,1.0
1626203038.3900764,-7.324,-35.156,-37.598,1.0,1.0
1626203038.3939826,121.58200000000001,-33.203,-31.25,1.0,1.0
1626203038.397889,-13.672,-27.344,-42.48,1.0,1.0
1626203038.4017951,-176.27,-35.645,-34.668,1.0,1.0
1626203038.4057016,-93.75,-27.831999999999997,-24.414,1.0,1.0
1626203038.4096076,94.727,-19.531,-27.831999999999997,1.0,1.0
1626203038.413514,45.41,-39.551,-34.668,60.059,1.0
1626203038.4174201,-157.227,-56.152,-37.598,-194.824,1.0
1626203038.4213264,-125.977,-31.738000000000003,-28.32,-140.625,1.0
1626203038.4252326,75.195,-21.484,-27.831999999999997,120.117,1.0
1626203038.429139,88.867,-34.668,-25.879,116.211,1.0
1626203038.433045,-97.656,-40.527,-46.387,-145.02,1.0
1626203038.4369516,-150.879,-32.227,-76.66,-198.73,1.0
1626203038.4408574,40.527,-16.113,-45.898,65.918,1.0
1626203038.4447641,123.04700000000001,-31.738000000000003,-17.09,167.48,1.0
1626203038.44867,-37.598,-38.086,-18.066,-61.523,1.0
1626203038.4525762,-158.203,-25.391,-20.508000000000003,-203.125,1.0
1626203038.456483,-5.371,-13.672,-10.254000000000001,11.719000000000001,1.0
1626203038.460389,-166.50400000000002,-5.371,-36.621,41.016000000000005,1.0
1626203038.464295,25.391,-13.184000000000001,-58.593999999999994,165.52700000000002,1.0
1626203038.4682014,90.33200000000001,-19.531,-56.641000000000005,-58.593999999999994,1.0
1626203038.4721074,-95.70299999999999,-28.809,-33.203,-248.047,1.0
1626203038.476014,-215.82,-39.062,-24.901999999999997,-61.035,1.0
1626203038.4799201,-75.195,-34.668,-25.879,157.715,1.0
1626203038.4838264,23.438000000000002,-38.574,-30.761999999999997,12.207,1.0
1626203038.4877326,-147.94899999999998,-41.504,-41.504,-219.238,1.0
1626203038.491639,-336.426,-34.668,-42.48,-122.559,1.0
1626203038.4955451,-227.53900000000002,-20.996,-19.043,143.066,1.0
1626203038.4994514,-61.523,-31.738000000000003,-4.395,83.008,1.0
1626203038.5033574,-165.52700000000002,-54.199,-12.695,-194.824,1.0
1626203038.507264,-374.51199999999994,-68.359,-27.344,-380.85900000000004,1.0
1626203038.5111701,-368.164,-74.707,-44.922,-336.914,1.0
1626203038.5150764,-195.312,-51.27,-44.922,-94.238,1.0
1626203038.5189826,-211.91400000000002,-76.66,-9.766,-132.32399999999998,1.0
1626203038.522889,-422.36300000000006,-106.445,21.973000000000003,-412.10900000000004,1.0
1626203038.5267951,-453.61300000000006,-73.242,33.203,-428.711,1.0
1626203038.5307014,-234.863,-32.227,41.504,-131.836,1.0
1626203038.5346076,-160.645,-42.48,23.438000000000002,-52.733999999999995,1.0
1626203038.538514,-379.88300000000004,-123.04700000000001,-20.996,-342.285,1.0
1626203038.5424201,-510.74199999999996,-144.531,-17.09,-480.469,1.0
1626203038.5463264,-303.223,-108.398,21.484,-213.86700000000002,1.0
1626203038.550233,-103.027,-88.37899999999999,53.223,10.742,1.0
1626203038.554139,-228.516,-114.258,39.062,1.0,1.0
1626203038.558045,-402.344,-125.0,16.113,1.0,1.0
1626203038.5619516,-280.27299999999997,-102.539,23.926,1.0,1.0
1626203038.5658574,-83.49600000000001,-101.56200000000001,-0.488,1.0,1.0
1626203038.5697637,-97.656,-92.773,-16.113,1.0,1.0
1626203038.57367,-260.254,-107.42200000000001,1.953,1.0,1.0
1626203038.5775762,-222.65599999999998,-115.723,15.137,1.0,1.0
1626203038.581483,22.949,-78.613,29.785,1.0,1.0
1626203038.585389,36.133,-77.148,23.438000000000002,1.0,1.0
1626203038.5892951,-189.94099999999997,-103.027,-2.441,1.0,1.0
1626203038.5932014,-226.562,-95.70299999999999,-11.719000000000001,1.0,1.0
1626203038.5971074,-10.742,-93.262,-6.836,1.0,1.0
1626203038.601014,-64.941,-38.574,-20.02,205.56599999999997,1.0
1626203038.6049201,138.672,-14.648,-13.672,199.707,1.0
1626203038.6088262,102.051,-33.203,-27.831999999999997,-74.219,1.0
1626203038.6127326,-115.723,-34.668,-28.32,-131.836,1.0
1626203038.616639,-132.32399999999998,-41.016000000000005,-48.34,151.36700000000002,1.0
1626203038.6205451,80.566,-50.293,-45.41,246.582,1.0
1626203038.6244514,146.484,-35.645,-17.09,-58.105,1.0
1626203038.6283576,-40.527,-35.645,-10.742,-216.797,1.0
1626203038.632264,-139.648,-37.109,-22.949,15.137,1.0
1626203038.6361701,37.598,-23.438000000000002,-39.062,235.352,1.0
1626203038.6400764,136.719,-40.527,-55.663999999999994,65.918,1.0
1626203038.6439826,-10.742,-63.965,-26.855,-186.523,1.0
1626203038.647889,-146.484,-47.852,-18.066,1.0,1.0
1626203038.6517951,-24.901999999999997,-38.086,-26.366999999999997,1.0,1.0
1626203038.6557016,147.94899999999998,-29.785,-26.855,1.0,1.0
1626203038.6596076,28.809,-37.598,-56.641000000000005,1.0,1.0
1626203038.663514,-160.645,-21.973000000000003,-41.992,1.0,1.0
1626203038.6674201,-92.285,-14.16,-16.602,1.0,1.0
1626203038.6713264,102.539,-32.715,0.0,1.0,1.0
1626203038.6752326,98.633,-30.761999999999997,8.301,1.0,1.0
1626203038.679139,-88.37899999999999,-37.109,-30.761999999999997,1.0,1.0
1626203038.683045,-117.676,-50.293,-49.316,1.0,1.0
1626203038.6869516,61.523,-47.363,-21.484,1.0,1.0
1626203038.6908574,117.18799999999999,-28.32,-16.602,1.0,1.0
1626203038.6947641,-79.59,-36.133,-39.062,-93.262,1.0
1626203038.69867,-180.176,-41.016000000000005,-41.992,-208.49599999999998,1.0
1626203038.7025762,6.348,-25.879,-28.32,36.621,1.0
1626203038.706483,125.977,-39.551,-28.32,196.77700000000002,1.0
1626203038.710389,-17.578,-60.059,-24.901999999999997,-3.906,1.0
1626203038.714295,-163.086,-44.434,-31.738000000000003,-197.75400000000002,1.0
1626203038.7182014,-22.461,-16.602,-22.461,-22.949,1.0
1626203038.7221074,162.109,-13.672,-6.348,211.426,1.0
1626203038.726014,48.828,-25.391,-28.32,68.359,1.0
1626203038.7299201,-154.785,-13.184000000000001,-47.852,-206.543,1.0
1626203038.7338264,-98.633,3.906,-53.711000000000006,-125.977,1.0
1626203038.7377326,136.23,20.02,-51.27,171.387,1.0
1626203038.741639,-154.297,-11.23,-61.035,-202.637,1.0
1626203038.7455451,38.086,-0.977,-32.227,57.129,1.0
1626203038.7494514,173.828,-1.465,-20.996,200.195,1.0
1626203038.7533574,-10.742,-2.441,-60.059,-41.992,1.0
1626203038.757264,-166.50400000000002,5.371,-50.293,-220.703,1.0
1626203038.7611701,-24.414,-7.812,-20.02,-20.996,1.0
1626203038.7650764,146.484,-22.949,-21.973000000000003,189.453,1.0
1626203038.7689826,41.504,-38.574,-35.645,37.109,1.0
1626203038.772889,-159.668,-37.598,-38.574,-208.49599999999998,1.0
1626203038.7767951,-97.16799999999999,-8.301,-39.062,-100.586,1.0
1626203038.7807014,87.891,-14.648,-62.5,140.625,1.0
1626203038.7846076,79.59,-18.555,-56.152,96.68,1.0
1626203038.788514,-113.77,-13.184000000000001,-41.504,1.0,1.0
1626203038.7924201,-153.32,-8.789,-41.992,1.0,1.0
1626203038.7963264,65.918,-35.645,-28.32,1.0,1.0
1626203038.800233,145.02,-65.43,-22.461,1.0,1.0
1626203038.804139,-31.25,-21.484,-22.949,1.0,1.0
1626203038.808045,-153.32,7.812,-35.156,1.0,1.0
1626203038.8119516,-10.254000000000001,5.371,-46.387,1.0,1.0
1626203038.8158574,122.559,8.301,-39.062,1.0,1.0
1626203038.8197637,-31.738000000000003,-18.066,-38.086,1.0,1.0
1626203038.82367,-168.945,-32.227,-21.973000000000003,1.0,1.0
1626203038.8275762,-45.898,-39.062,-6.836,1.0,1.0
1626203038.831483,132.32399999999998,-41.504,-7.812,1.0,1.0
1626203038.835389,53.223,-23.926,-20.996,1.0,1.0
1626203038.8392951,-162.109,-11.23,-32.227,1.0,1.0
1626203038.8432014,-112.79299999999999,-9.277000000000001,-19.531,1.0,1.0
1626203038.8471074,108.887,-12.695,-16.602,1.0,1.0
1626203038.851014,92.285,-9.277000000000001,-30.273000000000003,1.0,1.0
1626203038.8549201,-131.836,-18.066,-36.621,1.0,1.0
1626203038.8588262,-162.59799999999998,-15.137,-37.598,1.0,1.0
1626203038.8627326,48.34,-29.296999999999997,-25.391,1.0,1.0
1626203038.866639,108.887,-60.547,-29.296999999999997,1.0,1.0
1626203038.8705451,-85.449,-50.781000000000006,-48.34,1.0,1.0
1626203038.8744514,-186.035,-36.621,-49.316,1.0,1.0
1626203038.8783576,-6.348,-34.668,-29.296999999999997,1.0,1.0
1626203038.882264,-129.395,-30.273000000000003,-23.438000000000002,-147.94899999999998,1.0
1626203038.8861701,71.777,-23.926,-29.296999999999997,110.84,1.0
1626203038.8900764,104.00399999999999,-22.949,-33.691,126.465,1.0
1626203038.8939826,-99.609,-42.48,-51.27,-143.066,1.0
1626203038.897889,-169.43400000000003,-43.457,-40.039,-206.543,1.0
1626203038.9017951,17.09,-26.855,-17.09,50.293,1.0
1626203038.9057016,132.32399999999998,-18.066,-14.648,175.78099999999998,1.0
1626203038.9096076,-20.996,-26.855,-17.578,-48.34,1.0
1626203038.913514,-175.78099999999998,-15.625,-20.996,-223.63299999999998,1.0
1626203038.9174201,-37.598,-3.418,-16.602,-24.901999999999997,1.0
1626203038.9213264,116.211,-5.371,-40.527,159.668,1.0
1626203038.9252326,-6.836,0.0,-57.617,-13.672,1.0
1626203038.929139,-23.438000000000002,-26.855,-17.09,-242.676,1.0
1626203038.933045,-194.33599999999998,-42.48,-41.504,-127.93,1.0
1626203038.9369516,-67.87100000000001,-44.434,-35.645,148.92600000000002,1.0
1626203038.9408574,123.04700000000001,-48.828,-31.25,100.098,1.0
1626203038.9447641,21.973000000000003,-36.621,-44.922,-182.61700000000002,1.0
1626203038.94867,-179.688,-19.043,-40.039,-179.688,1.0
1626203038.9525762,-110.352,-30.761999999999997,-20.508000000000003,121.58200000000001,1.0
1626203038.956483,92.285,-40.527,-17.578,180.66400000000002,1.0
1626203038.960389,69.824,-33.203,-39.551,-128.418,1.0
1626203038.964295,-112.305,-31.738000000000003,-53.711000000000006,-250.0,1.0
1626203038.9682014,-133.30100000000002,-43.945,-53.711000000000006,0.977,1.0
1626203038.9721074,57.129,-27.344,-42.48,166.50400000000002,1.0
1626203038.976014,-219.238,-90.33200000000001,6.836,-170.41,1.0
1626203038.9799201,-29.785,-72.266,-2.93,82.031,1.0
1626203038.9838264,-91.309,-75.684,6.836,-13.184000000000001,1.0
1626203038.9877326,-311.035,-108.887,19.531,-297.85200000000003,1.0
1626203038.991639,-311.035,-135.254,20.508000000000003,-266.113,1.0
1626203038.9955451,-111.32799999999999,-102.051,30.273000000000003,3.418,1.0
1626203038.9994514,-100.586,-87.891,27.344,3.418,1.0
1626203039.0033574,-295.41,-105.469,10.254000000000001,-253.90599999999998,1.0
1626203039.007264,-349.60900000000004,-119.141,15.137,-299.316,1.0
1626203039.0111701,-145.996,-126.465,46.875,-29.785,1.0
1626203039.0150764,-38.574,-123.535,47.363,88.867,1.0
1626203039.0189826,-188.965,-106.445,27.831999999999997,-129.88299999999998,1.0
1626203039.022889,-300.293,-99.609,31.25,1.0,1.0
1626203039.0267951,-143.555,-100.098,34.18,1.0,1.0
1626203039.0307014,26.855,-94.238,20.996,1.0,1.0
1626203039.0346076,-85.449,-106.934,12.207,1.0,1.0
1626203039.038514,-263.672,-107.91,-3.418,1.0,1.0
1626203039.0424201,-188.965,-98.633,-12.695,1.0,1.0
1626203039.0463264,26.366999999999997,-87.891,3.906,1.0,1.0
1626203039.050233,25.391,-68.359,12.207,1.0,1.0
1626203039.054139,-187.988,-63.477,15.137,1.0,1.0
1626203039.058045,-215.82,-79.59,16.602,1.0,1.0
1626203039.0619516,-13.184000000000001,-70.312,8.301,1.0,1.0
1626203039.0658574,31.25,-66.406,-0.488,1.0,1.0
1626203039.0697637,-148.438,-69.336,-12.207,-146.97299999999998,1.0
1626203039.07367,-208.00799999999998,-71.777,-4.395,-222.168,1.0
1626203039.0775762,-30.761999999999997,-96.191,-11.23,21.973000000000003,1.0
1626203039.081483,85.449,-83.008,-18.066,154.785,1.0
1626203039.085389,-73.73,-69.824,-17.578,-58.593999999999994,1.0
1626203039.0892951,-218.75,-67.87100000000001,-23.926,-238.77,1.0
1626203039.0932014,-80.078,-38.086,-7.324,-58.593999999999994,1.0
1626203039.0971074,76.66,-33.203,3.418,138.672,1.0
1626203039.101014,-22.461,-40.039,-2.441,-8.789,1.0
1626203039.1049201,-194.824,-51.27,-12.695,-223.63299999999998,1.0
1626203039.1088262,-126.95299999999999,-89.355,-24.901999999999997,-114.74600000000001,1.0
1626203039.1127326,73.73,-81.055,-13.672,144.531,1.0
1626203039.116639,-174.805,-23.926,-51.758,-213.37900000000002,1.0
1626203039.1205451,1.465,-41.992,-45.898,39.551,1.0
1626203039.1244514,102.539,-24.901999999999997,-14.16,154.297,1.0
1626203039.1283576,-89.355,-39.551,-29.296999999999997,-105.95700000000001,1.0
1626203039.132264,-212.40200000000002,-41.992,-34.668,-251.465,1.0
1626203039.1361701,-45.41,-26.855,-39.062,-27.344,1.0
1626203039.1400764,107.42200000000001,-30.761999999999997,-43.457,165.52700000000002,1.0
1626203039.1439826,-5.859,-38.086,-25.879,-1.465,1.0
1626203039.147889,-210.938,-48.34,-33.691,-251.465,1.0
1626203039.1517951,-140.625,-37.109,-37.109,-135.254,1.0
1626203039.1557016,63.477,-23.438000000000002,-26.366999999999997,117.18799999999999,1.0
1626203039.1596076,28.809,-12.695,-16.602,48.34,1.0
1626203039.163514,-176.27,-14.648,-29.785,1.0,1.0
1626203039.1674201,-165.52700000000002,-41.992,-29.785,1.0,1.0
1626203039.1713264,62.012,-50.781000000000006,-25.391,1.0,1.0
1626203039.1752326,73.73,-33.691,-41.992,1.0,1.0
1626203039.179139,-135.74200000000002,-18.066,-10.742,1.0,1.0
1626203039.183045,-210.449,-40.039,20.508000000000003,1.0,1.0
1626203039.1869516,-51.758,-47.363,-14.16,1.0,1.0
1626203039.1908574,26.855,-37.598,-64.453,1.0,1.0
1626203039.1947641,-112.305,-22.461,-50.781000000000006,1.0,1.0
1626203039.19867,-224.12099999999998,-13.672,-27.344,1.0,1.0
1626203039.2025762,-93.262,-40.039,-36.621,1.0,1.0
1626203039.206483,83.984,-53.711000000000006,-33.203,1.0,1.0
1626203039.210389,-25.391,-30.761999999999997,-48.828,1.0,1.0
1626203039.214295,-236.81599999999997,-29.296999999999997,-66.406,1.0,1.0
1626203039.2182014,-160.156,-43.945,-42.48,1.0,1.0
1626203039.2221074,49.805,-30.273000000000003,-26.366999999999997,1.0,1.0
1626203039.226014,30.761999999999997,-14.16,-39.062,1.0,1.0
1626203039.2299201,-145.02,-16.602,-53.711000000000006,1.0,1.0
1626203039.2338264,-121.58200000000001,-27.344,-19.531,1.0,1.0
1626203039.2377326,71.289,-39.062,6.348,1.0,1.0
1626203039.241639,86.914,-37.109,-27.831999999999997,1.0,1.0
1626203039.2455451,-110.84,-18.555,-45.898,1.0,1.0
1626203039.2494514,-212.891,-31.25,-52.733999999999995,1.0,1.0
1626203039.2533574,-12.207,-27.831999999999997,-48.34,1.0,1.0
1626203039.257264,-61.523,-6.836,-8.301,83.008,1.0
1626203039.2611701,118.164,-17.578,-29.296999999999997,173.34,1.0
1626203039.2650764,88.867,-38.574,-33.691,-57.129,1.0
1626203039.2689826,-127.93,-47.852,-36.133,-185.547,1.0
1626203039.272889,-158.203,-27.344,-19.043,20.996,1.0
1626203039.2767951,58.105,-7.324,6.348,187.5,1.0
1626203039.2807014,130.859,-17.578,-14.648,-17.578,1.0
1626203039.2846076,-29.785,-25.391,-26.855,-238.28099999999998,1.0
1626203039.288514,-159.668,-32.715,-40.039,-69.336,1.0
1626203039.2924201,-5.859,-50.293,-34.18,189.453,1.0
1626203039.2963264,160.156,-52.246,-18.066,75.684,1.0
1626203039.300233,-1.465,-22.949,-35.645,-170.898,1.0
1626203039.304139,-57.129,-22.949,-40.527,-50.293,1.0
1626203039.308045,104.00399999999999,-24.414,-23.438000000000002,170.898,1.0
1626203039.3119516,49.805,-11.719000000000001,-1.953,60.547,1.0
1626203039.3158574,-129.395,-32.227,-9.277000000000001,-191.895,1.0
1626203039.3197637,-92.773,-45.898,-21.484,-127.93,1.0
1626203039.32367,81.543,-29.785,-40.039,113.281,1.0
1626203039.3275762,60.547,-12.207,-40.527,81.543,1.0
1626203039.331483,-110.84,-2.441,-36.133,-166.99200000000002,1.0
1626203039.335389,-163.57399999999998,-25.879,-68.848,-207.52,1.0
1626203039.3392951,23.926,-42.968999999999994,-62.012,63.477,1.0
1626203039.3432014,105.469,-47.363,-36.133,152.344,1.0
1626203039.3471074,-70.312,-49.316,-14.16,-96.68,1.0
1626203039.351014,-131.34799999999998,-44.434,-54.688,-209.96099999999998,1.0
1626203039.3549201,-192.87099999999998,-30.273000000000003,-48.34,18.555,1.0
1626203039.3588262,28.809,7.324,-28.809,192.87099999999998,1.0
1626203039.3627326,127.441,14.16,-24.901999999999997,-11.23,1.0
1626203039.366639,-40.527,-17.578,-38.086,-242.188,1.0
1626203039.3705451,-179.199,-44.434,-41.992,-85.93799999999999,1.0
1626203039.3744514,-36.621,-32.227,-23.438000000000002,173.828,1.0
1626203039.3783576,145.996,-21.973000000000003,0.0,69.824,1.0
1626203039.382264,9.766,-48.828,-41.016000000000005,-202.637,1.0
1626203039.3861701,-182.61700000000002,-51.758,-77.637,-143.555,1.0
1626203039.3900764,-87.402,-27.344,-46.875,141.113,1.0
1626203039.3939826,133.30100000000002,-9.766,1.465,132.812,1.0
1626203039.397889,12.695,11.719000000000001,-6.836,162.109,1.0
1626203039.4017951,95.215,-56.152,-26.855,-10.254000000000001,1.0
1626203039.4057016,-47.363,-61.523,-38.086,-254.88299999999998,1.0
1626203039.4096076,-177.734,-20.996,-29.296999999999997,-142.09,1.0
1626203039.413514,-63.965,-8.789,-27.344,133.30100000000002,1.0
1626203039.4174201,97.16799999999999,-20.508000000000003,-67.87100000000001,84.473,1.0
1626203039.4213264,-1.953,-52.246,-71.777,-159.668,1.0
1626203039.4252326,-194.824,-44.922,-37.109,-144.531,1.0
1626203039.429139,-137.695,-20.02,-27.344,92.773,1.0
1626203039.433045,93.75,-22.461,-24.414,129.88299999999998,1.0
1626203039.4369516,84.473,-31.738000000000003,-38.086,-136.23,1.0
1626203039.4408574,-157.227,-57.129,-49.805,-215.332,1.0
1626203039.4447641,-133.30100000000002,-30.273000000000003,-15.625,-204.102,1.0
1626203039.44867,-127.441,-24.414,-37.598,99.609,1.0
1626203039.4525762,77.637,-19.043,-29.296999999999997,170.898,1.0
1626203039.456483,71.289,-35.645,-37.598,-121.58200000000001,1.0
1626203039.460389,-119.62899999999999,-52.733999999999995,-46.875,-261.719,1.0
1626203039.464295,-164.062,-70.312,-53.223,-11.719000000000001,1.0
1626203039.4682014,16.113,-66.406,-43.945,162.59799999999998,1.0
1626203039.4721074,124.023,-18.555,-14.16,-35.156,1.0
1626203039.476014,-57.129,-6.836,-16.602,-250.0,1.0
1626203039.4799201,-193.84799999999998,-16.113,-13.184000000000001,-79.102,1.0
1626203039.4838264,-32.715,-27.831999999999997,-13.672,171.875,1.0
1626203039.4877326,134.27700000000002,-22.461,-18.066,80.566,1.0
1626203039.491639,-83.984,-22.461,5.859,84.961,1.0
1626203039.4955451,86.426,-37.109,-25.879,130.859,1.0
1626203039.4994514,53.223,-51.758,-44.434,-117.18799999999999,1.0
1626203039.5033574,-154.297,-28.809,-33.203,-225.09799999999998,1.0
1626203039.507264,-134.27700000000002,-0.977,-14.16,22.949,1.0
1626203039.5111701,106.934,-8.301,-2.441,180.176,1.0
1626203039.5150764,132.812,-22.461,-10.254000000000001,-36.133,1.0
1626203039.5189826,-80.566,-27.344,-38.574,-214.84400000000002,1.0
1626203039.522889,-189.94099999999997,-30.761999999999997,-57.617,-55.176,1.0
1626203039.5267951,16.113,-15.137,-20.996,168.457,1.0
1626203039.5307014,145.02,-6.836,-16.602,27.344,1.0
1626203039.5346076,-14.16,3.418,-31.738000000000003,-199.707,1.0
1626203039.538514,-166.50400000000002,-26.366999999999997,-39.062,-224.12099999999998,1.0
1626203039.5424201,-64.453,-54.688,-32.227,-65.43,1.0
1626203039.5463264,145.996,-6.348,4.883,190.918,1.0
1626203039.550233,63.477,-2.441,-19.531,48.828,1.0
1626203039.554139,-178.22299999999998,-29.296999999999997,-48.828,-250.488,1.0
1626203039.558045,-140.625,-33.203,-32.227,-169.43400000000003,1.0
1626203039.5619516,85.93799999999999,-31.25,-18.066,133.30100000000002,1.0
1626203039.5658574,92.285,-24.414,-38.574,122.559,1.0
1626203039.5697637,-126.95299999999999,-37.109,-58.105,-170.41,1.0
1626203039.57367,-161.621,-52.733999999999995,-33.203,-198.24200000000002,1.0
1626203039.5775762,41.504,-48.34,-20.996,78.613,1.0
1626203039.581483,122.559,-31.738000000000003,-20.996,165.03900000000002,1.0
1626203039.585389,-182.61700000000002,-44.434,-37.109,-67.87100000000001,1.0
1626203039.5892951,-30.761999999999997,-29.785,-57.617,160.156,1.0
1626203039.5932014,105.95700000000001,-21.973000000000003,-53.223,4.883,1.0
1626203039.5971074,-34.18,-28.32,-35.645,-231.93400000000003,1.0
1626203039.601014,-200.195,-46.875,-29.296999999999997,-125.977,1.0
1626203039.6049201,-78.613,-43.457,-22.949,125.0,1.0
1626203039.6088262,93.75,-22.949,-27.831999999999997,82.031,1.0
1626203039.6127326,-5.371,-32.715,-37.598,-179.688,1.0
1626203039.616639,-214.84400000000002,-58.593999999999994,-51.27,-201.172,1.0
1626203039.6205451,-136.23,-30.273000000000003,-44.922,69.336,1.0
1626203039.6244514,109.863,-31.25,-41.016000000000005,129.395,1.0
1626203039.6283576,97.656,-63.477,-43.945,-123.535,1.0
1626203039.632264,-120.117,-44.922,-20.02,-166.99200000000002,1.0
1626203039.6361701,-152.832,-13.672,-1.465,-193.359,1.0
1626203039.6400764,59.57,2.93,0.0,87.891,1.0
1626203039.6439826,119.62899999999999,-13.672,-15.625,150.879,1.0
1626203039.647889,-72.75399999999999,-27.344,-24.901999999999997,-115.723,1.0
1626203039.6517951,-171.875,-35.645,-20.02,-237.793,1.0
1626203039.6557016,21.973000000000003,-38.086,-7.324,27.831999999999997,1.0
1626203039.6596076,163.086,-11.719000000000001,-32.715,213.37900000000002,1.0
1626203039.663514,-13.672,-19.531,-69.336,-27.344,1.0
1626203039.6674201,-188.965,-25.879,-39.551,-250.0,1.0
1626203039.6713264,-88.867,-28.32,-31.738000000000003,-94.727,1.0
1626203039.6752326,96.68,-30.761999999999997,-33.203,145.02,1.0
1626203039.679139,30.273000000000003,-14.648,-24.901999999999997,167.96900000000002,1.0
1626203039.683045,145.50799999999998,-30.273000000000003,-27.344,3.418,1.0
1626203039.6869516,-30.761999999999997,-25.879,-45.41,-208.00799999999998,1.0
1626203039.6908574,-177.734,-22.949,-40.039,-88.867,1.0
1626203039.6947641,-27.344,-4.883,-1.465,158.203,1.0
1626203039.69867,133.789,-19.043,3.906,71.777,1.0
1626203039.7025762,7.812,-71.777,-20.996,-203.613,1.0
1626203039.706483,-173.828,-49.316,-23.438000000000002,-145.02,1.0
1626203039.710389,-100.586,-21.973000000000003,-31.738000000000003,124.512,1.0
1626203039.714295,105.95700000000001,-38.086,-55.176,108.398,1.0
1626203039.7182014,95.215,-27.344,-39.551,-187.012,1.0
1626203039.7221074,-122.559,-16.602,-11.719000000000001,-234.863,1.0
1626203039.726014,-171.875,-31.25,-16.602,-195.312,1.0
1626203039.7299201,25.391,-34.18,-26.855,69.824,1.0
1626203039.7338264,108.398,-12.695,-10.254000000000001,139.648,1.0
1626203039.7377326,-67.87100000000001,-20.996,-16.602,-115.723,1.0
1626203039.741639,-158.691,-36.621,-29.296999999999997,-211.91400000000002,1.0
1626203039.7455451,27.344,-35.156,-21.973000000000003,50.781000000000006,1.0
1626203039.7494514,162.109,-18.555,-7.812,210.938,1.0
1626203039.7533574,3.418,1.953,-26.366999999999997,-17.09,1.0
1626203039.757264,-179.688,-23.926,-39.551,-230.957,1.0
1626203039.7611701,-69.824,-65.918,-20.996,-56.152,1.0
1626203039.7650764,113.281,-51.758,-25.391,178.22299999999998,1.0
1626203039.7689826,44.434,-21.973000000000003,-20.996,52.733999999999995,1.0
1626203039.772889,-167.48,-25.879,-17.578,1.0,1.0
1626203039.7767951,-147.461,-23.926,-17.09,1.0,1.0
1626203039.7807014,47.363,-29.296999999999997,-22.949,1.0,1.0
1626203039.7846076,24.901999999999997,-35.156,-44.922,1.0,1.0
1626203039.788514,-155.762,-36.621,-38.574,1.0,1.0
1626203039.7924201,-168.945,-38.574,-39.062,1.0,1.0
1626203039.7963264,15.625,-39.551,-33.691,1.0,1.0
1626203039.800233,83.49600000000001,-28.809,-11.719000000000001,1.0,1.0
1626203039.804139,-109.375,-39.551,-28.32,1.0,1.0
1626203039.808045,-229.00400000000002,-49.805,-36.621,1.0,1.0
1626203039.8119516,-57.617,-37.598,-17.578,1.0,1.0
1626203039.8158574,82.031,-41.504,-19.043,1.0,1.0
1626203039.8197637,104.492,-34.668,-20.996,142.578,1.0
1626203039.82367,104.98,-38.086,-14.16,132.32399999999998,1.0
1626203039.8275762,-110.84,-59.082,-19.531,-161.621,1.0
1626203039.831483,-170.41,-57.617,-32.715,-233.887,1.0
1626203039.835389,11.23,-18.555,-35.156,29.296999999999997,1.0
1626203039.8392951,107.42200000000001,12.695,-27.344,145.50799999999998,1.0
1626203039.8432014,-68.359,-10.254000000000001,-23.438000000000002,-100.586,1.0
1626203039.8471074,-196.77700000000002,-38.086,-19.043,-249.512,1.0
1626203039.851014,-48.34,-34.668,-25.391,-38.086,1.0
1626203039.8549201,119.141,-36.621,-35.645,181.641,1.0
1626203039.8588262,7.324,-48.828,-42.48,15.625,1.0
1626203039.8627326,-183.59400000000002,-58.105,-40.527,-237.793,1.0
1626203039.866639,-118.652,-44.922,-38.086,1.0,1.0
1626203039.8705451,73.73,-29.296999999999997,-45.41,1.0,1.0
1626203039.8744514,40.039,-45.898,-52.246,1.0,1.0
1626203039.8783576,-146.484,-27.344,-42.48,1.0,1.0
1626203039.882264,-138.672,-12.207,-38.086,1.0,1.0
1626203039.8861701,69.336,-30.761999999999997,-45.41,1.0,1.0
1626203039.8900764,116.211,-34.18,-45.898,1.0,1.0
1626203039.8939826,-79.59,-36.133,-48.34,1.0,1.0
1626203039.897889,-157.715,-31.738000000000003,-33.203,1.0,1.0
1626203039.9017951,30.761999999999997,-34.18,-10.742,1.0,1.0
1626203039.9057016,146.97299999999998,-3.906,-20.508000000000003,1.0,1.0
1626203039.9096076,-40.039,1.465,-41.992,1.0,1.0
1626203039.913514,-212.891,-31.25,-44.434,1.0,1.0
1626203039.9174201,-59.57,-26.855,-31.738000000000003,1.0,1.0
1626203039.9213264,149.414,-18.066,-25.879,1.0,1.0
1626203039.9252326,37.598,-37.109,-41.992,1.0,1.0
1626203039.929139,-177.734,-30.761999999999997,-60.547,1.0,1.0
1626203039.933045,-103.027,-6.348,-47.852,1.0,1.0
1626203039.9369516,108.887,-8.301,-11.23,1.0,1.0
1626203039.9408574,87.891,-9.277000000000001,6.348,1.0,1.0
1626203039.9447641,-114.74600000000001,-31.25,-9.277000000000001,1.0,1.0
1626203039.94867,-159.668,-50.781000000000006,-33.691,1.0,1.0
1626203039.9525762,21.484,-28.809,-38.574,1.0,1.0
1626203039.956483,103.516,-15.625,-28.809,1.0,1.0
1626203039.960389,-156.25,-16.113,-23.438000000000002,-206.055,1.0
1626203039.964295,29.296999999999997,-6.836,-15.137,45.41,1.0
1626203039.9682014,130.859,-8.789,-32.715,178.71099999999998,1.0
1626203039.9721074,-16.602,-24.901999999999997,-17.578,-40.527,1.0
1626203039.976014,-126.95299999999999,-41.504,5.371,-189.94099999999997,1.0
1626203039.9799201,-12.207,-39.551,-19.043,-5.371,1.0
1626203039.9838264,115.723,-19.531,-22.949,173.34,1.0
1626203039.9877326,19.531,-18.555,-6.348,12.207,1.0
1626203039.991639,-169.43400000000003,-26.855,-24.414,-239.74599999999998,1.0
1626203039.9955451,-109.863,-36.621,-34.668,-125.0,1.0
1626203039.9994514,101.074,-27.344,-22.949,146.484,1.0
1626203040.0033574,62.988,-31.25,-28.809,71.289,1.0
1626203040.007264,-147.94899999999998,-41.016000000000005,-43.457,1.0,1.0
1626203040.0111701,-147.94899999999998,-26.366999999999997,-46.875,1.0,1.0
1626203040.0150764,69.824,-9.277000000000001,-24.901999999999997,1.0,1.0
1626203040.0189826,90.82,-30.761999999999997,-12.695,1.0,1.0
1626203040.022889,-118.652,-48.34,-22.461,1.0,1.0
1626203040.0267951,-195.312,-66.895,-31.738000000000003,1.0,1.0
1626203040.0307014,-12.207,-77.148,-24.901999999999997,1.0,1.0
1626203040.0346076,114.74600000000001,-37.598,-32.227,1.0,1.0
1626203040.038514,-44.922,-12.207,-63.477,1.0,1.0
1626203040.0424201,-206.055,-21.973000000000003,-56.152,1.0,1.0
1626203040.0463264,-88.37899999999999,-43.945,-38.574,1.0,1.0
1626203040.050233,104.00399999999999,-46.387,-17.578,1.0,1.0
1626203040.054139,52.733999999999995,-0.488,-23.926,155.273,1.0
1626203040.058045,120.117,-16.602,-48.34,-62.988,1.0
1626203040.0619516,-71.777,-28.809,-59.082,-269.043,1.0
1626203040.0658574,-186.523,-28.32,-57.617,-79.102,1.0
1626203040.0697637,6.348,-11.23,-30.761999999999997,185.05900000000003,1.0
1626203040.07367,149.414,-15.625,-14.648,62.012,1.0
1626203040.0775762,-7.812,-37.598,-39.551,-220.215,1.0
1626203040.081483,-190.918,-60.059,-42.48,-151.855,1.0
1626203040.085389,-74.219,-59.082,-17.578,127.441,1.0
1626203040.0892951,128.418,-37.598,-2.93,113.281,1.0
1626203040.0932014,46.387,-38.574,-12.207,-157.227,1.0
1626203040.0971074,-185.05900000000003,-46.875,-35.645,-188.477,1.0
1626203040.101014,-167.96900000000002,-30.273000000000003,-45.898,-188.477,1.0
1626203040.1049201,56.641000000000005,-25.879,-36.621,107.42200000000001,1.0
1626203040.1088262,85.93799999999999,-53.711000000000006,-40.039,122.559,1.0
1626203040.1127326,-115.723,-71.289,-57.617,-161.621,1.0
1626203040.116639,-163.57399999999998,-44.434,-48.828,-212.891,1.0
1626203040.1205451,40.527,-3.418,-40.039,68.359,1.0
1626203040.1244514,164.062,9.766,-34.18,209.47299999999998,1.0
1626203040.1283576,-16.602,-42.48,-26.366999999999997,-50.293,1.0
1626203040.132264,-219.727,-70.312,-40.527,-283.203,1.0
1626203040.1361701,-88.867,-31.738000000000003,-35.645,-75.684,1.0
1626203040.1400764,91.79700000000001,-10.742,-27.831999999999997,155.762,1.0
1626203040.1439826,-1.465,-15.137,-26.855,6.348,1.0
1626203040.147889,-169.922,-26.855,-22.949,1.0,1.0
1626203040.1517951,-84.961,-20.02,-43.945,1.0,1.0
1626203040.1557016,128.418,-16.113,-54.688,1.0,1.0
1626203040.1596076,84.961,-27.831999999999997,-42.48,1.0,1.0
1626203040.163514,-120.605,-12.207,-17.578,1.0,1.0
1626203040.1674201,-127.93,-20.996,2.93,1.0,1.0
1626203040.1713264,55.663999999999994,-35.645,-8.301,1.0,1.0
1626203040.1752326,85.449,-20.02,-25.879,1.0,1.0
1626203040.179139,-118.164,-37.598,-52.733999999999995,1.0,1.0
1626203040.183045,-191.895,-51.758,-45.41,1.0,1.0
1626203040.1869516,11.719000000000001,-30.273000000000003,-24.414,1.0,1.0
1626203040.1908574,125.977,-24.414,-42.48,1.0,1.0
1626203040.1947641,-59.082,-36.133,-7.812,129.88299999999998,1.0
1626203040.19867,119.141,-41.504,-32.715,110.84,1.0
1626203040.2025762,56.641000000000005,-24.414,-49.316,-150.879,1.0
1626203040.206483,-148.92600000000002,-11.23,-34.668,-174.805,1.0
1626203040.210389,-108.887,-12.695,-3.418,96.191,1.0
1626203040.214295,104.00399999999999,-14.648,-4.395,165.52700000000002,1.0
1626203040.2182014,98.145,-23.438000000000002,-30.273000000000003,-108.398,1.0
1626203040.2221074,-124.512,-31.738000000000003,-46.875,-235.84,1.0
1626203040.226014,-192.87099999999998,-42.968999999999994,-41.992,6.836,1.0
1626203040.2299201,17.09,-52.246,-23.438000000000002,182.61700000000002,1.0
1626203040.2338264,127.93,-23.926,-16.113,-18.555,1.0
1626203040.2377326,-61.035,-13.672,-38.574,-225.09799999999998,1.0
1626203040.241639,-198.24200000000002,-25.391,-52.246,1.0,1.0
1626203040.2455451,-24.901999999999997,-32.227,-30.761999999999997,1.0,1.0
1626203040.2494514,131.34799999999998,-34.18,-27.831999999999997,1.0,1.0
1626203040.2533574,9.766,-26.855,-35.156,1.0,1.0
1626203040.257264,-166.016,-20.996,-37.109,1.0,1.0
1626203040.2611701,-92.285,-21.484,-36.621,1.0,1.0
1626203040.2650764,94.238,-36.621,-24.901999999999997,1.0,1.0
1626203040.2689826,40.527,-46.875,-35.156,1.0,1.0
1626203040.272889,-161.621,-49.316,-49.805,1.0,1.0
1626203040.2767951,-158.203,-41.504,-44.434,1.0,1.0
1626203040.2807014,42.48,-10.254000000000001,-38.574,1.0,1.0
1626203040.2846076,98.633,-3.906,-22.461,1.0,1.0
1626203040.288514,0.0,0.488,-10.742,21.484,1.0
1626203040.2924201,127.93,-24.901999999999997,-33.691,174.31599999999997,1.0
1626203040.2963264,-24.414,-42.48,-49.316,-39.551,1.0
1626203040.300233,-176.27,-31.738000000000003,-51.27,-238.77,1.0
1626203040.304139,-64.941,-21.484,-45.41,-70.801,1.0
1626203040.308045,124.023,-14.648,-43.945,181.641,1.0
1626203040.3119516,41.992,-49.316,-55.663999999999994,52.246,1.0
1626203040.3158574,-166.50400000000002,-57.617,-33.203,-216.797,1.0
1626203040.3197637,-125.977,-25.879,-4.883,-138.672,1.0
1626203040.32367,80.078,-25.391,-3.418,140.137,1.0
1626203040.3275762,84.473,-23.438000000000002,-8.789,127.93,1.0
1626203040.331483,-114.258,-13.184000000000001,-15.625,-147.94899999999998,1.0
1626203040.335389,-157.227,-31.738000000000003,-31.25,1.0,1.0
1626203040.3392951,47.852,-54.688,-30.273000000000003,1.0,1.0
1626203040.3432014,124.023,-43.457,-38.086,1.0,1.0
1626203040.3471074,-40.039,-9.766,-32.227,1.0,1.0
1626203040.351014,-165.03900000000002,-20.508000000000003,-20.508000000000003,1.0,1.0
1626203040.3549201,-50.293,-47.852,-33.691,1.0,1.0
1626203040.3588262,93.75,-32.227,-25.391,1.0,1.0
1626203040.3627326,-8.301,-15.625,-25.391,1.0,1.0
1626203040.366639,-174.805,-27.344,-59.082,1.0,1.0
1626203040.3705451,-82.031,-32.227,-49.316,1.0,1.0
1626203040.3744514,119.141,-6.836,-12.207,1.0,1.0
1626203040.3783576,76.172,-4.395,0.977,1.0,1.0
1626203040.382264,-137.207,-35.156,-18.066,1.0,1.0
1626203040.3861701,-124.512,-32.715,-20.508000000000003,1.0,1.0
1626203040.3900764,108.398,-41.016000000000005,-5.859,1.0,1.0
1626203040.3939826,113.281,-73.73,-33.203,1.0,1.0
1626203040.397889,-119.62899999999999,-44.922,-74.707,1.0,1.0
1626203040.4017951,-174.805,4.883,-63.477,1.0,1.0
1626203040.4057016,35.156,12.207,-12.207,1.0,1.0
1626203040.4096076,128.906,-7.812,-5.371,1.0,1.0
1626203040.413514,-57.129,-15.137,-30.761999999999997,1.0,1.0
1626203040.4174201,-198.73,-27.831999999999997,-30.273000000000003,1.0,1.0
1626203040.4213264,-53.223,-33.203,-19.043,1.0,1.0
1626203040.4252326,113.281,-19.531,-18.066,1.0,1.0
1626203040.429139,46.387,-39.551,-4.395,162.59799999999998,1.0
1626203040.433045,111.32799999999999,-15.625,-5.859,-47.363,1.0
1626203040.4369516,-73.242,-43.945,-36.133,-241.21099999999998,1.0
1626203040.4408574,-169.922,-75.195,-36.621,-53.223,1.0
1626203040.4447641,-12.695,-39.062,-25.391,189.94099999999997,1.0
1626203040.44867,128.418,9.277000000000001,-4.395,40.527,1.0
1626203040.4525762,-15.625,-19.043,-8.301,-224.609,1.0
1626203040.456483,-186.523,-36.133,-29.296999999999997,-134.27700000000002,1.0
1626203040.460389,-66.406,-19.043,-20.508000000000003,149.90200000000002,1.0
1626203040.464295,126.465,-11.719000000000001,-19.531,100.586,1.0
1626203040.4682014,31.25,-27.831999999999997,-44.922,-187.012,1.0
1626203040.4721074,-183.105,-45.41,-46.875,-201.172,1.0
1626203040.476014,-123.535,-31.738000000000003,-19.043,1.0,1.0
1626203040.4799201,84.961,-24.901999999999997,-20.508000000000003,1.0,1.0
1626203040.4838264,68.359,-33.203,-45.898,1.0,1.0
1626203040.4877326,-133.789,-40.527,-41.504,1.0,1.0
1626203040.491639,-166.50400000000002,-33.691,-23.438000000000002,1.0,1.0
1626203040.4955451,28.809,-29.785,-21.973000000000003,1.0,1.0
1626203040.4994514,107.42200000000001,-15.625,-24.901999999999997,1.0,1.0
1626203040.5033574,-60.547,0.488,-25.879,1.0,1.0
1626203040.507264,-178.71099999999998,-18.066,-29.785,1.0,1.0
1626203040.5111701,-33.691,-27.344,-42.968999999999994,1.0,1.0
1626203040.5150764,102.051,-26.855,-53.711000000000006,1.0,1.0
1626203040.5189826,-17.09,-46.875,-56.641000000000005,1.0,1.0
1626203040.522889,88.867,-28.32,-18.066,149.90200000000002,1.0
1626203040.5267951,76.172,-14.648,-31.738000000000003,100.586,1.0
1626203040.5307014,-139.648,-23.438000000000002,-44.434,-187.012,1.0
1626203040.5346076,-175.293,-22.949,-43.457,-197.75400000000002,1.0
1626203040.538514,23.926,-27.831999999999997,-47.852,80.078,1.0
1626203040.5424201,99.609,-37.109,-40.527,154.297,1.0
1626203040.5463264,-73.73,-39.062,-37.109,-98.145,1.0
1626203040.550233,-179.688,-38.086,-30.761999999999997,-218.75,1.0
1626203040.554139,-8.301,-25.391,-16.113,20.996,1.0
1626203040.558045,122.07,-37.598,-20.02,176.27,1.0
1626203040.5619516,-22.461,-33.691,-24.414,-34.18,1.0
1626203040.5658574,-171.387,-41.992,-25.879,-228.516,1.0
1626203040.5697637,-53.711000000000006,-36.133,-38.574,1.0,1.0
1626203040.57367,104.492,-3.418,-55.663999999999994,1.0,1.0
1626203040.5775762,13.672,-13.672,-53.711000000000006,1.0,1.0
1626203040.581483,-184.082,-36.133,-50.293,1.0,1.0
1626203040.585389,-121.094,-31.738000000000003,-36.133,1.0,1.0
1626203040.5892951,102.051,-21.484,-20.996,1.0,1.0
1626203040.5932014,91.79700000000001,-32.227,-28.809,1.0,1.0
1626203040.5971074,-110.84,-43.945,-28.32,1.0,1.0
1626203040.601014,-149.90200000000002,-37.109,-29.785,1.0,1.0
1626203040.6049201,62.5,-22.461,-22.461,1.0,1.0
1626203040.6088262,132.32399999999998,-23.438000000000002,-17.09,1.0,1.0
1626203040.6127326,-79.59,-25.391,-25.879,1.0,1.0
1626203040.616639,-196.77700000000002,-35.156,-40.039,-244.62900000000002,1.0
1626203040.6205451,-15.137,-25.391,-33.691,-0.977,1.0
1626203040.6244514,140.625,-3.418,-11.23,194.33599999999998,1.0
1626203040.6283576,-5.371,-3.906,-18.555,-6.348,1.0
1626203040.632264,-176.27,-1.465,-31.25,-225.09799999999998,1.0
1626203040.6361701,-71.777,-23.926,-20.996,-65.918,1.0
1626203040.6400764,103.027,-54.199,-28.809,167.48,1.0
1626203040.6439826,22.461,-40.039,-45.898,40.527,1.0
1626203040.647889,-176.75799999999998,-18.555,-41.504,-227.53900000000002,1.0
1626203040.6517951,-126.465,-33.203,-42.968999999999994,-144.043,1.0
1626203040.6557016,92.773,-37.598,-44.434,149.414,1.0
1626203040.6596076,98.633,-33.691,-26.366999999999997,130.859,1.0
1626203040.663514,132.32399999999998,-8.789,-26.855,82.031,1.0
1626203040.6674201,26.366999999999997,-25.391,-31.25,-214.355,1.0
1626203040.6713264,-150.879,-44.434,-52.246,-186.035,1.0
1626203040.6752326,-53.223,-23.926,-56.641000000000005,117.18799999999999,1.0
1626203040.679139,146.484,-35.645,-12.695,131.34799999999998,1.0
1626203040.683045,82.52,-62.012,5.859,-155.762,1.0
1626203040.6869516,-157.715,-56.152,-17.09,-226.074,1.0
1626203040.6908574,-146.97299999999998,-17.578,-9.277000000000001,30.273000000000003,1.0
1626203040.6947641,82.52,1.953,-0.488,167.48,1.0
1626203040.69867,102.051,-27.831999999999997,-40.527,-62.012,1.0
1626203040.7025762,-101.56200000000001,-34.18,-63.965,-250.977,1.0
1626203040.706483,-171.387,-11.23,-49.805,-48.34,1.0
1626203040.710389,-6.836,-32.715,-34.18,18.066,1.0
1626203040.714295,103.516,-44.434,-21.973000000000003,147.461,1.0
1626203040.7182014,-36.133,-36.133,-14.16,-61.035,1.0
1626203040.7221074,-198.73,-66.895,-28.32,-248.535,1.0
1626203040.726014,-52.246,-51.758,-33.203,-48.34,1.0
1626203040.7299201,156.25,-15.625,-21.973000000000003,205.56599999999997,1.0
1626203040.7338264,50.293,-37.598,-29.785,45.41,1.0
1626203040.7377326,-152.344,-44.434,-30.273000000000003,-232.422,1.0
1626203040.741639,-98.145,-32.715,-24.901999999999997,-135.74200000000002,1.0
1626203040.7455451,111.32799999999999,-23.926,-43.945,145.996,1.0
1626203040.7494514,85.93799999999999,-31.738000000000003,-55.176,95.70299999999999,1.0
1626203040.7533574,-140.625,-48.828,-39.551,-197.266,1.0
1626203040.757264,-170.41,-41.504,-30.761999999999997,1.0,1.0
1626203040.7611701,39.551,-28.809,-41.016000000000005,1.0,1.0
1626203040.7650764,120.605,-14.16,-38.086,1.0,1.0
1626203040.7689826,-62.5,-22.949,-41.504,1.0,1.0
1626203040.772889,-180.66400000000002,-50.293,-41.504,1.0,1.0
1626203040.7767951,-8.301,-36.133,-25.879,1.0,1.0
1626203040.7807014,131.34799999999998,-21.484,-40.527,1.0,1.0
1626203040.7846076,-27.831999999999997,-47.852,-59.082,1.0,1.0
1626203040.788514,-202.637,-46.387,-48.34,1.0,1.0
1626203040.7924201,-93.75,-25.879,-33.691,1.0,1.0
1626203040.7963264,89.844,-21.484,-31.25,1.0,1.0
1626203040.800233,31.25,-9.766,-20.508000000000003,1.0,1.0
1626203040.804139,85.93799999999999,0.0,-10.254000000000001,128.906,1.0
1626203040.808045,102.051,-19.043,-32.715,137.695,1.0
1626203040.8119516,-102.539,-34.18,-32.715,-140.137,1.0
1626203040.8158574,-172.363,-42.48,-34.668,-221.68,1.0
1626203040.8197637,18.555,-61.035,-29.785,41.992,1.0
1626203040.82367,123.04700000000001,-46.875,-28.32,176.75799999999998,1.0
1626203040.8275762,-53.223,-30.761999999999997,-41.016000000000005,-65.43,1.0
1626203040.831483,-190.918,-26.366999999999997,-26.855,-235.352,1.0
1626203040.835389,-51.27,-26.855,-8.301,-38.086,1.0
1626203040.8392951,117.676,-26.855,-12.695,175.293,1.0
1626203040.8432014,20.996,-28.809,-33.203,25.391,1.0
1626203040.8471074,-177.24599999999998,-40.039,-46.875,-225.58599999999998,1.0
1626203040.851014,-102.539,-36.621,-29.296999999999997,1.0,1.0
1626203040.8549201,118.652,-25.879,-14.648,1.0,1.0
1626203040.8588262,98.145,-9.277000000000001,-27.344,1.0,1.0
1626203040.8627326,-120.605,-12.695,-54.688,1.0,1.0
1626203040.866639,-136.23,-30.761999999999997,-31.738000000000003,1.0,1.0
1626203040.8705451,70.801,-20.508000000000003,-12.695,1.0,1.0
1626203040.8744514,104.98,-26.366999999999997,-30.273000000000003,1.0,1.0
1626203040.8783576,-88.867,-46.875,-38.574,1.0,1.0
1626203040.882264,-174.31599999999997,-51.758,-41.992,1.0,1.0
1626203040.8861701,-7.324,-43.945,-27.831999999999997,1.0,1.0
1626203040.8900764,108.398,-3.906,-30.761999999999997,1.0,1.0
1626203040.8939826,-34.668,-27.831999999999997,-35.645,1.0,1.0
1626203040.897889,102.051,-28.32,-20.508000000000003,169.43400000000003,1.0
1626203040.9017951,63.965,-41.504,-34.668,86.914,1.0
1626203040.9057016,-126.465,-33.203,-39.551,-182.12900000000002,1.0
1626203040.9096076,-118.164,-13.184000000000001,-24.901999999999997,-147.94899999999998,1.0
1626203040.913514,80.078,-17.09,-31.25,122.559,1.0
1626203040.9174201,89.844,-16.113,-46.875,126.95299999999999,1.0
1626203040.9213264,-117.18799999999999,-26.855,-37.109,-151.36700000000002,1.0
1626203040.9252326,-191.895,-38.086,-16.113,-233.398,1.0
1626203040.929139,-0.977,-17.09,-2.93,29.785,1.0
1626203040.933045,121.094,-20.02,-3.418,171.875,1.0
1626203040.9369516,-44.434,-42.968999999999994,-16.113,-65.918,1.0
1626203040.9408574,-171.875,-33.203,-12.207,-226.074,1.0
1626203040.9447641,-18.066,-9.766,-7.324,1.0,1.0
1626203040.94867,137.207,-25.879,-13.184000000000001,1.0,1.0
1626203040.9525762,13.184000000000001,-44.434,-33.691,1.0,1.0
1626203040.956483,-175.293,-30.761999999999997,-48.34,1.0,1.0
1626203040.960389,-100.098,-34.18,-40.527,1.0,1.0
1626203040.964295,125.0,-32.227,-31.738000000000003,1.0,1.0
1626203040.9682014,105.469,-27.831999999999997,-33.203,1.0,1.0
1626203040.9721074,-128.906,-38.574,-33.203,1.0,1.0
1626203040.976014,-142.09,-30.761999999999997,-18.066,1.0,1.0
1626203040.9799201,43.945,-16.113,-19.043,1.0,1.0
1626203040.9838264,93.262,-9.277000000000001,-16.602,1.0,1.0
1626203040.9877326,-67.87100000000001,-22.949,-14.648,1.0,1.0
1626203040.991639,-159.18,-39.062,-23.926,1.0,1.0
1626203040.9955451,10.254000000000001,-17.578,-21.484,1.0,1.0
1626203040.9994514,139.16,-5.371,-20.508000000000003,1.0,1.0
1626203041.0033574,-16.113,-36.621,-31.738000000000003,1.0,1.0
1626203041.007264,-182.61700000000002,-56.641000000000005,-38.574,1.0,1.0
1626203041.0111701,-58.593999999999994,-46.875,-21.973000000000003,1.0,1.0
1626203041.0150764,113.281,-35.645,-25.879,1.0,1.0
1626203041.0189826,12.695,-18.555,-38.574,1.0,1.0
1626203041.022889,-170.41,-14.648,-32.715,1.0,1.0
1626203041.0267951,-110.84,-22.949,-23.926,1.0,1.0
1626203041.0307014,82.52,-37.109,-29.296999999999997,1.0,1.0
1626203041.0346076,64.941,-48.828,-45.898,1.0,1.0
1626203041.038514,128.418,-29.785,-28.809,-198.73,1.0
1626203041.0424201,-20.02,-22.949,-53.223,-203.613,1.0
1626203041.0463264,-196.77700000000002,-32.715,-60.059,75.195,1.0
1626203041.050233,-87.402,-55.176,-28.32,132.812,1.0
1626203041.054139,123.04700000000001,-50.293,-10.254000000000001,-134.27700000000002,1.0
1626203041.058045,63.965,-44.434,-33.203,-244.141,1.0
1626203041.0619516,-149.414,-41.992,-49.805,17.578,1.0
1626203041.0658574,-128.418,-40.039,-34.668,184.082,1.0
1626203041.0697637,73.73,-43.945,-19.531,-52.733999999999995,1.0
1626203041.07367,96.68,-40.039,-13.184000000000001,-265.137,1.0
1626203041.0775762,-95.215,-21.484,-8.301,-74.707,1.0
1626203041.081483,-167.48,-24.901999999999997,-12.207,163.57399999999998,1.0
1626203041.085389,14.16,-38.086,-23.438000000000002,41.016000000000005,1.0
1626203041.0892951,108.887,-21.973000000000003,-28.32,153.809,1.0
1626203041.0932014,-39.062,-0.977,-26.855,-74.707,1.0
1626203041.0971074,-182.12900000000002,-26.366999999999997,-41.992,-244.141,1.0
1626203041.101014,-54.199,-37.109,-49.316,-38.086,1.0
1626203041.1049201,116.699,-13.672,-35.645,179.199,1.0
1626203041.1088262,18.066,-27.831999999999997,-28.809,20.996,1.0
1626203041.1127326,-149.90200000000002,-43.945,-26.366999999999997,-210.938,1.0
1626203041.116639,-84.961,-35.156,-23.438000000000002,-89.844,1.0
1626203041.1205451,111.816,-27.344,-29.296999999999997,174.805,1.0
1626203041.1244514,71.777,-15.137,-38.086,92.773,1.0
1626203041.1283576,-145.996,-23.926,-20.508000000000003,-198.24200000000002,1.0
1626203041.132264,-152.832,-37.598,-5.859,1.0,1.0
1626203041.1361701,46.875,-35.156,-18.555,1.0,1.0
1626203041.1400764,93.262,-30.761999999999997,-25.391,1.0,1.0
1626203041.1439826,-105.469,-35.645,-28.32,1.0,1.0
1626203041.147889,-185.547,-30.761999999999997,-30.761999999999997,1.0,1.0
1626203041.1517951,9.766,-24.414,-41.016000000000005,1.0,1.0
1626203041.1557016,125.0,-22.949,-42.968999999999994,1.0,1.0
1626203041.1596076,-32.715,-16.602,-28.809,1.0,1.0
1626203041.163514,-178.22299999999998,-32.715,-32.227,1.0,1.0
1626203041.1674201,-62.012,-58.105,-31.738000000000003,1.0,1.0
1626203041.1713264,107.91,-35.645,-15.625,1.0,1.0
1626203041.1752326,36.621,-14.16,-26.855,1.0,1.0
1626203041.179139,74.707,-62.012,-23.438000000000002,155.762,1.0
1626203041.183045,80.566,-60.547,-33.691,-118.164,1.0
1626203041.1869516,-120.605,-34.18,-30.273000000000003,-228.516,1.0
1626203041.1908574,-160.156,-18.555,-12.207,1.465,1.0
1626203041.1947641,23.438000000000002,-33.691,-32.227,156.25,1.0
1626203041.19867,105.95700000000001,-34.668,-52.246,-51.758,1.0
1626203041.2025762,-68.848,-38.574,-48.828,-257.324,1.0
1626203041.206483,-188.477,-36.621,-41.504,-88.867,1.0
1626203041.210389,-16.602,-19.043,-17.578,161.621,1.0
1626203041.214295,164.062,-31.738000000000003,6.348,55.663999999999994,1.0
1626203041.2182014,39.062,-42.48,-24.414,-223.145,1.0
1626203041.2221074,-158.203,-30.761999999999997,-49.316,-165.03900000000002,1.0
1626203041.226014,-86.426,-44.922,-31.738000000000003,-109.863,1.0
1626203041.2299201,105.469,-42.968999999999994,-21.973000000000003,141.602,1.0
1626203041.2338264,76.66,-23.438000000000002,-25.391,78.125,1.0
1626203041.2377326,-134.27700000000002,-31.738000000000003,-46.387,-196.77700000000002,1.0
1626203041.241639,-135.254,-35.156,-43.945,-172.363,1.0
1626203041.2455451,73.242,-41.992,-21.973000000000003,111.816,1.0
1626203041.2494514,109.863,-28.809,-8.789,146.484,1.0
1626203041.2533574,-77.148,-5.371,-19.531,-121.58200000000001,1.0
1626203041.257264,-163.57399999999998,-19.043,-35.645,-213.86700000000002,1.0
1626203041.2611701,7.324,-37.109,-31.738000000000003,36.133,1.0
1626203041.2650764,120.605,-32.715,-29.785,168.945,1.0
1626203041.2689826,-31.738000000000003,-27.344,-29.785,-56.641000000000005,1.0
1626203041.272889,115.723,-11.23,-23.926,178.71099999999998,1.0
1626203041.2767951,37.109,-58.105,-51.27,57.129,1.0
1626203041.2807014,-148.438,-67.383,-44.434,-205.078,1.0
1626203041.2846076,-105.95700000000001,-18.555,-9.277000000000001,-129.395,1.0
1626203041.288514,90.82,14.16,5.371,149.414,1.0
1626203041.2924201,88.37899999999999,-12.207,-14.16,122.07,1.0
1626203041.2963264,-105.469,-36.133,-28.32,-154.785,1.0
1626203041.300233,-167.96900000000002,-39.551,-39.551,-199.707,1.0
1626203041.304139,8.789,-44.922,-47.363,57.617,1.0
1626203041.308045,114.74600000000001,-38.086,-34.668,162.109,1.0
1626203041.3119516,-49.805,-29.296999999999997,-31.738000000000003,-78.613,1.0
1626203041.3158574,-178.71099999999998,-42.968999999999994,-38.086,-231.445,1.0
1626203041.3197637,-24.414,-43.457,-32.715,1.0,1.0
1626203041.32367,130.859,-24.901999999999997,-20.508000000000003,1.0,1.0
1626203041.3275762,3.906,-21.973000000000003,-23.438000000000002,1.0,1.0
1626203041.331483,-181.15200000000002,-21.484,-29.296999999999997,1.0,1.0
1626203041.335389,-87.402,-21.973000000000003,-15.625,1.0,1.0
1626203041.3392951,89.844,-26.366999999999997,-12.207,1.0,1.0
1626203041.3432014,32.227,-38.574,-25.879,1.0,1.0
1626203041.3471074,-169.922,-47.852,-53.223,1.0,1.0
1626203041.351014,-168.945,-50.293,-52.733999999999995,1.0,1.0
1626203041.3549201,56.641000000000005,-32.227,-16.602,1.0,1.0
1626203041.3588262,100.098,-5.371,-3.418,1.0,1.0
1626203041.3627326,-104.492,-15.625,-32.715,1.0,1.0
1626203041.366639,-187.012,-37.109,-53.711000000000006,-229.00400000000002,1.0
1626203041.3705451,11.23,-42.968999999999994,-22.949,47.852,1.0
1626203041.3744514,125.0,-45.41,4.883,185.05900000000003,1.0
1626203041.3783576,-60.059,-42.968999999999994,-24.901999999999997,-75.684,1.0
1626203041.382264,-206.543,-47.852,-47.852,-258.301,1.0
1626203041.3861701,-45.41,-21.484,-30.273000000000003,-31.738000000000003,1.0
1626203041.3900764,133.30100000000002,-7.324,-11.719000000000001,199.21900000000002,1.0
1626203041.3939826,11.719000000000001,-40.039,-7.812,26.855,1.0
1626203041.397889,-183.59400000000002,-43.945,-26.366999999999997,-227.051,1.0
1626203041.4017951,-90.33200000000001,-7.812,-33.203,-94.238,1.0
1626203041.4057016,105.95700000000001,-23.926,-25.879,166.016,1.0
1626203041.4096076,62.012,-46.387,-26.855,86.914,1.0
1626203041.413514,143.066,-12.207,-11.719000000000001,7.324,1.0
1626203041.4174201,-12.207,-26.855,-19.531,-233.398,1.0
1626203041.4213264,-189.453,-45.41,-27.831999999999997,-125.0,1.0
1626203041.4252326,-58.593999999999994,-32.715,-21.973000000000003,147.461,1.0
1626203041.429139,127.93,-23.438000000000002,-8.301,96.191,1.0
1626203041.433045,34.18,-35.645,-13.184000000000001,-179.688,1.0
1626203041.4369516,-159.668,-55.663999999999994,-16.113,-177.734,1.0
1626203041.4408574,-115.723,-61.523,-4.395,95.70299999999999,1.0
1626203041.4447641,87.891,-49.316,-4.883,156.738,1.0
1626203041.44867,96.68,-37.109,5.371,-118.164,1.0
1626203041.4525762,-116.211,-45.898,3.418,-241.21099999999998,1.0
1626203041.456483,-168.945,-54.199,5.371,13.672,1.0
1626203041.460389,-37.598,-55.663999999999994,49.316,116.211,1.0
1626203041.464295,152.344,-66.406,44.922,194.33599999999998,1.0
1626203041.4682014,167.96900000000002,-74.707,43.945,-52.733999999999995,1.0
1626203041.4721074,-44.434,-81.543,30.273000000000003,-176.27,1.0
1626203041.476014,-90.82,-62.988,31.25,69.824,1.0
1626203041.4799201,121.58200000000001,-49.316,33.203,259.76599999999996,1.0
1626203041.4838264,201.66,-65.918,19.043,69.336,1.0
1626203041.4877326,29.296999999999997,-70.801,14.16,-136.23,1.0
1626203041.491639,-104.00399999999999,-72.266,1.465,10.254000000000001,1.0
1626203041.4955451,52.246,-68.848,10.742,264.64799999999997,1.0
1626203041.4994514,208.49599999999998,-62.5,28.809,159.18,1.0
1626203041.5033574,82.031,-57.129,18.066,-88.867,1.0
1626203041.507264,147.94899999999998,-15.625,-30.761999999999997,192.38299999999998,1.0
1626203041.5111701,-48.828,-29.785,-14.16,-89.355,1.0
1626203041.5150764,-156.25,-47.363,-13.672,-206.055,1.0
1626203041.5189826,17.09,-33.691,-19.531,44.922,1.0
1626203041.522889,139.648,-20.02,-17.09,192.87099999999998,1.0
1626203041.5267951,1.953,-30.273000000000003,-23.438000000000002,-22.461,1.0
1626203041.5307014,-141.602,-44.434,-22.949,-207.52,1.0
1626203041.5346076,-17.09,-31.25,-7.812,-21.973000000000003,1.0
1626203041.538514,152.344,-39.551,-10.742,205.56599999999997,1.0
1626203041.5424201,64.453,-58.593999999999994,-19.043,66.406,1.0
1626203041.5463264,-155.273,-45.41,-34.668,-214.84400000000002,1.0
1626203041.550233,-94.727,-0.488,-17.578,-114.258,1.0
1626203041.554139,135.254,0.977,-6.348,1.0,1.0
1626203041.558045,91.309,-33.203,-51.27,1.0,1.0
1626203041.5619516,-124.512,-45.898,-61.035,1.0,1.0
1626203041.5658574,-166.50400000000002,-39.551,-34.18,1.0,1.0
1626203041.5697637,62.5,3.906,12.695,1.0,1.0
1626203041.57367,114.74600000000001,-4.395,-4.395,1.0,1.0
1626203041.5775762,-107.42200000000001,-45.898,-41.504,1.0,1.0
1626203041.581483,-182.12900000000002,-50.781000000000006,-28.32,1.0,1.0
1626203041.585389,-24.414,-57.129,-34.668,1.0,1.0
1626203041.5892951,126.95299999999999,-27.344,-17.09,1.0,1.0
1626203041.5932014,3.906,-8.789,-15.137,1.0,1.0
1626203041.5971074,-175.78099999999998,-28.32,-41.504,1.0,1.0
1626203041.601014,-64.453,-30.273000000000003,-36.621,1.0,1.0
1626203041.6049201,130.371,-27.831999999999997,-23.926,1.0,1.0
1626203041.6088262,65.918,-28.809,-24.414,1.0,1.0
1626203041.6127326,-147.94899999999998,-36.621,-32.715,1.0,1.0
1626203041.616639,-128.418,-27.831999999999997,-31.25,1.0,1.0
1626203041.6205451,81.543,-13.672,-22.461,1.0,1.0
1626203041.6244514,83.984,-16.602,-30.273000000000003,1.0,1.0
1626203041.6283576,-111.816,-24.414,-29.785,1.0,1.0
1626203041.632264,-160.645,-36.133,-25.879,1.0,1.0
1626203041.6361701,36.133,-37.109,-21.973000000000003,1.0,1.0
1626203041.6400764,128.906,-25.879,-30.761999999999997,1.0,1.0
1626203041.6439826,-39.062,-28.809,-35.645,1.0,1.0
1626203041.647889,54.199,-26.855,-50.781000000000006,107.91,1.0
1626203041.6517951,-34.668,-11.719000000000001,-58.593999999999994,-40.527,1.0
1626203041.6557016,-230.957,-22.461,-52.733999999999995,-306.152,1.0
1626203041.6596076,-207.52,-18.066,-64.453,-241.21099999999998,1.0
1626203041.663514,-27.344,-8.301,-80.566,-1.465,1.0
1626203041.6674201,-39.062,5.859,-85.93799999999999,-45.898,1.0
1626203041.6713264,-241.21099999999998,0.488,-104.492,-326.172,1.0
1626203041.6752326,-282.715,-7.324,-111.816,-364.25800000000004,1.0
1626203041.679139,-71.777,25.391,-99.609,-77.148,1.0
1626203041.683045,-1.953,21.973000000000003,-93.75,-6.836,1.0
1626203041.6869516,-218.262,-0.977,-129.395,-309.082,1.0
1626203041.6908574,-321.777,-17.578,-150.879,-433.594,1.0
1626203041.6947641,-144.531,-36.133,-133.789,1.0,1.0
1626203041.69867,0.977,-8.789,-127.93,1.0,1.0
1626203041.7025762,-133.789,21.973000000000003,-115.723,1.0,1.0
1626203041.706483,-292.48,0.977,-111.816,1.0,1.0
1626203041.710389,-151.855,12.695,-97.16799999999999,1.0,1.0
1626203041.714295,52.733999999999995,21.973000000000003,-77.148,1.0,1.0
1626203041.7182014,-40.039,-12.695,-94.238,1.0,1.0
1626203041.7221074,-248.047,-15.625,-112.305,1.0,1.0
1626203041.726014,-190.43,0.0,-100.098,1.0,1.0
1626203041.7299201,38.086,-7.324,-98.145,1.0,1.0
1626203041.7338264,47.852,-20.02,-102.539,1.0,1.0
1626203041.7377326,-145.02,-18.066,-83.008,1.0,1.0
1626203041.741639,-183.59400000000002,5.859,-80.566,1.0,1.0
1626203041.7455451,7.324,33.203,-83.49600000000001,1.0,1.0
1626203041.7494514,91.79700000000001,28.809,-70.801,1.0,1.0
1626203041.7533574,-88.37899999999999,-9.277000000000001,-78.125,1.0,1.0
1626203041.757264,-206.055,-21.973000000000003,-64.453,1.0,1.0
1626203041.7611701,-39.551,-22.461,-42.968999999999994,1.0,1.0
1626203041.7650764,110.352,-22.461,-42.48,1.0,1.0
1626203041.7689826,-36.621,-19.531,-55.176,1.0,1.0
1626203041.772889,-208.49599999999998,-19.531,-59.57,1.0,1.0
1626203041.7767951,-108.887,-24.901999999999997,-63.965,1.0,1.0
1626203041.7807014,85.93799999999999,-17.578,-66.895,1.0,1.0
1626203041.7846076,50.781000000000006,1.465,-50.781000000000006,1.0,1.0
1626203041.788514,1.953,-26.855,-37.109,-196.28900000000002,1.0
1626203041.7924201,-182.61700000000002,-9.766,-34.668,-149.90200000000002,1.0
1626203041.7963264,-94.238,-4.395,-44.922,115.723,1.0
1626203041.800233,99.609,-3.418,-60.059,110.84,1.0
1626203041.804139,52.246,-13.184000000000001,-60.547,-154.297,1.0
1626203041.808045,-154.785,-32.715,-57.129,-208.984,1.0
1626203041.8119516,-134.766,-31.25,-48.828,51.27,1.0
1626203041.8158574,74.219,-20.02,-36.621,164.551,1.0
1626203041.8197637,98.633,-24.414,-33.203,-79.59,1.0
1626203041.82367,-85.449,-48.828,-24.901999999999997,-213.37900000000002,1.0
1626203041.8275762,-163.57399999999998,-49.316,-36.133,10.742,1.0
1626203041.831483,7.812,-23.926,-51.758,190.43,1.0
1626203041.835389,136.719,-17.578,-19.043,178.22299999999998,1.0
1626203041.8392951,-23.438000000000002,-28.809,-41.016000000000005,-61.523,1.0
1626203041.8432014,-173.34,-12.207,-47.363,-236.328,1.0
1626203041.8471074,-28.32,-2.93,-34.18,-29.296999999999997,1.0
1626203041.851014,144.043,-13.184000000000001,-27.344,184.082,1.0
1626203041.8549201,30.761999999999997,-41.504,-41.016000000000005,18.555,1.0
1626203041.8588262,-168.945,-68.359,-82.031,-231.445,1.0
1626203041.8627326,-92.285,-30.761999999999997,-74.707,-106.934,1.0
1626203041.866639,109.863,-9.277000000000001,-30.273000000000003,170.41,1.0
1626203041.8705451,54.199,-26.855,-22.461,93.75,1.0
1626203041.8744514,-163.086,-23.926,-34.668,-198.73,1.0
1626203041.8783576,-138.672,-12.207,-7.324,-162.59799999999998,1.0
1626203041.882264,89.355,-14.648,4.395,138.672,1.0
1626203041.8861701,119.62899999999999,-18.066,-30.273000000000003,163.086,1.0
1626203041.8900764,-89.355,-22.949,-41.016000000000005,-120.117,1.0
1626203041.8939826,-190.918,-42.48,-30.273000000000003,-231.93400000000003,1.0
1626203041.897889,-6.836,-35.156,-19.043,21.973000000000003,1.0
1626203041.9017951,128.418,-16.602,-26.855,190.43,1.0
1626203041.9057016,-18.555,-44.434,-37.109,-32.715,1.0
1626203041.9096076,-187.988,-71.289,-30.273000000000003,-240.234,1.0
1626203041.913514,-54.688,-23.438000000000002,-16.113,-41.016000000000005,1.0
1626203041.9174201,128.418,-0.977,-20.508000000000003,184.57,1.0
1626203041.9213264,10.742,-42.48,-63.477,16.113,1.0
1626203041.9252326,-158.691,-42.968999999999994,-45.898,-208.984,1.0
1626203041.929139,-91.79700000000001,-10.254000000000001,2.93,-101.56200000000001,1.0
1626203041.933045,74.707,-20.02,-23.438000000000002,136.719,1.0
1626203041.9369516,72.75399999999999,-38.574,-34.18,105.95700000000001,1.0
1626203041.9408574,-123.535,-34.668,-33.691,-169.43400000000003,1.0
1626203041.9447641,-166.50400000000002,-52.733999999999995,-54.199,-207.52,1.0
1626203041.94867,55.176,-54.199,-27.831999999999997,81.055,1.0
1626203041.9525762,128.418,-15.625,-4.883,167.96900000000002,1.0
1626203041.956483,-77.148,-7.812,-20.996,-106.445,1.0
1626203041.960389,-193.84799999999998,-18.555,-37.598,-246.582,1.0
1626203041.964295,-3.906,-11.719000000000001,-37.109,12.695,1.0
1626203041.9682014,148.438,-18.066,-39.551,198.73,1.0
1626203041.9721074,4.395,-23.926,-30.273000000000003,-5.371,1.0
1626203041.976014,102.539,-17.09,-20.508000000000003,143.066,1.0
1626203041.9799201,-115.234,-33.203,-28.32,-154.297,1.0
1626203041.9838264,-184.57,-36.621,-34.668,-229.00400000000002,1.0
1626203041.9877326,4.395,-42.48,-30.761999999999997,37.598,1.0
1626203041.991639,123.535,-29.785,-20.996,168.457,1.0
1626203041.9955451,-16.602,-18.555,-34.668,-57.129,1.0
1626203041.9994514,-165.52700000000002,-37.109,-41.992,-232.422,1.0
1626203042.0033574,-39.551,-19.043,-27.344,-25.879,1.0
1626203042.007264,115.723,-15.137,-35.645,183.105,1.0
1626203042.0111701,8.301,-29.785,-34.668,9.766,1.0
1626203042.0150764,-166.99200000000002,-41.992,-12.207,-226.562,1.0
1626203042.0189826,-99.12100000000001,-57.129,-6.348,-110.84,1.0
1626203042.022889,97.656,-40.527,-14.16,1.0,1.0
1626203042.0267951,69.824,-2.441,-39.062,1.0,1.0
1626203042.0307014,-119.141,-9.277000000000001,-47.363,1.0,1.0
1626203042.0346076,-149.414,-53.223,-39.062,1.0,1.0
1626203042.038514,31.738000000000003,-38.086,-34.668,1.0,1.0
1626203042.0424201,92.773,-13.672,-28.809,1.0,1.0
1626203042.0463264,-102.539,-22.461,-36.133,1.0,1.0
1626203042.050233,-199.21900000000002,-25.879,-47.363,1.0,1.0
1626203042.054139,-12.207,-25.879,-32.227,1.0,1.0
1626203042.058045,111.816,-37.598,-8.301,1.0,1.0
1626203042.0619516,-34.668,-60.059,-23.438000000000002,1.0,1.0
1626203042.0658574,-172.363,-63.477,-35.645,1.0,1.0
1626203042.0697637,-41.504,-41.504,-21.973000000000003,1.0,1.0
1626203042.07367,137.695,-5.859,-13.184000000000001,1.0,1.0
1626203042.0775762,34.668,-10.254000000000001,-26.855,1.0,1.0
1626203042.081483,-183.59400000000002,-36.621,-62.012,1.0,1.0
1626203042.085389,-139.16,-28.809,-57.129,1.0,1.0
1626203042.0892951,73.73,-16.602,-26.855,1.0,1.0
1626203042.0932014,82.031,-7.324,-33.691,1.0,1.0
1626203042.0971074,-122.07,-18.066,-38.086,1.0,1.0
1626203042.101014,-155.762,-39.062,-20.02,1.0,1.0
1626203042.1049201,47.852,-41.016000000000005,-18.066,1.0,1.0
1626203042.1088262,104.98,-44.922,-44.434,1.0,1.0
1626203042.1127326,-65.918,-36.621,-37.598,1.0,1.0
1626203042.116639,44.922,-17.09,-29.785,-162.59799999999998,1.0
1626203042.1205451,-177.24599999999998,-50.781000000000006,-26.366999999999997,-208.49599999999998,1.0
1626203042.1244514,-147.94899999999998,-41.992,-24.414,70.801,1.0
1626203042.1283576,72.75399999999999,-26.366999999999997,-22.461,147.461,1.0
1626203042.132264,99.609,-23.438000000000002,-20.02,-125.0,1.0
1626203042.1361701,-107.42200000000001,-33.203,-28.32,-258.789,1.0
1626203042.1400764,-190.918,-47.852,-37.598,-14.648,1.0
1626203042.1439826,-7.324,-34.668,-37.598,190.918,1.0
1626203042.147889,110.84,-13.184000000000001,-28.32,-1.953,1.0
1626203042.1517951,-44.922,-24.901999999999997,-30.761999999999997,-251.465,1.0
1626203042.1557016,-181.15200000000002,-41.992,-30.761999999999997,-101.074,1.0
1626203042.1596076,-38.086,-31.738000000000003,-25.879,175.78099999999998,1.0
1626203042.163514,118.652,-41.504,-22.949,160.645,1.0
1626203042.1674201,5.371,-52.733999999999995,-12.695,-10.742,1.0
1626203042.1713264,-164.062,-29.785,-20.996,-229.98,1.0
1626203042.1752326,-89.355,-29.785,-69.336,-99.609,1.0
1626203042.179139,96.68,-35.645,-65.918,153.809,1.0
1626203042.183045,49.316,-30.273000000000003,-30.273000000000003,68.359,1.0
1626203042.1869516,-136.23,-21.484,-18.555,-195.312,1.0
1626203042.1908574,-117.18799999999999,-12.207,-14.648,-152.832,1.0
1626203042.1947641,65.918,-19.531,-27.344,111.816,1.0
1626203042.19867,95.215,-23.926,-32.227,135.74200000000002,1.0
1626203042.2025762,-84.961,-30.273000000000003,-37.598,-128.906,1.0
1626203042.206483,-153.32,-34.668,-35.156,-194.33599999999998,1.0
1626203042.210389,26.855,-29.296999999999997,-28.809,62.012,1.0
1626203042.214295,106.445,-42.968999999999994,-35.156,159.668,1.0
1626203042.2182014,-64.453,-38.574,-38.574,-81.543,1.0
1626203042.2221074,-202.148,-41.016000000000005,-36.621,-252.44099999999997,1.0
1626203042.226014,-79.59,-51.27,-30.761999999999997,-60.547,1.0
1626203042.2299201,73.73,-20.02,-29.785,143.066,1.0
1626203042.2338264,-30.273000000000003,-11.23,-41.504,-20.996,1.0
1626203042.2377326,-208.49599999999998,-14.648,-45.41,-266.60200000000003,1.0
1626203042.241639,-128.906,-21.973000000000003,-32.227,-149.414,1.0
1626203042.2455451,88.867,-38.086,-29.785,138.184,1.0
1626203042.2494514,51.758,-37.598,-37.109,78.125,1.0
1626203042.2533574,-176.75799999999998,-50.293,-34.668,-221.68,1.0
1626203042.257264,-181.15200000000002,-49.805,-40.039,1.0,1.0
1626203042.2611701,12.695,-29.296999999999997,-52.733999999999995,1.0,1.0
1626203042.2650764,50.293,-26.855,-47.852,1.0,1.0
1626203042.2689826,-133.30100000000002,-23.438000000000002,-45.898,1.0,1.0
1626203042.272889,-230.957,-25.391,-37.598,1.0,1.0
1626203042.2767951,-42.968999999999994,-28.809,-23.926,1.0,1.0
1626203042.2807014,100.586,-17.578,-31.738000000000003,1.0,1.0
1626203042.2846076,-54.688,-21.484,-50.781000000000006,1.0,1.0
1626203042.288514,-219.238,-44.434,-45.41,1.0,1.0
1626203042.2924201,-105.95700000000001,-56.641000000000005,-38.086,1.0,1.0
1626203042.2963264,71.289,-53.223,-47.363,1.0,1.0
1626203042.300233,2.93,-39.062,-37.598,1.0,1.0
1626203042.304139,133.789,-22.461,-18.555,-34.668,1.0
1626203042.308045,-72.266,-42.48,-55.663999999999994,-226.562,1.0
1626203042.3119516,-197.75400000000002,-45.41,-61.523,-52.733999999999995,1.0
1626203042.3158574,-24.901999999999997,-39.062,-38.574,192.38299999999998,1.0
1626203042.3197637,147.94899999999998,-25.879,-7.812,52.246,1.0
1626203042.32367,15.625,-20.02,-1.465,-226.562,1.0
1626203042.3275762,-194.33599999999998,-39.062,-32.227,-145.996,1.0
1626203042.331483,-114.74600000000001,-65.43,-44.434,141.602,1.0
1626203042.335389,86.914,-45.41,-46.387,125.488,1.0
1626203042.3392951,51.27,-34.668,-48.828,-150.879,1.0
1626203042.3432014,-147.461,-30.761999999999997,-43.457,-185.05900000000003,1.0
1626203042.3471074,-130.859,0.0,-35.645,103.516,1.0
1626203042.351014,78.125,-5.859,-28.32,1.0,1.0
1626203042.3549201,102.051,-25.391,-19.531,1.0,1.0
1626203042.3588262,-101.56200000000001,-35.156,-17.578,1.0,1.0
1626203042.3627326,-178.22299999999998,-34.668,-22.461,1.0,1.0
1626203042.366639,16.602,-14.648,-26.855,1.0,1.0
1626203042.3705451,141.113,-1.953,-15.137,1.0,1.0
1626203042.3744514,-10.742,-19.531,-19.531,1.0,1.0
1626203042.3783576,-160.645,-58.105,-38.086,1.0,1.0
1626203042.382264,-34.18,-42.968999999999994,-22.949,1.0,1.0
1626203042.3861701,122.559,-21.484,-35.156,1.0,1.0
1626203042.3900764,18.066,-20.508000000000003,-56.641000000000005,1.0,1.0
1626203042.3939826,-155.762,-23.438000000000002,-29.785,1.0,1.0
1626203042.397889,105.95700000000001,-24.901999999999997,-15.137,128.418,1.0
1626203042.4017951,57.617,-2.441,-12.695,-140.625,1.0
1626203042.4057016,-145.50799999999998,-12.695,-45.41,-191.895,1.0
1626203042.4096076,-134.766,-13.184000000000001,-75.195,79.102,1.0
1626203042.413514,85.449,-23.438000000000002,-32.715,173.828,1.0
1626203042.4174201,113.281,-30.273000000000003,-7.812,-88.37899999999999,1.0
1626203042.4213264,-87.891,-32.227,-39.551,-250.488,1.0
1626203042.4252326,-159.18,-33.691,-45.41,-32.715,1.0
1626203042.429139,36.621,-13.184000000000001,-18.555,173.34,1.0
1626203042.433045,152.832,-21.484,0.0,-14.16,1.0
1626203042.4369516,-24.414,-25.391,-13.184000000000001,-230.46900000000002,1.0
1626203042.4408574,-183.105,-30.273000000000003,-30.273000000000003,-71.289,1.0
1626203042.4447641,-40.039,-44.922,-31.738000000000003,-31.25,1.0
1626203042.44867,125.0,-59.57,-32.227,180.66400000000002,1.0
1626203042.4525762,13.184000000000001,-55.176,-47.363,7.324,1.0
1626203042.456483,-172.363,-24.901999999999997,-68.848,-229.98,1.0
1626203042.460389,-104.00399999999999,-28.809,-62.012,-111.32799999999999,1.0
1626203042.464295,107.91,-21.484,-23.438000000000002,153.32,1.0
1626203042.4682014,68.359,-15.137,-13.672,77.148,1.0
1626203042.4721074,-138.184,-40.527,-27.344,-200.68400000000003,1.0
1626203042.476014,-143.066,-44.922,-30.273000000000003,-184.082,1.0
1626203042.4799201,71.777,-35.645,-18.066,109.863,1.0
1626203042.4838264,128.418,-25.391,-17.09,157.227,1.0
1626203042.4877326,-79.102,-43.457,-31.25,-132.32399999999998,1.0
1626203042.491639,42.968999999999994,-31.738000000000003,-39.062,-199.21900000000002,1.0
1626203042.4955451,-173.34,-42.968999999999994,-62.5,-190.43,1.0
1626203042.4994514,-122.07,-26.855,-38.086,103.027,1.0
1626203042.5033574,90.33200000000001,-7.812,-6.836,154.785,1.0
1626203042.507264,89.844,-24.414,-21.973000000000003,-135.254,1.0
1626203042.5111701,-120.605,-57.617,-53.711000000000006,-252.44099999999997,1.0
1626203042.5150764,-166.50400000000002,-33.203,-33.203,0.977,1.0
1626203042.5189826,35.156,-15.625,-12.695,179.688,1.0
1626203042.522889,90.33200000000001,-46.875,-37.598,-31.25,1.0
1626203042.5267951,-92.773,-43.457,-59.57,-242.676,1.0
1626203042.5307014,-187.012,-16.113,-59.082,-83.984,1.0
1626203042.5346076,-11.23,-16.602,-32.715,155.762,1.0
1626203042.538514,113.77,-31.738000000000003,-22.461,169.43400000000003,1.0
1626203042.5424201,-49.316,-47.363,-40.039,-59.57,1.0
1626203042.5463264,-219.238,-36.621,-46.387,-272.949,1.0
1626203042.550233,-90.33200000000001,-10.254000000000001,-27.344,-94.727,1.0
1626203042.554139,111.32799999999999,-2.93,-19.531,167.48,1.0
1626203042.558045,31.738000000000003,-26.366999999999997,-42.48,53.223,1.0
1626203042.5619516,-179.199,-55.176,-44.434,-224.12099999999998,1.0
1626203042.5658574,-144.531,-42.48,-31.738000000000003,-168.945,1.0
1626203042.5697637,80.078,-7.812,-41.504,121.094,1.0
1626203042.57367,85.93799999999999,-22.461,-45.898,116.699,1.0
1626203042.5775762,-119.141,-57.129,-36.133,-163.086,1.0
1626203042.581483,-163.57399999999998,-42.968999999999994,-22.461,-203.613,1.0
1626203042.585389,21.484,-11.719000000000001,-29.296999999999997,1.0,1.0
1626203042.5892951,96.191,-18.066,-44.922,1.0,1.0
1626203042.5932014,-69.824,-26.366999999999997,-32.715,1.0,1.0
1626203042.5971074,-170.41,-13.672,-16.113,1.0,1.0
1626203042.601014,-3.418,-20.02,-0.488,1.0,1.0
1626203042.6049201,127.93,-46.387,-8.301,1.0,1.0
1626203042.6088262,-15.625,-53.223,-38.086,1.0,1.0
1626203042.6127326,-182.12900000000002,-35.156,-57.617,1.0,1.0
1626203042.616639,-96.191,-24.901999999999997,-47.363,1.0,1.0
1626203042.6205451,78.125,-36.133,-15.137,1.0,1.0
1626203042.6244514,14.16,-67.383,-17.578,1.0,1.0
1626203042.6283576,-174.805,-93.262,-25.391,1.0,1.0
1626203042.632264,112.305,-29.296999999999997,-31.738000000000003,-57.617,1.0
1626203042.6361701,-96.68,-32.715,-25.879,-252.44099999999997,1.0
1626203042.6400764,-185.05900000000003,-31.25,-13.672,-61.035,1.0
1626203042.6439826,2.93,-23.438000000000002,-7.324,157.715,1.0
1626203042.647889,123.04700000000001,-18.066,-11.719000000000001,20.996,1.0
1626203042.6517951,-16.602,-29.785,-20.02,-211.91400000000002,1.0
1626203042.6557016,-169.43400000000003,-31.738000000000003,-33.691,-126.465,1.0
1626203042.6596076,-74.707,-46.875,-41.992,140.625,1.0
1626203042.663514,113.77,-38.574,-25.391,110.352,1.0
1626203042.6674201,67.383,-17.578,-6.348,-177.24599999999998,1.0
1626203042.6713264,-132.32399999999998,-33.203,-23.926,-187.012,1.0
1626203042.6752326,-119.141,-25.879,-47.363,99.609,1.0
1626203042.679139,74.707,-17.09,-37.109,1.0,1.0
1626203042.683045,82.031,-24.901999999999997,-25.391,1.0,1.0
1626203042.6869516,-136.23,-45.41,-37.598,1.0,1.0
1626203042.6908574,-194.33599999999998,-54.688,-38.574,1.0,1.0
1626203042.6947641,21.484,-25.391,-16.113,1.0,1.0
1626203042.69867,112.305,-14.16,-20.996,1.0,1.0
1626203042.7025762,-60.547,-21.973000000000003,-22.949,1.0,1.0
1626203042.706483,-166.99200000000002,-36.133,-9.277000000000001,1.0,1.0
1626203042.710389,-14.648,-58.593999999999994,-18.555,1.0,1.0
1626203042.714295,110.84,-54.199,-26.855,1.0,1.0
1626203042.7182014,-17.578,-39.062,-39.551,1.0,1.0
1626203042.7221074,-180.176,-34.18,-48.34,1.0,1.0
1626203042.726014,57.129,-61.035,-15.625,83.984,1.0
1626203042.7299201,-138.184,-35.645,-28.32,-191.40599999999998,1.0
1626203042.7338264,-161.621,-24.414,-47.363,-196.77700000000002,1.0
1626203042.7377326,44.434,-10.254000000000001,-38.086,86.426,1.0
1626203042.741639,109.375,-2.441,-21.484,157.715,1.0
1626203042.7455451,-61.035,-3.418,-5.859,-91.79700000000001,1.0
1626203042.7494514,-174.31599999999997,-24.901999999999997,-22.461,-221.19099999999997,1.0
1626203042.7533574,-34.668,-51.27,-40.039,5.859,1.0
1626203042.757264,113.281,-32.227,-19.531,175.293,1.0
1626203042.7611701,-19.043,-28.809,-20.996,-37.109,1.0
1626203042.7650764,-173.828,-47.363,-47.363,-226.562,1.0
1626203042.7689826,-45.898,-29.296999999999997,-33.691,-38.574,1.0
1626203042.772889,137.695,-22.949,-3.418,1.0,1.0
1626203042.7767951,27.831999999999997,-46.875,-29.785,1.0,1.0
1626203042.7807014,-185.547,-46.387,-65.43,1.0,1.0
1626203042.7846076,-135.254,-25.391,-48.828,1.0,1.0
1626203042.788514,63.477,-26.855,-14.16,1.0,1.0
1626203042.7924201,52.246,-32.227,-22.461,1.0,1.0
1626203042.7963264,-127.441,-25.391,-30.273000000000003,1.0,1.0
1626203042.800233,-132.812,-21.484,-19.043,1.0,1.0
1626203042.804139,46.387,-41.016000000000005,-28.32,1.0,1.0
1626203042.808045,104.98,-41.016000000000005,-28.809,1.0,1.0
1626203042.8119516,-72.75399999999999,-31.25,-27.344,1.0,1.0
1626203042.8158574,-199.707,-44.434,-26.855,1.0,1.0
1626203042.8197637,-24.414,-30.761999999999997,-21.484,1.0,1.0
1626203042.82367,134.766,-21.484,-23.438000000000002,1.0,1.0
1626203042.8275762,-9.277000000000001,-41.992,-20.508000000000003,1.0,1.0
1626203042.831483,-178.22299999999998,-30.761999999999997,-26.366999999999997,1.0,1.0
1626203042.835389,-70.801,-12.207,-34.18,1.0,1.0
1626203042.8392951,114.74600000000001,-11.719000000000001,-31.738000000000003,1.0,1.0
1626203042.8432014,56.152,-7.812,-29.785,1.0,1.0
1626203042.8471074,-149.90200000000002,-22.461,-29.785,1.0,1.0
1626203042.851014,-130.371,-32.227,-21.973000000000003,1.0,1.0
1626203042.8549201,97.656,-36.133,-16.113,1.0,1.0
1626203042.8588262,115.723,-38.574,-23.438000000000002,1.0,1.0
1626203042.8627326,-108.887,-47.363,-43.457,1.0,1.0
1626203042.866639,14.648,-23.438000000000002,-48.34,-201.172,1.0
1626203042.8705451,-154.785,-19.531,-28.32,-164.062,1.0
1626203042.8744514,-94.727,-33.203,-18.066,104.492,1.0
1626203042.8783576,90.33200000000001,-34.18,-14.648,125.0,1.0
1626203042.882264,79.59,-16.113,-11.23,-140.137,1.0
1626203042.8861701,-129.395,-31.738000000000003,-41.016000000000005,-212.40200000000002,1.0
1626203042.8900764,-150.879,-34.668,-60.547,55.663999999999994,1.0
1626203042.8939826,62.988,-20.508000000000003,-26.855,179.688,1.0
1626203042.897889,96.191,-43.457,-14.16,-75.684,1.0
1626203042.9017951,-83.984,-67.87100000000001,-13.184000000000001,-254.395,1.0
1626203042.9057016,-156.738,-41.992,-23.438000000000002,-47.852,1.0
1626203042.9096076,1.465,-32.715,-24.901999999999997,166.50400000000002,1.0
1626203042.913514,109.375,-35.645,-8.789,175.293,1.0
1626203042.9174201,-46.387,-28.809,-26.366999999999997,-56.641000000000005,1.0
1626203042.9213264,-197.75400000000002,-27.344,-51.27,-251.953,1.0
1626203042.9252326,-81.543,-24.414,-45.41,-68.848,1.0
1626203042.929139,96.191,-28.809,-20.996,160.156,1.0
1626203042.933045,25.391,-25.391,-17.578,33.203,1.0
1626203042.9369516,-138.672,-13.672,-18.066,-198.73,1.0
1626203042.9408574,-73.73,-25.391,-16.602,-89.355,1.0
1626203042.9447641,116.211,-25.879,-23.438000000000002,176.75799999999998,1.0
1626203042.94867,81.055,-46.387,-23.926,112.305,1.0
1626203042.9525762,-127.93,-75.684,-32.227,-169.43400000000003,1.0
1626203042.956483,-153.32,-61.523,-35.645,-184.082,1.0
1626203042.960389,41.992,-42.968999999999994,-30.273000000000003,1.0,1.0
1626203042.964295,100.098,-27.344,-39.062,1.0,1.0
1626203042.9682014,-81.543,-18.066,-49.805,1.0,1.0
1626203042.9721074,-185.05900000000003,-14.648,-45.41,1.0,1.0
1626203042.976014,0.488,-20.996,-28.809,1.0,1.0
1626203042.9799201,153.809,-30.761999999999997,-25.879,1.0,1.0
1626203042.9838264,-16.113,-41.992,-28.809,1.0,1.0
1626203042.9877326,-196.28900000000002,-44.434,-13.184000000000001,1.0,1.0
1626203042.991639,-79.102,-30.273000000000003,0.0,1.0,1.0
1626203042.9955451,101.074,-25.879,-10.254000000000001,1.0,1.0
1626203042.9994514,25.879,-40.527,-29.785,1.0,1.0
1626203043.0033574,-162.59799999999998,-43.457,-41.504,1.0,1.0
1626203043.007264,-41.504,-22.949,-37.109,-66.406,1.0
1626203043.0111701,-204.102,-35.156,-63.477,-250.977,1.0
1626203043.0150764,-53.223,-48.34,-44.434,-35.645,1.0
1626203043.0189826,113.281,-29.785,-27.831999999999997,177.734,1.0
1626203043.022889,-12.207,-25.879,-35.645,-6.348,1.0
1626203043.0267951,-175.78099999999998,-22.461,-33.203,-225.58599999999998,1.0
1626203043.0307014,-78.613,-24.901999999999997,-9.766,-81.543,1.0
1626203043.0346076,100.098,-51.758,-21.484,164.551,1.0
1626203043.038514,61.523,-50.293,-43.945,89.355,1.0
1626203043.0424201,-150.391,-41.504,-44.434,-199.707,1.0
1626203043.0463264,-168.945,-34.18,-35.645,-191.895,1.0
1626203043.050233,55.176,-18.555,-23.926,111.32799999999999,1.0
1626203043.054139,114.258,-20.02,-22.461,151.36700000000002,1.0
1626203043.058045,-96.191,-31.738000000000003,-43.457,-138.672,1.0
1626203043.0619516,-187.988,-40.527,-34.668,-228.516,1.0
1626203043.0658574,12.207,-20.996,-10.254000000000001,41.504,1.0
1626203043.0697637,125.0,-23.926,-15.137,179.199,1.0
1626203043.07367,-46.387,-49.316,-33.203,-62.5,1.0
1626203043.0775762,-194.33599999999998,-34.18,-60.547,-252.93,1.0
1626203043.081483,-58.593999999999994,-26.855,-43.945,-53.711000000000006,1.0
1626203043.085389,110.352,-37.598,-21.973000000000003,170.898,1.0
1626203043.0892951,7.324,-41.992,-38.086,19.531,1.0
1626203043.0932014,-168.457,-33.691,-48.34,-213.37900000000002,1.0
1626203043.0971074,-88.867,-21.484,-25.879,-94.238,1.0
1626203043.101014,100.098,-31.738000000000003,-4.883,1.0,1.0
1626203043.1049201,55.176,-40.527,-28.32,1.0,1.0
1626203043.1088262,-158.203,-45.41,-42.48,1.0,1.0
1626203043.1127326,-166.50400000000002,-41.016000000000005,-32.227,1.0,1.0
1626203043.116639,37.598,-31.738000000000003,-52.246,1.0,1.0
1626203043.1205451,99.609,-17.09,-47.363,1.0,1.0
1626203043.1244514,-79.102,-26.855,-18.555,1.0,1.0
1626203043.1283576,-188.965,-62.5,-36.133,1.0,1.0
1626203043.132264,-4.883,-39.062,-39.062,1.0,1.0
1626203043.1361701,145.50799999999998,8.789,-14.648,1.0,1.0
1626203043.1400764,-13.672,-2.441,-26.366999999999997,1.0,1.0
1626203043.1439826,-177.734,-34.18,-42.968999999999994,1.0,1.0
1626203043.147889,119.141,-24.901999999999997,-35.156,91.79700000000001,1.0
1626203043.1517951,20.02,-21.973000000000003,-51.758,-188.477,1.0
1626203043.1557016,-164.551,-53.711000000000006,-54.688,-171.875,1.0
1626203043.1596076,-112.79299999999999,-69.336,-43.945,112.305,1.0
1626203043.163514,83.49600000000001,-51.27,-17.578,141.602,1.0
1626203043.1674201,64.941,-31.25,-18.066,-136.719,1.0
1626203043.1713264,-145.996,-21.484,-39.551,-216.797,1.0
1626203043.1752326,-172.852,-22.949,-34.668,49.805,1.0
1626203043.179139,52.733999999999995,-11.719000000000001,-10.254000000000001,176.27,1.0
1626203043.183045,111.32799999999999,-21.484,-9.766,-64.941,1.0
1626203043.1869516,-90.82,-40.527,-23.926,-247.07,1.0
1626203043.1908574,-163.086,-37.109,-30.273000000000003,-37.598,1.0
1626203043.1947641,39.062,-33.203,-26.855,1.0,1.0
1626203043.19867,154.785,-36.133,-32.715,1.0,1.0
1626203043.2025762,-21.484,-21.484,-48.34,1.0,1.0
1626203043.206483,-187.988,-15.625,-32.227,1.0,1.0
1626203043.210389,-63.965,-33.691,-12.207,1.0,1.0
1626203043.214295,96.191,-59.082,-24.414,1.0,1.0
1626203043.2182014,5.371,-49.805,-35.156,1.0,1.0
1626203043.2221074,-173.34,-31.738000000000003,-20.02,1.0,1.0
1626203043.226014,-95.215,-16.602,-1.465,1.0,1.0
1626203043.2299201,119.141,-2.93,-16.113,1.0,1.0
1626203043.2338264,81.055,-8.301,-46.387,1.0,1.0
1626203043.2377326,-123.535,-9.766,-42.48,1.0,1.0
1626203043.241639,-18.555,-38.086,-34.668,-203.125,1.0
1626203043.2455451,-187.988,-24.901999999999997,-48.828,43.945,1.0
1626203043.2494514,-83.984,-16.113,-24.414,113.77,1.0
1626203043.2533574,117.18799999999999,-12.207,-8.789,-129.395,1.0
1626203043.257264,60.059,-27.831999999999997,-29.296999999999997,-237.305,1.0
1626203043.2611701,-148.438,-33.203,-31.738000000000003,9.766,1.0
1626203043.2650764,-132.812,-24.901999999999997,-17.09,178.71099999999998,1.0
1626203043.2689826,64.453,-26.855,-20.02,-31.738000000000003,1.0
1626203043.272889,67.87100000000001,-34.18,-39.551,-237.793,1.0
1626203043.2767951,-139.648,-54.688,-48.34,-63.965,1.0
1626203043.2807014,-190.43,-52.246,-33.691,188.965,1.0
1626203043.2846076,8.301,-35.645,-17.09,65.918,1.0
1626203043.288514,122.07,-34.18,-22.949,189.94099999999997,1.0
1626203043.2924201,-54.199,-56.152,-44.922,-59.57,1.0
1626203043.2963264,-203.613,-64.453,-32.715,-236.328,1.0
1626203043.300233,-38.574,-49.805,-11.23,-12.695,1.0
1626203043.304139,120.605,-25.391,-13.184000000000001,186.523,1.0
1626203043.308045,14.648,3.906,-23.438000000000002,17.578,1.0
1626203043.3119516,-156.25,2.441,-30.273000000000003,-213.86700000000002,1.0
1626203043.3158574,-97.656,-22.461,-30.273000000000003,-99.609,1.0
1626203043.3197637,71.289,-43.945,-35.156,141.602,1.0
1626203043.32367,36.621,-40.527,-32.227,63.477,1.0
1626203043.3275762,-141.113,-36.621,-18.555,-185.547,1.0
1626203043.331483,-148.438,-40.527,-22.949,-170.898,1.0
1626203043.335389,42.968999999999994,-56.641000000000005,-38.086,93.75,1.0
1626203043.3392951,89.844,-43.945,-41.504,134.27700000000002,1.0
1626203043.3432014,-101.074,-39.551,-39.062,-144.531,1.0
1626203043.3471074,-179.199,-49.805,-28.32,-234.375,1.0
1626203043.351014,7.812,-42.968999999999994,-20.02,35.156,1.0
1626203043.3549201,125.0,-29.785,-17.09,184.57,1.0
1626203043.3588262,-22.461,-19.531,-27.831999999999997,-40.527,1.0
1626203043.3627326,-172.363,-19.531,-33.203,-230.957,1.0
1626203043.366639,-53.711000000000006,-25.391,-26.855,-48.828,1.0
1626203043.3705451,116.699,-38.574,-41.016000000000005,171.387,1.0
1626203043.3744514,16.113,-27.344,-51.27,15.137,1.0
1626203043.3783576,-193.84799999999998,-51.758,-37.598,-247.07,1.0
1626203043.382264,-131.34799999999998,-66.406,-21.484,-141.113,1.0
1626203043.3861701,86.914,-40.527,-25.391,135.74200000000002,1.0
1626203043.3900764,70.801,-44.922,-30.273000000000003,92.285,1.0
1626203043.3939826,-119.62899999999999,-37.598,-25.391,-180.66400000000002,1.0
1626203043.397889,-131.34799999999998,1.465,-20.02,-177.734,1.0
1626203043.4017951,63.965,12.207,-39.551,98.633,1.0
1626203043.4057016,114.258,-16.602,-62.5,147.94899999999998,1.0
1626203043.4096076,-63.477,-43.945,-44.922,-108.887,1.0
1626203043.413514,-176.75799999999998,-47.363,-31.25,-229.98,1.0
1626203043.4174201,-19.043,-44.434,-19.531,-1.465,1.0
1626203043.4213264,107.91,-42.968999999999994,-31.738000000000003,155.762,1.0
1626203043.4252326,-31.738000000000003,-55.176,-57.617,-49.316,1.0
1626203043.429139,-49.316,-30.761999999999997,-22.461,-79.59,1.0
1626203043.433045,-170.41,-41.016000000000005,-42.48,-222.65599999999998,1.0
1626203043.4369516,-10.254000000000001,-25.391,-22.949,15.137,1.0
1626203043.4408574,129.395,-24.901999999999997,-13.672,190.918,1.0
1626203043.4447641,-15.137,-25.391,-27.344,-20.996,1.0
1626203043.44867,-185.05900000000003,-27.831999999999997,-46.387,-241.21099999999998,1.0
1626203043.4525762,-79.102,-29.785,-47.852,-82.031,1.0
1626203043.456483,119.141,-8.789,-16.113,176.27,1.0
1626203043.460389,55.663999999999994,-28.809,-6.836,72.266,1.0
1626203043.464295,-160.156,-55.176,-15.625,-206.055,1.0
1626203043.4682014,-148.438,-29.296999999999997,-32.715,-167.48,1.0
1626203043.4721074,68.848,-8.301,-33.203,119.141,1.0
1626203043.476014,117.18799999999999,9.766,-13.184000000000001,1.0,1.0
1626203043.4799201,-79.102,-19.531,-31.25,1.0,1.0
1626203043.4838264,-161.13299999999998,-60.547,-44.434,1.0,1.0
1626203043.4877326,16.113,-36.133,-27.831999999999997,1.0,1.0
1626203043.491639,100.586,-37.598,-25.879,1.0,1.0
1626203043.4955451,-56.641000000000005,-30.273000000000003,-16.113,1.0,1.0
1626203043.4994514,-179.688,-18.066,-24.414,1.0,1.0
1626203043.5033574,-30.273000000000003,-39.062,-42.48,1.0,1.0
1626203043.507264,132.32399999999998,-40.039,-41.992,1.0,1.0
1626203043.5111701,15.137,-30.273000000000003,-35.156,1.0,1.0
1626203043.5150764,-164.551,-21.484,-31.738000000000003,1.0,1.0
1626203043.5189826,-83.984,-21.484,-26.855,1.0,1.0
1626203043.522889,108.398,-23.926,-15.625,1.0,1.0
1626203043.5267951,55.176,-35.156,-24.901999999999997,1.0,1.0
1626203043.5307014,-153.32,-56.152,-23.926,1.0,1.0
1626203043.5346076,-154.297,-44.922,-15.137,1.0,1.0
1626203043.538514,52.733999999999995,-43.945,-22.461,1.0,1.0
1626203043.5424201,105.469,-32.227,-20.02,1.0,1.0
1626203043.5463264,-74.707,-13.672,-16.113,1.0,1.0
1626203043.550233,-162.109,-31.25,-25.391,1.0,1.0
1626203043.554139,7.324,-33.203,-40.527,1.0,1.0
1626203043.558045,119.62899999999999,-14.648,-51.27,1.0,1.0
1626203043.5619516,-26.366999999999997,-17.09,-48.828,1.0,1.0
1626203043.5658574,-167.48,-35.645,-44.922,1.0,1.0
1626203043.5697637,123.04700000000001,-35.156,-34.668,34.668,1.0
1626203043.57367,-0.488,-29.785,-38.086,-233.398,1.0
1626203043.5775762,-166.50400000000002,-34.668,-26.366999999999997,-168.945,1.0
1626203043.581483,-84.473,-39.062,-28.32,120.605,1.0
1626203043.585389,107.91,-25.879,-21.973000000000003,115.234,1.0
1626203043.5892951,49.316,-39.062,-24.901999999999997,-172.363,1.0
1626203043.5932014,-165.03900000000002,-63.477,-37.109,-205.56599999999997,1.0
1626203043.5971074,-149.414,-45.41,-37.598,80.566,1.0
1626203043.601014,65.918,-35.156,-20.02,156.25,1.0
1626203043.6049201,100.586,-58.105,-18.555,-120.117,1.0
1626203043.6088262,-91.79700000000001,-69.824,-51.758,-253.90599999999998,1.0
1626203043.6127326,-157.227,-41.016000000000005,-50.781000000000006,-5.371,1.0
1626203043.616639,31.25,-28.809,-31.738000000000003,1.0,1.0
1626203043.6205451,116.699,-35.645,-28.32,1.0,1.0
1626203043.6244514,-72.266,-26.855,-35.645,1.0,1.0
1626203043.6283576,-208.00799999999998,-23.926,-41.504,1.0,1.0
1626203043.632264,-48.34,-37.598,-25.879,1.0,1.0
1626203043.6361701,117.18799999999999,-44.434,-28.809,1.0,1.0
1626203043.6400764,7.324,-31.25,-48.34,1.0,1.0
1626203043.6439826,-162.59799999999998,-2.93,-35.645,1.0,1.0
1626203043.647889,-77.637,-4.883,-9.766,1.0,1.0
1626203043.6517951,112.79299999999999,-33.691,-13.184000000000001,1.0,1.0
1626203043.6557016,75.195,-49.316,-36.133,1.0,1.0
1626203043.6596076,-141.113,-58.593999999999994,-48.828,1.0,1.0
1626203043.663514,-172.852,-35.156,-31.738000000000003,-166.016,1.0
1626203043.6674201,-85.449,-20.508000000000003,-15.137,117.676,1.0
1626203043.6713264,107.91,-38.574,-21.973000000000003,135.74200000000002,1.0
1626203043.6752326,73.242,-42.48,-30.761999999999997,-145.996,1.0
1626203043.679139,-125.488,-34.668,-19.043,-225.09799999999998,1.0
1626203043.683045,-146.97299999999998,-31.738000000000003,-11.23,38.574,1.0
1626203043.6869516,47.363,-38.086,-9.766,185.05900000000003,1.0
1626203043.6908574,111.32799999999999,-26.366999999999997,-23.926,-40.039,1.0
1626203043.6947641,-78.125,-24.901999999999997,-37.109,-225.09799999999998,1.0
1626203043.69867,-184.57,-43.457,-17.578,-36.133,1.0
1626203043.7025762,-19.531,-41.016000000000005,-26.855,168.945,1.0
1626203043.706483,112.305,-24.414,-53.711000000000006,1.465,1.0
1626203043.710389,-42.48,-35.645,-34.668,-55.663999999999994,1.0
1626203043.714295,-216.30900000000003,-42.48,-36.621,-270.996,1.0
1626203043.7182014,-80.566,-43.457,-23.926,-76.172,1.0
1626203043.7221074,127.93,-48.828,0.488,189.94099999999997,1.0
1626203043.726014,62.988,-9.277000000000001,-6.348,80.078,1.0
1626203043.7299201,-147.461,-0.488,-41.992,-194.824,1.0
1626203043.7338264,-131.34799999999998,-25.391,-35.156,-145.02,1.0
1626203043.7377326,66.895,-27.831999999999997,-20.02,124.023,1.0
1626203043.741639,70.312,-46.387,-34.668,102.051,1.0
1626203043.7455451,-123.535,-60.547,-33.691,-172.363,1.0
1626203043.7494514,-153.809,-35.156,-33.691,-202.148,1.0
1626203043.7533574,44.434,-28.32,-33.203,68.359,1.0
1626203043.757264,72.75399999999999,-19.043,-11.23,122.559,1.0
1626203043.7611701,86.914,0.488,-27.831999999999997,115.723,1.0
1626203043.7650764,-111.816,-16.602,-44.922,-155.273,1.0
1626203043.7689826,-149.414,-15.137,-20.02,-186.035,1.0
1626203043.772889,40.527,-15.137,-16.602,75.195,1.0
1626203043.7767951,104.98,-39.551,-40.039,155.273,1.0
1626203043.7807014,-81.543,-34.18,-50.781000000000006,-107.42200000000001,1.0
1626203043.7846076,-197.75400000000002,-41.504,-51.27,-253.418,1.0
1626203043.788514,-33.203,-56.152,-36.133,-16.113,1.0
1626203043.7924201,136.23,-34.668,-19.531,198.73,1.0
1626203043.7963264,6.348,-27.344,-39.062,11.719000000000001,1.0
1626203043.800233,-196.77700000000002,-30.761999999999997,-52.246,-236.81599999999997,1.0
1626203043.804139,-96.191,-53.223,-31.25,-127.441,1.0
1626203043.808045,-178.22299999999998,-68.848,-37.109,-225.58599999999998,1.0
1626203043.8119516,14.16,-35.156,-9.277000000000001,37.109,1.0
1626203043.8158574,119.62899999999999,-13.184000000000001,-18.555,177.734,1.0
1626203043.8197637,-41.992,-14.648,-50.781000000000006,-56.641000000000005,1.0
1626203043.82367,-188.477,-20.02,-49.805,-248.535,1.0
1626203043.8275762,-69.824,-24.414,-43.945,-63.477,1.0
1626203043.831483,126.465,-8.301,-31.25,180.66400000000002,1.0
1626203043.835389,38.086,-28.32,-29.785,34.668,1.0
1626203043.8392951,-161.621,-62.988,-36.133,-230.46900000000002,1.0
1626203043.8432014,-108.887,-46.875,-29.296999999999997,-141.602,1.0
1626203043.8471074,87.402,-10.254000000000001,-21.484,139.16,1.0
1626203043.851014,80.078,-26.855,-13.184000000000001,1.0,1.0
1626203043.8549201,-130.371,-43.457,-14.16,1.0,1.0
1626203043.8588262,-166.50400000000002,-22.949,-19.043,1.0,1.0
1626203043.8627326,34.668,-16.113,-30.273000000000003,1.0,1.0
1626203043.866639,111.816,-28.32,-35.645,1.0,1.0
1626203043.8705451,-63.477,-36.133,-44.434,1.0,1.0
1626203043.8744514,-194.33599999999998,-37.598,-56.152,1.0,1.0
1626203043.8783576,-33.203,-31.25,-35.645,1.0,1.0
1626203043.882264,135.74200000000002,-13.184000000000001,-1.953,1.0,1.0
1626203043.8861701,-2.93,-40.039,-1.465,1.0,1.0
1626203043.8900764,-198.24200000000002,-68.848,-22.949,1.0,1.0
1626203043.8939826,-109.863,-55.663999999999994,-43.457,1.0,1.0
1626203043.897889,87.891,-32.227,-44.434,1.0,1.0
1626203043.9017951,29.296999999999997,-23.926,-34.668,1.0,1.0
1626203043.9057016,-167.48,-39.551,-35.645,1.0,1.0
1626203043.9096076,-125.0,-31.25,-32.227,1.0,1.0
1626203043.913514,74.219,-10.254000000000001,-34.18,1.0,1.0
1626203043.9174201,74.219,-20.508000000000003,-38.086,1.0,1.0
1626203043.9213264,-114.258,-16.113,-31.25,1.0,1.0
1626203043.9252326,-152.344,-26.855,-30.761999999999997,1.0,1.0
1626203043.929139,26.366999999999997,-70.312,-39.062,1.0,1.0
1626203043.933045,103.027,-46.875,-27.831999999999997,1.0,1.0
1626203043.9369516,-56.152,-5.859,-19.043,1.0,1.0
1626203043.9408574,-174.31599999999997,-4.395,-37.598,1.0,1.0
1626203043.9447641,-153.32,-20.996,-13.672,-200.68400000000003,1.0
1626203043.94867,-165.03900000000002,-51.758,-19.531,-179.199,1.0
1626203043.9525762,62.012,-52.246,-15.137,117.18799999999999,1.0
1626203043.956483,120.117,-41.992,-32.227,156.25,1.0
1626203043.960389,-84.961,-37.109,-40.039,-122.07,1.0
1626203043.964295,-171.875,-27.344,-22.949,-207.52,1.0
1626203043.9682014,17.09,-17.578,-12.207,49.316,1.0
1626203043.9721074,123.535,-25.391,-30.273000000000003,172.363,1.0
1626203043.976014,-50.781000000000006,-34.668,-47.363,-73.73,1.0
1626203043.9799201,-180.176,-14.16,-37.109,-237.793,1.0
1626203043.9838264,-57.129,-20.996,-23.438000000000002,-46.387,1.0
1626203043.9877326,107.91,-29.296999999999997,-7.812,174.805,1.0
1626203043.991639,25.879,-34.18,-20.996,1.0,1.0
1626203043.9955451,-170.898,-56.152,-41.016000000000005,1.0,1.0
1626203043.9994514,-112.79299999999999,-48.34,-33.203,1.0,1.0
1626203044.0033574,88.37899999999999,-21.484,-35.645,1.0,1.0
1626203044.007264,75.684,-8.301,-48.828,1.0,1.0
1626203044.0111701,-115.234,-5.859,-42.968999999999994,1.0,1.0
1626203044.0150764,-139.648,-18.066,-18.555,1.0,1.0
1626203044.0189826,58.105,-22.949,1.953,1.0,1.0
1626203044.022889,106.445,-32.715,-25.391,1.0,1.0
1626203044.0267951,-84.473,-52.733999999999995,-43.457,1.0,1.0
1626203044.0307014,-172.363,-54.688,-27.344,1.0,1.0
1626203044.0346076,0.488,-26.855,-22.461,1.0,1.0
1626203044.038514,117.676,-27.831999999999997,-34.18,1.0,1.0
1626203044.0424201,-37.109,-67.383,-47.852,1.0,1.0
1626203044.0463264,-191.40599999999998,-52.246,-38.574,1.0,1.0
1626203044.050233,-77.148,-25.879,-30.761999999999997,1.0,1.0
1626203044.054139,126.465,0.0,-20.02,1.0,1.0
1626203044.058045,63.965,7.324,-12.695,1.0,1.0
1626203044.0619516,-148.438,-28.32,-22.461,1.0,1.0
1626203044.0658574,-120.605,-40.039,-32.227,1.0,1.0
1626203044.0697637,80.566,-27.344,-32.227,1.0,1.0
1626203044.07367,93.75,-25.391,-23.926,1.0,1.0
1626203044.0775762,-120.605,-45.898,-55.663999999999994,1.0,1.0
1626203044.081483,-168.945,-69.824,-53.711000000000006,1.0,1.0
1626203044.085389,-34.18,-40.527,-21.973000000000003,-248.535,1.0
1626203044.0892951,-188.477,-39.062,-17.09,-104.98,1.0
1626203044.0932014,-39.062,-11.23,-2.441,176.27,1.0
1626203044.0971074,114.258,-31.738000000000003,-24.414,97.16799999999999,1.0
1626203044.101014,17.578,-58.593999999999994,-23.438000000000002,-186.035,1.0
1626203044.1049201,-152.344,-41.992,-15.137,-168.457,1.0
1626203044.1088262,-109.863,-36.621,-38.086,104.492,1.0
1626203044.1127326,73.242,-38.086,-36.133,131.34799999999998,1.0
1626203044.116639,35.156,-23.926,-27.344,-145.996,1.0
1626203044.1205451,-168.945,-14.648,-39.551,-220.703,1.0
1626203044.1244514,-166.99200000000002,-17.578,-39.551,37.598,1.0
1626203044.1283576,43.457,-24.901999999999997,-24.901999999999997,189.94099999999997,1.0
1626203044.132264,92.285,-41.992,-38.574,1.0,1.0
1626203044.1361701,-91.79700000000001,-49.316,-44.922,1.0,1.0
1626203044.1400764,-168.945,-40.527,-31.738000000000003,1.0,1.0
1626203044.1439826,1.465,-32.715,-32.227,1.0,1.0
1626203044.147889,119.62899999999999,-27.831999999999997,-30.761999999999997,1.0,1.0
1626203044.1517951,-14.16,-28.32,-24.901999999999997,1.0,1.0
1626203044.1557016,-160.156,-20.02,-12.695,1.0,1.0
1626203044.1596076,-36.133,-17.09,-5.371,1.0,1.0
1626203044.163514,139.16,-14.648,0.488,1.0,1.0
1626203044.1674201,33.691,-20.02,-18.066,1.0,1.0
1626203044.1713264,-196.28900000000002,-38.086,-65.43,1.0,1.0
1626203044.1752326,-136.719,-39.062,-50.293,1.0,1.0
1626203044.179139,-83.49600000000001,-47.363,-2.441,153.32,1.0
1626203044.183045,104.98,-32.715,-1.953,117.676,1.0
1626203044.1869516,61.035,-24.901999999999997,-25.879,-167.96900000000002,1.0
1626203044.1908574,-150.391,-33.203,-43.945,-197.266,1.0
1626203044.1947641,-135.74200000000002,-23.438000000000002,-19.531,95.215,1.0
1626203044.19867,83.008,-6.348,-2.93,178.22299999999998,1.0
1626203044.2025762,83.008,-19.531,-20.996,-89.844,1.0
1626203044.206483,-113.281,-26.855,-40.527,-224.12099999999998,1.0
1626203044.210389,-150.879,-45.41,-48.34,2.93,1.0
1626203044.214295,28.32,-60.059,-24.414,192.87099999999998,1.0
1626203044.2182014,104.492,-39.062,-27.344,-13.672,1.0
1626203044.2221074,-61.035,-36.621,-43.945,-245.605,1.0
1626203044.226014,-104.98,-35.645,-34.18,-132.812,1.0
1626203044.2299201,-171.875,-37.109,-35.645,-209.47299999999998,1.0
1626203044.2338264,22.949,-39.062,-20.996,55.663999999999994,1.0
1626203044.2377326,118.164,-36.621,-15.137,168.945,1.0
1626203044.241639,-58.593999999999994,-16.602,-36.133,-81.543,1.0
1626203044.2455451,-196.28900000000002,-19.531,-48.34,-246.582,1.0
1626203044.2494514,-60.059,-30.761999999999997,-53.711000000000006,-45.898,1.0
1626203044.2533574,123.04700000000001,-27.831999999999997,-25.391,175.78099999999998,1.0
1626203044.257264,28.809,-35.156,-10.254000000000001,16.602,1.0
1626203044.2611701,-171.875,-40.527,-31.738000000000003,-240.234,1.0
1626203044.2650764,-121.58200000000001,-53.711000000000006,-29.296999999999997,-133.30100000000002,1.0
1626203044.2689826,102.051,-34.668,-12.695,146.484,1.0
1626203044.272889,87.891,-25.879,-37.109,1.0,1.0
1626203044.2767951,-139.648,-43.457,-51.27,1.0,1.0
1626203044.2807014,-150.879,-33.691,-20.996,1.0,1.0
1626203044.2846076,76.172,-12.207,-9.277000000000001,1.0,1.0
1626203044.288514,138.184,-1.465,-23.438000000000002,1.0,1.0
1626203044.2924201,-76.172,-15.137,-35.156,1.0,1.0
1626203044.2963264,-164.551,-28.809,-10.742,1.0,1.0
1626203044.300233,12.207,-53.711000000000006,0.977,1.0,1.0
1626203044.304139,110.352,-59.57,-15.137,1.0,1.0
1626203044.308045,-38.086,-41.504,-28.32,1.0,1.0
1626203044.3119516,-196.77700000000002,-21.973000000000003,-41.504,1.0,1.0
1626203044.3158574,-62.012,-20.996,-30.761999999999997,1.0,1.0
1626203044.3197637,129.88299999999998,-36.621,-20.02,1.0,1.0
1626203044.32367,32.227,-46.875,-27.831999999999997,1.0,1.0
1626203044.3275762,-178.22299999999998,-51.27,-40.527,1.0,1.0
1626203044.331483,-118.164,-41.016000000000005,-19.531,1.0,1.0
1626203044.335389,96.68,-35.156,-12.695,1.0,1.0
1626203044.3392951,61.523,-20.996,-41.992,1.0,1.0
1626203044.3432014,-154.785,-10.742,-45.41,1.0,1.0
1626203044.3471074,-177.24599999999998,-31.25,-41.504,1.0,1.0
1626203044.351014,34.668,-31.738000000000003,-23.926,1.0,1.0
1626203044.3549201,103.516,-36.621,-18.066,1.0,1.0
1626203044.3588262,-89.844,-53.711000000000006,-47.852,1.0,1.0
1626203044.3627326,-180.176,-27.831999999999997,-36.133,1.0,1.0
1626203044.366639,-166.016,-50.293,-40.039,-227.051,1.0
1626203044.3705451,-139.16,-55.663999999999994,-47.852,62.988,1.0
1626203044.3744514,83.49600000000001,-32.715,-28.32,172.852,1.0
1626203044.3783576,95.215,-33.203,-19.531,-94.727,1.0
1626203044.382264,-107.91,-29.296999999999997,-31.25,-242.676,1.0
1626203044.3861701,-176.75799999999998,-24.901999999999997,-47.852,1.953,1.0
1626203044.3900764,8.789,-23.926,-25.391,188.965,1.0
1626203044.3939826,121.58200000000001,-8.789,-8.301,-21.973000000000003,1.0
1626203044.397889,-63.965,-28.32,-42.968999999999994,-254.395,1.0
1626203044.4017951,-205.078,-44.922,-28.32,-96.68,1.0
1626203044.4057016,-32.227,-42.968999999999994,-10.254000000000001,160.156,1.0
1626203044.4096076,141.113,-38.574,-20.996,51.758,1.0
1626203044.413514,2.93,-58.593999999999994,-31.25,0.977,1.0
1626203044.4174201,-188.965,-80.566,-35.156,-245.11700000000002,1.0
1626203044.4213264,-101.56200000000001,-44.434,-22.949,-103.516,1.0
1626203044.4252326,85.93799999999999,-0.488,-19.043,149.414,1.0
1626203044.429139,43.945,0.0,-49.316,67.87100000000001,1.0
1626203044.433045,-138.672,-19.043,-54.199,-185.05900000000003,1.0
1626203044.4369516,-123.535,-32.715,-17.578,-143.066,1.0
1626203044.4408574,83.984,-29.785,1.953,137.207,1.0
1626203044.4447641,97.656,-18.066,-8.301,149.90200000000002,1.0
1626203044.44867,-111.32799999999999,-24.901999999999997,-27.344,-139.16,1.0
1626203044.4525762,-180.176,-34.18,-39.062,-220.215,1.0
1626203044.456483,31.25,-27.344,-24.414,63.477,1.0
1626203044.460389,165.52700000000002,-36.133,4.395,213.37900000000002,1.0
1626203044.464295,-18.555,-34.18,-7.324,-44.434,1.0
1626203044.4682014,-186.523,-11.719000000000001,-39.062,-252.44099999999997,1.0
1626203044.4721074,-45.41,-6.836,-37.109,-49.316,1.0
1626203044.476014,155.762,-14.648,-19.043,198.73,1.0
1626203044.4799201,64.453,-8.789,-40.039,51.758,1.0
1626203044.4838264,-162.109,-15.137,-60.547,-221.19099999999997,1.0
1626203044.4877326,-117.18799999999999,-53.711000000000006,-40.527,-137.695,1.0
1626203044.491639,92.773,-46.387,-19.043,132.812,1.0
1626203044.4955451,67.383,-17.09,-25.391,80.566,1.0
1626203044.4994514,-134.766,-15.625,-26.855,-196.28900000000002,1.0
1626203044.5033574,-139.648,-20.508000000000003,-8.789,-183.105,1.0
1626203044.507264,-87.402,-22.461,-43.945,-233.398,1.0
1626203044.5111701,-200.68400000000003,-45.898,-45.41,-65.43,1.0
1626203044.5150764,-14.648,-45.41,-28.809,182.12900000000002,1.0
1626203044.5189826,149.90200000000002,-35.156,-16.602,60.547,1.0
1626203044.522889,-6.836,-48.828,-21.484,-214.84400000000002,1.0
1626203044.5267951,-212.891,-62.012,-26.366999999999997,-147.94899999999998,1.0
1626203044.5307014,-118.652,-42.48,-23.438000000000002,149.414,1.0
1626203044.5346076,79.59,-30.273000000000003,-25.879,125.977,1.0
1626203044.538514,33.691,-20.02,-42.48,-178.71099999999998,1.0
1626203044.5424201,-162.59799999999998,-24.414,-51.758,-227.53900000000002,1.0
1626203044.5463264,-143.066,-25.879,-42.48,41.504,1.0
1626203044.550233,95.215,-0.977,-27.344,139.648,1.0
1626203044.554139,134.766,3.418,-20.508000000000003,1.0,1.0
1626203044.558045,-82.031,-33.203,-19.043,1.0,1.0
1626203044.5619516,-163.086,-60.547,-18.555,1.0,1.0
1626203044.5658574,33.203,-35.645,-5.859,1.0,1.0
1626203044.5697637,123.535,-17.578,-15.625,1.0,1.0
1626203044.57367,-65.918,-20.508000000000003,-52.733999999999995,1.0,1.0
1626203044.5775762,-206.543,-30.761999999999997,-60.547,1.0,1.0
1626203044.581483,-46.387,-24.901999999999997,-34.18,1.0,1.0
1626203044.585389,128.906,-11.719000000000001,-20.02,1.0,1.0
1626203044.5892951,15.625,-32.227,-48.828,1.0,1.0
1626203044.5932014,-153.32,-46.875,-55.176,1.0,1.0
1626203044.5971074,-41.016000000000005,-30.761999999999997,-15.625,1.0,1.0
1626203044.601014,41.504,-20.508000000000003,-26.366999999999997,-151.855,1.0
1626203044.6049201,-147.461,-40.527,-22.461,-195.312,1.0
1626203044.6088262,-144.043,-51.758,-45.898,74.219,1.0
1626203044.6127326,36.621,-41.992,-58.593999999999994,173.34,1.0
1626203044.616639,65.43,-30.761999999999997,-30.273000000000003,-96.191,1.0
1626203044.6205451,-133.789,-37.109,-29.785,-250.488,1.0
1626203044.6244514,-188.965,-41.504,-41.504,-2.93,1.0
1626203044.6283576,39.062,0.977,-32.227,174.805,1.0
1626203044.632264,130.371,19.531,-32.227,-23.438000000000002,1.0
1626203044.6361701,-67.383,-43.945,-41.992,-224.12099999999998,1.0
1626203044.6400764,-174.31599999999997,-56.641000000000005,-26.366999999999997,-83.984,1.0
1626203044.6439826,-20.996,-34.18,-15.137,150.391,1.0
1626203044.647889,107.91,-43.457,-34.668,1.0,1.0
1626203044.6517951,-22.949,-49.805,-53.223,1.0,1.0
1626203044.6557016,-193.84799999999998,-30.761999999999997,-37.598,1.0,1.0
1626203044.6596076,-122.07,-32.715,-35.156,1.0,1.0
1626203044.663514,82.52,-39.062,-32.227,1.0,1.0
1626203044.6674201,71.289,-12.207,-19.043,1.0,1.0
1626203044.6713264,-153.32,-6.348,-46.875,1.0,1.0
1626203044.6752326,-158.203,-16.602,-36.133,1.0,1.0
1626203044.679139,53.711000000000006,-25.879,-14.16,1.0,1.0
1626203044.683045,95.70299999999999,-33.691,-12.207,1.0,1.0
1626203044.6869516,-111.816,-46.387,-24.414,1.0,1.0
1626203044.6908574,-212.891,-55.176,-54.199,1.0,1.0
1626203044.6947641,-181.641,-41.504,-35.156,-196.28900000000002,1.0
1626203044.69867,-107.42200000000001,-40.039,-30.273000000000003,98.633,1.0
1626203044.7025762,108.887,-24.414,-23.926,143.066,1.0
1626203044.706483,86.914,-9.766,-17.578,-114.74600000000001,1.0
1626203044.710389,-132.812,-32.715,-42.48,-209.47299999999998,1.0
1626203044.714295,-171.875,-49.316,-53.711000000000006,41.016000000000005,1.0
1626203044.7182014,37.598,-35.645,-45.41,192.38299999999998,1.0
1626203044.7221074,113.281,-27.831999999999997,-30.273000000000003,-42.48,1.0
1626203044.726014,-55.663999999999994,-15.625,-30.273000000000003,-243.16400000000002,1.0
1626203044.7299201,-152.832,-33.691,-37.598,-61.523,1.0
1626203044.7338264,7.324,-51.27,-22.461,174.31599999999997,1.0
1626203044.7377326,122.559,-28.32,-22.949,39.062,1.0
1626203044.741639,-20.508000000000003,-10.742,-34.18,-43.457,1.0
1626203044.7455451,-177.734,-2.441,-33.691,-250.488,1.0
1626203044.7494514,-45.41,16.602,-13.184000000000001,-65.918,1.0
1626203044.7533574,138.184,-7.812,-30.761999999999997,168.457,1.0
1626203044.757264,39.551,-41.016000000000005,-65.43,23.926,1.0
1626203044.7611701,-140.137,-29.296999999999997,-61.035,-217.285,1.0
1626203044.7650764,-97.16799999999999,-24.901999999999997,-54.688,-144.043,1.0
1626203044.7689826,88.867,-47.363,-41.016000000000005,112.305,1.0
1626203044.772889,72.75399999999999,-58.593999999999994,-32.227,84.961,1.0
1626203044.7767951,-138.184,-37.598,-40.527,-197.75400000000002,1.0
1626203044.7807014,-180.176,-21.973000000000003,-65.43,-236.81599999999997,1.0
1626203044.7846076,42.968999999999994,0.977,-52.733999999999995,67.383,1.0
1626203044.788514,151.855,7.812,-14.16,1.0,1.0
1626203044.7924201,-34.668,-25.391,-22.461,1.0,1.0
1626203044.7963264,-177.734,-44.922,-34.668,1.0,1.0
1626203044.800233,-50.781000000000006,-33.691,-43.945,1.0,1.0
1626203044.804139,103.027,-7.812,-38.086,1.0,1.0
1626203044.808045,-6.348,-6.836,-29.785,1.0,1.0
1626203044.8119516,-183.59400000000002,-35.645,-56.152,1.0,1.0
1626203044.8158574,-91.79700000000001,-38.574,-66.895,1.0,1.0
1626203044.8197637,106.934,-9.277000000000001,-45.898,1.0,1.0
1626203044.82367,72.75399999999999,0.488,-11.23,1.0,1.0
1626203044.8275762,-126.465,-28.809,-9.766,1.0,1.0
1626203044.831483,-131.836,-40.527,-34.668,1.0,1.0
1626203044.835389,-182.12900000000002,-45.898,-48.34,-240.72299999999998,1.0
1626203044.8392951,-54.688,-45.41,-45.898,-55.663999999999994,1.0
1626203044.8432014,109.375,-31.25,-32.227,158.691,1.0
1626203044.8471074,27.831999999999997,-10.254000000000001,-25.391,13.184000000000001,1.0
1626203044.851014,-155.273,-19.531,-41.992,-228.516,1.0
1626203044.8549201,-110.352,-19.043,-61.523,-136.719,1.0
1626203044.8588262,98.633,1.465,-37.598,133.789,1.0
1626203044.8627326,90.33200000000001,-9.766,-17.578,102.539,1.0
1626203044.866639,-138.184,-59.082,-39.551,-194.33599999999998,1.0
1626203044.8705451,-170.41,-50.293,-42.48,-209.47299999999998,1.0
1626203044.8744514,24.901999999999997,-12.695,-49.316,57.129,1.0
1626203044.8783576,95.70299999999999,-3.906,-48.34,129.88299999999998,1.0
1626203044.882264,-81.543,-23.926,-46.387,1.0,1.0
1626203044.8861701,-194.824,-32.227,-62.012,1.0,1.0
1626203044.8900764,-13.184000000000001,-25.391,-41.016000000000005,1.0,1.0
1626203044.8939826,139.648,-31.25,-12.207,1.0,1.0
1626203044.897889,1.465,-45.898,-14.648,1.0,1.0
1626203044.9017951,-151.36700000000002,-44.922,-20.996,1.0,1.0
1626203044.9057016,-64.941,-29.296999999999997,-29.296999999999997,1.0,1.0
1626203044.9096076,96.68,-3.418,-34.18,1.0,1.0
1626203044.913514,25.391,-8.301,-41.504,1.0,1.0
1626203044.9174201,-148.92600000000002,-17.578,-28.32,1.0,1.0
1626203044.9213264,-104.00399999999999,-41.992,-27.831999999999997,1.0,1.0
1626203044.9252326,84.473,-65.43,-53.223,1.0,1.0
1626203044.929139,84.961,-40.527,-47.852,1.0,1.0
1626203044.933045,-104.492,-27.831999999999997,-22.949,1.0,1.0
1626203044.9369516,-122.559,0.488,-6.836,1.0,1.0
1626203044.9408574,60.059,-20.02,-21.484,1.0,1.0
1626203044.9447641,116.699,-55.663999999999994,-45.898,1.0,1.0
1626203044.94867,-69.824,-40.527,-45.898,1.0,1.0
1626203044.9525762,-191.40599999999998,-39.551,-41.016000000000005,1.0,1.0
1626203044.956483,-21.973000000000003,-34.18,-41.504,1.0,1.0
1626203044.960389,123.04700000000001,-22.461,-42.968999999999994,1.0,1.0
1626203044.964295,-14.16,-30.273000000000003,-37.109,1.0,1.0
1626203044.9682014,-185.05900000000003,-40.039,-23.438000000000002,1.0,1.0
1626203044.9721074,-77.148,-26.855,-29.785,1.0,1.0
1626203044.976014,-167.48,-41.504,-53.223,-221.19099999999997,1.0
1626203044.9799201,-196.28900000000002,-56.152,-53.711000000000006,-225.09799999999998,1.0
1626203044.9838264,26.366999999999997,-69.824,-32.227,65.43,1.0
1626203044.9877326,106.445,-77.148,-20.02,130.371,1.0
1626203044.991639,-71.289,-54.688,-28.32,-131.34799999999998,1.0
1626203044.9955451,-171.875,-23.438000000000002,-44.922,-244.141,1.0
1626203044.9994514,-28.809,-21.484,-55.663999999999994,-26.366999999999997,1.0
1626203045.0033574,91.79700000000001,-15.625,-32.227,127.441,1.0
1626203045.007264,-34.668,-16.602,-24.414,-73.242,1.0
1626203045.0111701,-196.77700000000002,-42.968999999999994,-50.293,-275.39099999999996,1.0
1626203045.0150764,-87.891,-52.246,-50.293,-91.79700000000001,1.0
1626203045.0189826,109.863,-55.663999999999994,-20.996,159.18,1.0
1626203045.022889,51.27,-51.27,-9.766,1.0,1.0
1626203045.0267951,-169.922,-57.129,-46.387,1.0,1.0
1626203045.0307014,-134.27700000000002,-36.621,-47.852,1.0,1.0
1626203045.0346076,95.70299999999999,-17.578,-26.855,1.0,1.0
1626203045.038514,93.75,-26.855,-16.602,1.0,1.0
1626203045.0424201,-118.164,-24.414,-26.366999999999997,1.0,1.0
1626203045.0463264,-163.086,-27.344,-42.968999999999994,1.0,1.0
1626203045.050233,28.32,-50.781000000000006,-34.668,1.0,1.0
1626203045.054139,94.238,-77.637,-31.25,1.0,1.0
1626203045.058045,-76.172,-60.059,-21.973000000000003,1.0,1.0
1626203045.0619516,-165.52700000000002,-20.508000000000003,-23.438000000000002,1.0,1.0
1626203045.0658574,-13.184000000000001,-8.789,-34.18,1.0,1.0
1626203045.0697637,121.58200000000001,-7.812,-27.344,1.0,1.0
1626203045.07367,1.465,-17.09,-44.922,1.0,1.0
1626203045.0775762,-172.852,-31.25,-60.547,1.0,1.0
1626203045.081483,-66.406,-31.738000000000003,-28.809,1.0,1.0
1626203045.085389,124.512,-40.527,-3.418,1.0,1.0
1626203045.0892951,38.574,-64.453,-1.465,1.0,1.0
1626203045.0932014,-165.52700000000002,-62.5,-18.555,1.0,1.0
1626203045.0971074,-118.652,-38.086,-28.809,1.0,1.0
1626203045.101014,67.383,-22.461,-35.156,1.0,1.0
1626203045.1049201,59.57,-4.395,-31.738000000000003,1.0,1.0
1626203045.1088262,-138.672,-20.508000000000003,-45.898,1.0,1.0
1626203045.1127326,-182.12900000000002,-46.387,-45.41,1.0,1.0
1626203045.116639,-150.879,-12.207,-17.578,-160.156,1.0
1626203045.1205451,-71.777,-28.809,-40.039,127.93,1.0
1626203045.1244514,127.441,-19.043,-43.457,143.555,1.0
1626203045.1283576,82.52,-2.441,-26.366999999999997,-150.391,1.0
1626203045.132264,-143.555,-25.391,-30.761999999999997,-206.055,1.0
1626203045.1361701,-157.715,-47.852,-39.062,74.219,1.0
1626203045.1400764,48.828,-31.738000000000003,-32.227,153.809,1.0
1626203045.1439826,109.863,-17.09,-18.555,-104.98,1.0
1626203045.147889,-82.031,-20.996,-20.996,-253.90599999999998,1.0
1626203045.1517951,-154.297,-35.645,-21.484,-16.602,1.0
1626203045.1557016,22.949,-41.504,-23.926,189.453,1.0
1626203045.1596076,129.88299999999998,-18.555,-25.391,14.648,1.0
1626203045.163514,-20.02,-18.066,-30.761999999999997,-39.062,1.0
1626203045.1674201,-166.50400000000002,-25.879,-35.645,-222.168,1.0
1626203045.1713264,-34.668,-24.414,-34.668,-28.32,1.0
1626203045.1752326,131.34799999999998,-27.831999999999997,-41.992,190.43,1.0
1626203045.179139,18.555,-34.18,-50.781000000000006,25.391,1.0
1626203045.183045,-188.965,-42.968999999999994,-44.922,-241.21099999999998,1.0
1626203045.1869516,-122.07,-31.25,-27.831999999999997,-132.812,1.0
1626203045.1908574,85.93799999999999,-21.484,-20.508000000000003,145.996,1.0
1626203045.1947641,70.801,-23.926,-22.461,96.191,1.0
1626203045.19867,-145.996,-24.901999999999997,-44.434,-199.21900000000002,1.0
1626203045.2025762,-173.34,-29.785,-42.968999999999994,-208.49599999999998,1.0
1626203045.206483,57.129,-31.738000000000003,-22.461,93.262,1.0
1626203045.210389,128.906,-39.062,-25.391,164.551,1.0
1626203045.214295,-68.359,-45.898,-37.109,-103.027,1.0
1626203045.2182014,-172.852,-32.227,-39.551,-220.703,1.0
1626203045.2221074,-8.789,-15.625,-41.016000000000005,18.555,1.0
1626203045.226014,128.906,-30.761999999999997,-35.156,188.965,1.0
1626203045.2299201,-15.625,-47.363,-46.387,-28.809,1.0
1626203045.2338264,-193.84799999999998,-36.621,-51.758,-249.023,1.0
1626203045.2377326,-63.477,-20.02,-12.207,-64.453,1.0
1626203045.241639,108.887,-22.949,-23.438000000000002,165.52700000000002,1.0
1626203045.2455451,9.277000000000001,-40.039,-65.43,22.949,1.0
1626203045.2494514,-161.13299999999998,-51.27,-51.27,-217.285,1.0
1626203045.2533574,-121.094,-54.688,-21.484,-141.602,1.0
1626203045.257264,-220.703,-45.898,-42.968999999999994,-272.949,1.0
1626203045.2611701,-64.453,-39.062,-40.527,-48.34,1.0
1626203045.2650764,104.00399999999999,-35.156,-37.598,169.43400000000003,1.0
1626203045.2689826,-3.418,-27.344,-20.508000000000003,1.465,1.0
1626203045.272889,-186.523,-35.645,-28.809,-233.398,1.0
1626203045.2767951,-104.98,-27.831999999999997,-45.898,-102.051,1.0
1626203045.2807014,97.656,-23.926,-43.945,158.203,1.0
1626203045.2846076,45.898,-52.733999999999995,-29.296999999999997,73.242,1.0
1626203045.288514,-168.457,-65.918,-33.203,-204.102,1.0
1626203045.2924201,-158.203,-40.527,-29.296999999999997,-176.75799999999998,1.0
1626203045.2963264,65.43,4.395,-33.203,110.84,1.0
1626203045.300233,100.586,1.465,-49.316,137.207,1.0
1626203045.304139,-108.398,-18.066,-38.086,-140.625,1.0
1626203045.308045,-187.012,-13.672,-31.25,-224.12099999999998,1.0
1626203045.3119516,12.207,-2.93,-32.715,40.527,1.0
1626203045.3158574,130.859,0.488,-37.598,176.27,1.0
1626203045.3197637,-45.41,-32.715,-41.016000000000005,-75.684,1.0
1626203045.32367,-212.40200000000002,-63.477,-40.527,-272.949,1.0
1626203045.3275762,-68.848,-49.805,-32.227,-67.383,1.0
1626203045.331483,128.418,-33.203,-28.809,164.551,1.0
1626203045.335389,39.062,-16.602,-36.621,15.625,1.0
1626203045.3392951,-151.855,-11.23,-32.227,-229.49200000000002,1.0
1626203045.3432014,-85.449,-4.395,-23.438000000000002,-121.094,1.0
1626203045.3471074,102.051,-2.93,-33.203,138.184,1.0
1626203045.351014,63.477,-16.113,-41.992,1.0,1.0
1626203045.3549201,-132.812,-31.25,-31.738000000000003,1.0,1.0
1626203045.3588262,-136.23,-21.973000000000003,-28.809,1.0,1.0
1626203045.3627326,66.895,-2.441,-19.531,1.0,1.0
1626203045.366639,103.516,-22.949,-25.391,1.0,1.0
1626203045.3705451,-90.33200000000001,-32.227,-66.895,1.0,1.0
1626203045.3744514,-181.15200000000002,-22.949,-70.312,1.0,1.0
1626203045.3783576,-1.465,-45.41,-31.738000000000003,1.0,1.0
1626203045.382264,131.836,-37.598,-9.277000000000001,1.0,1.0
1626203045.3861701,-19.043,-9.766,-26.855,1.0,1.0
1626203045.3900764,-186.523,-17.09,-40.039,1.0,1.0
1626203045.3939826,-55.663999999999994,-9.277000000000001,-38.086,1.0,1.0
1626203045.397889,-178.22299999999998,-33.203,-42.968999999999994,11.719000000000001,1.0
1626203045.4017951,8.789,-61.523,-49.316,182.61700000000002,1.0
1626203045.4057016,104.492,-56.641000000000005,-35.156,-41.016000000000005,1.0
1626203045.4096076,-49.316,-22.461,-28.32,-269.531,1.0
1626203045.413514,-182.12900000000002,-16.602,-37.598,-96.191,1.0
1626203045.4174201,-41.016000000000005,-11.719000000000001,-23.926,178.22299999999998,1.0
1626203045.4213264,100.098,-22.949,-15.137,64.941,1.0
1626203045.4252326,-33.691,-47.363,-28.809,-207.52,1.0
1626203045.429139,-201.172,-61.523,-32.715,-156.738,1.0
1626203045.433045,-71.777,-39.551,-7.324,99.609,1.0
1626203045.4369516,131.836,-29.296999999999997,-11.719000000000001,85.449,1.0
1626203045.4408574,72.75399999999999,-43.945,-25.879,-188.477,1.0
1626203045.4447641,-134.766,-47.852,-27.831999999999997,-178.71099999999998,1.0
1626203045.44867,-139.16,-45.41,-23.926,-160.156,1.0
1626203045.4525762,69.824,-16.113,-16.602,120.605,1.0
1626203045.456483,80.566,-7.812,-35.645,122.559,1.0
1626203045.460389,-129.395,-21.484,-36.621,-162.59799999999998,1.0
1626203045.464295,-178.71099999999998,-34.668,-15.625,-219.727,1.0
1626203045.4682014,23.438000000000002,-39.062,-2.93,54.688,1.0
1626203045.4721074,121.58200000000001,-31.25,-0.488,176.27,1.0
1626203045.476014,-59.082,-34.18,-20.508000000000003,-75.195,1.0
1626203045.4799201,-193.84799999999998,-36.621,-38.574,-245.605,1.0
1626203045.4838264,-37.598,-29.785,-28.32,-24.901999999999997,1.0
1626203045.4877326,129.395,-11.23,-12.695,193.84799999999998,1.0
1626203045.491639,21.973000000000003,-20.02,-18.555,1.0,1.0
1626203045.4955451,-181.15200000000002,-51.758,-41.504,1.0,1.0
1626203045.4994514,-103.027,-34.668,-30.273000000000003,1.0,1.0
1626203045.5033574,110.352,-21.973000000000003,-8.301,1.0,1.0
1626203045.507264,80.078,-31.25,-7.812,1.0,1.0
1626203045.5111701,-123.535,-39.062,-20.02,1.0,1.0
1626203045.5150764,-155.273,-61.035,-36.133,1.0,1.0
1626203045.5189826,47.363,-56.152,-33.691,1.0,1.0
1626203045.522889,101.56200000000001,-37.598,-26.366999999999997,1.0,1.0
1626203045.5267951,-68.359,-29.296999999999997,-12.207,1.0,1.0
1626203045.5307014,-152.344,-22.461,-16.602,1.0,1.0
1626203045.5346076,6.836,-18.555,-34.668,1.0,1.0
1626203045.538514,119.62899999999999,-26.855,-56.641000000000005,181.641,1.0
1626203045.5424201,-47.852,-38.086,-64.453,-61.523,1.0
1626203045.5463264,-195.801,-33.203,-34.668,-248.535,1.0
1626203045.550233,-71.289,-40.039,-24.901999999999997,-52.733999999999995,1.0
1626203045.554139,86.914,-55.176,-22.461,150.879,1.0
1626203045.558045,5.371,-34.668,-22.949,0.977,1.0
1626203045.5619516,-174.31599999999997,-23.438000000000002,-37.109,-234.375,1.0
1626203045.5658574,-127.441,-31.738000000000003,-22.949,-138.184,1.0
1626203045.5697637,75.684,-19.531,-16.113,134.766,1.0
1626203045.57367,65.918,-5.859,-20.996,89.844,1.0
1626203045.5775762,-120.605,-14.648,-20.996,-179.688,1.0
1626203045.581483,-123.04700000000001,-33.203,-32.715,-167.48,1.0
1626203045.585389,-167.48,-18.555,-16.113,110.84,1.0
1626203045.5892951,-98.633,-43.945,-35.156,151.855,1.0
1626203045.5932014,84.473,-39.062,-44.922,-122.559,1.0
1626203045.5971074,14.16,-45.898,-48.34,-244.62900000000002,1.0
1626203045.601014,-187.988,-67.87100000000001,-50.293,19.531,1.0
1626203045.6049201,-148.92600000000002,-66.406,-32.715,196.28900000000002,1.0
1626203045.6088262,71.777,-48.828,-19.531,-35.645,1.0
1626203045.6127326,83.49600000000001,-45.41,-28.32,-258.789,1.0
1626203045.616639,-108.398,-35.156,-34.668,-85.449,1.0
1626203045.6205451,-159.18,-15.137,-37.109,171.875,1.0
1626203045.6244514,15.625,-20.508000000000003,-29.785,55.663999999999994,1.0
1626203045.6283576,112.79299999999999,-28.32,-21.973000000000003,-208.00799999999998,1.0
1626203045.632264,-53.223,-23.926,-23.926,1.0,1.0
1626203045.6361701,-198.24200000000002,-37.109,-28.809,1.0,1.0
1626203045.6400764,-43.945,-51.27,-21.484,1.0,1.0
1626203045.6439826,110.84,-53.711000000000006,-17.09,1.0,1.0
1626203045.647889,-27.344,-57.617,-31.25,1.0,1.0
1626203045.6517951,-192.38299999999998,-61.523,-36.133,1.0,1.0
1626203045.6557016,-82.52,-36.621,-32.227,1.0,1.0
1626203045.6596076,139.648,11.719000000000001,-15.137,1.0,1.0
1626203045.663514,78.613,2.93,-19.043,1.0,1.0
1626203045.6674201,-154.785,-20.02,-34.668,1.0,1.0
1626203045.6713264,-142.578,-15.137,-28.809,1.0,1.0
1626203045.6752326,75.684,-10.254000000000001,-15.625,1.0,1.0
1626203045.679139,-206.055,-36.133,-48.34,-248.047,1.0
1626203045.683045,-29.296999999999997,-13.672,-37.109,5.859,1.0
1626203045.6869516,149.414,7.812,-23.926,206.543,1.0
1626203045.6908574,8.301,-4.883,-35.156,-13.184000000000001,1.0
1626203045.6947641,-167.96900000000002,-41.992,-39.551,-230.957,1.0
1626203045.69867,-61.035,-43.457,-36.133,-62.988,1.0
1626203045.7025762,121.58200000000001,-12.207,-26.855,179.688,1.0
1626203045.706483,71.289,-10.742,-1.465,77.148,1.0
1626203045.710389,-142.578,-36.133,-27.831999999999997,-204.59,1.0
1626203045.714295,-132.812,-41.504,-49.805,-156.25,1.0
1626203045.7182014,76.172,-32.227,-23.926,125.488,1.0
1626203045.7221074,66.406,-41.016000000000005,-24.414,104.98,1.0
1626203045.726014,-136.719,-62.988,-31.738000000000003,1.0,1.0
1626203045.7299201,-181.15200000000002,-50.781000000000006,-38.574,1.0,1.0
1626203045.7338264,28.809,-10.254000000000001,-39.551,1.0,1.0
1626203045.7377326,121.58200000000001,-14.648,-36.133,1.0,1.0
1626203045.741639,-50.293,-9.766,-29.296999999999997,1.0,1.0
