timestamps,TP9,AF7,AF8,TP10,Right AUX
1626202957.976014,-224.12099999999998,6.836,-50.293,-267.09,1.0
1626202957.9799201,-51.27,14.16,-30.761999999999997,-20.02,1.0
1626202957.9838264,126.95299999999999,-11.23,-32.227,175.293,1.0
1626202957.9877326,1.953,-14.648,-44.922,-20.02,1.0
1626202957.991639,-162.59799999999998,-15.625,-34.18,-216.797,1.0
1626202957.9955451,-69.336,-47.852,-32.715,-61.035,1.0
1626202957.9994514,109.863,-36.621,-41.016000000000005,180.66400000000002,1.0
1626202958.0033574,40.039,-0.488,-41.504,53.711000000000006,1.0
1626202958.007264,-147.461,-10.254000000000001,-44.434,-227.53900000000002,1.0
1626202958.0111701,-128.906,-33.691,-35.645,-154.785,1.0
1626202958.0150764,83.49600000000001,-49.805,-13.184000000000001,144.043,1.0
1626202958.0189826,109.863,-49.316,-5.859,140.137,1.0
1626202958.022889,136.719,-8.789,-6.348,191.895,1.0
1626202958.0267951,22.461,-35.156,-9.277000000000001,16.113,1.0
1626202958.0307014,-185.547,-59.57,-24.901999999999997,-244.141,1.0
1626202958.0346076,-100.098,-43.457,-25.879,-106.445,1.0
1626202958.038514,120.605,-39.551,-33.203,181.641,1.0
1626202958.0424201,91.309,-41.992,-55.176,111.816,1.0
1626202958.0463264,-128.906,-40.039,-67.383,-196.28900000000002,1.0
1626202958.050233,-160.645,-20.02,-52.246,-203.613,1.0
1626202958.054139,52.246,-5.859,-39.062,91.79700000000001,1.0
1626202958.058045,117.676,3.418,-41.504,144.531,1.0
1626202958.0619516,-72.266,5.859,-49.316,-134.766,1.0
1626202958.0658574,-142.578,3.906,-56.641000000000005,-225.58599999999998,1.0
1626202958.0697637,55.663999999999994,4.883,-47.363,1.0,1.0
1626202958.07367,180.66400000000002,16.602,-43.457,1.0,1.0
1626202958.0775762,14.648,21.973000000000003,-59.57,1.0,1.0
1626202958.081483,-142.09,14.648,-68.359,1.0,1.0
1626202958.085389,-7.324,15.137,-62.988,1.0,1.0
1626202958.0892951,186.035,28.809,-53.223,1.0,1.0
1626202958.0932014,93.262,28.32,-60.547,1.0,1.0
1626202958.0971074,-111.32799999999999,13.184000000000001,-72.75399999999999,1.0,1.0
1626202958.101014,-59.082,17.09,-76.66,1.0,1.0
1626202958.1049201,144.043,43.457,-80.566,1.0,1.0
1626202958.1088262,145.996,44.922,-80.078,1.0,1.0
1626202958.1127326,-62.5,31.738000000000003,-90.33200000000001,1.0,1.0
1626202958.116639,-92.773,20.02,-84.961,1.0,1.0
1626202958.1205451,131.836,4.395,-73.242,1.0,1.0
1626202958.1244514,202.148,-0.488,-84.473,1.0,1.0
1626202958.1283576,-0.977,15.625,-113.77,1.0,1.0
1626202958.132264,-114.258,53.223,-106.934,1.0,1.0
1626202958.1361701,62.012,65.43,-68.848,1.0,1.0
1626202958.1400764,201.172,49.316,-64.453,1.0,1.0
1626202958.1439826,68.848,21.973000000000003,-70.312,1.0,1.0
1626202958.147889,-99.12100000000001,15.625,-59.082,1.0,1.0
1626202958.1517951,-1.465,22.949,-60.059,1.0,1.0
1626202958.1557016,197.75400000000002,26.366999999999997,-61.035,1.0,1.0
1626202958.1596076,161.621,36.133,-48.828,1.0,1.0
1626202958.163514,-51.758,3.906,-34.668,-151.855,1.0
1626202958.1674201,-58.105,-12.207,-34.18,-107.42200000000001,1.0
1626202958.1713264,160.156,-23.438000000000002,-47.363,192.38299999999998,1.0
1626202958.1752326,159.18,-9.766,-59.57,175.293,1.0
1626202958.179139,-60.547,-6.836,-61.523,-135.74200000000002,1.0
1626202958.183045,-90.33200000000001,-26.366999999999997,-46.387,-182.12900000000002,1.0
1626202958.1869516,112.305,-41.504,-37.109,104.98,1.0
1626202958.1908574,180.66400000000002,-24.901999999999997,-38.574,205.078,1.0
1626202958.1947641,-10.254000000000001,-15.137,-43.457,-70.801,1.0
1626202958.19867,-135.74200000000002,-41.016000000000005,-52.246,-219.727,1.0
1626202958.2025762,25.391,-37.109,-50.293,14.16,1.0
1626202958.206483,169.922,-2.441,-47.852,199.21900000000002,1.0
1626202958.210389,145.02,3.418,-24.901999999999997,187.012,1.0
1626202958.214295,-22.461,-11.23,-28.32,-62.012,1.0
1626202958.2182014,-176.75799999999998,-33.203,-34.668,-243.16400000000002,1.0
1626202958.2221074,-13.184000000000001,-31.738000000000003,-25.879,-6.836,1.0
1626202958.226014,163.086,-9.277000000000001,-43.457,214.84400000000002,1.0
1626202958.2299201,51.27,-7.324,-56.152,40.039,1.0
1626202958.2338264,-132.32399999999998,-36.621,-44.922,-199.21900000000002,1.0
1626202958.2377326,-81.543,-41.992,-48.828,-95.70299999999999,1.0
1626202958.241639,91.79700000000001,-44.922,-48.828,145.996,1.0
1626202958.2455451,63.965,-37.109,-38.086,84.473,1.0
1626202958.2494514,-119.141,-15.625,-19.043,-173.34,1.0
1626202958.2533574,-137.695,-35.156,-0.977,-166.016,1.0
1626202958.257264,67.383,-36.621,-2.93,113.77,1.0
1626202958.2611701,115.723,-23.926,-15.625,151.36700000000002,1.0
1626202958.2650764,-94.727,-33.691,-32.227,-138.672,1.0
1626202958.2689826,-179.199,-38.086,-36.133,-234.375,1.0
1626202958.272889,1.953,-31.738000000000003,-34.18,23.926,1.0
1626202958.2767951,127.441,-31.738000000000003,-29.785,173.34,1.0
1626202958.2807014,-24.414,-35.156,-36.133,-54.199,1.0
1626202958.2846076,-184.082,-26.855,-41.992,-242.676,1.0
1626202958.288514,-39.551,-7.324,-33.691,-28.809,1.0
1626202958.2924201,135.74200000000002,-27.831999999999997,-40.039,192.87099999999998,1.0
1626202958.2963264,22.461,-52.733999999999995,-40.039,30.761999999999997,1.0
1626202958.300233,-171.875,-44.922,-23.926,-221.68,1.0
1626202958.304139,-96.68,-34.18,-20.996,-115.723,1.0
1626202958.308045,94.238,-37.598,-36.133,156.25,1.0
1626202958.3119516,69.336,-42.48,-42.968999999999994,116.211,1.0
1626202958.3158574,-135.254,-44.922,-42.968999999999994,-163.57399999999998,1.0
1626202958.3197637,-153.32,-51.27,-31.738000000000003,-171.387,1.0
1626202958.32367,79.59,-25.879,-11.23,129.395,1.0
1626202958.3275762,124.023,-43.457,-25.391,171.875,1.0
1626202958.331483,-79.59,-80.566,-38.574,-110.352,1.0
1626202958.335389,-187.5,-75.684,-49.805,-228.02700000000002,1.0
1626202958.3392951,-9.277000000000001,-54.199,-37.598,27.831999999999997,1.0
1626202958.3432014,158.691,-13.184000000000001,-18.555,219.238,1.0
1626202958.3471074,-5.859,-30.761999999999997,-47.852,-17.09,1.0
1626202958.351014,-192.87099999999998,-29.296999999999997,-57.129,1.0,1.0
1626202958.3549201,-72.75399999999999,13.672,-41.504,1.0,1.0
1626202958.3588262,114.258,12.207,-39.551,1.0,1.0
1626202958.3627326,30.761999999999997,-18.066,-39.062,1.0,1.0
1626202958.366639,-180.66400000000002,-39.062,-33.691,1.0,1.0
1626202958.3705451,-138.184,-37.598,-25.391,1.0,1.0
1626202958.3744514,97.656,-20.996,-8.301,1.0,1.0
1626202958.3783576,121.094,-33.691,-4.395,1.0,1.0
1626202958.382264,-118.164,-62.988,-31.25,1.0,1.0
1626202958.3861701,-183.59400000000002,-46.875,-39.062,1.0,1.0
1626202958.3900764,43.945,-16.602,-18.066,1.0,1.0
1626202958.3939826,131.34799999999998,-14.648,-21.484,1.0,1.0
1626202958.397889,82.52,-26.366999999999997,-44.434,119.141,1.0
1626202958.4017951,-117.676,-47.363,-56.641000000000005,-163.086,1.0
1626202958.4057016,-170.898,-27.344,-36.133,-218.262,1.0
1626202958.4096076,23.926,0.0,-22.461,53.223,1.0
1626202958.413514,128.418,-14.16,-33.203,172.852,1.0
1626202958.4174201,-33.691,-26.366999999999997,-40.527,-63.477,1.0
1626202958.4213264,-202.148,-29.296999999999997,-48.828,-250.488,1.0
1626202958.4252326,-65.918,-32.227,-20.996,-40.039,1.0
1626202958.429139,100.586,-30.761999999999997,6.348,170.41,1.0
1626202958.433045,-57.617,-48.828,-19.531,-41.992,1.0
1626202958.4369516,-280.27299999999997,-65.43,-24.901999999999997,-320.312,1.0
1626202958.4408574,-223.145,-63.477,11.719000000000001,-205.078,1.0
1626202958.4447641,-36.133,-53.711000000000006,26.855,1.0,1.0
1626202958.44867,-103.027,-58.593999999999994,17.578,1.0,1.0
1626202958.4525762,-361.32800000000003,-74.219,11.719000000000001,1.0,1.0
1626202958.456483,-386.719,-89.844,18.555,1.0,1.0
1626202958.460389,-182.12900000000002,-97.656,28.32,1.0,1.0
1626202958.464295,-143.066,-84.473,26.366999999999997,1.0,1.0
1626202958.4682014,-360.352,-88.867,11.719000000000001,1.0,1.0
1626202958.4721074,-450.684,-88.867,6.348,1.0,1.0
1626202958.476014,-256.348,-83.984,17.09,1.0,1.0
1626202958.4799201,-156.738,-122.559,8.789,1.0,1.0
1626202958.4838264,-300.293,-170.41,10.742,1.0,1.0
1626202958.4877326,-446.777,-146.484,24.414,1.0,1.0
1626202958.491639,-317.383,-104.492,13.184000000000001,1.0,1.0
1626202958.4955451,-119.62899999999999,-102.051,23.438000000000002,1.0,1.0
1626202958.4994514,-218.75,-98.633,20.02,1.0,1.0
1626202958.5033574,-395.02,-76.172,19.531,1.0,1.0
1626202958.507264,-298.828,-82.031,31.738000000000003,1.0,1.0
1626202958.5111701,-95.70299999999999,-130.371,14.16,1.0,1.0
1626202958.5150764,-98.145,-162.109,-9.766,1.0,1.0
1626202958.5189826,-282.22700000000003,-120.605,4.883,1.0,1.0
1626202958.522889,-284.668,-68.359,28.809,1.0,1.0
1626202958.5267951,-55.663999999999994,-64.941,6.836,1.0,1.0
1626202958.5307014,5.371,-75.195,-1.465,1.0,1.0
1626202958.5346076,-162.59799999999998,-77.148,4.883,1.0,1.0
1626202958.538514,-248.535,-58.593999999999994,-5.371,-250.488,1.0
1626202958.5424201,-58.105,-65.43,-17.09,26.855,1.0
1626202958.5463264,125.0,-46.875,4.883,226.562,1.0
1626202958.550233,-28.809,-46.387,-0.488,-13.184000000000001,1.0
1626202958.554139,-240.72299999999998,-49.316,-31.25,-260.254,1.0
1626202958.558045,-103.516,-20.508000000000003,-17.578,-66.406,1.0
1626202958.5619516,105.469,-15.137,-16.602,197.75400000000002,1.0
1626202958.5658574,18.066,-51.758,-30.761999999999997,60.547,1.0
1626202958.5697637,-186.035,-79.102,-32.227,-212.891,1.0
1626202958.57367,-128.906,-72.75399999999999,-7.324,-125.488,1.0
1626202958.5775762,104.492,-41.504,12.695,175.78099999999998,1.0
1626202958.581483,96.68,-18.066,-3.906,129.88299999999998,1.0
1626202958.585389,67.87100000000001,-30.761999999999997,-23.926,91.79700000000001,1.0
1626202958.5892951,-164.062,-57.129,-25.879,-205.56599999999997,1.0
1626202958.5932014,-140.625,-36.133,-11.719000000000001,-143.066,1.0
1626202958.5971074,86.914,-4.883,5.371,154.785,1.0
1626202958.601014,84.961,-23.926,-6.836,139.648,1.0
1626202958.6049201,-141.113,-41.016000000000005,-20.02,-172.363,1.0
1626202958.6088262,-205.078,-39.551,-16.113,-243.65200000000002,1.0
1626202958.6127326,-22.461,-26.366999999999997,-19.531,18.066,1.0
1626202958.616639,54.199,-2.441,-24.414,112.305,1.0
1626202958.6205451,-139.648,-14.16,-28.32,-157.715,1.0
1626202958.6244514,-273.438,8.789,-27.344,-320.801,1.0
1626202958.6283576,-138.672,7.812,-10.254000000000001,-107.42200000000001,1.0
1626202958.632264,-41.016000000000005,-44.434,-22.461,37.109,1.0
1626202958.6361701,-188.965,-20.508000000000003,-46.875,-187.5,1.0
1626202958.6400764,-367.18800000000005,-30.273000000000003,-54.199,-425.781,1.0
1626202958.6439826,-260.742,-52.733999999999995,-39.551,-262.695,1.0
1626202958.647889,-48.34,-30.761999999999997,-16.602,10.254000000000001,1.0
1626202958.6517951,-83.008,-4.395,-11.719000000000001,-67.383,1.0
1626202958.6557016,-273.438,-8.789,-28.809,-343.26199999999994,1.0
1626202958.6596076,-253.418,11.23,-43.945,-298.34,1.0
1626202958.663514,-57.617,33.691,-45.41,-4.883,1.0
1626202958.6674201,-36.133,-2.441,-25.391,9.277000000000001,1.0
1626202958.6713264,-223.145,-66.406,-5.859,-265.625,1.0
1626202958.6752326,-310.547,-69.336,-16.113,-353.51599999999996,1.0
1626202958.679139,-107.91,-13.184000000000001,-18.066,1.0,1.0
1626202958.683045,30.273000000000003,-0.977,-15.625,1.0,1.0
1626202958.6869516,-113.281,-13.184000000000001,-34.18,1.0,1.0
1626202958.6908574,-239.25799999999998,-25.879,-36.621,1.0,1.0
1626202958.6947641,-83.49600000000001,-15.625,-22.949,1.0,1.0
1626202958.69867,130.859,4.395,-11.23,1.0,1.0
1626202958.7025762,38.574,-19.043,-19.531,1.0,1.0
1626202958.706483,-164.062,-32.715,-28.809,1.0,1.0
1626202958.710389,-79.102,-32.715,-33.203,1.0,1.0
1626202958.714295,134.27700000000002,-54.688,-41.992,1.0,1.0
1626202958.7182014,98.633,-73.242,-57.617,1.0,1.0
1626202958.7221074,-116.699,-64.941,-66.895,1.0,1.0
1626202958.726014,-108.398,-31.738000000000003,-49.805,1.0,1.0
1626202958.7299201,134.27700000000002,-16.113,-31.738000000000003,1.0,1.0
1626202958.7338264,202.637,-20.02,-30.273000000000003,1.0,1.0
1626202958.7377326,19.531,-19.531,-44.434,1.0,1.0
1626202958.741639,-62.5,-26.855,-46.875,1.0,1.0
1626202958.7455451,121.58200000000001,-14.648,-9.277000000000001,1.0,1.0
1626202958.7494514,227.051,-32.715,-18.555,1.0,1.0
1626202958.7533574,61.523,-70.312,-50.781000000000006,1.0,1.0
1626202958.757264,-82.031,-60.547,-30.761999999999997,1.0,1.0
1626202958.7611701,41.504,-35.156,-20.508000000000003,1.0,1.0
1626202958.7650764,217.773,-38.086,-35.156,1.0,1.0
1626202958.7689826,125.0,-66.895,-41.504,1.0,1.0
1626202958.772889,43.457,-37.598,-39.551,-144.531,1.0
1626202958.7767951,-125.488,-32.715,-38.086,-64.941,1.0
1626202958.7807014,-5.859,-24.901999999999997,-32.227,218.75,1.0
1626202958.7846076,192.87099999999998,-38.086,-32.227,187.988,1.0
1626202958.788514,105.469,-60.547,-30.273000000000003,-107.91,1.0
1626202958.7924201,-106.934,-46.387,-18.555,-100.586,1.0
1626202958.7963264,-87.891,-43.945,-33.691,204.59,1.0
1626202958.800233,123.04700000000001,-56.152,-50.781000000000006,257.812,1.0
1626202958.804139,167.96900000000002,-41.504,-45.41,-40.527,1.0
1626202958.808045,-55.176,-37.109,-47.852,-188.477,1.0
1626202958.8119516,-139.16,-24.414,-40.527,71.289,1.0
1626202958.8158574,68.848,-15.625,-14.648,268.066,1.0
1626202958.8197637,141.113,-33.203,-20.996,211.426,1.0
1626202958.82367,-50.781000000000006,-36.133,-29.296999999999997,-66.406,1.0
1626202958.8275762,-166.016,-31.738000000000003,-18.555,-215.332,1.0
1626202958.831483,-7.812,-40.039,-19.531,17.578,1.0
1626202958.835389,148.92600000000002,-35.156,-31.738000000000003,220.215,1.0
1626202958.8392951,32.715,-47.363,-49.316,33.691,1.0
1626202958.8432014,-152.344,-47.852,-68.848,-213.37900000000002,1.0
1626202958.8471074,-66.895,-30.273000000000003,-53.223,-66.895,1.0
1626202958.851014,136.719,-22.461,-20.02,204.102,1.0
1626202958.8549201,88.37899999999999,-40.527,-2.93,110.352,1.0
1626202958.8588262,-141.602,-53.223,-12.695,-201.66,1.0
1626202958.8627326,-139.648,-29.296999999999997,-34.18,-171.387,1.0
1626202958.866639,90.33200000000001,-20.996,-32.715,140.625,1.0
1626202958.8705451,123.535,-20.996,-23.926,161.621,1.0
1626202958.8744514,-84.473,-34.668,-23.926,-136.719,1.0
1626202958.8783576,-162.59799999999998,-57.129,-29.296999999999997,-225.58599999999998,1.0
1626202958.882264,37.598,-43.457,-25.879,62.5,1.0
1626202958.8861701,152.832,-40.039,-14.16,204.59,1.0
1626202958.8900764,-27.831999999999997,-51.27,-16.602,-58.593999999999994,1.0
1626202958.8939826,-166.50400000000002,-26.855,-11.719000000000001,-231.445,1.0
1626202958.897889,-18.066,-4.883,-16.602,-9.766,1.0
1626202958.9017951,138.672,-16.113,-38.574,207.52,1.0
1626202958.9057016,14.16,-33.203,-60.547,19.043,1.0
1626202958.9096076,-166.50400000000002,-15.625,-75.684,-232.91,1.0
1626202958.913514,-70.801,-13.672,-76.172,-88.867,1.0
1626202958.9174201,125.0,-41.016000000000005,-38.574,186.523,1.0
1626202958.9213264,60.059,-51.758,-5.371,102.051,1.0
1626202958.9252326,-159.18,-60.059,-16.113,-200.68400000000003,1.0
1626202958.929139,-162.59799999999998,-57.617,-6.836,-188.965,1.0
1626202958.933045,52.733999999999995,-27.831999999999997,-13.672,109.863,1.0
1626202958.9369516,108.398,-9.766,-48.34,156.738,1.0
1626202958.9408574,-82.031,-32.715,-42.968999999999994,-125.0,1.0
1626202958.9447641,-174.805,-41.504,-42.968999999999994,-236.81599999999997,1.0
1626202958.94867,14.16,-21.973000000000003,-56.641000000000005,33.203,1.0
1626202958.9525762,145.996,5.371,-53.223,213.37900000000002,1.0
1626202958.956483,-21.973000000000003,-14.648,-46.387,-28.32,1.0
1626202958.960389,-182.61700000000002,-62.5,-30.761999999999997,-248.047,1.0
1626202958.964295,-52.246,-42.48,-30.273000000000003,-53.711000000000006,1.0
1626202958.9682014,129.395,-9.277000000000001,-24.901999999999997,179.688,1.0
1626202958.9721074,34.668,-12.207,-14.16,31.738000000000003,1.0
1626202958.976014,-175.293,-27.344,-27.831999999999997,-243.16400000000002,1.0
1626202958.9799201,-105.95700000000001,-28.809,-12.207,-136.719,1.0
1626202958.9838264,112.79299999999999,-32.715,-4.395,160.156,1.0
1626202958.9877326,89.355,-45.898,-20.508000000000003,121.094,1.0
1626202958.991639,-105.95700000000001,-36.621,-22.949,-153.809,1.0
1626202958.9955451,-128.418,-42.968999999999994,-57.129,-160.156,1.0
1626202958.9994514,76.172,-50.781000000000006,-68.848,128.418,1.0
1626202959.0033574,122.07,-42.48,-40.039,171.387,1.0
1626202959.007264,99.12100000000001,-36.621,-46.875,153.32,1.0
1626202959.0111701,-121.094,-41.016000000000005,-35.645,-160.156,1.0
1626202959.0150764,-139.648,-27.831999999999997,-32.715,-194.33599999999998,1.0
1626202959.0189826,79.59,1.465,-24.414,129.395,1.0
1626202959.022889,159.18,24.414,-3.906,234.375,1.0
1626202959.0267951,-26.855,-2.441,0.977,-54.199,1.0
1626202959.0307014,-179.199,-37.109,-24.901999999999997,-220.703,1.0
1626202959.0346076,-17.578,-35.156,-29.785,8.789,1.0
1626202959.038514,135.74200000000002,-56.641000000000005,-20.996,205.078,1.0
1626202959.0424201,23.438000000000002,-70.801,-26.855,32.715,1.0
1626202959.0463264,-134.27700000000002,-46.875,-28.32,-186.035,1.0
1626202959.050233,-74.707,-35.645,-32.227,-55.176,1.0
1626202959.054139,124.512,-12.695,-25.879,1.0,1.0
1626202959.058045,68.848,-10.254000000000001,-42.48,1.0,1.0
1626202959.0619516,-148.438,-41.992,-59.57,1.0,1.0
1626202959.0658574,-133.789,-15.137,-32.715,1.0,1.0
1626202959.0697637,58.593999999999994,0.0,-8.301,1.0,1.0
1626202959.07367,99.609,-17.578,-2.441,1.0,1.0
1626202959.0775762,-122.07,-38.086,-29.296999999999997,1.0,1.0
1626202959.081483,-204.102,-59.082,-36.621,1.0,1.0
1626202959.085389,14.648,-45.41,-23.438000000000002,1.0,1.0
1626202959.0892951,136.23,-16.602,-49.316,1.0,1.0
1626202959.0932014,-32.227,-16.113,-60.547,1.0,1.0
1626202959.0971074,-195.312,-36.621,-53.223,1.0,1.0
1626202959.101014,-46.387,-22.461,-42.48,1.0,1.0
1626202959.1049201,119.62899999999999,-20.996,-25.391,1.0,1.0
1626202959.1088262,15.137,-29.785,-4.395,1.0,1.0
1626202959.1127326,-163.086,-17.578,-6.836,1.0,1.0
1626202959.116639,-93.262,-40.039,-25.391,1.0,1.0
1626202959.1205451,119.62899999999999,-38.086,-30.761999999999997,1.0,1.0
1626202959.1244514,69.336,-15.625,-57.129,1.0,1.0
1626202959.1283576,-135.74200000000002,-15.625,-49.316,1.0,1.0
1626202959.132264,-144.043,-30.761999999999997,-23.926,1.0,1.0
1626202959.1361701,46.875,-20.996,-20.996,1.0,1.0
1626202959.1400764,107.42200000000001,-8.301,-13.184000000000001,1.0,1.0
1626202959.1439826,-89.844,-31.738000000000003,-21.484,1.0,1.0
1626202959.147889,-178.22299999999998,-38.086,-27.831999999999997,-228.516,1.0
1626202959.1517951,15.625,-1.953,-9.277000000000001,52.733999999999995,1.0
1626202959.1557016,137.695,-5.859,2.441,208.49599999999998,1.0
1626202959.1596076,-27.831999999999997,-34.18,-20.02,-47.852,1.0
1626202959.163514,-187.988,-47.363,-39.062,-253.90599999999998,1.0
1626202959.1674201,-30.273000000000003,-30.273000000000003,-14.16,-22.461,1.0
1626202959.1713264,141.113,-46.387,-13.672,213.37900000000002,1.0
1626202959.1752326,28.809,-68.848,-36.621,49.316,1.0
1626202959.179139,-157.715,-22.461,-35.156,-206.543,1.0
1626202959.183045,-115.234,-8.789,-32.227,-119.141,1.0
1626202959.1869516,102.539,-21.484,-25.391,176.27,1.0
1626202959.1908574,103.027,-9.766,-37.109,138.672,1.0
1626202959.1947641,55.176,-15.137,-1.465,54.688,1.0
1626202959.19867,-156.738,-31.25,-36.621,-228.516,1.0
1626202959.2025762,-108.398,-24.414,-50.781000000000006,-138.184,1.0
1626202959.206483,87.402,-26.855,-33.203,139.16,1.0
1626202959.210389,92.773,-57.129,-28.32,118.652,1.0
1626202959.214295,-110.84,-65.918,-33.691,-170.41,1.0
1626202959.2182014,-158.691,-44.434,-56.152,-212.40200000000002,1.0
1626202959.2221074,62.012,-23.438000000000002,-56.641000000000005,92.285,1.0
1626202959.226014,121.094,-27.344,-47.852,168.457,1.0
1626202959.2299201,-93.262,-46.875,-40.527,-130.859,1.0
1626202959.2338264,-202.148,-41.016000000000005,-9.277000000000001,-270.996,1.0
1626202959.2377326,-7.812,-16.602,13.184000000000001,-2.441,1.0
1626202959.241639,140.137,-18.555,-6.348,185.547,1.0
1626202959.2455451,-3.418,-17.09,-31.25,-25.391,1.0
1626202959.2494514,-168.457,-23.438000000000002,-17.09,-244.62900000000002,1.0
1626202959.2533574,-78.125,-44.922,-32.227,-102.051,1.0
1626202959.257264,122.559,-17.09,-44.434,168.945,1.0
1626202959.2611701,64.453,-22.461,-41.016000000000005,73.73,1.0
1626202959.2650764,-160.156,-41.016000000000005,-59.082,-235.352,1.0
1626202959.2689826,-143.066,-31.25,-54.688,-187.5,1.0
1626202959.272889,87.402,-15.625,-33.203,128.906,1.0
1626202959.2767951,117.676,-12.695,-13.184000000000001,146.97299999999998,1.0
1626202959.2807014,-102.539,-24.414,-10.742,-153.809,1.0
1626202959.2846076,-184.57,-27.344,-23.926,-237.305,1.0
1626202959.288514,22.461,-18.066,-27.831999999999997,1.0,1.0
1626202959.2924201,147.461,-42.968999999999994,-21.973000000000003,1.0,1.0
1626202959.2963264,-22.949,-51.27,-36.133,1.0,1.0
1626202959.300233,-176.75799999999998,-33.691,-58.593999999999994,1.0,1.0
1626202959.304139,-54.688,-40.527,-49.316,1.0,1.0
1626202959.308045,112.305,-12.695,-38.574,1.0,1.0
1626202959.3119516,4.395,-2.441,-27.831999999999997,1.0,1.0
1626202959.3158574,-173.828,-32.227,-9.766,1.0,1.0
1626202959.3197637,-84.473,-35.156,-21.484,1.0,1.0
1626202959.32367,110.352,-36.133,-44.434,1.0,1.0
1626202959.3275762,46.387,-52.733999999999995,-45.41,1.0,1.0
1626202959.331483,-163.086,-50.293,-25.391,1.0,1.0
1626202959.335389,-162.109,-50.781000000000006,-20.996,1.0,1.0
1626202959.3392951,55.176,-33.691,-23.438000000000002,1.0,1.0
1626202959.3432014,99.12100000000001,-45.41,-21.484,1.0,1.0
1626202959.3471074,-108.887,-49.316,-26.855,1.0,1.0
1626202959.351014,-183.59400000000002,-36.133,-40.527,1.0,1.0
1626202959.3549201,8.301,-41.992,-55.176,1.0,1.0
1626202959.3588262,138.184,-26.855,-41.992,1.0,1.0
1626202959.3627326,-5.859,-36.621,-28.809,1.0,1.0
1626202959.366639,-166.99200000000002,-36.621,-24.901999999999997,1.0,1.0
1626202959.3705451,-69.336,-24.901999999999997,-28.809,1.0,1.0
1626202959.3744514,94.727,-25.391,-40.527,1.0,1.0
1626202959.3783576,16.602,-23.438000000000002,-51.758,1.0,1.0
1626202959.382264,91.79700000000001,-47.363,-53.223,-53.223,1.0
1626202959.3861701,-87.891,-62.012,-20.02,-270.02,1.0
1626202959.3900764,-181.641,-53.223,2.441,-70.312,1.0
1626202959.3939826,-4.395,-39.551,0.488,176.75799999999998,1.0
1626202959.397889,132.812,-24.414,-20.996,42.968999999999994,1.0
1626202959.4017951,-25.879,-13.672,-38.086,-235.84,1.0
1626202959.4057016,-194.33599999999998,-22.949,-37.109,-145.996,1.0
1626202959.4096076,-88.37899999999999,-16.113,-36.133,152.832,1.0
1626202959.413514,104.492,-13.184000000000001,-46.387,114.258,1.0
1626202959.4174201,69.336,-22.461,-39.551,-169.43400000000003,1.0
1626202959.4213264,-113.77,-20.02,-28.809,-192.38299999999998,1.0
1626202959.4252326,-125.488,-34.18,-43.945,82.52,1.0
1626202959.429139,52.246,-61.523,-55.176,1.0,1.0
1626202959.433045,87.402,-57.129,-37.109,1.0,1.0
1626202959.4369516,-117.18799999999999,-32.715,-25.879,1.0,1.0
1626202959.4408574,-175.293,-22.949,-22.461,1.0,1.0
1626202959.4447641,33.203,-42.968999999999994,-24.414,1.0,1.0
1626202959.44867,121.58200000000001,-47.852,-26.366999999999997,1.0,1.0
1626202959.4525762,-53.223,-26.855,-31.25,1.0,1.0
1626202959.456483,-185.05900000000003,-23.926,-25.879,1.0,1.0
1626202959.460389,-17.578,-10.254000000000001,-18.066,1.0,1.0
1626202959.464295,154.297,-11.719000000000001,-41.992,1.0,1.0
1626202959.4682014,17.09,-45.41,-47.852,1.0,1.0
1626202959.4721074,-181.15200000000002,-53.223,-27.344,1.0,1.0
1626202959.476014,-100.586,-34.668,-17.09,-102.539,1.0
1626202959.4799201,88.867,-23.926,-28.809,158.203,1.0
1626202959.4838264,41.016000000000005,-24.414,-41.992,67.383,1.0
1626202959.4877326,-163.57399999999998,-41.992,-37.598,-221.19099999999997,1.0
1626202959.491639,-152.344,-23.926,-27.344,-189.453,1.0
1626202959.4955451,71.777,-10.254000000000001,-30.761999999999997,113.77,1.0
1626202959.4994514,111.816,-23.438000000000002,-31.738000000000003,147.94899999999998,1.0
1626202959.5033574,-94.727,-45.41,-33.203,-146.484,1.0
1626202959.507264,-165.52700000000002,-56.641000000000005,-27.831999999999997,-229.00400000000002,1.0
1626202959.5111701,39.551,-58.593999999999994,-23.926,60.059,1.0
1626202959.5150764,140.137,-20.02,-32.715,193.84799999999998,1.0
1626202959.5189826,-39.551,-13.672,-44.434,-61.035,1.0
1626202959.522889,43.945,-44.434,-30.273000000000003,85.93799999999999,1.0
1626202959.5267951,-180.66400000000002,-64.453,-44.434,-223.63299999999998,1.0
1626202959.5307014,-192.87099999999998,-42.968999999999994,-47.363,-227.53900000000002,1.0
1626202959.5346076,36.133,-19.531,-26.366999999999997,88.37899999999999,1.0
1626202959.538514,113.77,-7.812,-14.648,179.199,1.0
1626202959.5424201,-62.012,-12.207,-9.277000000000001,-91.309,1.0
1626202959.5463264,-179.688,-29.785,-4.883,-232.422,1.0
1626202959.550233,-30.761999999999997,-23.926,-22.949,-0.488,1.0
1626202959.554139,138.672,-6.348,-31.738000000000003,202.637,1.0
1626202959.558045,10.254000000000001,-33.203,-15.625,-2.93,1.0
1626202959.5619516,-183.105,-61.035,-21.484,-255.37099999999998,1.0
1626202959.5658574,-88.37899999999999,-63.477,-28.32,-92.773,1.0
1626202959.5697637,104.00399999999999,-40.039,-19.043,166.016,1.0
1626202959.57367,29.785,-26.855,-33.203,34.668,1.0
1626202959.5775762,-190.918,-27.831999999999997,-47.852,-253.90599999999998,1.0
1626202959.581483,-156.738,-17.578,-25.391,-172.363,1.0
1626202959.585389,75.684,-6.836,-1.953,145.996,1.0
1626202959.5892951,101.074,-17.09,-18.555,143.555,1.0
1626202959.5932014,-114.74600000000001,-31.738000000000003,-33.203,-164.551,1.0
1626202959.5971074,-173.828,-43.945,-19.531,-220.215,1.0
1626202959.601014,28.32,-44.434,-25.391,66.406,1.0
1626202959.6049201,104.98,-33.691,-43.457,168.457,1.0
1626202959.6088262,-65.43,-36.621,-31.738000000000003,-85.93799999999999,1.0
1626202959.6127326,-184.57,-28.809,-49.805,-244.62900000000002,1.0
1626202959.616639,-42.48,-13.184000000000001,-64.453,1.0,1.0
1626202959.6205451,98.145,-27.344,-43.457,1.0,1.0
1626202959.6244514,-23.926,-50.781000000000006,-23.438000000000002,1.0,1.0
1626202959.6283576,-190.43,-32.715,-4.395,1.0,1.0
1626202959.632264,-84.961,-23.926,2.93,1.0,1.0
1626202959.6361701,115.234,-31.738000000000003,-12.695,1.0,1.0
1626202959.6400764,45.898,-39.551,-45.41,1.0,1.0
1626202959.6439826,-158.203,-35.156,-44.922,1.0,1.0
1626202959.647889,-149.414,-29.296999999999997,-31.25,1.0,1.0
1626202959.6517951,60.547,-39.062,-29.785,1.0,1.0
1626202959.6557016,102.539,-26.366999999999997,-30.761999999999997,1.0,1.0
1626202959.6596076,-99.609,-33.691,-16.113,1.0,1.0
1626202959.663514,-174.31599999999997,-80.566,-17.09,-218.262,1.0
1626202959.6674201,11.719000000000001,-49.805,-51.758,54.688,1.0
1626202959.6713264,106.934,-26.855,-54.199,171.875,1.0
1626202959.6752326,-52.246,-26.366999999999997,-23.926,-75.684,1.0
1626202959.679139,-173.34,-24.901999999999997,-6.836,-234.863,1.0
1626202959.683045,-41.016000000000005,-23.438000000000002,-12.207,-25.391,1.0
1626202959.6869516,107.42200000000001,-29.296999999999997,-26.855,185.547,1.0
1626202959.6908574,-5.859,-21.484,-32.227,18.555,1.0
1626202959.6947641,-194.33599999999998,-23.438000000000002,-36.621,-251.465,1.0
1626202959.69867,-124.512,-46.875,-27.831999999999997,-138.672,1.0
1626202959.7025762,90.33200000000001,-62.988,0.977,165.52700000000002,1.0
1626202959.706483,66.895,-53.711000000000006,5.859,114.74600000000001,1.0
1626202959.710389,54.688,-18.555,-12.695,62.012,1.0
1626202959.714295,-150.879,0.977,-35.645,-215.82,1.0
1626202959.7182014,-119.141,-1.465,-48.34,-134.766,1.0
1626202959.7221074,106.445,-23.438000000000002,-30.273000000000003,166.016,1.0
1626202959.726014,95.70299999999999,-35.156,-47.852,128.906,1.0
1626202959.7299201,-132.32399999999998,-34.668,-54.199,-181.15200000000002,1.0
1626202959.7338264,-171.387,-50.781000000000006,-34.18,-210.938,1.0
1626202959.7377326,47.363,-41.992,-12.207,92.773,1.0
1626202959.741639,132.32399999999998,-8.789,-0.977,187.5,1.0
1626202959.7455451,-65.43,-4.883,-17.578,-90.82,1.0
1626202959.7494514,-160.156,-7.812,-25.391,-224.609,1.0
1626202959.7533574,4.395,-28.32,-22.461,19.531,1.0
1626202959.757264,114.74600000000001,-41.016000000000005,-34.18,1.0,1.0
1626202959.7611701,-17.578,-17.09,-42.968999999999994,1.0,1.0
1626202959.7650764,-196.77700000000002,-29.296999999999997,-34.18,1.0,1.0
1626202959.7689826,-89.355,-40.527,-21.484,1.0,1.0
1626202959.772889,106.445,-35.156,-27.344,1.0,1.0
1626202959.7767951,51.758,-41.992,-39.551,1.0,1.0
1626202959.7807014,-168.457,-49.805,-38.086,1.0,1.0
1626202959.7846076,-137.695,-12.695,-30.761999999999997,1.0,1.0
1626202959.788514,74.707,-9.766,-41.992,1.0,1.0
1626202959.7924201,64.453,-46.875,-49.316,1.0,1.0
1626202959.7963264,-117.18799999999999,-41.016000000000005,-20.996,1.0,1.0
1626202959.800233,-181.641,-34.18,-22.461,1.0,1.0
1626202959.804139,13.672,-27.831999999999997,-16.113,1.0,1.0
1626202959.808045,125.0,-21.973000000000003,4.395,1.0,1.0
1626202959.8119516,-69.336,-51.27,-12.207,1.0,1.0
1626202959.8158574,-193.359,-56.152,-19.043,1.0,1.0
1626202959.8197637,-19.531,-43.457,-25.391,1.0,1.0
1626202959.82367,140.625,-26.366999999999997,-26.855,1.0,1.0
1626202959.8275762,13.672,-31.25,-35.645,1.0,1.0
1626202959.831483,-179.199,-39.551,-40.527,1.0,1.0
1626202959.835389,-74.707,-36.133,-16.113,1.0,1.0
1626202959.8392951,134.27700000000002,-19.043,-18.555,1.0,1.0
1626202959.8432014,93.75,-4.395,-28.809,1.0,1.0
1626202959.8471074,-131.34799999999998,-19.043,-34.18,1.0,1.0
1626202959.851014,-146.97299999999998,-39.062,-32.715,1.0,1.0
1626202959.8549201,60.547,-43.945,-20.996,1.0,1.0
1626202959.8588262,97.16799999999999,-38.086,-16.602,1.0,1.0
1626202959.8627326,-101.56200000000001,-36.621,-31.25,1.0,1.0
1626202959.866639,-172.852,-42.48,-38.574,1.0,1.0
1626202959.8705451,24.901999999999997,-20.996,-16.113,1.0,1.0
1626202959.8744514,133.789,7.812,-9.766,1.0,1.0
1626202959.8783576,-42.968999999999994,-12.695,-34.668,1.0,1.0
1626202959.882264,-182.61700000000002,-36.133,-37.598,1.0,1.0
1626202959.8861701,-14.648,-38.574,-21.484,1.0,1.0
1626202959.8900764,131.836,-42.48,-25.391,1.0,1.0
1626202959.8939826,9.277000000000001,-21.973000000000003,-26.855,1.0,1.0
1626202959.897889,-28.809,-55.663999999999994,-50.781000000000006,-42.968999999999994,1.0
1626202959.9017951,-198.73,-53.223,-48.828,-248.535,1.0
1626202959.9057016,-64.453,-35.645,-20.508000000000003,-49.805,1.0
1626202959.9096076,130.371,-12.207,-2.93,197.75400000000002,1.0
1626202959.913514,35.645,-8.789,-18.066,43.457,1.0
1626202959.9174201,-167.48,-25.879,-34.668,-228.02700000000002,1.0
1626202959.9213264,-95.215,-19.531,-16.113,-109.375,1.0
1626202959.9252326,131.836,4.883,-13.184000000000001,188.965,1.0
1626202959.929139,91.79700000000001,-14.16,-31.25,123.535,1.0
1626202959.933045,-152.344,-35.645,-39.551,-195.801,1.0
1626202959.9369516,-192.87099999999998,-38.574,-48.828,-219.238,1.0
1626202959.9408574,18.555,-42.48,-45.898,74.219,1.0
1626202959.9447641,107.42200000000001,-39.551,-28.809,1.0,1.0
1626202959.94867,-95.215,-42.968999999999994,-32.227,1.0,1.0
1626202959.9525762,-199.707,-50.293,-32.715,1.0,1.0
1626202959.956483,-10.254000000000001,-47.363,-15.137,1.0,1.0
1626202959.960389,135.254,-26.855,-20.02,1.0,1.0
1626202959.964295,2.441,-5.371,-34.18,1.0,1.0
1626202959.9682014,-177.734,-3.418,-41.992,1.0,1.0
1626202959.9721074,-65.918,1.465,-27.831999999999997,1.0,1.0
1626202959.976014,132.812,-13.184000000000001,-28.809,1.0,1.0
1626202959.9799201,55.176,-31.738000000000003,-36.621,1.0,1.0
1626202959.9838264,-146.97299999999998,-26.366999999999997,-24.901999999999997,1.0,1.0
1626202959.9877326,-110.84,-41.504,-14.648,1.0,1.0
1626202959.991639,100.586,-20.02,-16.113,1.0,1.0
1626202959.9955451,78.125,-14.16,-38.086,1.0,1.0
1626202959.9994514,-132.32399999999998,-48.828,-43.945,1.0,1.0
1626202960.0033574,-145.50799999999998,-33.203,-53.711000000000006,1.0,1.0
1626202960.007264,68.359,-30.273000000000003,-46.875,1.0,1.0
1626202960.0111701,144.531,-34.18,-7.324,1.0,1.0
1626202960.0150764,-57.129,-26.855,-13.184000000000001,1.0,1.0
1626202960.0189826,-189.453,-30.273000000000003,-39.062,1.0,1.0
1626202960.022889,-4.883,-22.949,-36.133,1.0,1.0
1626202960.0267951,133.789,-32.715,-28.809,1.0,1.0
1626202960.0307014,0.977,-20.508000000000003,-39.062,1.0,1.0
1626202960.0346076,-173.828,-28.809,-53.223,1.0,1.0
1626202960.038514,-80.566,-19.531,-38.574,-114.258,1.0
1626202960.0424201,-173.828,-60.059,-72.75399999999999,-222.168,1.0
1626202960.0463264,-7.812,-64.453,-55.663999999999994,46.387,1.0
1626202960.050233,105.95700000000001,-12.207,-11.23,196.28900000000002,1.0
1626202960.054139,-61.523,-15.137,-24.414,-63.965,1.0
1626202960.058045,-212.891,-24.414,-20.02,-261.23,1.0
1626202960.0619516,-64.941,-41.016000000000005,-7.812,-55.176,1.0
1626202960.0658574,131.34799999999998,-53.711000000000006,-7.812,181.15200000000002,1.0
1626202960.0697637,24.901999999999997,-33.691,-17.578,41.992,1.0
1626202960.07367,-186.035,-34.668,-36.133,-238.28099999999998,1.0
1626202960.0775762,-128.418,-37.598,-40.039,-142.578,1.0
1626202960.081483,83.984,-27.344,-29.785,156.25,1.0
1626202960.085389,70.312,-32.715,-20.996,1.0,1.0
1626202960.0892951,-145.02,-50.293,-32.227,1.0,1.0
1626202960.0932014,-171.875,-53.711000000000006,-30.761999999999997,1.0,1.0
1626202960.0971074,49.316,-42.48,-28.32,1.0,1.0
1626202960.101014,120.605,-34.18,-47.363,1.0,1.0
1626202960.1049201,-87.402,-18.555,-36.133,1.0,1.0
1626202960.1088262,-195.312,-6.836,-16.602,1.0,1.0
1626202960.1127326,-8.301,-54.688,-15.137,1.0,1.0
1626202960.116639,162.109,-65.43,-7.324,1.0,1.0
1626202960.1205451,1.953,-34.18,-22.461,1.0,1.0
1626202960.1244514,-215.82,-34.668,-40.039,1.0,1.0
1626202960.1283576,-103.027,-38.574,-36.133,1.0,1.0
1626202960.132264,107.91,-23.926,-27.831999999999997,1.0,1.0
1626202960.1361701,56.152,-7.812,-16.113,1.0,1.0
1626202960.1400764,-152.832,-24.901999999999997,-29.296999999999997,1.0,1.0
1626202960.1439826,-138.184,-38.086,-41.504,1.0,1.0
1626202960.147889,61.523,-34.18,-41.016000000000005,1.0,1.0
1626202960.1517951,72.266,-22.949,-30.273000000000003,1.0,1.0
1626202960.1557016,-138.672,-29.785,-30.761999999999997,1.0,1.0
1626202960.1596076,-186.523,-52.246,-45.898,1.0,1.0
1626202960.163514,34.668,-50.293,-45.898,1.0,1.0
1626202960.1674201,146.484,-34.668,-31.738000000000003,1.0,1.0
1626202960.1713264,-62.012,-50.781000000000006,-36.621,1.0,1.0
1626202960.1752326,-210.938,-64.941,-43.457,1.0,1.0
1626202960.179139,-40.039,-48.828,-36.621,1.0,1.0
1626202960.183045,118.652,-44.922,-30.273000000000003,1.0,1.0
1626202960.1869516,16.602,-34.18,-11.719000000000001,1.0,1.0
1626202960.1908574,-154.297,-21.484,-13.184000000000001,1.0,1.0
1626202960.1947641,-89.355,-13.184000000000001,-51.27,1.0,1.0
1626202960.19867,114.74600000000001,10.742,-53.711000000000006,1.0,1.0
1626202960.2025762,52.733999999999995,-20.508000000000003,-36.133,1.0,1.0
1626202960.206483,-171.875,-90.33200000000001,-33.691,1.0,1.0
1626202960.210389,-128.418,-69.336,-30.273000000000003,1.0,1.0
1626202960.214295,91.79700000000001,-19.043,-21.973000000000003,1.0,1.0
1626202960.2182014,103.516,-1.953,-23.926,1.0,1.0
1626202960.2221074,-115.234,-22.461,-50.293,1.0,1.0
1626202960.226014,32.715,-16.113,-32.715,12.695,1.0
1626202960.2299201,-166.50400000000002,-35.156,-36.621,-257.812,1.0
1626202960.2338264,-109.863,-60.059,-42.968999999999994,-155.273,1.0
1626202960.2377326,101.56200000000001,-67.87100000000001,-52.733999999999995,130.371,1.0
1626202960.241639,82.52,-31.25,-56.641000000000005,90.33200000000001,1.0
1626202960.2455451,-107.91,-6.836,-47.852,-181.15200000000002,1.0
1626202960.2494514,-132.32399999999998,-37.598,-41.016000000000005,-183.105,1.0
1626202960.2533574,73.73,-42.968999999999994,-26.366999999999997,113.77,1.0
1626202960.257264,126.95299999999999,-22.949,-25.879,161.621,1.0
1626202960.2611701,-99.12100000000001,-41.016000000000005,-38.086,-154.785,1.0
1626202960.2650764,-208.984,-56.152,-41.992,-274.902,1.0
1626202960.2689826,-15.137,-41.504,-44.434,-5.859,1.0
1626202960.272889,148.438,-20.996,-27.831999999999997,1.0,1.0
1626202960.2767951,6.348,-23.926,-17.578,1.0,1.0
1626202960.2807014,-188.965,-52.246,-30.273000000000003,1.0,1.0
1626202960.2846076,-86.426,-39.551,-34.18,1.0,1.0
1626202960.288514,100.098,-25.391,-25.879,1.0,1.0
1626202960.2924201,18.066,-43.457,-33.691,1.0,1.0
1626202960.2963264,-179.199,-53.711000000000006,-43.945,1.0,1.0
1626202960.300233,-124.023,-63.965,-34.18,1.0,1.0
1626202960.304139,107.91,-35.156,-30.761999999999997,1.0,1.0
1626202960.308045,97.16799999999999,-16.113,-42.48,1.0,1.0
1626202960.3119516,-104.98,-40.039,-28.809,1.0,1.0
1626202960.3158574,-131.34799999999998,-28.32,-8.789,1.0,1.0
1626202960.3197637,51.27,-11.23,-12.207,1.0,1.0
1626202960.32367,127.441,-23.926,-28.32,1.0,1.0
1626202960.3275762,-63.477,-38.086,-40.039,1.0,1.0
1626202960.331483,-210.449,-51.758,-34.668,1.0,1.0
1626202960.335389,-38.574,-41.504,-15.625,1.0,1.0
1626202960.3392951,139.648,-16.113,-13.184000000000001,1.0,1.0
1626202960.3432014,4.395,-30.273000000000003,-44.922,1.0,1.0
1626202960.3471074,-174.31599999999997,-62.012,-46.875,1.0,1.0
1626202960.351014,-67.383,-50.781000000000006,-15.137,1.0,1.0
1626202960.3549201,120.117,-30.273000000000003,-8.301,1.0,1.0
1626202960.3588262,62.988,-30.761999999999997,-12.207,1.0,1.0
1626202960.3627326,-147.94899999999998,-54.199,-26.366999999999997,1.0,1.0
1626202960.366639,-129.395,-37.598,-56.152,1.0,1.0
1626202960.3705451,86.914,-8.301,-52.246,1.0,1.0
1626202960.3744514,92.773,-11.23,-21.484,1.0,1.0
1626202960.3783576,-120.117,-27.344,-22.461,1.0,1.0
1626202960.382264,-183.105,-30.761999999999997,-33.203,1.0,1.0
1626202960.3861701,29.296999999999997,-34.18,-21.973000000000003,1.0,1.0
1626202960.3900764,134.766,-33.691,-28.32,1.0,1.0
1626202960.3939826,-45.41,-17.09,-31.738000000000003,1.0,1.0
1626202960.397889,-179.688,-24.901999999999997,-32.715,1.0,1.0
1626202960.4017951,-34.668,-35.645,-41.992,1.0,1.0
1626202960.4057016,142.578,-28.809,-15.137,1.0,1.0
1626202960.4096076,27.344,-34.668,-13.672,1.0,1.0
1626202960.413514,-45.41,-23.438000000000002,-43.945,-70.801,1.0
1626202960.4174201,-201.172,-20.508000000000003,-52.733999999999995,-261.719,1.0
1626202960.4213264,-58.105,-10.742,-45.41,-49.805,1.0
1626202960.4252326,129.88299999999998,-6.348,-13.672,198.73,1.0
1626202960.429139,5.859,-26.366999999999997,-2.441,19.531,1.0
1626202960.433045,-196.77700000000002,-35.645,-23.438000000000002,-251.953,1.0
1626202960.4369516,-123.04700000000001,-31.738000000000003,-37.598,-132.32399999999998,1.0
1626202960.4408574,107.42200000000001,-13.184000000000001,-31.738000000000003,167.96900000000002,1.0
1626202960.4447641,98.145,-6.348,-20.02,124.023,1.0
1626202960.44867,-132.812,-53.711000000000006,-29.785,-193.84799999999998,1.0
1626202960.4525762,-155.273,-93.75,-47.852,-203.125,1.0
1626202960.456483,49.316,-54.199,-44.434,91.79700000000001,1.0
1626202960.460389,97.656,-3.906,-29.296999999999997,1.0,1.0
1626202960.464295,-125.488,-22.461,-24.414,1.0,1.0
1626202960.4682014,-223.145,-29.296999999999997,-24.901999999999997,1.0,1.0
1626202960.4721074,-26.855,-26.366999999999997,-37.109,1.0,1.0
1626202960.476014,88.867,-38.086,-37.109,1.0,1.0
1626202960.4799201,-56.152,-24.901999999999997,-25.879,1.0,1.0
1626202960.4838264,-190.918,-37.109,-19.043,1.0,1.0
1626202960.4877326,-79.102,-44.434,-6.348,1.0,1.0
1626202960.491639,100.098,-34.18,-3.418,1.0,1.0
1626202960.4955451,38.574,-38.086,-15.625,1.0,1.0
1626202960.4994514,-149.414,-29.296999999999997,-24.414,1.0,1.0
1626202960.5033574,-125.977,-50.781000000000006,-32.227,1.0,1.0
1626202960.507264,78.125,-47.363,-23.926,1.0,1.0
1626202960.5111701,77.148,-17.09,-41.992,1.0,1.0
1626202960.5150764,-135.254,-20.508000000000003,-67.87100000000001,1.0,1.0
1626202960.5189826,-182.12900000000002,-27.831999999999997,-46.875,1.0,1.0
1626202960.522889,19.531,-13.184000000000001,-23.926,1.0,1.0
1626202960.5267951,103.516,-5.859,-22.461,1.0,1.0
1626202960.5307014,-80.078,-29.785,-36.621,1.0,1.0
1626202960.5346076,-186.035,-41.016000000000005,-41.016000000000005,1.0,1.0
1626202960.538514,7.812,-20.02,-21.484,1.0,1.0
1626202960.5424201,162.59799999999998,-11.719000000000001,-16.113,1.0,1.0
1626202960.5463264,5.859,-28.809,-33.203,1.0,1.0
1626202960.550233,-179.199,-62.5,-36.133,1.0,1.0
1626202960.554139,-78.613,-44.922,-20.508000000000003,-83.984,1.0
1626202960.558045,121.094,-47.363,-6.836,184.57,1.0
1626202960.5619516,60.547,-50.781000000000006,-12.695,75.195,1.0
1626202960.5658574,-154.297,-26.366999999999997,-27.344,-224.12099999999998,1.0
1626202960.5697637,-136.23,-22.949,-29.785,-171.387,1.0
1626202960.57367,77.637,-18.555,-37.598,133.30100000000002,1.0
1626202960.5775762,95.215,-8.789,-45.41,132.32399999999998,1.0
1626202960.581483,-112.305,-20.02,-44.434,-168.945,1.0
1626202960.585389,-170.898,-20.996,-36.621,-222.168,1.0
1626202960.5892951,27.344,-27.831999999999997,-35.645,60.547,1.0
1626202960.5932014,129.88299999999998,-64.453,-25.879,180.66400000000002,1.0
1626202960.5971074,-33.691,-54.688,-5.371,-71.777,1.0
1626202960.601014,-111.816,-27.344,-15.625,-158.691,1.0
1626202960.6049201,-208.984,-24.901999999999997,-57.617,-254.395,1.0
1626202960.6088262,-8.789,-27.344,-64.941,36.621,1.0
1626202960.6127326,107.91,-28.32,-38.086,176.27,1.0
1626202960.616639,-76.66,-25.391,-46.387,-88.867,1.0
1626202960.6205451,-226.074,-20.508000000000003,-36.621,-267.09,1.0
1626202960.6244514,-83.008,-26.366999999999997,-25.879,-51.758,1.0
1626202960.6283576,98.633,-41.992,-23.438000000000002,176.75799999999998,1.0
1626202960.632264,16.602,-32.715,-35.645,31.738000000000003,1.0
1626202960.6361701,-175.78099999999998,-20.996,-63.477,-229.98,1.0
1626202960.6400764,-122.559,-59.082,-46.387,-129.88299999999998,1.0
1626202960.6439826,98.145,-44.434,-6.836,162.109,1.0
1626202960.647889,74.219,-16.602,-3.418,108.398,1.0
1626202960.6517951,-150.391,-46.387,-26.366999999999997,-202.637,1.0
1626202960.6557016,-162.109,-38.574,-37.598,-205.078,1.0
1626202960.6596076,50.293,-24.901999999999997,-43.457,96.191,1.0
1626202960.663514,99.609,-17.09,-25.391,147.461,1.0
1626202960.6674201,-88.37899999999999,-0.977,-17.578,-129.88299999999998,1.0
1626202960.6713264,-187.988,-17.09,-41.992,-248.535,1.0
1626202960.6752326,-16.602,-48.34,-42.48,1.465,1.0
1626202960.679139,125.488,-33.203,-29.296999999999997,168.457,1.0
1626202960.683045,-27.831999999999997,-14.648,-34.18,-56.641000000000005,1.0
1626202960.6869516,-204.59,-23.438000000000002,-35.645,-260.742,1.0
1626202960.6908574,-73.73,-28.809,-23.926,-65.918,1.0
1626202960.6947641,131.836,-29.785,-23.438000000000002,1.0,1.0
1626202960.69867,39.062,-33.203,-31.25,1.0,1.0
1626202960.7025762,-181.641,-38.086,-52.733999999999995,1.0,1.0
1626202960.706483,-149.90200000000002,-40.039,-51.27,1.0,1.0
1626202960.710389,58.593999999999994,-37.109,-42.48,1.0,1.0
1626202960.714295,72.75399999999999,-24.901999999999997,-41.016000000000005,1.0,1.0
1626202960.7182014,-147.94899999999998,-28.809,-41.504,1.0,1.0
1626202960.7221074,-191.40599999999998,-36.133,-35.645,1.0,1.0
1626202960.726014,28.809,-22.461,-30.273000000000003,1.0,1.0
1626202960.7299201,102.539,-11.719000000000001,-17.09,1.0,1.0
1626202960.7338264,-94.238,-19.531,-20.996,1.0,1.0
1626202960.7377326,-231.93400000000003,-41.992,-34.668,1.0,1.0
1626202960.741639,-60.547,-34.18,-33.691,1.0,1.0
1626202960.7455451,83.49600000000001,-15.625,-19.531,1.0,1.0
1626202960.7494514,-81.055,-30.273000000000003,-25.391,1.0,1.0
1626202960.7533574,-249.023,-39.551,-29.785,1.0,1.0
1626202960.757264,-147.94899999999998,-24.901999999999997,-23.926,1.0,1.0
1626202960.7611701,16.602,-14.648,-20.02,1.0,1.0
1626202960.7650764,-92.285,-21.484,-30.761999999999997,1.0,1.0
1626202960.7689826,-310.547,-18.555,-39.062,1.0,1.0
1626202960.772889,-270.02,12.207,-24.901999999999997,1.0,1.0
1626202960.7767951,-76.172,6.348,-14.16,1.0,1.0
1626202960.7807014,-78.613,-22.461,-5.859,1.0,1.0
1626202960.7846076,-290.039,-32.227,-13.672,1.0,1.0
1626202960.788514,-365.23400000000004,-21.484,-29.785,-402.344,1.0
1626202960.7924201,-164.551,-44.434,-23.438000000000002,-108.887,1.0
1626202960.7963264,-44.922,-53.711000000000006,-11.23,16.602,1.0
1626202960.800233,-221.19099999999997,-49.805,-19.043,-245.11700000000002,1.0
1626202960.804139,-361.32800000000003,-49.316,-43.945,-402.832,1.0
1626202960.808045,-147.461,-31.25,-20.02,-125.488,1.0
1626202960.8119516,36.621,-24.901999999999997,-6.836,78.613,1.0
1626202960.8158574,-146.484,-20.996,-30.273000000000003,-145.02,1.0
1626202960.8197637,-344.23800000000006,-23.438000000000002,-25.391,-385.74199999999996,1.0
1626202960.82367,-233.398,-44.434,-10.254000000000001,-214.355,1.0
1626202960.8275762,7.324,-42.48,-0.977,78.125,1.0
1626202960.831483,-48.828,-24.414,-4.883,-13.184000000000001,1.0
1626202960.835389,37.109,-24.414,-39.551,41.016000000000005,1.0
1626202960.8392951,-161.13299999999998,-26.855,-49.805,-206.543,1.0
1626202960.8432014,-87.402,-40.039,-35.156,-81.543,1.0
1626202960.8471074,149.90200000000002,-36.621,-16.602,211.91400000000002,1.0
1626202960.851014,107.42200000000001,-39.551,-22.949,149.90200000000002,1.0
1626202960.8549201,-116.211,-53.223,-34.668,-138.672,1.0
1626202960.8588262,-109.863,-59.57,-31.738000000000003,-123.535,1.0
1626202960.8627326,99.609,-65.43,-25.879,170.898,1.0
1626202960.866639,140.625,-33.203,-27.344,208.00799999999998,1.0
1626202960.8705451,-42.968999999999994,-31.738000000000003,-29.296999999999997,-71.289,1.0
1626202960.8744514,-119.141,-48.828,-41.504,-164.062,1.0
1626202960.8783576,68.848,-26.366999999999997,-45.41,104.00399999999999,1.0
1626202960.882264,188.965,-21.973000000000003,-29.785,253.90599999999998,1.0
1626202960.8861701,26.855,-28.32,-39.551,2.441,1.0
1626202960.8900764,-131.836,-25.879,-34.668,-189.94099999999997,1.0
1626202960.8939826,-4.883,-20.996,-24.901999999999997,13.184000000000001,1.0
1626202960.897889,166.99200000000002,-37.598,-30.273000000000003,246.09400000000002,1.0
1626202960.9017951,76.66,-60.547,-27.831999999999997,101.074,1.0
1626202960.9057016,-133.789,-73.242,-48.828,-179.688,1.0
1626202960.9096076,-65.918,-75.195,-45.41,-75.195,1.0
1626202960.913514,166.016,-27.344,-18.066,231.445,1.0
1626202960.9174201,142.09,-15.625,-16.113,193.359,1.0
1626202960.9213264,-90.33200000000001,-54.199,-38.574,-123.04700000000001,1.0
1626202960.9252326,-136.719,-43.457,-63.965,-170.41,1.0
1626202960.929139,82.031,-7.324,-36.133,1.0,1.0
1626202960.933045,154.785,-24.901999999999997,-7.324,1.0,1.0
1626202960.9369516,-49.316,-51.27,-31.25,1.0,1.0
1626202960.9408574,-152.832,-68.848,-40.527,1.0,1.0
1626202960.9447641,53.711000000000006,-80.566,-13.184000000000001,1.0,1.0
1626202960.94867,189.94099999999997,-65.43,-16.602,1.0,1.0
1626202960.9525762,27.344,-52.733999999999995,-36.133,1.0,1.0
1626202960.956483,-130.859,-40.039,-28.809,1.0,1.0
1626202960.960389,-27.344,-35.156,-35.156,1.0,1.0
1626202960.964295,152.344,-43.945,-48.828,1.0,1.0
1626202960.9682014,90.82,-37.109,-45.41,1.0,1.0
1626202960.9721074,-117.676,-45.898,-48.34,1.0,1.0
1626202960.976014,-163.086,-52.733999999999995,-51.27,-214.355,1.0
1626202960.9799201,-58.593999999999994,-48.34,-44.922,-57.617,1.0
1626202960.9838264,154.297,-45.898,-20.02,212.40200000000002,1.0
1626202960.9877326,97.16799999999999,-45.41,-3.418,114.258,1.0
1626202960.991639,-128.418,-33.203,-22.461,-189.453,1.0
1626202960.9955451,-120.117,-30.761999999999997,-35.645,-141.113,1.0
1626202960.9994514,99.609,-48.34,-34.668,168.457,1.0
1626202961.0033574,130.371,-34.668,-34.668,175.293,1.0
1626202961.007264,-77.637,-7.324,-32.715,-130.371,1.0
1626202961.0111701,-152.344,-5.371,-37.598,-201.172,1.0
1626202961.0150764,55.663999999999994,-20.508000000000003,-27.831999999999997,103.516,1.0
1626202961.0189826,179.688,-47.363,-4.395,239.74599999999998,1.0
1626202961.022889,-17.09,-62.012,-16.602,1.0,1.0
1626202961.0267951,-179.688,-41.504,-46.875,1.0,1.0
1626202961.0307014,-11.23,-14.648,-61.035,1.0,1.0
1626202961.0346076,154.297,4.883,-34.18,1.0,1.0
1626202961.038514,27.344,-15.625,-16.602,1.0,1.0
1626202961.0424201,-175.78099999999998,-60.547,-32.715,1.0,1.0
1626202961.0463264,-100.586,-70.312,-33.691,1.0,1.0
1626202961.050233,122.559,-54.199,-22.949,1.0,1.0
1626202961.054139,101.074,-21.484,-26.366999999999997,1.0,1.0
1626202961.058045,-92.773,-40.039,-34.18,1.0,1.0
1626202961.0619516,-87.891,-67.87100000000001,-25.879,1.0,1.0
1626202961.0658574,104.98,-27.344,-10.742,1.0,1.0
1626202961.0697637,138.184,-14.16,3.906,1.0,1.0
1626202961.07367,-78.613,-21.484,-26.855,1.0,1.0
1626202961.0775762,-186.035,-20.02,-42.48,1.0,1.0
1626202961.081483,-0.977,-19.043,-24.901999999999997,1.0,1.0
1626202961.085389,129.88299999999998,-24.901999999999997,-27.344,1.0,1.0
1626202961.0892951,-11.23,-28.809,-19.531,1.0,1.0
1626202961.0932014,-109.375,-36.133,-20.02,1.0,1.0
1626202961.0971074,76.66,-53.711000000000006,-21.973000000000003,1.0,1.0
1626202961.101014,144.531,-57.129,-23.926,1.0,1.0
1626202961.1049201,-57.129,-35.156,-31.25,1.0,1.0
1626202961.1088262,-170.41,-20.02,-19.531,1.0,1.0
1626202961.1127326,0.977,-32.715,-12.695,1.0,1.0
1626202961.116639,156.738,-45.898,-10.742,1.0,1.0
1626202961.1205451,-3.906,-48.34,-42.48,1.0,1.0
1626202961.1244514,-187.988,-23.926,-55.176,1.0,1.0
1626202961.1283576,-47.363,-4.395,-26.855,1.0,1.0
1626202961.132264,135.74200000000002,-12.695,-6.836,1.0,1.0
1626202961.1361701,49.316,-28.32,-2.441,1.0,1.0
1626202961.1400764,-135.254,-40.527,-10.254000000000001,1.0,1.0
1626202961.1439826,-93.262,-25.879,-16.602,1.0,1.0
1626202961.147889,111.816,-34.668,-34.668,1.0,1.0
1626202961.1517951,80.566,-66.406,-46.387,1.0,1.0
1626202961.1557016,-141.113,-59.082,-50.781000000000006,1.0,1.0
1626202961.1596076,-150.879,-33.203,-49.805,1.0,1.0
1626202961.163514,-167.96900000000002,-24.901999999999997,-41.016000000000005,-148.92600000000002,1.0
1626202961.1674201,-85.93799999999999,-43.457,-54.688,146.97299999999998,1.0
1626202961.1713264,134.27700000000002,-33.203,-43.457,133.789,1.0
1626202961.1752326,108.887,-12.207,-28.809,-152.344,1.0
1626202961.179139,-100.098,-36.621,-33.203,-199.707,1.0
1626202961.183045,-113.281,-52.733999999999995,-48.34,89.355,1.0
1626202961.1869516,82.52,-22.461,-43.945,190.918,1.0
1626202961.1908574,122.559,-15.137,-34.18,-85.449,1.0
1626202961.1947641,-73.242,-44.434,-38.086,-241.699,1.0
1626202961.19867,-134.766,-38.086,-35.156,2.441,1.0
1626202961.2025762,57.129,-2.441,-21.484,198.24200000000002,1.0
1626202961.206483,138.672,10.742,-24.901999999999997,0.0,1.0
1626202961.210389,-42.48,0.977,-35.645,-91.79700000000001,1.0
1626202961.214295,-170.898,-19.531,-27.344,-264.16,1.0
1626202961.2182014,-20.996,-21.973000000000003,-26.366999999999997,-32.227,1.0
1626202961.2221074,127.441,-19.043,-25.391,184.57,1.0
1626202961.226014,5.371,-39.062,-35.156,7.324,1.0
1626202961.2299201,-183.59400000000002,-57.617,-52.733999999999995,-246.582,1.0
1626202961.2338264,-108.887,-32.227,-45.898,-124.512,1.0
1626202961.2377326,95.215,-20.02,-29.785,154.297,1.0
1626202961.241639,55.663999999999994,-48.34,-37.109,80.566,1.0
1626202961.2455451,-146.484,-44.434,-54.688,-206.543,1.0
1626202961.2494514,-143.555,-13.672,-51.758,-179.688,1.0
1626202961.2533574,71.777,-11.719000000000001,-25.391,114.258,1.0
1626202961.257264,104.98,-34.18,-7.324,1.0,1.0
1626202961.2611701,-105.469,-45.41,-21.973000000000003,1.0,1.0
1626202961.2650764,-188.477,-40.527,-41.504,1.0,1.0
1626202961.2689826,2.441,-31.738000000000003,-30.273000000000003,1.0,1.0
1626202961.272889,141.602,-21.484,1.953,1.0,1.0
1626202961.2767951,-22.461,-20.02,-8.789,1.0,1.0
1626202961.2807014,-196.77700000000002,-32.715,-34.18,1.0,1.0
1626202961.2846076,-60.059,-37.109,-18.555,1.0,1.0
1626202961.288514,112.305,-62.5,-27.344,1.0,1.0
1626202961.2924201,21.484,-75.195,-41.992,1.0,1.0
1626202961.2963264,-176.75799999999998,-53.711000000000006,-39.062,1.0,1.0
1626202961.300233,-134.766,-26.366999999999997,-41.016000000000005,1.0,1.0
1626202961.304139,81.055,-14.648,-30.273000000000003,1.0,1.0
1626202961.308045,69.824,-21.484,-12.695,1.0,1.0
1626202961.3119516,-134.766,-32.715,-23.438000000000002,1.0,1.0
1626202961.3158574,-157.715,-41.992,-37.598,1.0,1.0
1626202961.3197637,52.733999999999995,-23.438000000000002,-24.901999999999997,1.0,1.0
1626202961.32367,132.32399999999998,-5.859,-11.719000000000001,1.0,1.0
1626202961.3275762,-67.87100000000001,-20.996,-18.066,1.0,1.0
1626202961.331483,-197.266,-24.414,-35.156,1.0,1.0
1626202961.335389,-29.785,-32.715,-32.715,1.0,1.0
1626202961.3392951,107.91,-47.363,-29.296999999999997,1.0,1.0
1626202961.3432014,-41.016000000000005,-57.617,-52.733999999999995,1.0,1.0
1626202961.3471074,-216.797,-52.246,-57.617,1.0,1.0
1626202961.351014,-75.195,-27.831999999999997,-50.781000000000006,-250.488,1.0
1626202961.3549201,-151.36700000000002,-30.761999999999997,-77.637,-13.672,1.0
1626202961.3588262,47.363,0.488,-46.875,204.59,1.0
1626202961.3627326,137.207,-20.02,-29.785,13.672,1.0
1626202961.366639,-36.133,-53.223,-21.973000000000003,-247.07,1.0
1626202961.3705451,-166.50400000000002,-43.945,-12.695,-106.934,1.0
1626202961.3744514,-40.039,-35.156,-26.855,172.363,1.0
1626202961.3783576,114.258,-22.461,-41.016000000000005,83.008,1.0
1626202961.382264,0.488,-19.043,-55.663999999999994,-210.938,1.0
1626202961.3861701,-179.688,-23.926,-43.457,-163.086,1.0
1626202961.3900764,-93.75,-21.973000000000003,-29.785,144.043,1.0
1626202961.3939826,117.18799999999999,-26.366999999999997,-13.184000000000001,161.13299999999998,1.0
1626202961.397889,72.75399999999999,-40.039,-49.805,1.0,1.0
1626202961.4017951,-156.25,-35.645,-82.031,1.0,1.0
1626202961.4057016,-167.48,-39.551,-37.598,1.0,1.0
1626202961.4096076,52.246,-44.434,-11.719000000000001,1.0,1.0
1626202961.413514,105.95700000000001,-35.645,-14.16,1.0,1.0
1626202961.4174201,-90.33200000000001,-35.645,-20.02,1.0,1.0
1626202961.4213264,-175.293,-32.715,-25.391,1.0,1.0
1626202961.4252326,3.906,-33.691,-33.203,1.0,1.0
1626202961.429139,118.164,-25.879,-31.25,1.0,1.0
1626202961.433045,-23.438000000000002,-13.672,-20.996,1.0,1.0
1626202961.4369516,-172.852,-24.414,-19.531,1.0,1.0
1626202961.4408574,-62.012,-28.32,-27.831999999999997,1.0,1.0
1626202961.4447641,-170.898,-43.945,-34.18,-215.332,1.0
1626202961.44867,-128.906,-13.184000000000001,-43.945,-151.36700000000002,1.0
1626202961.4525762,87.891,-15.625,-47.363,135.74200000000002,1.0
1626202961.456483,94.727,-23.926,-37.598,132.812,1.0
1626202961.460389,-121.094,-41.016000000000005,-23.926,-164.062,1.0
1626202961.464295,-179.688,-49.316,-17.09,-221.19099999999997,1.0
1626202961.4682014,33.691,-29.785,-12.695,64.453,1.0
1626202961.4721074,130.859,-41.504,-17.578,177.734,1.0
1626202961.476014,-57.617,-62.012,-29.296999999999997,-81.055,1.0
1626202961.4799201,-193.359,-58.105,-34.18,-258.789,1.0
1626202961.4838264,-20.996,-16.113,-37.109,-22.949,1.0
1626202961.4877326,139.16,-9.277000000000001,-45.898,185.547,1.0
1626202961.491639,0.0,-37.109,-48.34,1.0,1.0
1626202961.4955451,-189.94099999999997,-41.504,-28.809,1.0,1.0
1626202961.4994514,-99.12100000000001,-36.621,-11.719000000000001,1.0,1.0
1626202961.5033574,114.258,-21.973000000000003,-2.93,1.0,1.0
1626202961.507264,61.035,-28.32,-10.742,1.0,1.0
1626202961.5111701,-159.18,-25.879,-27.831999999999997,1.0,1.0
1626202961.5150764,-145.996,-12.695,-21.484,1.0,1.0
1626202961.5189826,73.242,-14.648,-8.789,1.0,1.0
1626202961.522889,120.117,-18.555,-15.625,1.0,1.0
1626202961.5267951,-83.49600000000001,-45.898,-40.527,1.0,1.0
1626202961.5307014,-183.59400000000002,-65.918,-40.527,1.0,1.0
1626202961.5346076,7.324,-46.387,-22.949,1.0,1.0
1626202961.538514,141.113,-23.438000000000002,-13.184000000000001,1.0,1.0
1626202961.5424201,-38.574,-36.621,-15.625,1.0,1.0
1626202961.5463264,-209.96099999999998,-34.18,-20.508000000000003,1.0,1.0
1626202961.550233,-57.617,-20.02,-8.789,1.0,1.0
1626202961.554139,116.699,-26.855,-15.625,1.0,1.0
1626202961.558045,-0.488,-27.831999999999997,-38.086,1.0,1.0
1626202961.5619516,-195.801,-25.391,-48.34,1.0,1.0
1626202961.5658574,-124.023,-30.273000000000003,-41.992,1.0,1.0
1626202961.5697637,103.027,-41.992,-26.366999999999997,1.0,1.0
1626202961.57367,96.68,-40.527,-16.113,1.0,1.0
1626202961.5775762,-133.789,-54.199,-35.645,1.0,1.0
1626202961.581483,-178.22299999999998,-50.293,-50.781000000000006,1.0,1.0
1626202961.585389,-173.828,-26.855,-28.32,-136.719,1.0
1626202961.5892951,-82.031,-55.663999999999994,-32.715,158.203,1.0
1626202961.5932014,90.82,-32.227,-60.547,110.352,1.0
1626202961.5971074,27.344,-17.09,-48.828,-187.012,1.0
1626202961.601014,-171.387,-32.715,-17.578,-205.078,1.0
1626202961.6049201,-150.879,-36.133,-20.508000000000003,81.543,1.0
1626202961.6088262,52.246,-33.691,-35.156,157.227,1.0
1626202961.6127326,81.543,-41.504,-41.016000000000005,-135.74200000000002,1.0
1626202961.616639,-108.398,-68.359,-34.18,-281.25,1.0
1626202961.6205451,-159.668,-49.805,-23.926,-22.461,1.0
1626202961.6244514,41.992,-12.695,-21.484,179.688,1.0
1626202961.6283576,123.535,-6.836,-30.273000000000003,-24.901999999999997,1.0
1626202961.632264,-77.637,-30.273000000000003,-45.898,-96.68,1.0
1626202961.6361701,-213.86700000000002,-58.593999999999994,-49.316,-266.113,1.0
1626202961.6400764,-20.508000000000003,-33.691,-25.391,-10.254000000000001,1.0
1626202961.6439826,156.738,-32.715,-13.672,219.238,1.0
1626202961.647889,19.531,-60.547,-29.296999999999997,16.602,1.0
1626202961.6517951,-164.062,-50.293,-44.434,-233.398,1.0
1626202961.6557016,-81.055,-36.621,-36.133,-90.33200000000001,1.0
1626202961.6596076,106.934,-20.02,-21.973000000000003,164.062,1.0
1626202961.663514,55.663999999999994,-15.625,-29.785,66.895,1.0
1626202961.6674201,-145.996,-19.531,-26.366999999999997,-216.30900000000003,1.0
1626202961.6713264,-130.371,-29.296999999999997,-27.344,-170.41,1.0
1626202961.6752326,84.961,-29.296999999999997,-32.715,124.023,1.0
1626202961.679139,121.58200000000001,-9.277000000000001,-37.109,1.0,1.0
1626202961.683045,-102.539,-17.578,-45.898,1.0,1.0
1626202961.6869516,-187.012,-31.738000000000003,-28.809,1.0,1.0
1626202961.6908574,26.855,-34.18,-19.531,1.0,1.0
1626202961.6947641,145.50799999999998,-33.691,-20.02,1.0,1.0
1626202961.69867,-23.438000000000002,-28.809,-19.043,1.0,1.0
1626202961.7025762,-168.457,-44.434,-24.901999999999997,1.0,1.0
1626202961.706483,-33.691,-47.363,-23.926,1.0,1.0
1626202961.710389,130.371,-28.809,-24.901999999999997,1.0,1.0
1626202961.714295,32.227,-14.648,-34.18,1.0,1.0
1626202961.7182014,-168.457,-14.648,-50.781000000000006,1.0,1.0
1626202961.7221074,-116.699,-28.809,-51.758,1.0,1.0
1626202961.726014,91.309,-18.066,-31.25,1.0,1.0
1626202961.7299201,64.941,1.953,-18.555,1.0,1.0
1626202961.7338264,-135.74200000000002,-16.602,-21.973000000000003,1.0,1.0
1626202961.7377326,-151.855,-44.434,-31.738000000000003,1.0,1.0
1626202961.741639,59.57,-54.688,-20.508000000000003,1.0,1.0
1626202961.7455451,139.648,-15.625,-13.184000000000001,1.0,1.0
1626202961.7494514,-86.914,-31.738000000000003,-29.785,1.0,1.0
1626202961.7533574,-219.727,-70.801,-35.645,1.0,1.0
1626202961.757264,-23.438000000000002,-26.366999999999997,-34.18,1.0,1.0
1626202961.7611701,117.18799999999999,14.16,-36.133,1.0,1.0
1626202961.7650764,-23.926,-1.465,-33.203,1.0,1.0
1626202961.7689826,-166.50400000000002,-36.133,-16.602,1.0,1.0
1626202961.772889,-142.09,-62.988,-21.973000000000003,-225.58599999999998,1.0
1626202961.7767951,-184.082,-48.828,-29.785,30.761999999999997,1.0
1626202961.7807014,40.527,-33.203,-10.254000000000001,202.637,1.0
1626202961.7846076,129.88299999999998,-44.922,-13.672,-30.273000000000003,1.0
1626202961.788514,-55.663999999999994,-22.949,-31.738000000000003,-253.418,1.0
1626202961.7924201,-182.61700000000002,5.859,-30.761999999999997,-62.012,1.0
1626202961.7963264,-43.945,-12.207,-18.555,196.77700000000002,1.0
1626202961.800233,106.445,-32.715,-20.996,74.707,1.0
1626202961.804139,-30.273000000000003,-49.805,-39.062,-202.148,1.0
1626202961.808045,-226.074,-51.758,-41.992,-145.02,1.0
1626202961.8119516,-102.539,-31.738000000000003,-26.366999999999997,153.32,1.0
1626202961.8158574,109.375,-17.09,-32.715,148.92600000000002,1.0
1626202961.8197637,37.109,-31.738000000000003,-45.41,1.0,1.0
1626202961.82367,-180.176,-44.922,-34.668,1.0,1.0
1626202961.8275762,-149.90200000000002,-27.344,-20.996,1.0,1.0
1626202961.831483,87.402,-27.344,-0.488,1.0,1.0
1626202961.835389,117.18799999999999,-31.738000000000003,-16.602,1.0,1.0
1626202961.8392951,-99.609,-14.648,-52.733999999999995,1.0,1.0
1626202961.8432014,-181.641,-13.184000000000001,-36.621,1.0,1.0
1626202961.8471074,13.672,-18.066,-20.996,1.0,1.0
1626202961.851014,133.30100000000002,-10.742,-25.391,1.0,1.0
1626202961.8549201,-48.828,-40.039,-32.715,1.0,1.0
1626202961.8588262,-200.195,-54.199,-37.109,1.0,1.0
1626202961.8627326,-62.5,-34.668,-22.949,1.0,1.0
1626202961.866639,-164.062,-19.531,-41.504,-227.53900000000002,1.0
1626202961.8705451,-132.812,-29.785,-36.621,-151.855,1.0
1626202961.8744514,82.52,-21.973000000000003,-18.555,145.02,1.0
1626202961.8783576,99.12100000000001,-4.883,-16.602,137.207,1.0
1626202961.882264,-104.492,-36.621,-37.598,-153.32,1.0
1626202961.8861701,-141.113,-68.848,-37.598,-202.148,1.0
1626202961.8900764,50.293,-34.668,-18.066,94.238,1.0
1626202961.8939826,123.04700000000001,-3.906,-20.02,188.965,1.0
1626202961.897889,-52.246,-3.906,-24.901999999999997,-81.055,1.0
1626202961.9017951,-173.34,-22.949,-25.391,-237.305,1.0
1626202961.9057016,1.953,-32.715,-26.366999999999997,0.488,1.0
1626202961.9096076,156.738,-16.113,-28.809,209.96099999999998,1.0
1626202961.913514,24.414,-13.672,-36.133,1.0,1.0
1626202961.9174201,-157.227,-29.296999999999997,-30.273000000000003,1.0,1.0
1626202961.9213264,-54.688,-18.555,-28.809,1.0,1.0
1626202961.9252326,135.74200000000002,-30.761999999999997,-26.855,1.0,1.0
1626202961.929139,53.711000000000006,-56.152,-41.992,1.0,1.0
1626202961.933045,-166.50400000000002,-35.156,-65.918,1.0,1.0
1626202961.9369516,-153.809,-19.043,-58.593999999999994,1.0,1.0
1626202961.9408574,77.637,-11.23,-27.344,1.0,1.0
1626202961.9447641,107.42200000000001,-20.02,-12.207,1.0,1.0
1626202961.94867,-101.56200000000001,-27.831999999999997,-33.691,1.0,1.0
1626202961.9525762,-173.828,-25.879,-38.086,1.0,1.0
1626202961.956483,29.296999999999997,-35.645,-12.207,1.0,1.0
1626202961.960389,152.832,-41.504,-11.719000000000001,1.0,1.0
1626202961.964295,-43.945,-32.715,-42.968999999999994,1.0,1.0
1626202961.9682014,-186.523,-33.203,-45.898,1.0,1.0
1626202961.9721074,-26.855,-43.945,-28.809,1.0,1.0
1626202961.976014,150.879,-31.738000000000003,-34.18,1.0,1.0
1626202961.9799201,35.156,-17.09,-48.828,1.0,1.0
1626202961.9838264,-166.016,-26.855,-47.363,1.0,1.0
1626202961.9877326,-95.215,-43.945,-29.785,1.0,1.0
1626202961.991639,101.56200000000001,-42.968999999999994,-25.879,1.0,1.0
1626202961.9955451,61.523,-41.504,-45.41,1.0,1.0
1626202961.9994514,-144.531,-35.645,-49.805,1.0,1.0
1626202962.0033574,-146.97299999999998,-26.366999999999997,-38.574,1.0,1.0
1626202962.007264,-169.43400000000003,-19.043,-9.766,-111.816,1.0
1626202962.0111701,-46.875,-41.016000000000005,-9.766,166.50400000000002,1.0
1626202962.0150764,137.207,-58.593999999999994,-5.371,120.117,1.0
1626202962.0189826,56.152,-52.246,-17.09,-159.18,1.0
1626202962.022889,-143.066,-17.578,-44.434,-195.801,1.0
1626202962.0267951,-107.91,-5.859,-53.223,89.355,1.0
1626202962.0307014,103.027,-10.742,-36.133,169.43400000000003,1.0
1626202962.0346076,99.12100000000001,-12.695,-20.02,-113.281,1.0
1626202962.038514,-124.023,-23.438000000000002,-23.438000000000002,-241.21099999999998,1.0
1626202962.0424201,-175.78099999999998,-32.715,-21.973000000000003,20.996,1.0
1626202962.0463264,55.663999999999994,-13.184000000000001,-2.441,192.87099999999998,1.0
1626202962.050233,147.94899999999998,-17.578,-13.184000000000001,-35.156,1.0
1626202962.054139,-71.289,-53.711000000000006,-40.527,-107.91,1.0
1626202962.058045,-203.125,-45.41,-43.945,-270.508,1.0
1626202962.0619516,-41.504,-41.016000000000005,-40.039,-37.598,1.0
1626202962.0658574,112.305,-72.75399999999999,-28.809,167.96900000000002,1.0
1626202962.0697637,-17.578,-84.961,-19.531,-39.062,1.0
1626202962.07367,-175.293,-39.062,-21.484,-239.74599999999998,1.0
1626202962.0775762,-62.988,0.488,-18.555,-59.57,1.0
1626202962.081483,112.305,7.324,-16.602,167.48,1.0
1626202962.085389,46.875,-13.672,-36.133,58.593999999999994,1.0
1626202962.0892951,-158.691,-36.133,-49.805,-207.03099999999998,1.0
1626202962.0932014,-145.02,-35.645,-48.828,-156.25,1.0
1626202962.0971074,47.363,-38.574,-35.645,107.42200000000001,1.0
1626202962.101014,74.219,-36.621,-24.901999999999997,1.0,1.0
1626202962.1049201,-121.58200000000001,-44.922,-30.273000000000003,1.0,1.0
1626202962.1088262,-187.012,-68.848,-26.855,1.0,1.0
1626202962.1127326,19.043,-57.617,-20.996,1.0,1.0
1626202962.116639,136.23,-27.344,-31.738000000000003,1.0,1.0
1626202962.1205451,-43.457,-31.25,-32.715,1.0,1.0
1626202962.1244514,-186.523,-31.25,-17.578,1.0,1.0
1626202962.1283576,-41.016000000000005,-18.066,-23.926,1.0,1.0
1626202962.132264,122.07,-22.461,-38.086,1.0,1.0
1626202962.1361701,17.578,-42.968999999999994,-46.387,1.0,1.0
1626202962.1400764,-170.41,-54.688,-36.621,1.0,1.0
1626202962.1439826,-103.027,-37.109,-7.324,1.0,1.0
1626202962.147889,105.469,-18.066,3.906,1.0,1.0
1626202962.1517951,69.336,-36.133,-9.277000000000001,1.0,1.0
1626202962.1557016,-163.086,-58.593999999999994,-39.062,1.0,1.0
1626202962.1596076,-171.875,-50.781000000000006,-41.992,1.0,1.0
1626202962.163514,62.5,-30.273000000000003,-21.973000000000003,1.0,1.0
1626202962.1674201,95.70299999999999,-29.785,-25.391,1.0,1.0
1626202962.1713264,-119.141,-42.968999999999994,-39.062,1.0,1.0
1626202962.1752326,-191.40599999999998,-39.551,-38.574,1.0,1.0
1626202962.179139,17.09,-34.668,-23.926,1.0,1.0
1626202962.183045,137.695,-50.293,-15.625,1.0,1.0
1626202962.1869516,-31.25,-57.129,-28.32,1.0,1.0
1626202962.1908574,-169.922,-33.691,-20.02,1.0,1.0
1626202962.1947641,-192.87099999999998,-56.152,-42.48,-245.605,1.0
1626202962.19867,-11.719000000000001,-32.715,-9.766,20.508000000000003,1.0
1626202962.2025762,138.672,-0.488,-8.301,202.148,1.0
1626202962.206483,-11.719000000000001,-21.484,-15.625,-28.32,1.0
1626202962.210389,-177.24599999999998,-27.344,-20.02,-235.84,1.0
1626202962.214295,-58.593999999999994,1.953,-28.32,-52.733999999999995,1.0
1626202962.2182014,108.887,-0.488,-33.203,181.15200000000002,1.0
1626202962.2221074,17.578,-27.831999999999997,-38.086,35.156,1.0
1626202962.226014,-178.71099999999998,-38.574,-39.551,-237.793,1.0
1626202962.2299201,-133.30100000000002,-51.27,-31.738000000000003,-154.297,1.0
1626202962.2338264,82.52,-50.293,-27.344,132.812,1.0
1626202962.2377326,83.984,-24.414,-40.039,108.398,1.0
1626202962.241639,-131.836,-13.184000000000001,-44.434,1.0,1.0
1626202962.2455451,-180.66400000000002,-13.672,-29.296999999999997,1.0,1.0
1626202962.2494514,34.18,-5.859,-17.578,1.0,1.0
1626202962.2533574,126.95299999999999,-19.531,-20.508000000000003,1.0,1.0
1626202962.257264,-66.406,-46.387,-30.761999999999997,1.0,1.0
1626202962.2611701,-192.87099999999998,-44.434,-38.574,1.0,1.0
1626202962.2650764,-20.508000000000003,-30.761999999999997,-34.668,1.0,1.0
1626202962.2689826,159.18,-18.555,-17.09,1.0,1.0
1626202962.272889,28.809,-36.621,-22.461,1.0,1.0
1626202962.2767951,-166.99200000000002,-45.41,-43.457,1.0,1.0
1626202962.2807014,-69.824,-28.809,-29.296999999999997,1.0,1.0
1626202962.2846076,118.164,-28.32,-3.418,1.0,1.0
1626202962.288514,52.246,-20.508000000000003,-11.719000000000001,1.0,1.0
1626202962.2924201,-155.762,-28.809,-33.203,1.0,1.0
1626202962.2963264,-139.16,-47.363,-41.504,1.0,1.0
1626202962.300233,67.87100000000001,-29.296999999999997,-55.663999999999994,1.0,1.0
1626202962.304139,79.102,-21.973000000000003,-57.617,1.0,1.0
1626202962.308045,-121.58200000000001,-26.366999999999997,-38.086,1.0,1.0
1626202962.3119516,-175.78099999999998,-31.738000000000003,-27.344,1.0,1.0
1626202962.3158574,34.668,-44.922,-12.695,1.0,1.0
1626202962.3197637,143.066,-36.133,-21.484,1.0,1.0
1626202962.32367,-60.547,-34.668,-49.316,1.0,1.0
1626202962.3275762,-202.637,-26.855,-44.922,1.0,1.0
1626202962.331483,-35.645,-6.836,-26.366999999999997,1.0,1.0
1626202962.335389,-251.953,-20.996,-20.996,-320.312,1.0
1626202962.3392951,-223.145,0.0,-20.996,-245.11700000000002,1.0
1626202962.3432014,-41.016000000000005,0.977,-23.926,19.531,1.0
1626202962.3471074,-66.895,-9.766,-32.715,-30.273000000000003,1.0
1626202962.351014,-286.621,-11.23,-40.527,-332.031,1.0
1626202962.3549201,-337.402,-11.23,-42.48,-376.95300000000003,1.0
1626202962.3588262,-111.816,-2.93,-24.901999999999997,-78.613,1.0
1626202962.3627326,-21.484,-3.906,-12.695,21.973000000000003,1.0
1626202962.366639,-236.328,-29.296999999999997,-42.48,-276.855,1.0
1626202962.3705451,-359.86300000000006,-37.598,-57.129,-425.781,1.0
1626202962.3744514,-182.61700000000002,-29.785,-33.203,-167.96900000000002,1.0
1626202962.3783576,-28.809,-25.879,-3.906,31.25,1.0
1626202962.382264,-165.52700000000002,-15.137,-14.648,-167.96900000000002,1.0
1626202962.3861701,-351.074,-8.789,-54.199,-406.25,1.0
1626202962.3900764,-240.234,-1.465,-37.598,-235.352,1.0
1626202962.3939826,-45.41,-11.23,-18.066,26.855,1.0
1626202962.397889,-98.145,-8.789,-29.785,-81.543,1.0
1626202962.4017951,-285.156,-2.93,-29.296999999999997,-347.168,1.0
1626202962.4057016,-270.508,-25.391,-33.691,-302.73400000000004,1.0
1626202962.4096076,-37.109,-20.02,-18.555,9.277000000000001,1.0
1626202962.413514,-14.16,-45.898,-23.926,17.578,1.0
1626202962.4174201,-211.91400000000002,-76.172,-46.387,-276.367,1.0
1626202962.4213264,-248.047,-29.785,-48.828,-308.105,1.0
1626202962.4252326,-35.645,16.113,-37.598,-2.93,1.0
1626202962.429139,77.148,28.809,-26.855,1.0,1.0
1626202962.433045,-76.66,28.32,-23.438000000000002,1.0,1.0
1626202962.4369516,-207.03099999999998,-3.906,-20.508000000000003,1.0,1.0
1626202962.4408574,-75.195,-31.25,-28.809,1.0,1.0
1626202962.4447641,104.98,-28.809,-38.574,1.0,1.0
1626202962.44867,-2.93,-37.598,-43.945,1.0,1.0
1626202962.4525762,-205.078,-64.453,-51.27,1.0,1.0
1626202962.456483,-94.238,-67.383,-28.809,1.0,1.0
1626202962.460389,133.30100000000002,-38.574,-17.578,1.0,1.0
1626202962.464295,78.125,-34.18,-37.109,1.0,1.0
1626202962.4682014,-134.27700000000002,-37.109,-57.129,1.0,1.0
1626202962.4721074,-124.512,-27.831999999999997,-67.87100000000001,1.0,1.0
1626202962.476014,-144.043,-66.895,-38.574,-65.43,1.0
1626202962.4799201,-15.137,-51.27,-47.852,216.797,1.0
1626202962.4838264,155.762,-40.039,-32.715,149.90200000000002,1.0
1626202962.4877326,52.733999999999995,-46.875,-24.414,-153.809,1.0
1626202962.491639,-129.88299999999998,-52.733999999999995,-26.366999999999997,-147.94899999999998,1.0
1626202962.4955451,-63.965,-41.504,-26.855,157.715,1.0
1626202962.4994514,145.50799999999998,-30.273000000000003,-20.996,206.055,1.0
1626202962.5033574,131.34799999999998,-27.344,-13.184000000000001,-67.383,1.0
1626202962.507264,-75.195,-40.527,-23.438000000000002,-184.57,1.0
1626202962.5111701,-85.93799999999999,-20.996,-21.973000000000003,79.102,1.0
1626202962.5150764,94.727,-25.879,-22.461,265.625,1.0
1626202962.5189826,152.832,-57.617,-26.855,38.086,1.0
1626202962.522889,-20.02,-47.852,-29.296999999999997,-39.062,1.0
1626202962.5267951,-144.043,-40.039,-52.246,-183.59400000000002,1.0
1626202962.5307014,24.414,-38.086,-55.176,72.266,1.0
1626202962.5346076,197.266,-29.296999999999997,-29.785,283.691,1.0
1626202962.538514,41.504,-27.344,-40.039,52.246,1.0
1626202962.5424201,-181.641,-34.668,-67.87100000000001,-220.703,1.0
1626202962.5463264,-61.035,-28.809,-50.781000000000006,-57.617,1.0
1626202962.550233,146.484,-29.296999999999997,-26.366999999999997,206.055,1.0
1626202962.554139,56.152,-48.828,-22.461,82.031,1.0
1626202962.558045,-139.16,-46.875,-21.484,-190.918,1.0
1626202962.5619516,-96.191,-29.785,-7.324,-108.887,1.0
1626202962.5658574,130.371,-31.738000000000003,-6.348,196.28900000000002,1.0
1626202962.5697637,144.043,-49.316,-20.508000000000003,1.0,1.0
1626202962.57367,-71.289,-50.293,-24.901999999999997,1.0,1.0
1626202962.5775762,-120.117,-48.828,-20.02,1.0,1.0
1626202962.581483,93.262,-52.246,-17.578,1.0,1.0
1626202962.585389,140.625,-39.551,-31.738000000000003,1.0,1.0
1626202962.5892951,-68.848,-16.602,-45.41,1.0,1.0
1626202962.5932014,-193.359,-19.043,-52.246,1.0,1.0
1626202962.5971074,-37.598,-33.203,-43.457,1.0,1.0
1626202962.601014,138.184,-44.434,-36.133,1.0,1.0
1626202962.6049201,17.578,-42.968999999999994,-26.855,1.0,1.0
1626202962.6088262,-183.59400000000002,-46.875,-15.137,1.0,1.0
1626202962.6127326,-87.402,-58.593999999999994,-7.812,1.0,1.0
1626202962.616639,137.207,-34.18,-1.465,214.355,1.0
1626202962.6205451,90.82,-25.879,-18.555,118.652,1.0
1626202962.6244514,-122.07,-32.227,-20.508000000000003,-175.293,1.0
1626202962.6283576,-95.70299999999999,-20.508000000000003,-15.137,-139.16,1.0
1626202962.632264,106.445,-8.301,-11.719000000000001,159.668,1.0
1626202962.6361701,111.816,-10.742,-9.766,176.27,1.0
1626202962.6400764,-109.863,-33.691,-35.645,-139.16,1.0
1626202962.6439826,-183.59400000000002,-33.203,-44.922,-222.65599999999998,1.0
1626202962.647889,39.062,-29.296999999999997,-40.527,57.617,1.0
1626202962.6517951,143.555,-31.738000000000003,-38.574,195.312,1.0
1626202962.6557016,-55.176,-42.968999999999994,-38.086,-58.593999999999994,1.0
1626202962.6596076,-207.52,-63.965,-37.598,-250.488,1.0
1626202962.663514,-192.87099999999998,-26.855,-38.574,-226.074,1.0
1626202962.6674201,13.184000000000001,-22.461,-9.766,52.733999999999995,1.0
1626202962.6713264,125.488,-40.527,-7.324,194.33599999999998,1.0
1626202962.6752326,-41.016000000000005,-42.968999999999994,-24.414,-60.059,1.0
1626202962.679139,-208.49599999999998,-31.738000000000003,-33.691,-261.23,1.0
1626202962.683045,-63.965,-29.296999999999997,-45.41,-59.082,1.0
1626202962.6869516,151.855,-33.691,-38.574,186.035,1.0
1626202962.6908574,57.617,-21.484,-41.504,56.641000000000005,1.0
1626202962.6947641,-152.832,0.0,-62.5,-217.773,1.0
1626202962.69867,-136.719,-9.766,-43.945,-154.297,1.0
1626202962.7025762,59.082,-30.273000000000003,-18.066,125.488,1.0
1626202962.706483,55.663999999999994,-35.645,-19.531,90.33200000000001,1.0
1626202962.710389,-143.555,-25.391,-20.508000000000003,1.0,1.0
1626202962.714295,-176.27,-29.296999999999997,-27.831999999999997,1.0,1.0
1626202962.7182014,29.785,-41.992,-35.156,1.0,1.0
1626202962.7221074,106.934,-31.738000000000003,-33.691,1.0,1.0
1626202962.726014,-92.285,-36.621,-38.574,1.0,1.0
1626202962.7299201,-192.87099999999998,-43.457,-30.761999999999997,1.0,1.0
1626202962.7338264,-14.648,-42.48,-29.785,1.0,1.0
1626202962.7377326,161.621,-31.738000000000003,-22.949,1.0,1.0
1626202962.741639,5.859,-14.16,-34.18,1.0,1.0
1626202962.7455451,-181.641,-5.859,-31.738000000000003,1.0,1.0
1626202962.7494514,-36.133,-20.508000000000003,-21.973000000000003,1.0,1.0
1626202962.7533574,142.09,-37.598,-29.785,1.0,1.0
1626202962.757264,65.43,-47.363,-30.761999999999997,1.0,1.0
1626202962.7611701,-174.805,-55.176,-41.504,1.0,1.0
1626202962.7650764,-165.52700000000002,-27.831999999999997,-24.414,1.0,1.0
1626202962.7689826,66.406,-5.371,-18.066,1.0,1.0
1626202962.772889,89.844,-0.488,-31.25,1.0,1.0
1626202962.7767951,-120.117,-26.855,-40.527,1.0,1.0
1626202962.7807014,-158.691,-47.852,-29.785,1.0,1.0
1626202962.7846076,69.824,-57.129,3.418,1.0,1.0
1626202962.788514,134.27700000000002,-57.617,-6.348,1.0,1.0
1626202962.7924201,-71.289,-20.996,-29.296999999999997,1.0,1.0
1626202962.7963264,-196.77700000000002,-12.695,-25.391,1.0,1.0
1626202962.800233,-39.551,-35.156,-16.113,1.0,1.0
1626202962.804139,-152.832,-43.457,-38.574,-233.398,1.0
1626202962.808045,-89.844,-54.199,-16.113,-122.07,1.0
1626202962.8119516,114.74600000000001,-16.113,-25.879,184.082,1.0
1626202962.8158574,101.56200000000001,-23.926,-48.34,147.461,1.0
1626202962.8197637,-125.0,-53.223,-62.5,-181.15200000000002,1.0
1626202962.82367,-151.855,-52.733999999999995,-52.733999999999995,-206.055,1.0
1626202962.8275762,55.663999999999994,-26.366999999999997,-27.344,94.727,1.0
1626202962.831483,137.695,3.906,0.977,177.24599999999998,1.0
1626202962.835389,-70.801,-12.207,-4.883,-108.887,1.0
1626202962.8392951,-189.94099999999997,-37.109,-31.25,-251.953,1.0
1626202962.8432014,1.465,-26.366999999999997,-33.691,13.184000000000001,1.0
1626202962.8471074,130.371,-13.184000000000001,-32.715,201.66,1.0
1626202962.851014,-4.883,-18.555,-21.484,1.0,1.0
1626202962.8549201,-167.48,-43.945,-6.348,1.0,1.0
1626202962.8588262,-53.223,-70.312,3.906,1.0,1.0
1626202962.8627326,137.207,-46.387,-1.953,1.0,1.0
1626202962.866639,46.387,-20.996,-23.438000000000002,1.0,1.0
1626202962.8705451,-156.25,-36.133,-51.758,1.0,1.0
1626202962.8744514,-123.535,-57.129,-69.824,1.0,1.0
1626202962.8783576,82.52,-31.25,-34.18,1.0,1.0
1626202962.882264,64.941,-26.366999999999997,-29.296999999999997,1.0,1.0
1626202962.8861701,-135.74200000000002,-31.738000000000003,-33.691,1.0,1.0
1626202962.8900764,-156.738,-22.949,-12.207,1.0,1.0
1626202962.8939826,28.32,-15.137,-25.879,1.0,1.0
1626202962.897889,131.836,-18.066,-39.062,1.0,1.0
1626202962.9017951,-57.129,-41.992,-44.434,1.0,1.0
1626202962.9057016,-204.59,-45.41,-45.41,1.0,1.0
1626202962.9096076,-29.296999999999997,-33.203,-33.691,1.0,1.0
1626202962.913514,127.441,-28.809,-26.855,1.0,1.0
1626202962.9174201,-1.465,-30.761999999999997,-29.296999999999997,1.0,1.0
1626202962.9213264,-189.94099999999997,-42.48,-41.016000000000005,1.0,1.0
1626202962.9252326,-68.848,-39.062,-20.508000000000003,1.0,1.0
1626202962.929139,151.36700000000002,-35.645,-20.02,1.0,1.0
1626202962.933045,48.34,-46.387,-61.035,1.0,1.0
1626202962.9369516,-170.41,-59.57,-67.87100000000001,1.0,1.0
1626202962.9408574,-132.812,-37.598,-44.434,1.0,1.0
1626202962.9447641,-70.801,-58.105,-26.855,125.0,1.0
1626202962.94867,114.74600000000001,-49.316,-31.25,123.04700000000001,1.0
1626202962.9525762,52.246,-19.043,-41.992,-174.31599999999997,1.0
1626202962.956483,-157.715,-16.113,-49.316,-240.234,1.0
1626202962.960389,-153.809,-27.831999999999997,-43.457,57.617,1.0
1626202962.964295,64.941,-22.949,-31.738000000000003,187.012,1.0
1626202962.9682014,116.211,-26.366999999999997,-37.109,-92.773,1.0
1626202962.9721074,-83.49600000000001,-31.738000000000003,-40.527,-281.738,1.0
1626202962.976014,-183.105,-48.34,-28.809,-41.504,1.0
1626202962.9799201,17.09,-38.574,-12.207,199.21900000000002,1.0
1626202962.9838264,152.344,-24.901999999999997,-22.461,18.066,1.0
1626202962.9877326,-22.949,-49.316,-27.831999999999997,-230.957,1.0
1626202962.991639,-194.824,-75.684,-14.16,-265.137,1.0
1626202962.9955451,-70.312,-66.895,-29.785,-66.895,1.0
1626202962.9994514,110.352,-32.715,-41.504,167.48,1.0
1626202963.0033574,14.16,-46.875,-43.457,11.23,1.0
1626202963.007264,-175.78099999999998,-29.785,-33.691,-244.141,1.0
1626202963.0111701,-100.098,2.441,-22.949,-123.04700000000001,1.0
1626202963.0150764,95.70299999999999,-42.968999999999994,-28.809,154.297,1.0
1626202963.0189826,71.777,-62.5,-27.344,91.309,1.0
1626202963.022889,-139.16,-39.062,-30.761999999999997,-207.03099999999998,1.0
1626202963.0267951,-158.203,-5.371,-41.504,-208.00799999999998,1.0
1626202963.0307014,62.988,-0.977,-35.156,99.12100000000001,1.0
1626202963.0346076,117.676,-24.901999999999997,-30.273000000000003,161.621,1.0
1626202963.038514,-76.172,-33.691,-47.852,-122.559,1.0
1626202963.0424201,-174.31599999999997,-31.25,-43.945,-245.605,1.0
1626202963.0463264,19.531,-32.715,-12.695,27.344,1.0
1626202963.050233,150.391,-37.598,-19.043,193.84799999999998,1.0
1626202963.054139,-30.273000000000003,-27.831999999999997,-38.574,-62.5,1.0
1626202963.058045,-192.38299999999998,-30.273000000000003,-36.621,-273.438,1.0
1626202963.0619516,-62.988,-36.621,-38.574,-79.102,1.0
1626202963.0658574,143.555,-6.836,-19.531,188.965,1.0
1626202963.0697637,57.129,0.488,-7.812,55.663999999999994,1.0
1626202963.07367,-183.105,-20.508000000000003,-28.809,-246.582,1.0
1626202963.0775762,-133.30100000000002,-19.531,-32.715,-160.645,1.0
1626202963.081483,97.656,-12.207,-34.668,146.484,1.0
1626202963.085389,72.266,-32.227,-46.387,102.051,1.0
1626202963.0892951,-155.762,-58.593999999999994,-51.27,-214.84400000000002,1.0
1626202963.0932014,-177.734,-44.922,-40.039,-235.84,1.0
1626202963.0971074,51.758,-34.668,-26.366999999999997,79.102,1.0
1626202963.101014,124.023,-28.32,-25.879,172.852,1.0
1626202963.1049201,-76.66,-11.23,-34.18,-109.375,1.0
1626202963.1088262,-208.49599999999998,-22.949,-42.968999999999994,-265.625,1.0
1626202963.1127326,-33.691,-34.18,-45.898,-13.672,1.0
1626202963.116639,134.27700000000002,-21.973000000000003,-54.199,192.38299999999998,1.0
1626202963.1205451,14.16,-21.484,-36.621,-9.766,1.0
1626202963.1244514,-159.18,-31.25,-30.273000000000003,-242.676,1.0
1626202963.1283576,-81.055,-22.461,-44.922,-93.262,1.0
1626202963.132264,109.863,-8.301,-20.02,167.96900000000002,1.0
1626202963.1361701,58.105,-18.555,1.465,63.965,1.0
1626202963.1400764,-152.344,-50.781000000000006,-10.254000000000001,-227.051,1.0
1626202963.1439826,-130.371,-51.27,-27.344,-174.31599999999997,1.0
1626202963.147889,94.238,-34.18,-28.32,132.32399999999998,1.0
1626202963.1517951,123.535,-33.203,-31.738000000000003,145.50799999999998,1.0
1626202963.1557016,-71.777,-33.203,-44.922,-136.719,1.0
1626202963.1596076,-130.859,-35.645,-41.016000000000005,-192.38299999999998,1.0
1626202963.163514,53.711000000000006,-20.508000000000003,-19.043,73.73,1.0
1626202963.1674201,143.066,-6.836,-11.719000000000001,182.12900000000002,1.0
1626202963.1713264,-40.527,-19.043,-34.668,-83.984,1.0
1626202963.1752326,-192.38299999999998,-27.831999999999997,-40.527,-262.695,1.0
1626202963.179139,-162.59799999999998,-42.968999999999994,-31.25,-226.074,1.0
1626202963.183045,29.785,-22.949,-25.879,52.246,1.0
1626202963.1869516,137.695,-21.484,-38.574,194.824,1.0
1626202963.1908574,-38.086,-11.23,-37.109,-53.711000000000006,1.0
1626202963.1947641,-196.28900000000002,-0.488,-24.414,-247.55900000000003,1.0
1626202963.19867,-52.246,-10.742,-17.578,-31.25,1.0
1626202963.2025762,140.625,-27.831999999999997,-17.09,212.40200000000002,1.0
1626202963.206483,27.344,-48.828,-21.973000000000003,36.133,1.0
1626202963.210389,-182.12900000000002,-62.012,-30.761999999999997,-233.887,1.0
1626202963.214295,-118.164,-41.992,-30.761999999999997,-117.18799999999999,1.0
1626202963.2182014,86.426,-18.555,-32.227,163.57399999999998,1.0
1626202963.2221074,54.199,-30.273000000000003,-39.062,93.75,1.0
1626202963.226014,-156.738,-24.901999999999997,-44.434,1.0,1.0
1626202963.2299201,-170.41,-17.09,-36.621,1.0,1.0
1626202963.2338264,42.968999999999994,-40.527,-26.366999999999997,1.0,1.0
1626202963.2377326,121.58200000000001,-36.133,-7.324,1.0,1.0
1626202963.241639,-72.75399999999999,-31.738000000000003,-8.789,1.0,1.0
1626202963.2455451,-193.84799999999998,-35.156,-28.809,1.0,1.0
1626202963.2494514,-10.742,-13.184000000000001,-26.855,1.0,1.0
1626202963.2533574,131.34799999999998,-2.93,-31.738000000000003,1.0,1.0
1626202963.257264,-31.25,-11.23,-50.781000000000006,1.0,1.0
1626202963.2611701,-205.078,-26.855,-48.34,1.0,1.0
1626202963.2650764,-73.242,-37.109,-53.223,1.0,1.0
1626202963.2689826,131.34799999999998,-38.574,-51.758,1.0,1.0
1626202963.272889,47.852,-39.551,-28.32,1.0,1.0
1626202963.2767951,-173.828,-37.598,-27.344,1.0,1.0
1626202963.2807014,-142.09,-27.831999999999997,-33.203,1.0,1.0
1626202963.2846076,76.172,-15.625,-24.901999999999997,1.0,1.0
1626202963.288514,83.984,-6.836,-17.578,1.0,1.0
1626202963.2924201,-126.95299999999999,-17.578,-37.109,1.0,1.0
1626202963.2963264,-172.363,-29.296999999999997,-41.992,1.0,1.0
1626202963.300233,37.598,-28.32,-27.831999999999997,1.0,1.0
1626202963.304139,125.977,-42.968999999999994,-15.137,1.0,1.0
1626202963.308045,-58.593999999999994,-62.012,-15.137,1.0,1.0
1626202963.3119516,-181.15200000000002,-43.945,-34.668,1.0,1.0
1626202963.3158574,-10.742,-17.578,-29.296999999999997,1.0,1.0
1626202963.3197637,-134.766,-32.715,-16.113,75.195,1.0
1626202963.32367,70.801,-33.203,-26.366999999999997,200.68400000000003,1.0
1626202963.3275762,104.492,-43.945,-41.504,-78.613,1.0
1626202963.331483,-111.32799999999999,-52.246,-41.016000000000005,-246.09400000000002,1.0
1626202963.335389,-187.988,-23.438000000000002,-28.32,-12.695,1.0
1626202963.3392951,21.973000000000003,-31.25,-20.02,200.68400000000003,1.0
1626202963.3432014,123.535,-78.125,-20.508000000000003,7.812,1.0
1626202963.3471074,-46.875,-58.105,-24.901999999999997,-251.953,1.0
1626202963.351014,-192.87099999999998,-14.16,-21.973000000000003,-105.95700000000001,1.0
1626202963.3549201,-71.289,-15.625,-32.715,177.24599999999998,1.0
1626202963.3588262,99.12100000000001,-30.273000000000003,-33.203,90.82,1.0
1626202963.3627326,20.02,-37.109,-19.531,-197.75400000000002,1.0
1626202963.366639,-179.688,-35.156,-31.738000000000003,-237.305,1.0
1626202963.3705451,-126.465,-24.414,-49.805,-131.34799999999998,1.0
1626202963.3744514,96.191,-28.32,-36.621,157.715,1.0
1626202963.3783576,57.129,-56.641000000000005,-25.879,82.52,1.0
1626202963.382264,-163.57399999999998,-48.828,-30.273000000000003,-214.84400000000002,1.0
1626202963.3861701,-159.18,-21.484,-25.391,-198.24200000000002,1.0
1626202963.3900764,68.848,-26.366999999999997,-20.02,104.492,1.0
1626202963.3939826,105.469,-50.781000000000006,-36.133,147.461,1.0
1626202963.397889,-105.95700000000001,-72.266,-38.086,-148.438,1.0
1626202963.4017951,-195.312,-70.312,-23.438000000000002,-253.90599999999998,1.0
1626202963.4057016,0.0,-28.809,-11.23,31.738000000000003,1.0
1626202963.4096076,127.93,-10.742,-20.508000000000003,193.359,1.0
1626202963.413514,-45.898,-18.555,-36.133,1.0,1.0
1626202963.4174201,-205.078,-7.812,-39.062,1.0,1.0
1626202963.4213264,-62.5,0.488,-32.715,1.0,1.0
1626202963.4252326,136.719,-1.953,-27.344,1.0,1.0
1626202963.429139,56.152,-14.16,-25.391,1.0,1.0
1626202963.433045,-145.02,-19.043,-25.879,1.0,1.0
1626202963.4369516,-114.258,-29.296999999999997,-34.668,1.0,1.0
1626202963.4408574,96.191,-36.621,-24.414,1.0,1.0
1626202963.4447641,95.70299999999999,-35.645,-2.441,1.0,1.0
1626202963.44867,-152.832,-59.57,-26.366999999999997,1.0,1.0
1626202963.4525762,-205.56599999999997,-93.262,-48.828,1.0,1.0
1626202963.456483,33.691,-79.59,-21.973000000000003,1.0,1.0
1626202963.460389,116.211,-14.648,-19.531,1.0,1.0
1626202963.464295,-77.148,6.836,-43.457,1.0,1.0
1626202963.4682014,-200.68400000000003,-8.301,-59.57,1.0,1.0
1626202963.4721074,-28.809,-8.301,-51.758,1.0,1.0
1626202963.476014,122.07,-10.742,-42.968999999999994,1.0,1.0
1626202963.4799201,-26.855,-10.742,-48.34,1.0,1.0
1626202963.4838264,-194.33599999999998,-24.414,-31.738000000000003,1.0,1.0
1626202963.4877326,-95.70299999999999,-47.363,-28.32,1.0,1.0
1626202963.491639,97.16799999999999,-40.039,-34.18,1.0,1.0
1626202963.4955451,36.621,-14.648,-24.414,1.0,1.0
1626202963.4994514,-177.734,-24.901999999999997,-30.761999999999997,1.0,1.0
1626202963.5033574,-149.414,-74.707,-45.898,1.0,1.0
1626202963.507264,-217.773,-36.621,-34.668,-254.88299999999998,1.0
1626202963.5111701,-82.52,-17.578,-32.227,-51.758,1.0
1626202963.5150764,93.262,-8.789,-21.973000000000003,178.22299999999998,1.0
1626202963.5189826,-21.484,-22.461,-25.879,-1.465,1.0
1626202963.522889,-215.82,-27.831999999999997,-30.761999999999997,-261.23,1.0
1626202963.5267951,-139.16,-27.344,-33.691,-132.812,1.0
1626202963.5307014,71.289,-22.461,-20.996,145.02,1.0
1626202963.5346076,25.879,-18.066,-21.973000000000003,59.57,1.0
1626202963.538514,-211.426,-22.949,-32.715,-251.953,1.0
1626202963.5424201,-233.887,-19.531,-20.02,-248.535,1.0
1626202963.5463264,-7.812,0.0,-23.438000000000002,41.016000000000005,1.0
1626202963.550233,26.366999999999997,0.0,-32.227,64.453,1.0
1626202963.554139,-224.12099999999998,-15.137,-36.621,1.0,1.0
1626202963.558045,-323.73,-1.953,-27.831999999999997,1.0,1.0
1626202963.5619516,-129.88299999999998,14.16,-12.207,1.0,1.0
1626202963.5658574,10.742,-6.348,-21.973000000000003,1.0,1.0
1626202963.5697637,-192.38299999999998,-23.438000000000002,-35.645,1.0,1.0
1626202963.57367,-382.324,-31.738000000000003,-26.855,1.0,1.0
1626202963.5775762,-236.81599999999997,-38.574,-17.578,1.0,1.0
1626202963.581483,-81.055,-34.668,-16.602,1.0,1.0
1626202963.585389,-168.457,-47.852,-19.043,1.0,1.0
1626202963.5892951,-355.957,-35.156,-34.668,1.0,1.0
1626202963.5932014,-299.805,-14.648,-41.504,1.0,1.0
1626202963.5971074,-70.801,-18.066,-32.715,1.0,1.0
1626202963.601014,59.57,-35.645,-12.207,-42.968999999999994,1.0
1626202963.6049201,8.789,-60.059,0.977,-317.871,1.0
1626202963.6088262,-195.801,-51.27,-20.508000000000003,-354.004,1.0
1626202963.6127326,-171.387,-25.879,-36.621,-64.453,1.0
1626202963.616639,70.312,-21.484,-18.555,39.062,1.0
1626202963.6205451,92.285,-21.484,-25.391,-232.91,1.0
1626202963.6244514,-117.18799999999999,-25.879,-34.18,-362.305,1.0
1626202963.6283576,-165.03900000000002,-34.18,-19.043,-96.191,1.0
1626202963.632264,55.176,-49.316,-23.926,89.844,1.0
1626202963.6361701,148.438,-62.988,-47.852,-127.441,1.0
1626202963.6400764,-9.766,-42.968999999999994,-49.316,-335.93800000000005,1.0
1626202963.6439826,-127.441,-19.531,-23.438000000000002,-134.766,1.0
1626202963.647889,-130.371,-55.176,-23.438000000000002,-165.03900000000002,1.0
1626202963.6517951,73.242,-26.366999999999997,-18.066,117.676,1.0
1626202963.6557016,200.68400000000003,-16.113,-21.484,249.512,1.0
1626202963.6596076,11.719000000000001,-32.715,-34.668,-17.09,1.0
1626202963.663514,-151.36700000000002,-53.711000000000006,-40.527,-211.91400000000002,1.0
1626202963.6674201,12.207,-53.223,-44.434,17.578,1.0
1626202963.6713264,183.105,-31.25,-59.57,247.07,1.0
1626202963.6752326,78.613,-27.344,-47.363,71.777,1.0
1626202963.679139,-114.258,-45.898,-28.32,-185.05900000000003,1.0
1626202963.683045,-55.663999999999994,-53.711000000000006,-33.203,-66.895,1.0
1626202963.6869516,150.879,-41.992,-32.227,215.332,1.0
1626202963.6908574,116.211,-46.387,-31.738000000000003,148.92600000000002,1.0
1626202963.6947641,-88.37899999999999,-69.336,-28.32,1.0,1.0
1626202963.69867,-83.008,-76.66,-19.531,1.0,1.0
1626202963.7025762,125.0,-52.733999999999995,-11.23,1.0,1.0
1626202963.706483,157.715,-54.688,-14.16,1.0,1.0
1626202963.710389,-33.691,-78.613,-29.296999999999997,1.0,1.0
1626202963.714295,-117.18799999999999,-37.109,-19.531,1.0,1.0
1626202963.7182014,54.199,-15.625,-32.227,1.0,1.0
1626202963.7221074,188.477,-29.296999999999997,-33.691,1.0,1.0
1626202963.726014,20.02,-44.922,-24.414,1.0,1.0
1626202963.7299201,-137.695,-41.504,-21.973000000000003,1.0,1.0
1626202963.7338264,0.488,-17.578,-21.973000000000003,1.0,1.0
1626202963.7377326,169.922,-14.648,-35.645,1.0,1.0
1626202963.741639,81.543,-38.574,-27.831999999999997,1.0,1.0
1626202963.7455451,-117.676,-67.383,-27.831999999999997,1.0,1.0
1626202963.7494514,-63.965,-41.992,-28.809,1.0,1.0
1626202963.7533574,161.621,-10.254000000000001,-7.324,1.0,1.0
1626202963.757264,146.484,-23.438000000000002,-17.09,1.0,1.0
1626202963.7611701,-83.984,-32.715,-47.363,1.0,1.0
1626202963.7650764,-124.512,-47.363,-37.598,1.0,1.0
1626202963.7689826,89.844,-50.293,-23.926,1.0,1.0
1626202963.772889,152.344,-33.691,-42.48,1.0,1.0
1626202963.7767951,-30.761999999999997,-31.25,-45.898,1.0,1.0
1626202963.7807014,-157.227,-31.738000000000003,-36.133,1.0,1.0
1626202963.7846076,8.301,-33.691,-16.113,1.0,1.0
1626202963.788514,40.527,-44.922,-4.883,241.699,1.0
1626202963.7924201,121.58200000000001,-49.805,-45.41,0.488,1.0
1626202963.7963264,-76.172,-53.223,-60.059,-236.328,1.0
1626202963.800233,-190.43,-34.668,-35.156,-43.457,1.0
1626202963.804139,-19.531,-12.207,-27.344,228.02700000000002,1.0
1626202963.808045,170.41,1.465,-43.945,102.539,1.0
1626202963.8119516,32.715,-40.039,-57.617,-200.68400000000003,1.0
1626202963.8158574,-179.199,-55.176,-38.574,-141.602,1.0
1626202963.8197637,-74.707,-36.133,-12.207,159.668,1.0
1626202963.82367,113.281,-36.133,-3.418,149.90200000000002,1.0
1626202963.8275762,54.688,-15.137,-16.602,-143.555,1.0
1626202963.831483,-168.457,-12.207,-39.062,-199.21900000000002,1.0
1626202963.835389,-132.32399999999998,-18.555,-36.133,-158.691,1.0
1626202963.8392951,111.32799999999999,-30.761999999999997,-22.461,147.461,1.0
1626202963.8432014,133.789,-55.663999999999994,-7.812,179.688,1.0
1626202963.8471074,-69.824,-43.457,-40.527,-116.699,1.0
1626202963.851014,-147.94899999999998,-29.296999999999997,-86.426,-199.707,1.0
1626202963.8549201,58.593999999999994,-22.949,-44.434,82.52,1.0
1626202963.8588262,168.457,-17.578,0.0,211.426,1.0
1626202963.8627326,-46.875,-22.461,-26.366999999999997,-59.082,1.0
1626202963.866639,-201.172,-21.484,-47.852,-245.11700000000002,1.0
1626202963.8705451,-39.551,-22.461,-27.344,-21.973000000000003,1.0
1626202963.8744514,140.137,-27.344,-5.371,212.40200000000002,1.0
1626202963.8783576,27.344,-35.645,-10.742,36.133,1.0
1626202963.882264,-150.879,-28.809,-33.203,-227.53900000000002,1.0
1626202963.8861701,-67.87100000000001,-31.25,-38.086,-101.074,1.0
1626202963.8900764,140.137,-15.137,-14.648,193.84799999999998,1.0
1626202963.8939826,123.535,1.465,-27.344,133.30100000000002,1.0
1626202963.897889,-125.0,-27.831999999999997,-46.875,-186.523,1.0
1626202963.9017951,-158.203,-39.062,-20.508000000000003,-171.387,1.0
1626202963.9057016,100.098,-26.366999999999997,-2.441,144.043,1.0
1626202963.9096076,163.086,-14.16,-14.648,188.477,1.0
1626202963.913514,-62.988,-21.973000000000003,-34.668,-116.699,1.0
1626202963.9174201,-153.32,-28.809,-25.879,-206.055,1.0
1626202963.9213264,55.176,-22.949,0.977,80.078,1.0
1626202963.9252326,153.809,-27.831999999999997,-6.836,198.24200000000002,1.0
1626202963.929139,-30.761999999999997,-32.227,-33.691,1.0,1.0
1626202963.933045,-189.453,-49.805,-38.086,1.0,1.0
1626202963.9369516,-41.016000000000005,-48.828,-41.504,1.0,1.0
1626202963.9408574,151.36700000000002,-33.203,-41.016000000000005,1.0,1.0
1626202963.9447641,47.852,-27.831999999999997,-30.273000000000003,1.0,1.0
1626202963.94867,-145.02,-16.113,-25.391,1.0,1.0
1626202963.9525762,-93.262,-16.113,-30.273000000000003,1.0,1.0
1626202963.956483,108.887,-18.555,-30.273000000000003,1.0,1.0
1626202963.960389,94.727,-16.602,-36.621,1.0,1.0
1626202963.964295,-102.539,-22.949,-35.156,1.0,1.0
1626202963.9682014,-126.465,-30.761999999999997,-24.901999999999997,1.0,1.0
1626202963.9721074,55.176,-27.831999999999997,-30.273000000000003,1.0,1.0
1626202963.976014,118.652,-23.926,-21.484,1.0,1.0
1626202963.9799201,-83.984,-43.457,-31.738000000000003,1.0,1.0
1626202963.9838264,-176.75799999999998,-33.691,-26.366999999999997,1.0,1.0
1626202963.9877326,28.32,-12.207,-6.348,1.0,1.0
1626202963.991639,145.50799999999998,-19.531,-24.414,1.0,1.0
1626202963.9955451,-14.648,-36.133,-41.016000000000005,1.0,1.0
1626202963.9994514,-179.199,-53.711000000000006,-35.645,1.0,1.0
1626202964.0033574,-68.359,-37.109,-41.016000000000005,1.0,1.0
1626202964.007264,111.32799999999999,-27.344,-53.223,1.0,1.0
1626202964.0111701,29.785,-35.156,-51.27,1.0,1.0
1626202964.0150764,-179.199,-51.758,-63.965,1.0,1.0
1626202964.0189826,-140.625,-40.039,-53.711000000000006,1.0,1.0
1626202964.022889,-79.59,-29.296999999999997,-35.156,-86.914,1.0
1626202964.0267951,107.91,-26.366999999999997,-31.25,157.227,1.0
1626202964.0307014,48.828,-8.301,-23.438000000000002,48.828,1.0
1626202964.0346076,-170.898,-21.484,-46.387,-233.887,1.0
1626202964.038514,-154.785,-45.898,-41.992,-182.61700000000002,1.0
1626202964.0424201,78.613,-64.941,-2.93,128.418,1.0
1626202964.0463264,104.98,-70.801,-2.441,138.184,1.0
1626202964.050233,-86.914,-13.672,-17.09,-144.531,1.0
1626202964.054139,-154.785,17.578,-28.32,-214.84400000000002,1.0
1626202964.058045,37.109,17.09,-22.949,64.453,1.0
1626202964.0619516,132.812,-14.16,-33.203,183.105,1.0
1626202964.0658574,-54.688,-41.992,-62.988,-90.82,1.0
1626202964.0697637,-181.641,-34.668,-52.733999999999995,1.0,1.0
1626202964.07367,-33.203,-27.831999999999997,-31.738000000000003,1.0,1.0
1626202964.0775762,125.0,-34.668,-26.855,1.0,1.0
1626202964.081483,-2.441,-52.733999999999995,-42.48,1.0,1.0
1626202964.085389,-194.33599999999998,-50.293,-51.758,1.0,1.0
1626202964.0892951,-89.844,-18.066,-22.949,1.0,1.0
1626202964.0932014,114.74600000000001,-26.366999999999997,-14.648,1.0,1.0
1626202964.0971074,62.988,-51.27,-33.203,1.0,1.0
1626202964.101014,-145.996,-44.922,-44.922,1.0,1.0
1626202964.1049201,-139.648,-29.296999999999997,-35.645,1.0,1.0
1626202964.1088262,89.355,-2.93,-18.555,1.0,1.0
1626202964.1127326,118.652,-7.812,-32.227,1.0,1.0
1626202964.116639,-94.727,-17.09,-43.945,1.0,1.0
1626202964.1205451,-180.66400000000002,-25.879,-54.199,1.0,1.0
1626202964.1244514,4.395,-58.105,-53.223,1.0,1.0
1626202964.1283576,128.418,-62.012,-37.598,1.0,1.0
1626202964.132264,-37.109,-41.992,-35.645,1.0,1.0
1626202964.1361701,-207.52,-24.901999999999997,-31.25,1.0,1.0
1626202964.1400764,-63.477,-9.277000000000001,-29.785,1.0,1.0
1626202964.1439826,134.27700000000002,-10.254000000000001,-33.691,1.0,1.0
1626202964.147889,35.156,-22.949,-36.621,1.0,1.0
1626202964.1517951,-178.71099999999998,-25.391,-41.992,1.0,1.0
1626202964.1557016,-118.652,-25.391,-37.109,1.0,1.0
1626202964.1596076,97.16799999999999,-29.296999999999997,-23.438000000000002,1.0,1.0
1626202964.163514,-186.523,-57.129,-32.715,-247.07,1.0
1626202964.1674201,6.348,-61.523,-21.484,32.227,1.0
1626202964.1713264,125.488,-10.742,-3.906,171.875,1.0
1626202964.1752326,-44.922,-14.16,-7.324,-79.59,1.0
1626202964.179139,-209.47299999999998,-41.504,-29.296999999999997,-268.066,1.0
1626202964.183045,-59.57,-32.227,-34.18,-36.621,1.0
1626202964.1869516,122.07,-25.391,-23.438000000000002,187.012,1.0
1626202964.1908574,12.207,-28.809,-10.254000000000001,5.859,1.0
1626202964.1947641,-166.50400000000002,-28.809,-11.23,-232.91,1.0
1626202964.19867,-66.895,-55.176,-8.301,-80.078,1.0
1626202964.2025762,122.07,-59.57,-20.02,181.15200000000002,1.0
1626202964.206483,62.5,-26.366999999999997,-29.785,85.93799999999999,1.0
1626202964.210389,-139.648,-18.555,-27.831999999999997,1.0,1.0
1626202964.214295,-160.156,-31.25,-42.48,1.0,1.0
1626202964.2182014,41.992,-24.901999999999997,-36.621,1.0,1.0
1626202964.2221074,90.33200000000001,-32.227,-21.973000000000003,1.0,1.0
1626202964.226014,-105.469,-50.293,-20.02,1.0,1.0
1626202964.2299201,-168.457,-36.621,-17.09,1.0,1.0
1626202964.2338264,14.16,-31.25,-17.578,1.0,1.0
1626202964.2377326,124.512,-35.156,-20.996,1.0,1.0
1626202964.241639,-45.898,-48.828,-57.129,1.0,1.0
1626202964.2455451,-214.84400000000002,-48.828,-68.359,1.0,1.0
1626202964.2494514,-62.5,-24.901999999999997,-25.391,1.0,1.0
1626202964.2533574,126.465,-28.32,-5.859,1.0,1.0
1626202964.257264,27.344,-29.785,-10.254000000000001,1.0,1.0
1626202964.2611701,-179.688,-49.805,-24.901999999999997,1.0,1.0
1626202964.2650764,-108.887,-54.199,-24.901999999999997,1.0,1.0
1626202964.2689826,117.676,-33.691,-13.672,1.0,1.0
1626202964.272889,72.266,-47.363,-34.668,1.0,1.0
1626202964.2767951,-161.621,-42.48,-59.57,1.0,1.0
1626202964.2807014,-171.387,-16.602,-53.711000000000006,1.0,1.0
1626202964.2846076,56.641000000000005,8.301,-37.598,1.0,1.0
1626202964.288514,99.609,-1.953,-41.016000000000005,1.0,1.0
1626202964.2924201,-111.816,-54.199,-55.663999999999994,1.0,1.0
1626202964.2963264,-189.453,-68.359,-44.434,1.0,1.0
1626202964.300233,10.742,-41.504,-27.344,1.0,1.0
1626202964.304139,-125.488,-40.039,-19.043,75.684,1.0
1626202964.308045,87.891,-30.273000000000003,-23.438000000000002,165.03900000000002,1.0
1626202964.3119516,77.637,-29.296999999999997,-45.41,-113.77,1.0
1626202964.3158574,-126.465,-43.945,-52.246,-236.328,1.0
1626202964.3197637,-181.15200000000002,-48.828,-43.945,13.184000000000001,1.0
1626202964.32367,22.949,-28.809,-28.809,193.84799999999998,1.0
1626202964.3275762,113.281,-22.949,-28.32,-10.254000000000001,1.0
1626202964.331483,-73.242,-20.02,-46.875,-243.65200000000002,1.0
1626202964.335389,-192.87099999999998,-30.273000000000003,-51.27,-85.93799999999999,1.0
1626202964.3392951,-27.831999999999997,-25.391,-25.391,175.293,1.0
1626202964.3432014,149.414,3.418,1.953,49.316,1.0
1626202964.3471074,20.02,-10.742,-13.672,-229.49200000000002,1.0
1626202964.351014,-202.637,-43.945,-51.758,-252.93,1.0
1626202964.3549201,-121.58200000000001,-42.48,-58.593999999999994,-118.164,1.0
1626202964.3588262,92.773,-28.809,-34.668,172.363,1.0
1626202964.3627326,56.152,-33.203,-22.949,86.426,1.0
1626202964.366639,-151.855,-58.105,-38.086,-215.82,1.0
1626202964.3705451,-145.996,-61.035,-43.945,-173.828,1.0
1626202964.3744514,73.242,-47.363,-26.855,134.27700000000002,1.0
1626202964.3783576,114.258,-32.227,-34.18,159.18,1.0
1626202964.382264,-91.309,-8.301,-42.48,-139.16,1.0
1626202964.3861701,-166.99200000000002,8.789,-20.996,-224.12099999999998,1.0
1626202964.3900764,20.996,2.441,-12.207,52.733999999999995,1.0
1626202964.3939826,127.93,-25.879,-8.789,187.988,1.0
1626202964.397889,-61.035,-41.504,-34.668,1.0,1.0
1626202964.4017951,-233.398,-53.711000000000006,-71.777,1.0,1.0
1626202964.4057016,-82.031,-53.711000000000006,-53.223,1.0,1.0
1626202964.4096076,118.164,-37.598,-16.602,1.0,1.0
1626202964.413514,24.414,-51.758,-14.648,1.0,1.0
1626202964.4174201,-178.22299999999998,-45.41,-48.828,1.0,1.0
1626202964.4213264,-94.727,-16.113,-36.133,1.0,1.0
1626202964.4252326,120.605,-2.441,-5.371,1.0,1.0
1626202964.429139,67.383,-12.695,-22.949,1.0,1.0
1626202964.433045,-153.32,-26.855,-31.25,1.0,1.0
1626202964.4369516,-145.02,-21.973000000000003,-21.973000000000003,1.0,1.0
1626202964.4408574,93.262,-21.484,-14.16,1.0,1.0
1626202964.4447641,145.02,-21.484,-15.137,1.0,1.0
1626202964.44867,-90.33200000000001,-48.34,-38.086,1.0,1.0
1626202964.4525762,-193.84799999999998,-48.34,-41.016000000000005,1.0,1.0
1626202964.456483,5.859,-7.324,-26.855,1.0,1.0
1626202964.460389,131.34799999999998,-4.883,-17.578,1.0,1.0
1626202964.464295,-32.227,-10.254000000000001,-29.785,1.0,1.0
1626202964.4682014,-200.195,-25.879,-57.129,1.0,1.0
1626202964.4721074,-60.059,-34.18,-43.945,1.0,1.0
1626202964.476014,127.441,-23.438000000000002,-20.996,1.0,1.0
1626202964.4799201,17.09,-28.809,-31.738000000000003,1.0,1.0
1626202964.4838264,-180.66400000000002,-29.785,-23.926,1.0,1.0
1626202964.4877326,-112.79299999999999,-28.32,-6.836,1.0,1.0
1626202964.491639,-161.621,-7.324,-13.184000000000001,-165.52700000000002,1.0
1626202964.4955451,18.066,3.418,-0.977,85.93799999999999,1.0
1626202964.4994514,-65.918,8.301,-14.648,-45.41,1.0
1626202964.5033574,-315.43,-16.602,-36.621,-364.746,1.0
1626202964.507264,-306.64099999999996,-30.273000000000003,-38.086,-321.777,1.0
1626202964.5111701,-73.73,-14.648,-21.973000000000003,-12.207,1.0
1626202964.5150764,-51.758,-22.949,-23.926,-25.391,1.0
1626202964.5189826,-284.18,-28.32,-21.973000000000003,-329.59,1.0
1626202964.522889,-368.652,-12.695,-16.602,-375.48800000000006,1.0
1626202964.5267951,-145.996,-8.301,-9.766,-85.449,1.0
1626202964.5307014,-45.898,-17.578,-1.465,17.578,1.0
1626202964.5346076,-244.62900000000002,-34.668,-21.973000000000003,-253.90599999999998,1.0
1626202964.538514,-381.836,-35.645,-28.809,1.0,1.0
1626202964.5424201,-209.47299999999998,-21.484,-11.23,1.0,1.0
1626202964.5463264,-35.156,-16.113,-9.766,1.0,1.0
1626202964.550233,-138.184,-25.879,-23.926,1.0,1.0
1626202964.554139,-323.242,-31.25,-11.23,1.0,1.0
1626202964.558045,-228.02700000000002,-5.371,9.766,1.0,1.0
1626202964.5619516,-8.301,-1.465,-12.207,1.0,1.0
1626202964.5658574,-65.918,-21.484,-26.366999999999997,1.0,1.0
1626202964.5697637,-285.156,-43.945,-38.574,1.0,1.0
1626202964.57367,-264.16,-34.668,-26.855,1.0,1.0
1626202964.5775762,5.859,-18.066,3.418,1.0,1.0
1626202964.581483,6.348,-47.363,-12.695,1.0,1.0
1626202964.585389,-224.609,-65.43,-25.879,1.0,1.0
1626202964.5892951,-267.09,-50.781000000000006,-34.18,1.0,1.0
1626202964.5932014,-48.34,-21.484,-19.043,1.0,1.0
1626202964.5971074,79.102,-18.555,-7.812,1.0,1.0
1626202964.601014,-106.445,-37.109,-28.809,1.0,1.0
1626202964.6049201,-230.957,-30.761999999999997,-26.855,1.0,1.0
1626202964.6088262,-64.941,-35.156,-25.879,1.0,1.0
1626202964.6127326,104.00399999999999,-41.504,-26.855,1.0,1.0
1626202964.616639,13.672,-28.809,-22.949,1.0,1.0
1626202964.6205451,-187.988,-29.785,-29.785,1.0,1.0
1626202964.6244514,-125.977,-36.621,-24.414,1.0,1.0
1626202964.6283576,92.285,-28.809,-19.531,1.0,1.0
1626202964.632264,157.227,-14.16,-30.273000000000003,106.445,1.0
1626202964.6361701,42.968999999999994,-37.109,-41.992,-186.523,1.0
1626202964.6400764,-148.92600000000002,-35.645,-39.062,-164.062,1.0
1626202964.6439826,-61.523,-20.996,-41.992,134.766,1.0
1626202964.647889,171.387,-16.602,-41.992,182.61700000000002,1.0
1626202964.6517951,176.75799999999998,-20.02,-42.48,-95.215,1.0
1626202964.6557016,-60.547,-45.41,-45.898,-198.73,1.0
1626202964.6596076,-116.211,-62.012,-41.504,67.87100000000001,1.0
1626202964.663514,103.027,-47.363,-36.133,216.30900000000003,1.0
1626202964.6674201,156.25,-44.922,-31.738000000000003,-7.812,1.0
1626202964.6713264,-40.039,-47.363,-36.621,-200.68400000000003,1.0
1626202964.6752326,-145.02,-61.035,-32.227,-7.324,1.0
1626202964.679139,-111.816,-60.547,-23.926,-155.762,1.0
1626202964.683045,110.84,-24.414,-31.25,144.531,1.0
1626202964.6869516,208.984,-11.23,-5.859,256.836,1.0
1626202964.6908574,-10.742,-31.738000000000003,2.93,-31.25,1.0
1626202964.6947641,-160.645,-33.691,-8.789,-197.266,1.0
1626202964.69867,11.719000000000001,-32.715,-21.484,41.992,1.0
1626202964.7025762,176.27,-28.32,-26.366999999999997,250.488,1.0
1626202964.706483,52.733999999999995,-28.809,-33.203,66.406,1.0
1626202964.710389,-110.352,-44.434,-36.621,-174.31599999999997,1.0
1626202964.714295,-4.883,-38.086,-32.715,-15.625,1.0
1626202964.7182014,175.78099999999998,-34.668,-26.855,264.16,1.0
1626202964.7221074,116.699,-28.809,-22.461,162.59799999999998,1.0
1626202964.726014,-85.93799999999999,-22.461,-19.531,1.0,1.0
1626202964.7299201,-87.891,-32.715,-22.949,1.0,1.0
1626202964.7338264,120.117,-30.273000000000003,-20.996,1.0,1.0
1626202964.7377326,139.648,-34.668,-24.414,1.0,1.0
1626202964.741639,-62.988,-40.039,-40.527,1.0,1.0
1626202964.7455451,-116.699,-36.621,-54.199,1.0,1.0
1626202964.7494514,64.941,-45.898,-39.551,1.0,1.0
1626202964.7533574,175.293,-38.574,-24.414,1.0,1.0
1626202964.757264,-15.625,-42.48,-47.852,1.0,1.0
1626202964.7611701,-171.387,-43.457,-47.852,1.0,1.0
1626202964.7650764,1.953,-47.363,-21.484,1.0,1.0
1626202964.7689826,170.898,-40.039,-17.09,1.0,1.0
1626202964.772889,52.733999999999995,-16.602,-26.855,1.0,1.0
1626202964.7767951,-152.832,-21.484,-32.715,1.0,1.0
1626202964.7807014,-73.242,-12.207,-15.137,1.0,1.0
1626202964.7846076,143.555,-8.789,-13.184000000000001,1.0,1.0
1626202964.788514,76.172,-22.949,-38.086,1.0,1.0
1626202964.7924201,-155.762,-28.32,-55.176,1.0,1.0
1626202964.7963264,-128.906,-48.34,-47.852,1.0,1.0
1626202964.800233,102.051,-44.922,-14.648,1.0,1.0
1626202964.804139,128.906,-18.066,-22.461,1.0,1.0
1626202964.808045,-72.75399999999999,-25.391,-35.645,1.0,1.0
1626202964.8119516,-181.641,-31.25,-33.203,1.0,1.0
1626202964.8158574,10.742,-25.391,-36.133,1.0,1.0
1626202964.8197637,76.172,-2.441,-24.901999999999997,222.65599999999998,1.0
1626202964.82367,131.836,22.949,-26.366999999999997,-17.578,1.0
1626202964.8275762,-79.59,-0.488,-35.645,-235.84,1.0
1626202964.831483,-181.15200000000002,-14.16,-22.949,-33.691,1.0
1626202964.835389,6.348,-24.414,-2.93,221.68,1.0
1626202964.8392951,145.02,-22.461,-30.761999999999997,46.875,1.0
1626202964.8432014,5.371,-12.695,-60.059,-246.582,1.0
1626202964.8471074,-158.691,-22.461,-38.086,-130.859,1.0
1626202964.851014,-53.223,-29.296999999999997,-31.738000000000003,167.48,1.0
1626202964.8549201,143.555,-26.855,-29.785,138.184,1.0
1626202964.8588262,69.824,-64.453,-41.504,-160.645,1.0
1626202964.8627326,-154.297,-71.289,-53.223,-193.359,1.0
1626202964.866639,-113.281,-26.366999999999997,-25.391,-124.023,1.0
1626202964.8705451,116.699,-3.906,-15.625,173.828,1.0
1626202964.8744514,118.652,10.742,-23.926,150.391,1.0
1626202964.8783576,-107.91,-4.395,-44.922,-157.227,1.0
1626202964.882264,-166.016,-28.809,-64.453,-215.82,1.0
1626202964.8861701,50.293,-16.113,-65.43,97.656,1.0
1626202964.8900764,159.668,-5.371,-57.129,218.75,1.0
1626202964.8939826,-40.039,-21.973000000000003,-43.457,-76.66,1.0
1626202964.897889,-187.012,-46.387,-30.761999999999997,-259.76599999999996,1.0
1626202964.9017951,-6.348,-36.621,-7.324,-4.883,1.0
1626202964.9057016,179.688,-24.901999999999997,14.16,224.609,1.0
1626202964.9096076,26.366999999999997,-38.574,-21.973000000000003,16.113,1.0
1626202964.913514,-178.22299999999998,-32.715,-42.48,-246.582,1.0
1626202964.9174201,-75.684,-27.831999999999997,-21.973000000000003,-101.074,1.0
1626202964.9213264,130.859,-5.371,-18.066,183.105,1.0
1626202964.9252326,80.566,8.301,-23.438000000000002,98.633,1.0
1626202964.929139,-154.297,-20.02,-50.293,-216.30900000000003,1.0
1626202964.933045,-127.93,-33.203,-54.199,-165.52700000000002,1.0
1626202964.9369516,86.914,-31.738000000000003,-38.086,145.50799999999998,1.0
1626202964.9408574,94.238,-22.949,-29.296999999999997,148.92600000000002,1.0
1626202964.9447641,-96.191,-29.296999999999997,-14.648,-143.555,1.0
1626202964.94867,-165.52700000000002,-46.875,-9.766,-206.055,1.0
1626202964.9525762,42.48,-36.133,-14.648,87.402,1.0
1626202964.956483,162.109,-32.715,-19.531,212.891,1.0
1626202964.960389,-12.695,-48.828,-21.973000000000003,1.0,1.0
1626202964.964295,-170.41,-50.781000000000006,-28.32,1.0,1.0
1626202964.9682014,-38.574,-52.246,-25.391,1.0,1.0
1626202964.9721074,132.32399999999998,-35.645,-33.691,1.0,1.0
1626202964.976014,24.901999999999997,-7.812,-39.551,1.0,1.0
1626202964.9799201,-160.156,-14.648,-27.344,1.0,1.0
1626202964.9838264,-76.66,-19.043,-21.484,1.0,1.0
1626202964.9877326,127.93,-17.09,-18.066,1.0,1.0
1626202964.991639,77.148,-48.828,-14.648,1.0,1.0
1626202964.9955451,-132.812,-66.406,-24.414,1.0,1.0
1626202964.9994514,-130.371,-46.875,-40.039,1.0,1.0
1626202965.0033574,75.684,-19.043,-28.32,1.0,1.0
1626202965.007264,-98.145,-5.859,-24.414,-96.68,1.0
1626202965.0111701,96.191,-28.809,-26.366999999999997,158.203,1.0
1626202965.0150764,34.668,-52.733999999999995,-17.09,41.016000000000005,1.0
1626202965.0189826,-165.52700000000002,-28.32,-22.949,-230.46900000000002,1.0
1626202965.022889,-146.484,-29.296999999999997,-35.645,-173.34,1.0
1626202965.0267951,82.031,-51.758,-22.461,135.254,1.0
1626202965.0307014,99.12100000000001,-57.617,-35.645,119.62899999999999,1.0
1626202965.0346076,-125.488,-41.504,-61.035,-182.12900000000002,1.0
1626202965.038514,-177.24599999999998,-20.996,-44.922,-214.84400000000002,1.0
1626202965.0424201,33.691,-19.043,-11.23,73.73,1.0
1626202965.0463264,126.465,-20.996,0.0,181.15200000000002,1.0
1626202965.050233,-71.289,-35.645,-27.344,-107.42200000000001,1.0
1626202965.054139,-192.87099999999998,-23.438000000000002,-37.598,1.0,1.0
1626202965.058045,-18.555,-16.602,-36.621,1.0,1.0
1626202965.0619516,128.906,-37.598,-34.668,1.0,1.0
1626202965.0658574,-5.859,-36.621,-23.926,1.0,1.0
1626202965.0697637,-187.012,-44.922,-26.855,1.0,1.0
1626202965.07367,-82.031,-52.733999999999995,-33.203,1.0,1.0
1626202965.0775762,108.887,-53.711000000000006,-44.922,1.0,1.0
1626202965.081483,45.41,-45.41,-43.945,1.0,1.0
1626202965.085389,-162.109,-33.691,-29.785,1.0,1.0
1626202965.0892951,-130.859,-9.766,-27.344,1.0,1.0
1626202965.0932014,101.56200000000001,8.789,-20.996,1.0,1.0
1626202965.0971074,125.0,-18.066,-19.531,1.0,1.0
1626202965.101014,-111.816,-55.663999999999994,-38.574,1.0,1.0
1626202965.1049201,-183.105,-59.57,-39.062,1.0,1.0
1626202965.1088262,36.621,-20.02,-18.555,1.0,1.0
1626202965.1127326,132.812,-8.301,-13.672,1.0,1.0
1626202965.116639,-50.293,-26.366999999999997,-18.066,1.0,1.0
1626202965.1205451,-182.12900000000002,-20.02,-13.184000000000001,1.0,1.0
1626202965.1244514,-32.227,-24.901999999999997,-22.949,1.0,1.0
1626202965.1283576,94.727,-49.316,-55.663999999999994,1.0,1.0
1626202965.132264,-41.504,-47.852,-71.289,1.0,1.0
1626202965.1361701,-210.449,-37.598,-53.711000000000006,1.0,1.0
1626202965.1400764,-103.027,-32.227,-33.203,1.0,1.0
1626202965.1439826,127.93,-6.836,-21.484,1.0,1.0
1626202965.147889,130.859,-4.883,-26.366999999999997,93.75,1.0
1626202965.1517951,32.715,-31.738000000000003,-67.87100000000001,-214.84400000000002,1.0
1626202965.1557016,-179.688,-42.968999999999994,-69.336,-208.984,1.0
1626202965.1596076,-121.58200000000001,-27.831999999999997,-28.32,102.539,1.0
1626202965.163514,107.42200000000001,-24.901999999999997,-13.672,147.94899999999998,1.0
1626202965.1674201,80.566,-56.152,-9.766,-148.438,1.0
1626202965.1713264,-149.90200000000002,-63.477,-7.324,-243.65200000000002,1.0
1626202965.1752326,-164.062,-15.625,-13.184000000000001,30.761999999999997,1.0
1626202965.179139,47.852,-1.953,-28.32,180.176,1.0
1626202965.183045,92.773,-25.391,-37.109,-57.617,1.0
1626202965.1869516,-98.633,-23.926,-42.968999999999994,-267.578,1.0
1626202965.1908574,-198.73,-30.761999999999997,-43.945,-58.593999999999994,1.0
1626202965.1947641,-4.395,-27.344,-25.879,15.137,1.0
1626202965.19867,145.50799999999998,-14.648,-23.438000000000002,195.312,1.0
1626202965.2025762,-23.926,-27.831999999999997,-45.898,-43.457,1.0
1626202965.206483,-189.453,-17.09,-37.598,-255.859,1.0
1626202965.210389,-48.828,-34.18,-18.555,-57.617,1.0
1626202965.214295,130.859,-64.941,-26.855,190.43,1.0
1626202965.2182014,29.296999999999997,-43.945,-39.062,38.086,1.0
1626202965.2221074,-170.898,-17.09,-28.809,-237.793,1.0
1626202965.226014,-126.95299999999999,-14.648,-23.926,-145.02,1.0
1626202965.2299201,79.59,-18.066,-28.809,141.602,1.0
1626202965.2338264,69.824,-20.02,-38.086,107.42200000000001,1.0
1626202965.2377326,-141.113,-35.645,-56.152,-183.59400000000002,1.0
1626202965.241639,-167.48,-36.621,-44.434,-197.75400000000002,1.0
1626202965.2455451,48.34,-28.809,-40.039,95.70299999999999,1.0
1626202965.2494514,119.141,-36.621,-42.968999999999994,172.852,1.0
1626202965.2533574,-86.426,-53.223,-34.18,-113.77,1.0
1626202965.257264,-204.102,-54.199,-31.25,-256.348,1.0
1626202965.2611701,-23.926,-34.18,-17.09,1.953,1.0
1626202965.2650764,137.695,-12.695,-5.859,208.00799999999998,1.0
1626202965.2689826,-2.93,-26.366999999999997,-27.344,-4.883,1.0
1626202965.272889,-195.312,-34.668,-51.758,-263.672,1.0
1626202965.2767951,-89.355,-26.855,-32.227,-95.215,1.0
1626202965.2807014,114.74600000000001,-25.879,-33.203,183.59400000000002,1.0
1626202965.2846076,53.223,-28.809,-49.805,67.383,1.0
1626202965.288514,-153.32,-48.34,-32.227,-213.37900000000002,1.0
1626202965.2924201,-126.465,-68.359,-40.039,-144.531,1.0
1626202965.2963264,90.33200000000001,-53.223,-47.363,150.879,1.0
1626202965.300233,88.37899999999999,-22.461,-36.133,130.859,1.0
1626202965.304139,-145.02,-26.855,-33.691,-181.641,1.0
1626202965.308045,-192.87099999999998,-31.738000000000003,-26.366999999999997,-233.398,1.0
1626202965.3119516,20.996,-25.879,-19.043,57.617,1.0
1626202965.3158574,124.512,-25.391,-22.461,180.66400000000002,1.0
1626202965.3197637,-55.663999999999994,-20.508000000000003,-33.691,-80.566,1.0
1626202965.32367,-198.73,-16.113,-38.574,-254.395,1.0
1626202965.3275762,-37.109,-28.32,-35.156,-17.09,1.0
1626202965.331483,131.836,-38.574,-24.901999999999997,200.68400000000003,1.0
1626202965.335389,-2.441,-38.086,-30.761999999999997,1.0,1.0
1626202965.3392951,-183.105,-27.831999999999997,-39.551,1.0,1.0
1626202965.3432014,-76.66,-25.391,-39.551,1.0,1.0
1626202965.3471074,125.488,-29.296999999999997,-30.761999999999997,1.0,1.0
1626202965.351014,66.895,-26.855,-33.691,1.0,1.0
1626202965.3549201,-145.02,-23.926,-49.805,1.0,1.0
1626202965.3588262,-143.066,-19.043,-47.852,1.0,1.0
1626202965.3627326,64.941,-25.879,-35.156,1.0,1.0
1626202965.366639,113.281,-11.719000000000001,-15.137,1.0,1.0
1626202965.3705451,-81.543,-7.812,-8.789,1.0,1.0
1626202965.3744514,-165.03900000000002,-18.555,-17.578,1.0,1.0
1626202965.3783576,9.766,-15.625,-31.25,1.0,1.0
1626202965.382264,-128.906,-38.086,-9.277000000000001,118.164,1.0
1626202965.3861701,89.355,-42.48,-26.366999999999997,178.71099999999998,1.0
1626202965.3900764,75.684,-33.691,-51.27,-128.418,1.0
1626202965.3939826,-147.461,-23.926,-46.387,-252.44099999999997,1.0
1626202965.397889,-170.41,-31.25,-28.32,31.25,1.0
1626202965.4017951,66.895,-22.949,-20.508000000000003,199.21900000000002,1.0
1626202965.4057016,127.441,-31.25,-30.273000000000003,-43.945,1.0
1626202965.4096076,-88.37899999999999,-29.296999999999997,-46.875,-262.207,1.0
1626202965.413514,-211.91400000000002,-14.648,-41.992,-67.383,1.0
1626202965.4174201,-23.926,-23.438000000000002,-18.066,188.965,1.0
1626202965.4213264,149.90200000000002,-30.273000000000003,-9.277000000000001,54.688,1.0
1626202965.4252326,-2.93,-19.531,-30.761999999999997,-232.91,1.0
1626202965.429139,-194.33599999999998,-10.254000000000001,-53.223,1.0,1.0
1626202965.433045,-86.426,-36.133,-46.875,1.0,1.0
1626202965.4369516,102.051,-49.316,-35.156,1.0,1.0
1626202965.4408574,33.203,-39.062,-32.715,1.0,1.0
1626202965.4447641,-174.31599999999997,-47.363,-41.016000000000005,1.0,1.0
1626202965.44867,-147.94899999999998,-35.645,-53.223,1.0,1.0
1626202965.4525762,91.309,-9.766,-31.25,1.0,1.0
1626202965.456483,120.605,-8.789,-7.324,1.0,1.0
1626202965.460389,-118.164,-38.574,-12.207,1.0,1.0
1626202965.464295,-176.75799999999998,-50.293,-29.296999999999997,1.0,1.0
1626202965.4682014,51.758,-24.414,-34.668,1.0,1.0
1626202965.4721074,142.578,-11.23,-15.625,1.0,1.0
1626202965.476014,96.191,-8.789,-30.273000000000003,-83.984,1.0
1626202965.4799201,-106.934,-8.301,-41.504,-263.184,1.0
1626202965.4838264,-165.52700000000002,7.812,-20.508000000000003,-23.438000000000002,1.0
1626202965.4877326,31.25,-5.859,-22.949,194.824,1.0
1626202965.491639,126.95299999999999,-24.901999999999997,-34.18,-0.977,1.0
1626202965.4955451,-49.316,-33.691,-30.761999999999997,-254.88299999999998,1.0
1626202965.4994514,-201.172,-45.41,-31.738000000000003,-88.867,1.0
1626202965.5033574,-38.086,-23.926,-40.039,186.523,1.0
1626202965.507264,149.414,-14.648,-26.366999999999997,83.008,1.0
1626202965.5111701,16.602,-39.062,-23.438000000000002,-207.52,1.0
1626202965.5150764,-193.84799999999998,-40.527,-41.992,-167.48,1.0
1626202965.5189826,-118.164,-40.527,-58.105,133.30100000000002,1.0
1626202965.522889,-74.219,-44.922,-36.621,-61.035,1.0
1626202965.5267951,128.418,-11.719000000000001,-10.742,190.918,1.0
1626202965.5307014,49.805,-18.555,-20.02,53.711000000000006,1.0
1626202965.5346076,-162.59799999999998,-33.691,-47.852,-222.168,1.0
1626202965.538514,-109.375,-27.344,-41.504,-128.418,1.0
1626202965.5424201,98.633,-14.16,-48.34,149.90200000000002,1.0
1626202965.5463264,67.87100000000001,-34.668,-70.801,93.75,1.0
1626202965.550233,-156.738,-50.781000000000006,-58.593999999999994,-213.37900000000002,1.0
