timestamps,TP9,AF7,AF8,TP10,Right AUX
1626294725.889479,51.758,8.301,-17.578,144.531,1.0
1626294725.8933854,-56.152,-76.66,-55.176,-78.125,1.0
1626294725.8972914,-135.254,-81.055,-58.105,-211.426,1.0
1626294725.901198,-50.293,-29.296999999999997,-34.18,-20.508000000000003,1.0
1626294725.9051042,41.504,-35.645,-18.066,147.461,1.0
1626294725.9090104,-13.672,-49.805,-25.879,-1.465,1.0
1626294725.9129167,-140.625,-99.12100000000001,-83.49600000000001,-227.051,1.0
1626294725.916823,-71.289,-31.738000000000003,-41.016000000000005,-93.75,1.0
1626294725.9207292,54.199,30.273000000000003,1.953,136.719,1.0
1626294725.9246354,34.668,3.906,-13.184000000000001,75.684,1.0
1626294725.9285414,-69.824,-28.809,-13.672,-140.625,1.0
1626294725.932448,-125.0,-71.777,-50.781000000000006,-162.59799999999998,1.0
1626294725.9363542,-0.488,-23.926,-40.527,1.0,1.0
1626294725.9402604,72.266,6.348,-6.348,1.0,1.0
1626294725.9441667,-35.645,-5.371,-12.695,1.0,1.0
1626294725.948073,-98.145,-16.113,-26.366999999999997,1.0,1.0
1626294725.9519792,-28.32,-36.133,-29.296999999999997,1.0,1.0
1626294725.9558854,50.293,-0.488,-9.766,1.0,1.0
1626294725.9597917,0.0,6.348,-9.766,1.0,1.0
1626294725.963698,-84.473,-25.391,-28.809,1.0,1.0
1626294725.9676042,-54.688,-41.504,-40.039,1.0,1.0
1626294725.9715104,35.156,-28.809,-26.855,1.0,1.0
1626294725.975417,14.16,-17.578,-32.715,1.0,1.0
1626294725.979323,-80.566,-25.391,-41.504,1.0,1.0
1626294725.983229,-56.152,-12.207,-23.926,1.0,1.0
1626294725.9871356,11.719000000000001,-46.387,-45.41,1.0,1.0
1626294725.9910414,16.602,-27.831999999999997,-36.133,1.0,1.0
1626294725.9949477,-61.523,2.441,-8.789,1.0,1.0
1626294725.998854,-77.148,8.301,-13.184000000000001,1.0,1.0
1626294726.0027602,10.742,0.488,-24.414,1.0,1.0
1626294726.006667,33.691,-52.733999999999995,-46.387,1.0,1.0
1626294726.010573,-35.645,-48.828,-39.062,1.0,1.0
1626294726.0144792,-99.609,-64.453,-28.809,1.0,1.0
1626294726.0183854,-41.504,-35.645,-34.668,1.0,1.0
1626294726.0222914,9.277000000000001,-14.648,-53.223,1.0,1.0
1626294726.026198,-44.922,-58.105,-55.176,1.0,1.0
1626294726.0301042,48.34,-9.277000000000001,-29.785,-74.707,1.0
1626294726.0340102,-22.949,14.648,-19.043,-184.082,1.0
1626294726.0379167,-66.406,-5.859,-25.879,4.883,1.0
1626294726.041823,4.883,-28.32,-19.043,152.832,1.0
1626294726.0457292,56.641000000000005,-49.805,-18.555,-5.371,1.0
1626294726.0496354,-2.441,-35.156,-18.066,-166.99200000000002,1.0
1626294726.0535417,-86.914,-33.203,-30.761999999999997,-86.914,1.0
1626294726.057448,-40.039,-23.926,-36.133,120.605,1.0
1626294726.0613542,36.133,-30.273000000000003,-38.086,72.266,1.0
1626294726.0652604,-1.465,-38.574,-43.945,-144.043,1.0
1626294726.0691667,-94.238,-31.25,-40.039,-114.74600000000001,1.0
1626294726.073073,-73.242,-31.25,-21.973000000000003,79.102,1.0
1626294726.0769792,25.391,-12.695,-15.625,1.0,1.0
1626294726.0808856,13.184000000000001,-49.316,-38.574,1.0,1.0
1626294726.0847917,-68.848,-41.504,-28.809,1.0,1.0
1626294726.088698,-75.195,-11.23,-6.836,1.0,1.0
1626294726.0926042,11.719000000000001,-5.859,-9.277000000000001,1.0,1.0
1626294726.0965104,39.551,6.348,-21.484,1.0,1.0
1626294726.1004167,-62.988,-42.48,-53.711000000000006,1.0,1.0
1626294726.104323,-120.605,-56.152,-62.012,1.0,1.0
1626294726.108229,-47.363,-34.668,-38.574,1.0,1.0
1626294726.1121356,24.414,-12.695,-15.137,1.0,1.0
1626294726.1160414,-34.18,-24.901999999999997,-18.555,1.0,1.0
1626294726.1199481,-118.652,-78.125,-38.574,1.0,1.0
1626294726.123854,13.184000000000001,12.207,-34.668,18.066,1.0
1626294726.1277602,-78.125,-59.082,-61.035,-183.59400000000002,1.0
1626294726.131667,-81.543,-42.968999999999994,-52.246,-144.043,1.0
1626294726.135573,21.484,3.418,-27.831999999999997,77.637,1.0
1626294726.139479,51.27,-21.484,-23.438000000000002,96.68,1.0
1626294726.1433854,-38.574,-35.645,-21.973000000000003,-106.445,1.0
1626294726.1472914,-96.68,-87.402,-41.504,-176.27,1.0
1626294726.151198,-16.602,-54.688,-42.968999999999994,20.02,1.0
1626294726.1551042,35.645,-17.09,-52.733999999999995,111.32799999999999,1.0
1626294726.1590104,-29.785,6.836,-47.363,-61.523,1.0
1626294726.1629167,-93.75,-15.625,-34.18,-180.66400000000002,1.0
1626294726.166823,-40.039,-70.312,-32.715,-28.32,1.0
1626294726.1707292,39.062,-18.555,-23.926,124.512,1.0
1626294726.1746354,18.555,-20.996,-9.766,15.137,1.0
1626294726.1785414,-61.035,-25.879,-10.742,-145.996,1.0
1626294726.182448,-72.75399999999999,-19.043,-44.922,-89.355,1.0
1626294726.1863542,-1.465,-49.805,-53.711000000000006,78.125,1.0
1626294726.1902604,8.789,-32.715,-35.645,51.758,1.0
1626294726.1941667,-79.102,-24.901999999999997,-30.761999999999997,-141.113,1.0
1626294726.198073,-87.891,-8.301,-23.926,-126.465,1.0
1626294726.2019792,2.93,-37.598,-14.648,78.613,1.0
1626294726.2058854,34.18,-58.105,-9.277000000000001,108.398,1.0
1626294726.2097917,-43.945,-20.508000000000003,-16.113,-85.93799999999999,1.0
1626294726.213698,-105.469,-22.949,-38.574,-170.41,1.0
1626294726.2176042,-29.785,-13.672,-25.391,1.0,1.0
1626294726.2215104,33.691,-25.879,-18.555,1.0,1.0
1626294726.225417,-36.133,-27.831999999999997,-35.156,1.0,1.0
1626294726.229323,-113.77,-21.973000000000003,-47.852,1.0,1.0
1626294726.233229,-58.593999999999994,-21.973000000000003,-40.527,1.0,1.0
1626294726.2371356,36.133,-13.672,-12.207,1.0,1.0
1626294726.2410414,0.977,-43.457,-26.855,1.0,1.0
1626294726.2449477,-76.66,-20.02,-27.344,1.0,1.0
1626294726.248854,-53.711000000000006,-0.977,0.977,1.0,1.0
1626294726.2527602,17.09,-9.766,-7.812,1.0,1.0
1626294726.256667,7.324,-45.41,-28.32,1.0,1.0
1626294726.260573,-84.961,-102.051,-41.016000000000005,1.0,1.0
1626294726.2644792,38.574,-1.953,-23.926,-43.457,1.0
1626294726.2683854,-25.879,-36.621,-16.602,-202.637,1.0
1626294726.2722914,-88.867,-41.504,-26.366999999999997,-78.125,1.0
1626294726.276198,-26.366999999999997,-16.602,-20.996,107.42200000000001,1.0
1626294726.2801042,60.547,2.441,-0.488,37.109,1.0
1626294726.2840102,24.901999999999997,-35.645,-18.555,-145.996,1.0
1626294726.2879167,-78.613,-123.535,-59.57,-104.00399999999999,1.0
1626294726.291823,-54.688,-61.035,-39.062,103.027,1.0
1626294726.2957292,40.527,-1.953,-9.766,97.656,1.0
1626294726.2996354,33.691,-7.324,-8.301,-124.512,1.0
1626294726.3035417,-59.57,-22.461,-22.461,-164.062,1.0
1626294726.307448,-96.68,-73.73,-37.109,36.621,1.0
1626294726.3113542,5.859,-27.831999999999997,-13.184000000000001,1.0,1.0
1626294726.3152604,63.477,12.207,-10.742,1.0,1.0
1626294726.3191667,-33.203,2.441,-34.668,1.0,1.0
1626294726.323073,-91.79700000000001,-48.34,-33.691,1.0,1.0
1626294726.3269792,-28.32,-83.49600000000001,-45.898,1.0,1.0
1626294726.3308856,26.855,-14.16,-53.711000000000006,1.0,1.0
1626294726.3347917,-21.484,12.207,-35.645,1.0,1.0
1626294726.338698,-83.984,-6.348,-13.184000000000001,1.0,1.0
1626294726.3426042,-46.387,-45.41,-11.23,1.0,1.0
1626294726.3465104,31.738000000000003,-49.316,-14.16,1.0,1.0
1626294726.3504167,19.531,3.418,-13.672,1.0,1.0
1626294726.354323,-69.824,8.789,-30.273000000000003,1.0,1.0
1626294726.358229,-72.266,-13.672,-36.133,1.0,1.0
1626294726.3621356,-10.254000000000001,-71.777,-50.293,1.0,1.0
1626294726.3660414,0.488,-59.57,-36.621,1.0,1.0
1626294726.3699481,-79.102,-28.32,-29.296999999999997,1.0,1.0
1626294726.373854,-104.492,-34.18,-41.504,1.0,1.0
1626294726.3777602,-12.695,-18.066,-39.551,1.0,1.0
1626294726.381667,28.32,-46.875,-43.457,1.0,1.0
1626294726.385573,-43.457,-24.901999999999997,-23.438000000000002,1.0,1.0
1626294726.389479,-105.95700000000001,-22.461,-18.066,1.0,1.0
1626294726.3933854,-27.344,-10.254000000000001,-9.277000000000001,1.0,1.0
1626294726.3972914,61.035,-14.648,6.836,1.0,1.0
1626294726.401198,-13.184000000000001,-93.262,-26.366999999999997,1.0,1.0
1626294726.4051042,24.901999999999997,-30.273000000000003,-40.039,-93.262,1.0
1626294726.4090104,-62.012,-11.23,-23.926,-197.266,1.0
1626294726.4129167,-91.309,-17.578,-8.301,-37.109,1.0
1626294726.416823,-3.906,-36.133,1.465,111.816,1.0
1626294726.4207292,34.18,-41.016000000000005,-12.695,-11.23,1.0
1626294726.4246354,-40.039,-29.785,-40.039,-187.012,1.0
1626294726.4285414,-108.887,-50.293,-43.457,-87.402,1.0
1626294726.432448,-44.922,-28.809,-5.371,112.79299999999999,1.0
1626294726.4363542,32.715,-23.926,-14.648,53.711000000000006,1.0
1626294726.4402604,-15.625,-38.086,-52.246,-149.414,1.0
1626294726.4441667,-97.656,-25.391,-57.129,-139.16,1.0
1626294726.448073,-89.844,-30.761999999999997,-51.27,62.5,1.0
1626294726.4519792,-2.441,-19.043,-26.855,1.0,1.0
1626294726.4558854,8.301,-50.293,-24.414,1.0,1.0
1626294726.4597917,-74.219,-55.176,-20.02,1.0,1.0
1626294726.463698,-89.355,-29.785,-20.508000000000003,1.0,1.0
1626294726.4676042,7.324,-32.715,-25.879,1.0,1.0
1626294726.4715104,41.016000000000005,-44.922,-19.043,1.0,1.0
1626294726.475417,-54.199,-70.312,-24.901999999999997,1.0,1.0
1626294726.479323,-95.215,-16.113,-31.738000000000003,1.0,1.0
1626294726.483229,-20.996,8.789,-53.711000000000006,1.0,1.0
1626294726.4871356,45.41,8.301,-44.922,1.0,1.0
1626294726.4910414,-19.043,-23.438000000000002,-21.973000000000003,1.0,1.0
1626294726.4949477,-124.023,-74.707,-28.32,1.0,1.0
1626294726.498854,34.668,11.719000000000001,-18.555,65.43,1.0
1626294726.5027602,-78.613,-33.203,-33.203,-155.273,1.0
1626294726.506667,-97.656,-54.199,-51.27,-141.602,1.0
1626294726.510573,21.484,-7.324,-24.414,96.68,1.0
1626294726.5144792,44.922,-2.441,-11.719000000000001,121.094,1.0
1626294726.5183854,-55.663999999999994,-24.901999999999997,-25.879,-95.70299999999999,1.0
1626294726.5222914,-115.723,-58.593999999999994,-36.621,-162.59799999999998,1.0
1626294726.526198,-20.996,-38.574,-10.254000000000001,56.152,1.0
1626294726.5301042,61.035,-36.133,0.0,167.48,1.0
1626294726.5340102,1.953,-34.18,0.0,-6.836,1.0
1626294726.5379167,-86.914,-33.203,-4.883,-147.94899999999998,1.0
1626294726.541823,-72.75399999999999,-65.918,-30.273000000000003,-32.227,1.0
1626294726.5457292,33.203,-8.789,-24.414,1.0,1.0
1626294726.5496354,17.578,14.16,-37.598,1.0,1.0
1626294726.5535417,-75.195,-10.742,-39.062,1.0,1.0
1626294726.557448,-56.152,-23.438000000000002,-17.09,1.0,1.0
1626294726.5613542,18.555,-59.57,-24.414,1.0,1.0
1626294726.5652604,20.02,-28.809,-28.32,1.0,1.0
1626294726.5691667,-63.965,-11.719000000000001,-35.156,1.0,1.0
1626294726.573073,-81.543,-29.296999999999997,-41.016000000000005,1.0,1.0
1626294726.5769792,3.906,-40.527,-28.809,1.0,1.0
1626294726.5808856,42.48,-49.316,-14.648,1.0,1.0
1626294726.5847917,-32.715,-32.715,-8.301,1.0,1.0
1626294726.588698,-89.844,-20.508000000000003,-9.277000000000001,1.0,1.0
1626294726.5926042,-15.137,15.625,-24.901999999999997,1.0,1.0
1626294726.5965104,39.062,-19.531,-57.129,1.0,1.0
1626294726.6004167,-27.344,-36.621,-51.758,1.0,1.0
1626294726.604323,-94.238,-15.625,-35.645,1.0,1.0
1626294726.608229,-34.668,4.395,-39.062,1.0,1.0
1626294726.6121356,55.663999999999994,7.324,-39.062,1.0,1.0
1626294726.6160414,7.812,-109.375,-54.199,1.0,1.0
1626294726.6199481,-83.984,-92.285,-40.527,1.0,1.0
1626294726.623854,-77.148,-18.555,-34.18,1.0,1.0
1626294726.6277602,13.184000000000001,8.301,-25.879,1.0,1.0
1626294726.631667,25.391,-19.531,-17.578,1.0,1.0
1626294726.635573,-65.43,-103.516,-24.414,1.0,1.0
1626294726.639479,-2.93,-53.711000000000006,-20.996,-8.301,1.0
1626294726.6433854,-83.984,-32.227,-25.391,-174.31599999999997,1.0
1626294726.6472914,-66.895,-8.301,-17.09,-78.613,1.0
1626294726.651198,4.883,-30.761999999999997,-17.578,89.844,1.0
1626294726.6551042,-28.809,-89.355,-46.387,3.418,1.0
1626294726.6590104,-104.98,-39.551,-36.133,-175.78099999999998,1.0
1626294726.6629167,-97.16799999999999,-18.555,-30.273000000000003,-138.672,1.0
1626294726.666823,20.996,0.488,-8.301,96.68,1.0
1626294726.6707292,55.663999999999994,-24.414,-6.348,122.559,1.0
1626294726.6746354,-41.016000000000005,-61.523,-31.25,-103.516,1.0
1626294726.6785414,-79.59,-29.296999999999997,-40.039,-157.227,1.0
1626294726.682448,-3.418,-14.648,-46.875,41.504,1.0
1626294726.6863542,53.223,-9.277000000000001,-30.761999999999997,1.0,1.0
1626294726.6902604,-55.176,-93.262,-63.965,1.0,1.0
1626294726.6941667,-128.418,-87.402,-52.733999999999995,1.0,1.0
1626294726.698073,-42.48,-10.742,-4.883,1.0,1.0
1626294726.7019792,43.945,-6.348,-8.789,1.0,1.0
1626294726.7058854,4.395,-23.438000000000002,-18.555,1.0,1.0
1626294726.7097917,-120.605,-104.00399999999999,-53.223,1.0,1.0
1626294726.713698,-84.473,-56.641000000000005,-54.199,1.0,1.0
1626294726.7176042,29.785,7.324,-27.344,1.0,1.0
1626294726.7215104,20.508000000000003,8.789,-24.901999999999997,1.0,1.0
1626294726.725417,-97.16799999999999,-41.016000000000005,-41.504,1.0,1.0
1626294726.729323,-147.94899999999998,-131.836,-62.5,1.0,1.0
1626294726.733229,-15.137,-62.012,-31.738000000000003,1.0,1.0
1626294726.7371356,47.852,-10.742,-11.719000000000001,1.0,1.0
1626294726.7410414,-45.41,-7.324,-27.344,1.0,1.0
1626294726.7449477,-103.027,-17.09,-33.203,1.0,1.0
1626294726.748854,-32.715,-41.016000000000005,-32.715,1.0,1.0
1626294726.7527602,35.645,1.953,-24.414,1.0,1.0
1626294726.756667,-25.391,-3.906,-20.02,1.0,1.0
1626294726.760573,-79.59,-16.113,0.0,1.0,1.0
1626294726.7644792,-57.129,-46.387,-20.996,1.0,1.0
1626294726.7683854,-4.395,-69.824,-49.805,1.0,1.0
1626294726.7722914,-7.324,-24.414,-49.316,1.0,1.0
1626294726.776198,-81.543,-26.366999999999997,-41.504,1.0,1.0
1626294726.7801042,-72.266,-22.461,-13.672,1.0,1.0
1626294726.7840102,2.93,-55.663999999999994,-28.809,1.0,1.0
1626294726.7879167,27.344,-26.855,-30.273000000000003,1.0,1.0
1626294726.791823,-49.316,12.207,-22.949,1.0,1.0
1626294726.7957292,-96.191,0.0,-36.133,1.0,1.0
1626294726.7996354,-11.719000000000001,3.418,-27.344,1.0,1.0
1626294726.8035417,8.301,-71.777,-48.828,1.0,1.0
1626294726.807448,-53.711000000000006,-49.805,-40.039,1.0,1.0
1626294726.8113542,-97.656,-31.738000000000003,-24.901999999999997,1.0,1.0
1626294726.8152604,-30.273000000000003,-23.926,-28.809,1.0,1.0
1626294726.8191667,35.156,-18.066,-41.016000000000005,1.0,1.0
1626294726.823073,-34.18,-82.031,-69.336,1.0,1.0
1626294726.8269792,41.016000000000005,-13.184000000000001,-30.761999999999997,-84.961,1.0
1626294726.8308856,-43.945,-25.879,-30.273000000000003,-201.66,1.0
1626294726.8347917,-98.145,-33.691,-23.438000000000002,-34.668,1.0
1626294726.838698,-22.461,-32.715,-20.996,133.30100000000002,1.0
1626294726.8426042,34.18,-41.016000000000005,-21.973000000000003,12.695,1.0
1626294726.8465104,-2.441,-19.531,-12.207,-160.156,1.0
1626294726.8504167,-68.848,-43.945,-31.25,-77.148,1.0
1626294726.854323,-34.18,-27.344,-35.156,108.887,1.0
1626294726.858229,40.039,-4.883,-32.227,40.527,1.0
1626294726.8621356,3.418,-13.672,-45.41,-153.809,1.0
1626294726.8660414,-83.008,-11.719000000000001,-46.875,-128.906,1.0
1626294726.8699481,-68.359,-21.973000000000003,-29.296999999999997,58.105,1.0
1626294726.873854,44.922,0.977,-14.648,1.0,1.0
1626294726.8777602,25.879,-50.293,-46.387,1.0,1.0
1626294726.881667,-90.33200000000001,-54.199,-68.359,1.0,1.0
1626294726.885573,-79.59,-3.418,-27.831999999999997,1.0,1.0
1626294726.889479,19.043,-18.066,2.93,1.0,1.0
1626294726.8933854,41.016000000000005,-39.062,-8.301,1.0,1.0
1626294726.8972914,-64.453,-83.984,-51.27,1.0,1.0
1626294726.901198,-106.445,-38.086,-59.082,1.0,1.0
1626294726.9051042,-24.414,-12.207,-37.109,1.0,1.0
1626294726.9090104,36.133,-15.625,-15.625,1.0,1.0
1626294726.9129167,-18.066,-20.02,-35.645,1.0,1.0
1626294726.916823,-99.609,-66.406,-63.965,1.0,1.0
1626294726.9207292,37.109,22.949,-50.781000000000006,52.733999999999995,1.0
1626294726.9246354,-88.867,-47.852,-79.102,-170.898,1.0
1626294726.9285414,-85.449,-45.41,-39.062,-129.88299999999998,1.0
1626294726.932448,26.366999999999997,-11.23,1.465,90.33200000000001,1.0
1626294726.9363542,46.387,-12.207,-1.465,103.027,1.0
1626294726.9402604,-31.25,-2.93,-14.16,-99.12100000000001,1.0
1626294726.9441667,-116.699,-106.445,-61.035,-203.613,1.0
1626294726.948073,-48.34,-52.246,-58.593999999999994,-9.766,1.0
1626294726.9519792,37.109,6.348,-45.898,107.42200000000001,1.0
1626294726.9558854,-26.366999999999997,-22.949,-41.992,-71.777,1.0
1626294726.9597917,-110.84,-39.062,-44.922,-205.078,1.0
1626294726.963698,-66.406,-76.172,-53.223,-60.059,1.0
1626294726.9676042,44.434,-22.949,-37.598,1.0,1.0
1626294726.9715104,20.508000000000003,10.254000000000001,-35.645,1.0,1.0
1626294726.975417,-73.242,-17.09,-20.02,1.0,1.0
1626294726.979323,-61.523,-41.016000000000005,-11.719000000000001,1.0,1.0
1626294726.983229,12.695,-43.457,-27.344,1.0,1.0
1626294726.9871356,16.113,1.953,-24.901999999999997,1.0,1.0
1626294726.9910414,-76.172,-8.789,-32.227,1.0,1.0
1626294726.9949477,-78.613,-11.23,-39.551,1.0,1.0
1626294726.998854,20.508000000000003,-26.366999999999997,-36.621,1.0,1.0
1626294727.0027602,44.434,-51.27,-31.25,1.0,1.0
1626294727.006667,-39.551,-22.949,-58.105,1.0,1.0
1626294727.010573,-97.16799999999999,-9.766,-59.57,1.0,1.0
1626294727.0144792,-26.366999999999997,-20.996,-21.484,1.0,1.0
1626294727.0183854,32.715,-63.477,-23.438000000000002,1.0,1.0
1626294727.0222914,-15.137,-38.086,-30.761999999999997,1.0,1.0
1626294727.026198,-89.355,-14.648,-27.344,1.0,1.0
1626294727.0301042,-41.016000000000005,-9.766,-2.93,1.0,1.0
1626294727.0340102,46.875,-10.254000000000001,-13.672,1.0,1.0
1626294727.0379167,-19.043,-100.586,-53.223,1.0,1.0
1626294727.041823,-100.098,-61.523,-42.48,1.0,1.0
1626294727.0457292,-72.266,-5.859,-34.18,1.0,1.0
1626294727.0496354,22.461,3.906,-25.879,1.0,1.0
1626294727.0535417,34.18,-18.066,-36.133,1.0,1.0
1626294727.057448,-87.402,-108.887,-62.012,1.0,1.0
1626294727.0613542,6.836,-20.508000000000003,-37.109,-2.441,1.0
1626294727.0652604,-64.941,-6.836,-16.602,-140.625,1.0
1626294727.0691667,-41.016000000000005,-4.883,5.371,-34.668,1.0
1626294727.073073,32.715,-15.137,-15.625,127.93,1.0
1626294727.0769792,-18.555,-89.844,-61.035,18.066,1.0
1626294727.0808856,-98.633,-42.968999999999994,-37.109,-175.293,1.0
1626294727.0847917,-86.914,0.0,-19.043,-128.418,1.0
1626294727.088698,30.273000000000003,1.465,-3.906,107.42200000000001,1.0
1626294727.0926042,31.738000000000003,-52.246,-29.785,102.051,1.0
1626294727.0965104,-82.52,-85.449,-68.359,-136.23,1.0
1626294727.1004167,-98.145,-12.207,-31.738000000000003,-163.086,1.0
1626294727.104323,-9.277000000000001,10.254000000000001,-7.812,46.387,1.0
1626294727.108229,43.457,-12.207,-24.901999999999997,1.0,1.0
1626294727.1121356,-41.504,-89.844,-63.477,1.0,1.0
1626294727.1160414,-93.75,-90.33200000000001,-55.176,1.0,1.0
1626294727.1199481,-20.996,-19.531,-27.344,1.0,1.0
1626294727.123854,49.316,9.277000000000001,-23.926,1.0,1.0
1626294727.1277602,1.953,7.324,-20.996,1.0,1.0
1626294727.131667,-107.91,-27.344,-35.156,1.0,1.0
1626294727.135573,-78.125,-12.207,-24.414,1.0,1.0
1626294727.139479,28.809,-4.883,-11.23,1.0,1.0
1626294727.1433854,47.363,14.16,-9.766,1.0,1.0
1626294727.1472914,-57.617,-13.184000000000001,-30.761999999999997,1.0,1.0
1626294727.151198,-112.305,-100.098,-57.617,1.0,1.0
1626294727.1551042,19.043,-39.551,-14.16,1.0,1.0
1626294727.1590104,48.828,-15.137,-6.348,1.0,1.0
1626294727.1629167,-40.039,-13.184000000000001,-32.715,1.0,1.0
1626294727.166823,-104.98,-34.668,-65.918,1.0,1.0
1626294727.1707292,-70.801,-99.609,-80.078,1.0,1.0
1626294727.1746354,25.879,-33.203,-37.109,1.0,1.0
1626294727.1785414,-19.531,0.0,-24.901999999999997,1.0,1.0
1626294727.182448,-105.95700000000001,-0.977,-25.879,1.0,1.0
1626294727.1863542,-65.918,-22.461,-18.555,1.0,1.0
1626294727.1902604,36.621,-31.738000000000003,-12.695,1.0,1.0
1626294727.1941667,37.109,5.859,-3.906,1.0,1.0
1626294727.198073,-61.523,-20.996,-22.949,1.0,1.0
1626294727.2019792,-65.43,-25.879,-22.461,-102.051,1.0
1626294727.2058854,-9.766,-90.33200000000001,-39.062,66.406,1.0
1626294727.2097917,1.953,-77.637,-51.27,42.48,1.0
1626294727.213698,-60.059,-9.766,-36.621,-128.906,1.0
1626294727.2176042,-91.309,-16.113,-27.831999999999997,-142.578,1.0
1626294727.2215104,-7.812,-20.508000000000003,-19.531,61.523,1.0
1626294727.225417,-9.766,-116.211,-64.941,78.125,1.0
1626294727.229323,-49.805,-66.895,-36.621,-87.402,1.0
1626294727.233229,-80.566,-2.93,-18.066,-163.086,1.0
1626294727.2371356,-30.761999999999997,-7.812,-28.809,-0.977,1.0
1626294727.2410414,39.551,-26.855,-15.625,133.30100000000002,1.0
1626294727.2449477,-42.968999999999994,-121.094,-46.875,-48.828,1.0
1626294727.248854,40.039,-19.043,-17.578,-41.992,1.0
1626294727.2527602,-23.438000000000002,11.719000000000001,-4.883,-197.266,1.0
1626294727.256667,-80.078,-7.324,-26.366999999999997,-31.25,1.0
1626294727.260573,-26.366999999999997,-36.133,-54.688,148.438,1.0
1626294727.2644792,22.949,-74.219,-49.316,11.719000000000001,1.0
1626294727.2683854,-14.16,-32.715,-27.831999999999997,-170.898,1.0
1626294727.2722914,-101.074,-20.508000000000003,-36.621,-88.37899999999999,1.0
1626294727.276198,-50.781000000000006,0.0,-10.742,114.258,1.0
1626294727.2801042,26.855,-24.414,-8.301,31.738000000000003,1.0
1626294727.2840102,-4.883,-35.156,-23.438000000000002,-152.344,1.0
1626294727.2879167,-76.172,-0.977,-19.043,-121.094,1.0
1626294727.291823,-70.801,-19.043,-19.043,53.223,1.0
1626294727.2957292,26.855,-37.598,-6.348,1.0,1.0
1626294727.2996354,3.418,-92.285,-58.593999999999994,1.0,1.0
1626294727.3035417,-75.684,-57.617,-66.895,1.0,1.0
1626294727.307448,-62.988,-1.465,-22.949,1.0,1.0
1626294727.3113542,20.508000000000003,5.859,-32.715,1.0,1.0
1626294727.3152604,53.711000000000006,1.953,-34.18,1.0,1.0
1626294727.3191667,-62.988,-111.816,-59.57,1.0,1.0
1626294727.323073,-104.492,-99.609,-40.527,1.0,1.0
1626294727.3269792,-16.113,-32.715,-9.277000000000001,1.0,1.0
1626294727.3308856,58.105,14.16,-15.625,1.0,1.0
1626294727.3347917,-0.977,16.602,-26.366999999999997,1.0,1.0
1626294727.338698,-104.00399999999999,-58.593999999999994,-48.34,1.0,1.0
1626294727.3426042,35.645,-10.742,-5.371,74.219,1.0
1626294727.3465104,-78.125,-56.152,-37.109,-155.762,1.0
1626294727.3504167,-81.055,-37.598,-23.926,-125.0,1.0
1626294727.354323,14.16,-22.461,-12.695,88.37899999999999,1.0
1626294727.358229,36.621,-36.621,-26.855,95.70299999999999,1.0
1626294727.3621356,-51.758,-41.016000000000005,-45.41,-113.77,1.0
1626294727.3660414,-134.27700000000002,-110.84,-78.125,-206.055,1.0
1626294727.3699481,-28.32,-55.663999999999994,-27.344,13.672,1.0
1626294727.373854,57.129,-1.953,0.977,138.672,1.0
1626294727.3777602,-7.812,-14.648,-29.296999999999997,-34.668,1.0
1626294727.381667,-95.70299999999999,-26.366999999999997,-48.34,-183.59400000000002,1.0
1626294727.385573,-81.055,-72.266,-52.733999999999995,-69.336,1.0
1626294727.389479,30.761999999999997,-8.301,-17.09,1.0,1.0
1626294727.3933854,20.996,28.809,-4.883,1.0,1.0
1626294727.3972914,-55.176,15.137,13.672,1.0,1.0
1626294727.401198,-55.176,-25.879,-5.371,1.0,1.0
1626294727.4051042,6.348,-80.566,-41.504,1.0,1.0
1626294727.4090104,36.133,-30.273000000000003,-13.672,1.0,1.0
1626294727.4129167,-61.035,-27.831999999999997,-24.414,1.0,1.0
1626294727.416823,-93.75,-32.227,-32.715,1.0,1.0
1626294727.4207292,-14.648,-39.062,-30.761999999999997,1.0,1.0
1626294727.4246354,14.648,-59.57,-50.781000000000006,1.0,1.0
1626294727.4285414,-40.039,-13.184000000000001,-33.691,1.0,1.0
1626294727.432448,-93.262,-6.836,-25.879,1.0,1.0
1626294727.4363542,-15.625,-18.066,-17.578,1.0,1.0
1626294727.4402604,40.039,-58.593999999999994,-44.922,1.0,1.0
1626294727.4441667,-20.996,-39.551,-52.246,1.0,1.0
1626294727.448073,-68.848,-10.742,-5.371,1.0,1.0
1626294727.4519792,-22.461,-34.668,13.672,1.0,1.0
1626294727.4558854,25.879,-36.133,-2.441,1.0,1.0
1626294727.4597917,-42.968999999999994,-74.219,-52.733999999999995,1.0,1.0
1626294727.463698,-116.699,-44.922,-66.895,1.0,1.0
1626294727.4676042,-90.33200000000001,1.465,-36.621,1.0,1.0
1626294727.4715104,15.137,24.414,-4.395,1.0,1.0
1626294727.475417,35.156,0.0,-21.973000000000003,1.0,1.0
1626294727.479323,-79.59,-86.426,-68.848,1.0,1.0
1626294727.483229,2.93,-31.25,-22.949,-125.488,1.0
1626294727.4871356,-75.195,-36.133,-23.926,-142.578,1.0
1626294727.4910414,-62.5,-47.363,-33.691,62.012,1.0
1626294727.4949477,19.531,-39.062,-23.438000000000002,91.309,1.0
1626294727.498854,5.371,-73.242,-34.18,-111.816,1.0
1626294727.5027602,-64.941,-19.043,-23.926,-148.438,1.0
1626294727.506667,-64.453,19.043,-11.719000000000001,26.855,1.0
1626294727.510573,33.691,31.738000000000003,-20.508000000000003,117.676,1.0
1626294727.5144792,47.363,-35.645,-43.457,-57.617,1.0
1626294727.5183854,-52.733999999999995,-100.098,-41.016000000000005,-176.27,1.0
1626294727.5222914,-85.93799999999999,-44.922,-34.18,-30.761999999999997,1.0
1626294727.526198,-12.695,-23.926,-51.27,99.12100000000001,1.0
1626294727.5301042,53.711000000000006,-16.602,-26.366999999999997,1.0,1.0
1626294727.5340102,-5.859,-69.336,-12.207,1.0,1.0
1626294727.5379167,-90.33200000000001,-74.219,-34.668,1.0,1.0
1626294727.541823,-46.387,-14.16,-37.598,1.0,1.0
1626294727.5457292,42.968999999999994,7.324,-11.23,1.0,1.0
1626294727.5496354,17.09,8.789,-20.996,1.0,1.0
1626294727.5535417,-103.516,-85.449,-72.266,1.0,1.0
1626294727.557448,-71.777,-61.035,-45.41,1.0,1.0
1626294727.5613542,31.738000000000003,-11.23,-31.25,1.0,1.0
1626294727.5652604,39.551,-7.324,-31.25,1.0,1.0
1626294727.5691667,-57.129,-28.809,-30.761999999999997,1.0,1.0
1626294727.573073,-126.95299999999999,-97.16799999999999,-69.336,1.0,1.0
1626294727.5769792,41.016000000000005,-31.738000000000003,-29.296999999999997,-62.012,1.0
1626294727.5808856,-29.785,22.949,-1.953,-202.148,1.0
1626294727.5847917,-83.008,9.766,-10.742,-38.574,1.0
1626294727.588698,-6.836,-6.348,-2.441,137.207,1.0
1626294727.5926042,23.438000000000002,-65.43,-16.113,14.16,1.0
1626294727.5965104,-28.809,-36.621,-30.273000000000003,-165.52700000000002,1.0
1626294727.6004167,-89.844,-11.719000000000001,-38.086,-108.398,1.0
1626294727.604323,-33.203,-11.719000000000001,-19.043,92.773,1.0
1626294727.608229,41.016000000000005,-50.781000000000006,-9.277000000000001,55.663999999999994,1.0
1626294727.6121356,-7.324,-66.895,-30.273000000000003,-143.555,1.0
1626294727.6160414,-81.055,-8.301,-20.996,-142.09,1.0
1626294727.6199481,-67.87100000000001,1.953,-31.25,29.785,1.0
1626294727.623854,26.366999999999997,18.555,-48.828,1.0,1.0
1626294727.6277602,17.09,-76.66,-63.477,1.0,1.0
1626294727.631667,-77.148,-116.211,-52.246,1.0,1.0
1626294727.635573,-75.195,-27.344,-13.672,1.0,1.0
1626294727.639479,33.203,23.926,12.695,1.0,1.0
1626294727.6433854,71.777,18.555,9.766,1.0,1.0
1626294727.6472914,-63.477,-103.516,-52.733999999999995,1.0,1.0
1626294727.651198,-130.371,-77.637,-61.523,1.0,1.0
1626294727.6551042,-53.223,-7.324,-39.551,1.0,1.0
1626294727.6590104,19.043,-26.366999999999997,-41.016000000000005,1.0,1.0
1626294727.6629167,-20.508000000000003,-53.711000000000006,-40.527,1.0,1.0
1626294727.666823,-123.04700000000001,-107.91,-61.523,1.0,1.0
1626294727.6707292,26.366999999999997,-15.625,-21.484,63.965,1.0
1626294727.6746354,-111.32799999999999,-105.469,-58.105,-189.453,1.0
1626294727.6785414,-130.371,-85.93799999999999,-65.918,-170.41,1.0
1626294727.682448,0.0,8.789,-23.438000000000002,81.543,1.0
1626294727.6863542,48.34,27.344,0.488,123.04700000000001,1.0
1626294727.6902604,-30.761999999999997,8.301,-8.301,-78.613,1.0
1626294727.6941667,-145.996,-110.84,-92.285,-211.91400000000002,1.0
1626294727.698073,-42.968999999999994,-66.895,-67.383,5.371,1.0
1626294727.7019792,72.266,5.859,-4.395,157.227,1.0
1626294727.7058854,3.418,9.277000000000001,-19.043,-21.973000000000003,1.0
1626294727.7097917,-85.449,-27.831999999999997,-47.852,-176.75799999999998,1.0
1626294727.713698,-67.87100000000001,-106.934,-68.359,-57.617,1.0
1626294727.7176042,42.968999999999994,-33.203,-25.879,1.0,1.0
1626294727.7215104,28.809,-1.953,-19.043,1.0,1.0
1626294727.725417,-70.801,-8.301,-30.761999999999997,1.0,1.0
1626294727.729323,-78.125,-18.555,-43.457,1.0,1.0
1626294727.733229,0.488,-46.387,-56.152,1.0,1.0
1626294727.7371356,32.715,0.488,-29.785,1.0,1.0
1626294727.7410414,-64.941,-6.348,-35.645,1.0,1.0
1626294727.7449477,-77.637,-0.977,-20.02,1.0,1.0
1626294727.748854,15.137,-29.785,-18.555,1.0,1.0
1626294727.7527602,28.809,-83.49600000000001,-50.781000000000006,1.0,1.0
1626294727.756667,-50.293,-34.18,-46.387,1.0,1.0
1626294727.760573,-106.445,-10.742,-48.828,1.0,1.0
1626294727.7644792,-19.531,-1.465,-27.831999999999997,1.0,1.0
1626294727.7683854,19.043,-93.75,-39.551,1.0,1.0
1626294727.7722914,-43.457,-107.42200000000001,-41.992,1.0,1.0
1626294727.776198,-93.75,-23.926,-19.531,1.0,1.0
1626294727.7801042,-48.34,7.812,-11.719000000000001,1.0,1.0
1626294727.7840102,35.645,14.648,-17.578,1.0,1.0
1626294727.7879167,-24.414,-80.078,-58.593999999999994,1.0,1.0
1626294727.791823,-97.16799999999999,-41.016000000000005,-50.781000000000006,1.0,1.0
1626294727.7957292,-75.684,12.207,-41.504,1.0,1.0
1626294727.7996354,17.578,3.906,-33.691,1.0,1.0
1626294727.8035417,32.227,-12.207,-20.508000000000003,1.0,1.0
1626294727.807448,-80.078,-88.37899999999999,-38.574,1.0,1.0
1626294727.8113542,-89.844,-49.316,-25.879,-158.691,1.0
1626294727.8152604,17.09,9.277000000000001,0.977,72.266,1.0
1626294727.8191667,78.613,13.184000000000001,4.883,151.855,1.0
1626294727.823073,-16.113,-46.875,-22.461,-59.57,1.0
1626294727.8269792,-107.91,-82.52,-60.059,-194.33599999999998,1.0
1626294727.8308856,-26.855,0.488,-41.016000000000005,0.977,1.0
1626294727.8347917,53.711000000000006,25.879,-4.883,147.94899999999998,1.0
1626294727.838698,7.812,19.531,-7.812,-2.93,1.0
1626294727.8426042,-74.219,-13.672,-35.645,-176.27,1.0
1626294727.8465104,-55.663999999999994,-41.504,-40.039,-73.242,1.0
1626294727.8504167,33.203,6.836,-28.809,122.07,1.0
1626294727.854323,33.203,13.184000000000001,-25.879,58.593999999999994,1.0
1626294727.858229,11.719000000000001,-27.831999999999997,-25.391,-144.531,1.0
1626294727.8621356,-73.242,-5.371,-17.578,-125.0,1.0
1626294727.8660414,-50.293,-2.441,-10.254000000000001,97.16799999999999,1.0
1626294727.8699481,21.973000000000003,-21.973000000000003,-22.461,117.18799999999999,1.0
1626294727.873854,6.348,-92.285,-41.504,-115.234,1.0
1626294727.8777602,-55.663999999999994,-75.684,-32.715,-173.34,1.0
1626294727.881667,-61.035,-39.062,-37.109,34.18,1.0
1626294727.885573,14.16,-1.953,-35.156,128.418,1.0
1626294727.889479,34.18,-16.113,-19.531,-48.828,1.0
1626294727.8933854,-46.387,-29.785,-29.785,-173.828,1.0
1626294727.8972914,-75.684,7.324,-23.926,-15.137,1.0
1626294727.901198,-16.113,4.395,-24.901999999999997,140.137,1.0
1626294727.9051042,29.785,-8.301,-39.551,1.0,1.0
1626294727.9090104,-13.672,-79.102,-35.156,1.0,1.0
1626294727.9129167,-86.426,-83.984,-28.809,1.0,1.0
1626294727.916823,-40.527,-17.578,-23.438000000000002,1.0,1.0
1626294727.9207292,33.691,-14.648,-42.48,1.0,1.0
1626294727.9246354,6.836,-44.922,-49.805,1.0,1.0
1626294727.9285414,-93.75,-141.602,-41.992,1.0,1.0
1626294727.932448,-83.49600000000001,-73.73,-19.531,1.0,1.0
1626294727.9363542,9.277000000000001,-5.371,-11.719000000000001,1.0,1.0
1626294727.9402604,-1.953,-9.277000000000001,-43.945,1.0,1.0
1626294727.9441667,-94.238,-17.578,-57.617,1.0,1.0
1626294727.948073,-130.371,-81.543,-66.895,1.0,1.0
1626294727.9519792,-35.645,-5.859,-30.273000000000003,-66.895,1.0
1626294727.9558854,-130.859,-82.52,-54.688,-211.91400000000002,1.0
1626294727.9597917,-71.777,-73.73,-38.086,-47.852,1.0
1626294727.963698,46.387,8.789,-7.324,132.32399999999998,1.0
1626294727.9676042,17.578,-8.789,-16.113,5.859,1.0
1626294727.9715104,-63.965,-20.508000000000003,-16.602,-162.109,1.0
1626294727.975417,-66.406,-103.027,-53.223,-89.844,1.0
1626294727.979323,22.461,-54.688,-37.598,107.42200000000001,1.0
1626294727.983229,28.809,5.859,-5.859,74.707,1.0
1626294727.9871356,-65.43,-4.883,-26.855,-136.719,1.0
1626294727.9910414,-90.82,-29.785,-45.41,-141.113,1.0
1626294727.9949477,-28.32,-115.234,-61.035,44.922,1.0
1626294727.998854,35.156,-53.223,-33.691,1.0,1.0
1626294728.0027602,-32.715,-2.441,-23.926,1.0,1.0
1626294728.006667,-77.637,-17.09,-17.578,1.0,1.0
1626294728.010573,-14.16,-46.387,-9.766,1.0,1.0
1626294728.0144792,11.23,-56.152,-21.973000000000003,1.0,1.0
1626294728.0183854,-29.785,0.977,-27.831999999999997,1.0,1.0
1626294728.0222914,-93.75,-4.883,-44.922,1.0,1.0
1626294728.026198,-48.34,2.441,-27.344,1.0,1.0
1626294728.0301042,34.668,-29.296999999999997,-24.901999999999997,1.0,1.0
1626294728.0340102,-11.23,-92.773,-60.547,1.0,1.0
1626294728.0379167,-91.309,-54.688,-47.852,1.0,1.0
1626294728.041823,-62.5,-23.438000000000002,-17.578,1.0,1.0
1626294728.0457292,35.156,-1.465,-6.836,1.0,1.0
1626294728.0496354,5.859,-73.73,-35.156,1.0,1.0
1626294728.0535417,-82.031,-88.867,-41.016000000000005,1.0,1.0
1626294728.057448,-70.801,-17.09,-27.344,1.0,1.0
1626294728.0613542,4.395,10.742,-33.203,1.0,1.0
1626294728.0652604,31.738000000000003,7.812,-34.668,1.0,1.0
1626294728.0691667,-85.93799999999999,-120.605,-72.75399999999999,1.0,1.0
1626294728.073073,-126.465,-68.848,-60.547,1.0,1.0
1626294728.0769792,-29.785,11.23,-20.996,1.0,1.0
1626294728.0808856,43.457,1.953,-14.16,1.0,1.0
1626294728.0847917,-18.066,-38.574,-22.461,1.0,1.0
1626294728.088698,-132.812,-145.02,-50.293,1.0,1.0
1626294728.0926042,33.203,5.859,-7.324,64.941,1.0
1626294728.0965104,-73.73,-69.824,-33.203,-156.738,1.0
1626294728.1004167,-80.566,-52.733999999999995,-39.551,-136.23,1.0
1626294728.104323,10.254000000000001,10.742,-41.504,77.148,1.0
1626294728.108229,39.551,11.23,-32.715,104.00399999999999,1.0
1626294728.1121356,-23.438000000000002,-5.371,-30.273000000000003,-84.961,1.0
1626294728.1160414,-106.445,-131.836,-58.105,-187.988,1.0
1626294728.1199481,-24.414,-79.102,-25.879,16.113,1.0
1626294728.123854,59.57,-2.93,-5.371,146.484,1.0
1626294728.1277602,-7.324,-15.625,-30.273000000000003,-25.879,1.0
1626294728.131667,-87.402,-31.738000000000003,-40.527,-171.875,1.0
1626294728.135573,-66.895,-104.98,-49.805,-57.617,1.0
1626294728.139479,51.27,-26.855,-29.785,1.0,1.0
1626294728.1433854,39.062,19.043,-44.434,1.0,1.0
1626294728.1472914,-64.453,4.395,-47.852,1.0,1.0
1626294728.151198,-58.105,-9.766,-28.809,1.0,1.0
1626294728.1551042,6.348,-55.663999999999994,-56.641000000000005,1.0,1.0
1626294728.1590104,23.438000000000002,-25.391,-42.48,1.0,1.0
1626294728.1629167,-48.828,-3.418,-10.254000000000001,1.0,1.0
1626294728.166823,-71.289,4.883,-17.09,1.0,1.0
1626294728.1707292,-12.207,-51.758,-49.805,1.0,1.0
1626294728.1746354,10.254000000000001,-94.238,-57.617,1.0,1.0
1626294728.1785414,-36.133,-16.602,-42.48,1.0,1.0
1626294728.182448,-73.73,13.184000000000001,-36.133,1.0,1.0
1626294728.1863542,-8.301,14.16,-9.277000000000001,1.0,1.0
1626294728.1902604,19.531,-41.016000000000005,-49.805,1.0,1.0
1626294728.1941667,-21.484,-40.039,-66.895,1.0,1.0
1626294728.198073,-62.012,-1.953,-18.066,1.0,1.0
1626294728.2019792,-36.133,-22.949,-5.371,1.0,1.0
1626294728.2058854,38.574,-13.184000000000001,-28.809,1.0,1.0
1626294728.2097917,-7.812,-90.82,-63.477,1.0,1.0
1626294728.213698,-76.66,-68.359,-26.855,1.0,1.0
1626294728.2176042,-59.082,-9.277000000000001,0.977,1.0,1.0
1626294728.2215104,23.926,8.301,-20.996,1.0,1.0
1626294728.225417,23.926,-13.184000000000001,-47.852,1.0,1.0
1626294728.229323,-103.516,-116.699,-80.566,1.0,1.0
1626294728.233229,-2.441,-35.156,-22.461,-139.648,1.0
1626294728.2371356,-86.426,7.812,-22.461,-150.391,1.0
1626294728.2410414,-68.359,6.348,-27.344,46.875,1.0
1626294728.2449477,42.968999999999994,9.766,-12.695,102.539,1.0
1626294728.248854,43.945,-17.09,-29.296999999999997,-106.445,1.0
1626294728.2527602,-58.105,-20.02,-33.203,-168.945,1.0
1626294728.256667,-94.727,-30.273000000000003,-35.645,-3.418,1.0
1626294728.260573,8.301,0.488,-25.879,108.887,1.0
1626294728.2644792,34.18,-15.625,-41.504,-41.992,1.0
1626294728.2683854,-71.777,-69.824,-62.5,-168.945,1.0
1626294728.2722914,-98.633,-24.901999999999997,-24.901999999999997,-7.324,1.0
1626294728.276198,-3.906,3.906,-0.488,114.258,1.0
1626294728.2801042,76.172,18.555,-12.207,1.0,1.0
1626294728.2840102,-27.831999999999997,-68.848,-70.801,1.0,1.0
1626294728.2879167,-118.652,-85.93799999999999,-66.406,1.0,1.0
1626294728.291823,-23.438000000000002,-0.977,-17.09,1.0,1.0
1626294728.2957292,70.312,-3.418,-10.742,1.0,1.0
1626294728.2996354,20.02,-14.16,-24.414,1.0,1.0
1626294728.3035417,-111.32799999999999,-85.449,-68.359,1.0,1.0
1626294728.307448,-99.609,-43.945,-71.289,1.0,1.0
1626294728.3113542,6.348,7.812,-57.617,1.0,1.0
1626294728.3152604,19.043,1.953,-40.527,1.0,1.0
1626294728.3191667,-78.613,-21.973000000000003,-39.551,1.0,1.0
1626294728.323073,-117.18799999999999,-84.961,-55.663999999999994,1.0,1.0
1626294728.3269792,-24.414,-4.395,-30.273000000000003,-52.733999999999995,1.0
1626294728.3308856,-105.469,-69.336,-25.879,-187.5,1.0
1626294728.3347917,-41.992,-80.078,-24.901999999999997,-23.926,1.0
1626294728.338698,43.457,-20.996,-17.578,133.789,1.0
1626294728.3426042,-2.441,-19.531,-17.578,-5.371,1.0
1626294728.3465104,-101.074,-33.691,-33.691,-196.77700000000002,1.0
1626294728.3504167,-90.82,-85.449,-46.875,-120.605,1.0
1626294728.354323,26.855,-21.484,-19.043,96.191,1.0
1626294728.358229,35.156,5.859,-18.555,62.5,1.0
1626294728.3621356,-67.87100000000001,-5.371,-34.668,-152.344,1.0
1626294728.3660414,-89.844,-10.254000000000001,-45.898,-150.879,1.0
1626294728.3699481,-13.184000000000001,-86.426,-41.016000000000005,42.968999999999994,1.0
1626294728.373854,53.223,-39.062,-7.812,108.887,1.0
1626294728.3777602,-14.648,-21.484,-31.25,-79.59,1.0
1626294728.381667,-104.00399999999999,-33.203,-39.062,-187.5,1.0
1626294728.385573,-47.363,-47.363,-12.695,-8.301,1.0
1626294728.389479,9.766,-95.70299999999999,-31.738000000000003,95.215,1.0
1626294728.3933854,-37.598,-22.461,-40.039,-56.152,1.0
1626294728.3972914,-94.727,-4.883,-20.996,-180.176,1.0
1626294728.401198,-55.176,-10.742,-20.996,-44.434,1.0
1626294728.4051042,11.719000000000001,-47.363,-30.761999999999997,105.95700000000001,1.0
1626294728.4090104,-16.602,-103.027,-33.203,-7.812,1.0
1626294728.4129167,-81.055,-39.551,-30.273000000000003,-173.34,1.0
1626294728.416823,-80.566,-6.836,-45.41,-105.469,1.0
1626294728.4207292,8.301,25.391,-16.113,1.0,1.0
1626294728.4246354,23.438000000000002,-25.391,-4.883,1.0,1.0
1626294728.4285414,-84.473,-85.93799999999999,-50.781000000000006,1.0,1.0
1626294728.432448,-104.00399999999999,-43.457,-52.246,1.0,1.0
1626294728.4363542,7.324,2.441,-11.719000000000001,1.0,1.0
1626294728.4402604,56.641000000000005,9.766,2.93,1.0,1.0
1626294728.4441667,-38.574,-82.031,-24.414,1.0,1.0
1626294728.448073,-101.074,-53.711000000000006,-31.25,1.0,1.0
1626294728.4519792,-29.785,-12.695,-32.227,1.0,1.0
1626294728.4558854,50.781000000000006,-5.859,-24.414,1.0,1.0
1626294728.4597917,12.695,-19.531,-15.137,1.0,1.0
1626294728.463698,-94.238,-106.445,-33.203,1.0,1.0
1626294728.4676042,-46.387,-57.129,-30.761999999999997,-108.887,1.0
1626294728.4715104,-86.426,-11.719000000000001,-39.062,-159.18,1.0
1626294728.475417,-20.02,3.418,-26.855,32.227,1.0
1626294728.479323,41.992,-12.207,-6.836,124.512,1.0
1626294728.483229,-38.086,-80.566,-38.574,-75.195,1.0
1626294728.4871356,-94.238,-27.344,-53.223,-184.57,1.0
1626294728.4910414,-23.926,-6.836,-14.648,-15.625,1.0
1626294728.4949477,53.711000000000006,4.883,-5.371,138.672,1.0
1626294728.498854,7.324,-12.695,-17.09,10.742,1.0
1626294728.5027602,-87.891,-56.641000000000005,-29.785,-187.012,1.0
1626294728.506667,-69.824,-20.996,-41.504,-104.98,1.0
1626294728.510573,16.602,-4.395,-33.691,92.773,1.0
1626294728.5144792,21.973000000000003,-14.16,-30.273000000000003,1.0,1.0
1626294728.5183854,-68.359,-73.73,-37.598,1.0,1.0
1626294728.5222914,-81.543,-50.781000000000006,-40.039,1.0,1.0
1626294728.526198,11.23,-4.395,-19.531,1.0,1.0
1626294728.5301042,36.621,-14.16,-18.066,1.0,1.0
1626294728.5340102,-40.039,0.0,-28.809,1.0,1.0
1626294728.5379167,-103.027,-91.309,-27.344,1.0,1.0
1626294728.541823,-29.296999999999997,-59.082,-25.879,1.0,1.0
1626294728.5457292,42.968999999999994,18.555,-34.668,1.0,1.0
1626294728.5496354,-28.32,5.859,-42.48,1.0,1.0
1626294728.5535417,-106.934,-54.199,-35.156,1.0,1.0
1626294728.557448,-66.895,-119.62899999999999,-38.574,1.0,1.0
1626294728.5613542,41.016000000000005,-29.785,-14.648,1.0,1.0
1626294728.5652604,13.672,-32.715,-21.484,1.0,1.0
1626294728.5691667,-90.82,-19.043,-34.668,1.0,1.0
1626294728.573073,-79.59,5.859,-16.602,1.0,1.0
1626294728.5769792,10.742,-36.621,-26.855,1.0,1.0
1626294728.5808856,36.133,-0.488,-29.296999999999997,1.0,1.0
1626294728.5847917,-59.57,-5.371,-43.457,1.0,1.0
1626294728.588698,-78.125,4.883,-25.879,1.0,1.0
1626294728.5926042,1.953,-23.438000000000002,-9.277000000000001,1.0,1.0
1626294728.5965104,3.906,-95.215,-39.062,1.0,1.0
1626294728.6004167,-62.5,-49.805,-41.016000000000005,1.0,1.0
1626294728.604323,-107.91,-19.043,-33.203,1.0,1.0
1626294728.608229,-37.109,-22.949,-30.273000000000003,1.0,1.0
1626294728.6121356,28.809,-81.055,-41.016000000000005,1.0,1.0
1626294728.6160414,-12.695,-69.336,-41.992,1.0,1.0
1626294728.6199481,-72.266,5.371,-44.434,1.0,1.0
1626294728.623854,-48.34,19.531,-39.062,1.0,1.0
1626294728.6277602,40.527,6.836,-11.719000000000001,1.0,1.0
1626294728.631667,-6.348,-107.42200000000001,-57.129,1.0,1.0
1626294728.635573,-95.215,-96.191,-53.711000000000006,1.0,1.0
1626294728.639479,-83.984,-42.48,-6.836,1.0,1.0
1626294728.6433854,6.348,-9.277000000000001,0.977,1.0,1.0
1626294728.6472914,20.996,-3.418,-22.461,1.0,1.0
1626294728.651198,-93.75,-118.652,-67.383,1.0,1.0
1626294728.6551042,0.977,-22.461,-49.805,-147.461,1.0
1626294728.6590104,-66.406,27.831999999999997,-41.016000000000005,-141.113,1.0
1626294728.6629167,-65.918,-10.742,-36.621,69.824,1.0
1626294728.666823,11.23,-44.434,-35.156,99.609,1.0
1626294728.6707292,-3.418,-94.238,-49.316,-114.74600000000001,1.0
1626294728.6746354,-71.289,-40.039,-43.457,-174.805,1.0
1626294728.6785414,-85.93799999999999,-6.348,-35.156,0.0,1.0
1626294728.682448,27.344,34.18,-6.348,114.258,1.0
1626294728.6863542,56.641000000000005,-7.812,-20.996,-55.663999999999994,1.0
1626294728.6902604,-64.453,-75.684,-60.547,-187.5,1.0
1626294728.6941667,-102.539,-15.625,-50.293,-41.016000000000005,1.0
1626294728.698073,-18.066,9.277000000000001,-27.344,78.125,1.0
1626294728.7019792,65.43,9.277000000000001,-8.301,1.0,1.0
1626294728.7058854,-26.855,-90.33200000000001,-44.922,1.0,1.0
1626294728.7097917,-126.95299999999999,-105.469,-64.453,1.0,1.0
1626294728.713698,-40.039,-15.137,-18.066,1.0,1.0
1626294728.7176042,63.477,11.23,12.207,1.0,1.0
1626294728.7215104,28.32,23.926,3.418,1.0,1.0
1626294728.725417,-108.887,-103.027,-36.621,1.0,1.0
1626294728.729323,-93.262,-84.961,-24.414,1.0,1.0
1626294728.733229,17.09,-8.789,-9.766,1.0,1.0
1626294728.7371356,21.484,-8.301,-28.32,1.0,1.0
1626294728.7410414,-59.57,-19.531,-53.711000000000006,1.0,1.0
1626294728.7449477,-110.84,-95.215,-57.617,1.0,1.0
1626294728.748854,-14.16,-3.418,-37.109,-45.41,1.0
1626294728.7527602,-105.95700000000001,-97.16799999999999,-44.434,-193.84799999999998,1.0
1626294728.756667,-70.312,-96.68,-45.898,-56.641000000000005,1.0
1626294728.760573,34.668,-11.719000000000001,-29.296999999999997,122.07,1.0
1626294728.7644792,21.484,-9.766,-34.18,20.508000000000003,1.0
1626294728.7683854,-82.031,-29.785,-55.663999999999994,-177.734,1.0
1626294728.7722914,-99.12100000000001,-130.859,-44.922,-127.93,1.0
1626294728.776198,22.949,-62.5,0.977,102.051,1.0
1626294728.7801042,37.598,12.207,-8.301,78.613,1.0
1626294728.7840102,-83.984,-6.836,-33.203,-149.90200000000002,1.0
1626294728.7879167,-111.816,-40.039,-35.156,-160.645,1.0
1626294728.791823,-38.574,-123.04700000000001,-61.035,28.809,1.0
1626294728.7957292,22.949,-34.18,-43.457,1.0,1.0
1626294728.7996354,-31.738000000000003,17.09,-30.273000000000003,1.0,1.0
1626294728.8035417,-93.262,-18.066,-32.715,1.0,1.0
1626294728.807448,-36.133,-25.391,-32.227,1.0,1.0
1626294728.8113542,23.438000000000002,-69.336,-46.875,1.0,1.0
1626294728.8152604,-25.391,-39.062,-34.668,1.0,1.0
1626294728.8191667,-101.56200000000001,-7.324,-26.855,1.0,1.0
1626294728.823073,-63.477,-11.23,-30.273000000000003,1.0,1.0
1626294728.8269792,21.484,-34.18,-25.391,1.0,1.0
1626294728.8308856,8.301,-57.129,-28.809,1.0,1.0
1626294728.8347917,-77.148,-15.625,-46.387,1.0,1.0
1626294728.838698,-77.637,-0.977,-35.156,1.0,1.0
1626294728.8426042,21.973000000000003,0.0,-13.672,1.0,1.0
1626294728.8465104,7.324,-63.965,-42.968999999999994,1.0,1.0
1626294728.8504167,-98.145,-82.031,-45.41,1.0,1.0
1626294728.854323,-104.492,-18.555,-24.901999999999997,1.0,1.0
1626294728.858229,-2.93,5.859,-10.742,1.0,1.0
1626294728.8621356,52.246,-3.418,-8.301,1.0,1.0
1626294728.8660414,-50.293,-100.098,-59.082,1.0,1.0
1626294728.8699481,-101.56200000000001,-78.613,-58.593999999999994,1.0,1.0
1626294728.873854,-22.461,-12.207,-28.809,1.0,1.0
1626294728.8777602,41.504,6.836,-20.508000000000003,1.0,1.0
1626294728.881667,-11.23,2.441,-28.809,1.0,1.0
1626294728.885573,-120.605,-80.078,-55.176,1.0,1.0
1626294728.889479,-50.781000000000006,-87.891,-48.34,-166.99200000000002,1.0
1626294728.8933854,-67.87100000000001,-27.831999999999997,-16.113,-6.836,1.0
1626294728.8972914,4.395,-12.207,-6.836,130.371,1.0
1626294728.901198,46.387,-27.831999999999997,-19.531,7.812,1.0
1626294728.9051042,-38.086,-112.305,-38.086,-152.344,1.0
1626294728.9090104,-104.492,-57.617,-35.645,-49.316,1.0
1626294728.9129167,-47.363,-8.789,-27.344,101.074,1.0
1626294728.916823,23.438000000000002,-4.395,-20.996,50.293,1.0
1626294728.9207292,-31.25,-37.109,-41.016000000000005,-122.07,1.0
1626294728.9246354,-125.488,-77.148,-56.152,-97.656,1.0
1626294728.9285414,-74.219,-18.555,-34.18,108.398,1.0
1626294728.932448,18.555,-11.23,-24.414,98.633,1.0
1626294728.9363542,16.602,-26.366999999999997,-30.273000000000003,1.0,1.0
1626294728.9402604,-72.75399999999999,-66.895,-55.176,1.0,1.0
1626294728.9441667,-96.191,-71.777,-53.223,1.0,1.0
1626294728.948073,-0.488,-23.926,-19.531,1.0,1.0
1626294728.9519792,52.246,-3.418,-2.441,1.0,1.0
1626294728.9558854,-27.831999999999997,-5.371,-17.09,1.0,1.0
1626294728.9597917,-115.234,-82.52,-54.688,1.0,1.0
1626294728.963698,-27.344,-46.387,-20.996,1.0,1.0
1626294728.9676042,53.711000000000006,3.906,3.906,1.0,1.0
1626294728.9715104,0.977,-5.859,-4.395,1.0,1.0
1626294728.975417,-85.93799999999999,-29.785,-38.086,1.0,1.0
1626294728.979323,-66.895,-93.262,-74.219,1.0,1.0
1626294728.983229,44.922,-36.133,-26.855,1.0,1.0
1626294728.9871356,22.949,-20.996,-8.789,1.0,1.0
1626294728.9910414,-81.543,-28.32,-18.555,1.0,1.0
1626294728.9949477,-73.73,-20.508000000000003,-34.668,1.0,1.0
1626294728.998854,12.207,-73.242,-43.457,1.0,1.0
1626294729.0027602,56.152,-28.32,-12.207,1.0,1.0
1626294729.006667,-16.113,-14.648,-3.418,1.0,1.0
1626294729.010573,-68.359,-17.578,-18.555,1.0,1.0
1626294729.0144792,2.441,-32.715,-52.246,1.0,1.0
1626294729.0183854,36.133,-71.777,-62.012,1.0,1.0
1626294729.0222914,-43.457,-31.25,-41.992,1.0,1.0
1626294729.026198,-96.68,-5.371,-33.203,1.0,1.0
1626294729.0301042,-5.859,25.879,-8.789,1.0,1.0
1626294729.0340102,48.828,-42.48,-18.066,1.0,1.0
1626294729.0379167,-22.949,-69.336,-49.805,1.0,1.0
1626294729.041823,-89.355,-11.23,-35.645,1.0,1.0
1626294729.0457292,-57.617,-12.207,-22.949,1.0,1.0
1626294729.0496354,27.344,-8.301,-36.133,1.0,1.0
1626294729.0535417,20.02,2.441,-44.922,1.0,1.0
1626294729.057448,-63.477,-16.602,-32.715,1.0,1.0
1626294729.0613542,-66.895,-43.457,-17.578,1.0,1.0
1626294729.0652604,14.648,-13.672,-13.672,1.0,1.0
1626294729.0691667,15.137,-30.273000000000003,-36.133,1.0,1.0
1626294729.073073,-85.449,-122.559,-73.73,1.0,1.0
1626294729.0769792,-0.977,-38.086,-44.922,-169.922,1.0
1626294729.0808856,-84.473,-9.766,-30.273000000000003,-158.203,1.0
1626294729.0847917,-65.918,-7.324,-25.879,60.059,1.0
1626294729.088698,17.578,-8.789,-24.901999999999997,93.262,1.0
1626294729.0926042,6.836,-51.27,-38.574,-120.117,1.0
1626294729.0965104,-82.031,-43.457,-29.296999999999997,-175.78099999999998,1.0
1626294729.1004167,-84.961,-31.25,-20.508000000000003,25.879,1.0
1626294729.104323,5.859,-21.973000000000003,-23.438000000000002,124.023,1.0
1626294729.108229,38.086,-35.645,-12.695,-45.41,1.0
1626294729.1121356,-43.945,-52.246,-24.414,-163.086,1.0
1626294729.1160414,-86.914,-21.484,-32.227,-11.719000000000001,1.0
1626294729.1199481,-20.508000000000003,-9.766,-28.809,132.812,1.0
1626294729.123854,39.551,5.371,-29.296999999999997,1.0,1.0
1626294729.1277602,-30.761999999999997,-41.504,-45.898,1.0,1.0
1626294729.131667,-111.816,-50.293,-48.34,1.0,1.0
1626294729.135573,-54.199,10.742,-18.555,1.0,1.0
1626294729.139479,28.809,-1.465,-15.137,1.0,1.0
1626294729.1433854,0.977,-41.504,-44.434,1.0,1.0
1626294729.1472914,-105.95700000000001,-124.023,-76.66,1.0,1.0
1626294729.151198,-96.68,-91.79700000000001,-68.359,1.0,1.0
1626294729.1551042,16.113,-29.785,-31.25,1.0,1.0
1626294729.1590104,39.062,-17.09,-14.16,1.0,1.0
1626294729.1629167,-51.27,-32.715,-18.555,1.0,1.0
1626294729.166823,-112.305,-89.844,-43.457,1.0,1.0
1626294729.1707292,-28.32,-15.137,-42.968999999999994,-59.082,1.0
1626294729.1746354,-116.699,-48.828,-51.27,-209.47299999999998,1.0
1626294729.1785414,-59.082,-51.27,-35.156,-49.316,1.0
1626294729.182448,33.691,-18.555,-23.926,120.117,1.0
1626294729.1863542,-20.996,-22.461,-58.105,-17.578,1.0
1626294729.1902604,-116.699,-24.901999999999997,-62.5,-204.59,1.0
1626294729.1941667,-118.164,-99.12100000000001,-62.012,-139.648,1.0
1626294729.198073,-25.391,-65.43,-48.34,61.523,1.0
1626294729.2019792,7.812,-2.441,-28.32,48.34,1.0
1626294729.2058854,-71.777,-21.484,-19.043,-145.02,1.0
1626294729.2097917,-109.863,-34.668,-34.18,-162.109,1.0
1626294729.213698,-45.898,-99.12100000000001,-65.43,13.672,1.0
1626294729.2176042,-1.465,-83.008,-65.43,1.0,1.0
1626294729.2215104,-73.73,-43.945,-62.5,1.0,1.0
1626294729.225417,-114.258,-17.09,-41.504,1.0,1.0
1626294729.229323,-42.48,-22.949,-41.504,1.0,1.0
1626294729.233229,0.0,-80.566,-62.5,1.0,1.0
1626294729.2371356,-40.039,-24.414,-44.922,1.0,1.0
1626294729.2410414,-104.00399999999999,-3.906,-42.968999999999994,1.0,1.0
1626294729.2449477,-61.035,-14.648,-43.457,1.0,1.0
1626294729.248854,28.809,-29.785,-13.184000000000001,1.0,1.0
1626294729.2527602,-9.277000000000001,-80.078,-17.09,1.0,1.0
1626294729.256667,-91.79700000000001,-32.227,-20.508000000000003,1.0,1.0
1626294729.260573,-75.195,5.371,-16.602,1.0,1.0
1626294729.2644792,33.691,23.438000000000002,-8.789,1.0,1.0
1626294729.2683854,22.949,-64.941,-23.926,1.0,1.0
1626294729.2722914,-93.262,-107.42200000000001,-51.758,1.0,1.0
1626294729.276198,-109.863,-24.901999999999997,-42.48,1.0,1.0
1626294729.2801042,2.441,14.648,-27.831999999999997,1.0,1.0
1626294729.2840102,51.27,8.789,-37.109,1.0,1.0
1626294729.2879167,-53.223,-87.402,-60.059,1.0,1.0
1626294729.291823,-98.145,-58.593999999999994,-42.48,1.0,1.0
1626294729.2957292,-23.926,-9.766,-24.414,1.0,1.0
1626294729.2996354,51.758,-7.812,-7.812,1.0,1.0
1626294729.3035417,-13.672,-23.438000000000002,-37.598,1.0,1.0
1626294729.307448,-125.488,-139.16,-75.195,1.0,1.0
1626294729.3113542,-56.152,-52.733999999999995,-46.875,-130.859,1.0
1626294729.3152604,-99.12100000000001,-26.366999999999997,-43.457,-180.176,1.0
1626294729.3191667,-27.831999999999997,-9.766,-32.227,14.648,1.0
1626294729.323073,54.199,7.812,-26.366999999999997,133.30100000000002,1.0
1626294729.3269792,-10.742,-63.965,-53.223,-43.945,1.0
1626294729.3308856,-98.633,-45.898,-47.363,-185.05900000000003,1.0
1626294729.3347917,-41.016000000000005,-11.719000000000001,-17.578,-28.32,1.0
1626294729.338698,63.477,-1.465,6.348,151.36700000000002,1.0
1626294729.3426042,19.531,-23.926,-1.953,29.296999999999997,1.0
1626294729.3465104,-93.75,-59.57,-41.016000000000005,-182.12900000000002,1.0
1626294729.3504167,-74.707,-12.207,-34.18,-102.539,1.0
1626294729.354323,22.949,20.02,-18.066,107.91,1.0
1626294729.358229,31.25,5.371,-31.738000000000003,1.0,1.0
1626294729.3621356,-70.801,-83.49600000000001,-56.152,1.0,1.0
1626294729.3660414,-94.238,-80.078,-56.152,1.0,1.0
1626294729.3699481,7.324,0.977,-24.901999999999997,1.0,1.0
1626294729.373854,41.504,-0.488,-14.16,1.0,1.0
1626294729.3777602,-38.086,1.953,-8.789,1.0,1.0
1626294729.381667,-90.82,-55.176,-16.602,1.0,1.0
1626294729.385573,-22.461,-50.781000000000006,-30.761999999999997,1.0,1.0
1626294729.389479,41.016000000000005,-3.418,-39.062,1.0,1.0
1626294729.3933854,-28.32,-2.93,-44.922,1.0,1.0
1626294729.3972914,-114.74600000000001,-32.227,-39.551,1.0,1.0
1626294729.401198,-84.473,-93.75,-47.363,1.0,1.0
1626294729.4051042,-83.008,-1.465,-49.805,-164.551,1.0
1626294729.4090104,-95.70299999999999,-15.137,-60.547,-155.273,1.0
1626294729.4129167,4.395,-5.859,-24.414,66.895,1.0
1626294729.416823,54.199,16.602,-27.344,118.652,1.0
1626294729.4207292,-34.18,21.973000000000003,-62.012,-100.586,1.0
1626294729.4246354,-82.52,14.16,-54.199,-171.875,1.0
1626294729.4285414,-13.672,-52.733999999999995,-43.945,15.625,1.0
1626294729.432448,45.898,-24.901999999999997,-41.016000000000005,111.816,1.0
1626294729.4363542,-6.836,9.766,-44.434,-48.34,1.0
1626294729.4402604,-72.75399999999999,6.836,-44.434,-178.22299999999998,1.0
1626294729.4441667,-42.968999999999994,-24.901999999999997,-51.758,-56.641000000000005,1.0
1626294729.448073,31.738000000000003,-78.613,-61.523,100.098,1.0
1626294729.4519792,22.949,-21.973000000000003,-61.523,1.0,1.0
1626294729.4558854,-65.918,0.977,-77.637,1.0,1.0
1626294729.4597917,-56.641000000000005,-4.395,-57.617,1.0,1.0
1626294729.463698,37.109,5.859,-27.344,1.0,1.0
1626294729.4676042,26.366999999999997,-29.296999999999997,-49.316,1.0,1.0
1626294729.4715104,-58.593999999999994,-17.09,-58.105,1.0,1.0
1626294729.475417,-81.055,-12.207,-48.34,1.0,1.0
1626294729.479323,-6.348,-14.16,-46.387,1.0,1.0
1626294729.483229,28.809,-15.625,-46.387,1.0,1.0
1626294729.4871356,-53.711000000000006,-48.34,-50.293,1.0,1.0
1626294729.4910414,-101.56200000000001,-34.668,-44.434,1.0,1.0
1626294729.4949477,-26.855,-22.461,-47.852,1.0,1.0
1626294729.498854,44.922,3.906,-47.852,1.0,1.0
1626294729.5027602,-28.809,-25.391,-78.125,1.0,1.0
1626294729.506667,-107.91,-60.547,-85.449,1.0,1.0
1626294729.510573,-38.574,-32.227,-33.203,1.0,1.0
1626294729.5144792,37.109,-22.949,-49.316,1.0,1.0
1626294729.5183854,-0.488,-22.949,-59.082,1.0,1.0
1626294729.5222914,-107.91,-70.312,-61.035,1.0,1.0
1626294729.526198,-85.93799999999999,-29.296999999999997,-53.223,1.0,1.0
1626294729.5301042,16.113,12.695,-25.391,1.0,1.0
1626294729.5340102,9.277000000000001,-18.066,-36.621,1.0,1.0
1626294729.5379167,-85.93799999999999,-49.805,-65.43,1.0,1.0
1626294729.541823,-132.812,-99.609,-71.289,1.0,1.0
1626294729.5457292,6.348,-8.301,-27.831999999999997,-37.598,1.0
1626294729.5496354,-91.309,-60.547,-58.593999999999994,-193.84799999999998,1.0
1626294729.5535417,-38.086,-37.109,-41.992,-37.598,1.0
1626294729.557448,60.059,6.836,-17.578,136.719,1.0
1626294729.5613542,34.18,-0.488,-30.273000000000003,25.879,1.0
1626294729.5652604,-60.059,1.953,-31.25,-160.645,1.0
1626294729.5691667,-84.473,-73.242,-47.852,-120.117,1.0
1626294729.573073,12.695,-48.34,-35.645,93.75,1.0
1626294729.5769792,29.785,13.672,-25.391,61.523,1.0
1626294729.5808856,-64.941,17.09,-43.457,-145.50799999999998,1.0
1626294729.5847917,-101.56200000000001,-13.184000000000001,-43.945,-160.156,1.0
1626294729.588698,-25.391,-89.355,-46.875,32.715,1.0
1626294729.5926042,61.523,-29.785,-11.23,1.0,1.0
1626294729.5965104,-12.695,6.836,-6.836,1.0,1.0
1626294729.6004167,-89.844,0.977,-27.344,1.0,1.0
1626294729.604323,-31.25,-16.113,-20.996,1.0,1.0
1626294729.608229,29.785,-53.711000000000006,-8.301,1.0,1.0
1626294729.6121356,-8.301,-24.901999999999997,-1.465,1.0,1.0
1626294729.6160414,-98.145,-41.016000000000005,-17.578,1.0,1.0
1626294729.6199481,-69.824,-43.945,-1.465,1.0,1.0
1626294729.623854,13.184000000000001,-61.035,1.953,1.0,1.0
1626294729.6277602,-0.488,-98.145,-0.488,1.0,1.0
1626294729.631667,-67.87100000000001,-61.523,6.348,1.0,1.0
1626294729.635573,-86.426,-60.059,-24.414,1.0,1.0
1626294729.639479,-4.395,-58.593999999999994,-27.344,1.0,1.0
1626294729.6433854,13.184000000000001,-88.37899999999999,-1.953,1.0,1.0
1626294729.6472914,-86.426,-101.56200000000001,-7.324,1.0,1.0
1626294729.651198,-112.305,-48.34,-16.602,1.0,1.0
1626294729.6551042,-15.625,-27.831999999999997,-1.465,1.0,1.0
1626294729.6590104,42.48,-21.973000000000003,14.16,1.0,1.0
1626294729.6629167,-46.387,-81.055,-19.043,1.0,1.0
1626294729.666823,-107.42200000000001,-51.758,-37.598,1.0,1.0
1626294729.6707292,-37.598,-6.836,-4.883,1.0,1.0
1626294729.6746354,39.062,-25.879,9.766,1.0,1.0
1626294729.6785414,-11.719000000000001,-72.75399999999999,-17.09,1.0,1.0
1626294729.682448,-115.723,-164.551,-39.062,1.0,1.0
1626294729.6863542,-59.082,-27.831999999999997,-34.668,-172.852,1.0
1626294729.6902604,-111.816,-9.277000000000001,-27.344,-33.691,1.0
1626294729.6941667,-37.598,-10.742,-8.789,118.652,1.0
1626294729.698073,37.598,-23.438000000000002,-3.906,8.789,1.0
1626294729.7019792,-29.296999999999997,-62.5,-45.41,-172.852,1.0
1626294729.7058854,-99.609,-38.574,-41.992,-84.961,1.0
1626294729.7097917,-47.852,-37.598,-7.324,105.95700000000001,1.0
1626294729.713698,28.32,-43.457,-9.277000000000001,45.41,1.0
1626294729.7176042,-4.883,-38.574,-35.645,-157.715,1.0
1626294729.7215104,-104.00399999999999,-51.758,-50.781000000000006,-141.113,1.0
1626294729.725417,-96.68,-15.625,-47.852,70.801,1.0
1626294729.729323,3.418,-2.93,-21.484,87.402,1.0
1626294729.733229,31.25,-7.324,-3.418,1.0,1.0
1626294729.7371356,-56.641000000000005,-53.711000000000006,-25.391,1.0,1.0
1626294729.7410414,-90.33200000000001,-79.102,-21.973000000000003,1.0,1.0
1626294729.7449477,-12.695,-43.457,-11.23,1.0,1.0
1626294729.748854,15.137,-29.296999999999997,-25.391,1.0,1.0
1626294729.7527602,-61.523,-24.414,-39.551,1.0,1.0
1626294729.756667,-117.18799999999999,-83.984,-54.688,1.0,1.0
1626294729.760573,-30.761999999999997,-61.523,-21.484,1.0,1.0
1626294729.7644792,57.617,-27.831999999999997,2.93,1.0,1.0
1626294729.7683854,-4.395,-23.926,-21.973000000000003,1.0,1.0
1626294729.7722914,-104.98,-28.32,-57.129,1.0,1.0
1626294729.776198,-62.988,-72.75399999999999,-50.293,1.0,1.0
1626294729.7801042,-66.895,-7.812,-32.227,-156.738,1.0
1626294729.7840102,-106.445,-62.012,-37.109,-158.691,1.0
1626294729.7879167,-13.672,-63.965,-39.551,53.223,1.0
1626294729.791823,41.992,-11.23,-33.203,100.586,1.0
1626294729.7957292,-37.109,2.93,-35.156,-97.656,1.0
1626294729.7996354,-74.707,3.418,-45.41,-165.03900000000002,1.0
1626294729.8035417,8.301,-56.641000000000005,-39.551,31.25,1.0
1626294729.807448,81.543,-38.086,-16.602,155.273,1.0
1626294729.8113542,-0.977,-21.484,-41.504,-31.25,1.0
1626294729.8152604,-104.98,-35.156,-58.105,-194.824,1.0
1626294729.8191667,-57.129,-25.879,-25.391,-54.688,1.0
1626294729.823073,23.926,-81.543,-14.16,115.234,1.0
1626294729.8269792,-6.836,-71.777,-24.901999999999997,1.0,1.0
1626294729.8308856,-98.145,-41.992,-41.992,1.0,1.0
1626294729.8347917,-74.219,-20.02,-37.109,1.0,1.0
1626294729.838698,24.901999999999997,-23.438000000000002,-27.831999999999997,1.0,1.0
1626294729.8426042,25.879,-57.617,-34.18,1.0,1.0
1626294729.8465104,-56.641000000000005,-15.625,-39.062,1.0,1.0
1626294729.8504167,-79.59,5.859,-64.941,1.0,1.0
1626294729.854323,15.625,23.926,-36.133,1.0,1.0
1626294729.858229,61.035,-2.441,-12.695,1.0,1.0
1626294729.8621356,-41.016000000000005,-64.453,-46.387,1.0,1.0
1626294729.8660414,-117.18799999999999,-53.223,-56.152,1.0,1.0
1626294729.8699481,-42.48,-44.434,-47.852,1.0,1.0
1626294729.873854,41.016000000000005,-33.203,-33.203,1.0,1.0
1626294729.8777602,-21.973000000000003,-72.75399999999999,-47.363,1.0,1.0
1626294729.881667,-103.027,-71.289,-64.941,1.0,1.0
1626294729.885573,-58.593999999999994,-17.578,-44.922,1.0,1.0
1626294729.889479,31.738000000000003,2.93,-16.113,1.0,1.0
1626294729.8933854,27.344,31.25,-8.301,1.0,1.0
1626294729.8972914,-80.566,-45.898,-39.551,1.0,1.0
1626294729.901198,-101.56200000000001,-54.199,-56.152,1.0,1.0
1626294729.9051042,6.836,5.859,-40.039,1.0,1.0
1626294729.9090104,37.109,14.16,-33.691,1.0,1.0
1626294729.9129167,-67.87100000000001,-21.973000000000003,-50.293,1.0,1.0
1626294729.916823,-115.723,-121.094,-41.992,1.0,1.0
1626294729.9207292,-14.16,4.395,-37.109,-42.48,1.0
1626294729.9246354,-76.172,-17.578,-35.645,-174.805,1.0
1626294729.9285414,-35.645,-53.223,-25.879,-41.504,1.0
1626294729.932448,27.831999999999997,-24.414,-24.414,108.398,1.0
1626294729.9363542,-19.531,-10.254000000000001,-42.968999999999994,-10.254000000000001,1.0
1626294729.9402604,-104.00399999999999,15.625,-58.593999999999994,-190.918,1.0
1626294729.9441667,-93.75,-85.93799999999999,-56.152,-120.605,1.0
1626294729.948073,9.277000000000001,-68.359,-34.668,95.215,1.0
1626294729.9519792,35.156,8.789,-37.109,75.195,1.0
1626294729.9558854,-57.617,-13.672,-43.945,-141.602,1.0
1626294729.9597917,-85.449,-50.781000000000006,-23.926,-147.94899999999998,1.0
1626294729.963698,-4.395,-131.836,-23.926,59.082,1.0
1626294729.9676042,38.574,-48.34,-30.761999999999997,1.0,1.0
1626294729.9715104,-29.785,13.672,-24.414,1.0,1.0
1626294729.975417,-95.70299999999999,6.836,-28.32,1.0,1.0
1626294729.979323,-61.035,-23.438000000000002,-42.968999999999994,1.0,1.0
1626294729.983229,-1.953,-77.637,-51.27,1.0,1.0
1626294729.9871356,-42.48,-21.484,-54.688,1.0,1.0
1626294729.9910414,-107.42200000000001,-3.906,-49.316,1.0,1.0
1626294729.9949477,-46.875,14.16,-23.926,1.0,1.0
1626294729.998854,43.945,-12.207,-25.879,1.0,1.0
1626294730.0027602,23.926,-78.125,-35.156,1.0,1.0
1626294730.006667,-67.383,-37.598,-40.039,1.0,1.0
1626294730.010573,-72.75399999999999,-16.113,-37.598,1.0,1.0
1626294730.0144792,20.508000000000003,-9.766,-11.719000000000001,1.0,1.0
1626294730.0183854,29.785,-44.922,-18.066,1.0,1.0
1626294730.0222914,-70.801,-63.965,-46.875,1.0,1.0
1626294730.026198,-112.305,-24.901999999999997,-45.41,1.0,1.0
1626294730.0301042,-24.414,-15.137,-31.738000000000003,1.0,1.0
1626294730.0340102,45.898,13.672,-21.973000000000003,1.0,1.0
1626294730.0379167,-33.203,-76.172,-54.199,1.0,1.0
1626294730.041823,-100.098,-70.801,-67.87100000000001,1.0,1.0
1626294730.0457292,-10.254000000000001,-1.465,-39.551,1.0,1.0
1626294730.0496354,73.73,-0.488,-18.555,1.0,1.0
1626294730.0535417,12.207,-29.785,-20.02,1.0,1.0
1626294730.057448,-87.402,-124.512,-24.414,1.0,1.0
1626294730.0613542,-64.941,-57.129,-58.105,-187.5,1.0
1626294730.0652604,-108.398,-43.945,-40.039,-54.688,1.0
1626294730.0691667,-24.414,-14.16,-30.273000000000003,101.56200000000001,1.0
1626294730.073073,38.574,-13.672,-42.968999999999994,-10.254000000000001,1.0
1626294730.0769792,-20.02,-71.289,-56.641000000000005,-187.012,1.0
1626294730.0808856,-90.82,-36.621,-41.016000000000005,-102.539,1.0
1626294730.0847917,-39.551,5.371,-20.02,93.75,1.0
1626294730.088698,63.965,14.16,-4.395,49.805,1.0
1626294730.0926042,36.621,-22.949,-15.625,-162.59799999999998,1.0
1626294730.0965104,-81.055,-57.617,-47.852,-157.715,1.0
1626294730.1004167,-89.844,-27.344,-51.758,60.059,1.0
1626294730.104323,4.883,-9.277000000000001,-37.109,91.79700000000001,1.0
1626294730.108229,12.207,-20.508000000000003,-40.527,1.0,1.0
1626294730.1121356,-78.613,-52.733999999999995,-34.18,1.0,1.0
1626294730.1160414,-89.844,-50.781000000000006,-16.602,1.0,1.0
1626294730.1199481,-9.277000000000001,-22.949,-22.949,1.0,1.0
1626294730.123854,39.551,-5.371,-28.32,1.0,1.0
1626294730.1277602,-13.184000000000001,11.719000000000001,-17.578,1.0,1.0
1626294730.131667,-69.336,-37.109,-28.32,1.0,1.0
1626294730.135573,-13.672,-32.715,-34.18,1.0,1.0
1626294730.139479,38.574,-17.578,-16.113,1.0,1.0
1626294730.1433854,-32.227,-41.016000000000005,-20.02,1.0,1.0
1626294730.1472914,-128.906,-40.527,-35.645,1.0,1.0
1626294730.151198,-100.098,-63.477,-44.434,1.0,1.0
1626294730.1551042,-67.383,-34.668,-33.691,-132.32399999999998,1.0
1626294730.1590104,-98.633,-63.965,-43.457,-144.043,1.0
1626294730.1629167,-21.484,-58.105,-55.663999999999994,58.105,1.0
1626294730.166823,21.973000000000003,-32.715,-37.109,111.816,1.0
1626294730.1707292,-50.293,-51.758,-15.137,-81.055,1.0
1626294730.1746354,-95.215,-33.691,-2.441,-155.762,1.0
1626294730.1785414,-48.34,-76.66,-29.296999999999997,-0.488,1.0
1626294730.182448,29.785,-44.922,-20.996,120.605,1.0
1626294730.1863542,-11.719000000000001,-14.16,-21.484,-29.785,1.0
1626294730.1902604,-103.027,-28.809,-42.968999999999994,-187.988,1.0
1626294730.1941667,-62.012,-36.621,-43.945,-50.293,1.0
1626294730.198073,0.977,-99.12100000000001,-47.852,106.934,1.0
1626294730.2019792,-8.301,-43.457,-23.438000000000002,1.0,1.0
1626294730.2058854,-84.473,-24.901999999999997,-25.879,1.0,1.0
1626294730.2097917,-81.543,-35.156,-28.32,1.0,1.0
1626294730.213698,16.602,-28.32,-32.715,1.0,1.0
1626294730.2176042,11.23,-75.195,-48.828,1.0,1.0
1626294730.2215104,-71.289,-53.711000000000006,-21.973000000000003,1.0,1.0
1626294730.225417,-87.402,-29.785,-0.488,1.0,1.0
1626294730.229323,8.301,1.953,12.207,1.0,1.0
1626294730.233229,33.203,-17.578,-11.23,1.0,1.0
1626294730.2371356,-67.87100000000001,-65.43,-31.738000000000003,1.0,1.0
1626294730.2410414,-117.676,-29.785,-25.879,1.0,1.0
1626294730.2449477,-38.574,-5.859,-16.602,1.0,1.0
1626294730.248854,42.968999999999994,4.883,-7.812,1.0,1.0
1626294730.2527602,-18.066,-43.457,-27.831999999999997,1.0,1.0
1626294730.256667,-97.16799999999999,-75.684,-41.504,1.0,1.0
1626294730.260573,-44.434,-21.973000000000003,-20.996,1.0,1.0
1626294730.2644792,36.621,-14.16,-16.113,1.0,1.0
1626294730.2683854,10.742,-42.48,-32.715,1.0,1.0
1626294730.2722914,-104.00399999999999,-97.16799999999999,-65.918,1.0,1.0
1626294730.276198,-85.93799999999999,-63.965,-31.738000000000003,1.0,1.0
1626294730.2801042,37.109,-14.648,-1.465,1.0,1.0
1626294730.2840102,48.34,-28.809,-30.761999999999997,1.0,1.0
1626294730.2879167,-49.805,-45.898,-37.598,1.0,1.0
1626294730.291823,-108.887,-62.988,-45.41,1.0,1.0
1626294730.2957292,-108.398,-58.593999999999994,-67.87100000000001,-129.395,1.0
1626294730.2996354,-77.637,-41.016000000000005,-31.738000000000003,74.707,1.0
1626294730.3035417,15.137,-36.133,-9.766,96.191,1.0
1626294730.307448,20.508000000000003,-26.855,-15.137,-101.074,1.0
1626294730.3113542,-62.5,-76.172,-23.926,-154.785,1.0
1626294730.3152604,-72.75399999999999,-38.574,-19.043,30.761999999999997,1.0
1626294730.3191667,5.371,-9.766,-28.32,97.16799999999999,1.0
1626294730.323073,47.852,5.371,-22.949,-55.663999999999994,1.0
1626294730.3269792,-40.527,-25.879,-30.761999999999997,-154.785,1.0
1626294730.3308856,-105.95700000000001,-83.008,-37.109,-21.973000000000003,1.0
1626294730.3347917,-29.296999999999997,-25.391,-15.137,141.113,1.0
1626294730.338698,37.109,-8.789,-24.901999999999997,-3.418,1.0
1626294730.3426042,-10.742,-17.09,-36.621,1.0,1.0
1626294730.3465104,-71.777,-57.617,-33.203,1.0,1.0
1626294730.3504167,-30.761999999999997,-75.195,-37.598,1.0,1.0
1626294730.354323,47.363,-18.555,-17.578,1.0,1.0
1626294730.358229,9.766,-16.602,-26.366999999999997,1.0,1.0
1626294730.3621356,-89.355,-28.32,-53.711000000000006,1.0,1.0
1626294730.3660414,-84.473,-80.078,-46.387,1.0,1.0
1626294730.3699481,7.324,-62.988,-29.785,1.0,1.0
1626294730.373854,26.366999999999997,-17.578,-22.949,1.0,1.0
1626294730.3777602,-53.223,8.789,-24.901999999999997,1.0,1.0
1626294730.381667,-87.402,-6.348,-27.344,1.0,1.0
1626294730.385573,-11.719000000000001,-99.12100000000001,-21.484,1.0,1.0
1626294730.389479,44.922,-32.227,-11.23,1.0,1.0
1626294730.3933854,-25.391,3.906,-17.578,1.0,1.0
1626294730.3972914,-103.027,-21.484,-38.086,1.0,1.0
1626294730.401198,-35.645,-17.578,-11.23,1.0,1.0
1626294730.4051042,49.316,-67.383,-6.348,1.0,1.0
1626294730.4090104,1.465,-35.645,-37.598,1.0,1.0
1626294730.4129167,-82.52,-11.719000000000001,-28.32,1.0,1.0
1626294730.416823,-55.663999999999994,-7.812,-19.531,1.0,1.0
1626294730.4207292,44.434,-23.438000000000002,-23.926,1.0,1.0
1626294730.4246354,37.109,-54.688,-18.066,1.0,1.0
1626294730.4285414,-68.359,-2.441,-21.973000000000003,1.0,1.0
1626294730.432448,-79.102,0.488,-20.02,1.0,1.0
1626294730.4363542,12.695,-13.672,-18.066,73.73,1.0
1626294730.4402604,41.504,-31.25,-12.695,82.52,1.0
1626294730.4441667,-50.781000000000006,-43.457,-25.391,-126.95299999999999,1.0
1626294730.448073,-89.355,-29.785,-30.761999999999997,-165.03900000000002,1.0
1626294730.4519792,11.719000000000001,-11.719000000000001,-6.836,56.152,1.0
1626294730.4558854,64.453,20.996,-23.926,135.254,1.0
1626294730.4597917,-11.719000000000001,-53.223,-40.527,-56.641000000000005,1.0
1626294730.463698,-95.215,-68.848,-43.945,-187.012,1.0
1626294730.4676042,-47.852,-13.184000000000001,-44.434,-36.621,1.0
1626294730.4715104,33.203,-2.441,-30.273000000000003,116.699,1.0
1626294730.475417,-16.113,-38.086,-35.645,-23.438000000000002,1.0
1626294730.479323,-105.95700000000001,-120.605,-50.781000000000006,-202.148,1.0
1626294730.483229,-51.27,-76.66,-46.387,-201.66,1.0
1626294730.4871356,-108.398,-30.761999999999997,-53.223,-50.781000000000006,1.0
1626294730.4910414,-26.366999999999997,-15.137,-33.203,121.094,1.0
1626294730.4949477,48.34,5.371,-46.875,9.766,1.0
1626294730.498854,-8.301,-17.578,-62.988,-181.15200000000002,1.0
1626294730.5027602,-80.078,-13.672,-27.344,-109.863,1.0
1626294730.506667,-52.733999999999995,-26.366999999999997,-6.348,98.145,1.0
1626294730.510573,24.414,-23.926,-9.766,60.547,1.0
1626294730.5144792,-6.348,-20.996,-29.296999999999997,-145.02,1.0
1626294730.5183854,-113.281,-53.711000000000006,-54.688,-127.93,1.0
1626294730.5222914,-94.727,-33.203,-33.691,88.37899999999999,1.0
1626294730.526198,11.23,-16.113,-15.625,128.418,1.0
1626294730.5301042,38.574,-14.16,-26.366999999999997,1.0,1.0
1626294730.5340102,-70.801,-68.848,-58.105,1.0,1.0
1626294730.5379167,-106.445,-73.242,-51.758,1.0,1.0
1626294730.541823,-6.836,-28.32,-25.391,1.0,1.0
1626294730.5457292,39.062,-23.926,-22.949,1.0,1.0
1626294730.5496354,-17.578,-18.066,-32.227,1.0,1.0
1626294730.5535417,-119.62899999999999,-116.211,-84.473,1.0,1.0
1626294730.557448,-65.918,-92.773,-63.477,1.0,1.0
1626294730.5613542,32.227,-6.348,-20.508000000000003,1.0,1.0
1626294730.5652604,-10.254000000000001,-11.719000000000001,-27.344,1.0,1.0
1626294730.5691667,-83.008,-17.578,-28.32,1.0,1.0
1626294730.573073,-74.219,-30.273000000000003,-41.016000000000005,1.0,1.0
1626294730.5769792,-61.035,-22.461,-17.578,-131.836,1.0
1626294730.5808856,-112.79299999999999,-45.41,-41.504,-158.203,1.0
1626294730.5847917,-15.625,-59.57,-28.32,57.617,1.0
1626294730.588698,64.453,-30.273000000000003,-10.742,137.695,1.0
1626294730.5926042,-21.484,-39.551,-25.879,-68.848,1.0
1626294730.5965104,-100.098,-32.715,-33.203,-168.945,1.0
1626294730.6004167,-58.593999999999994,-44.922,-51.27,-18.555,1.0
1626294730.604323,25.391,-16.602,-33.691,107.91,1.0
1626294730.608229,-10.742,-20.508000000000003,-26.366999999999997,-29.296999999999997,1.0
1626294730.6121356,-78.125,-35.156,-40.527,-168.945,1.0
1626294730.6160414,-39.062,-14.16,-31.738000000000003,-38.574,1.0
1626294730.6199481,2.93,-78.125,-48.34,102.051,1.0
1626294730.623854,8.301,-50.293,-30.761999999999997,36.133,1.0
1626294730.6277602,-66.895,-31.25,-10.742,-150.391,1.0
1626294730.631667,-79.59,-23.438000000000002,-26.855,-118.652,1.0
1626294730.635573,14.16,-32.227,-27.344,86.914,1.0
1626294730.639479,19.531,-98.633,-24.414,58.105,1.0
1626294730.6433854,-73.242,-56.641000000000005,-28.32,-148.92600000000002,1.0
1626294730.6472914,-102.539,-28.32,-31.25,-166.016,1.0
1626294730.651198,1.953,-12.695,-14.16,53.223,1.0
1626294730.6551042,57.129,-6.348,-16.113,125.0,1.0
1626294730.6590104,-28.809,-32.227,-36.133,-78.125,1.0
1626294730.6629167,-104.98,-19.043,-36.621,-188.965,1.0
1626294730.666823,-50.293,-9.766,-36.621,-23.926,1.0
1626294730.6707292,41.992,8.301,-32.715,1.0,1.0
1626294730.6746354,-18.066,-54.199,-31.738000000000003,1.0,1.0
1626294730.6785414,-119.62899999999999,-93.75,-37.598,1.0,1.0
1626294730.682448,-67.383,-29.785,-25.879,1.0,1.0
1626294730.6863542,37.598,-21.973000000000003,-9.277000000000001,1.0,1.0
1626294730.6902604,37.598,-15.625,-11.23,1.0,1.0
1626294730.6941667,-77.637,-72.75399999999999,-48.828,1.0,1.0
1626294730.698073,-103.516,-76.172,-46.387,1.0,1.0
1626294730.7019792,1.465,-26.366999999999997,-38.086,1.0,1.0
1626294730.7058854,27.344,-19.531,-40.527,1.0,1.0
1626294730.7097917,-68.359,-21.484,-40.039,1.0,1.0
1626294730.713698,-126.95299999999999,-64.941,-47.852,1.0,1.0
1626294730.7176042,-107.42200000000001,-46.387,-65.918,-147.461,1.0
1626294730.7215104,-80.566,-18.555,-28.32,65.918,1.0
1626294730.725417,25.391,-4.395,-15.625,78.613,1.0
1626294730.729323,27.344,-17.09,-35.156,-115.723,1.0
1626294730.733229,-84.473,-55.176,-58.593999999999994,-177.24599999999998,1.0
1626294730.7371356,-97.656,-26.855,-45.41,22.949,1.0
1626294730.7410414,-9.766,-15.137,-16.113,112.79299999999999,1.0
1626294730.7449477,46.875,-15.137,-3.906,-68.848,1.0
1626294730.748854,-28.809,-26.855,-17.09,-195.801,1.0
1626294730.7527602,-102.051,-41.504,-42.968999999999994,-46.875,1.0
1626294730.756667,-18.066,-5.371,-14.648,124.023,1.0
1626294730.760573,52.246,4.395,1.953,-12.207,1.0
1626294730.7644792,-7.324,-25.879,-21.973000000000003,1.0,1.0
1626294730.7683854,-93.262,-50.293,-31.25,1.0,1.0
1626294730.7722914,-68.848,-46.875,-35.645,1.0,1.0
1626294730.776198,25.391,-29.785,-50.293,1.0,1.0
1626294730.7801042,22.949,-18.555,-45.898,1.0,1.0
1626294730.7840102,-77.148,-20.02,-21.973000000000003,1.0,1.0
1626294730.7879167,-99.12100000000001,-55.176,-31.25,1.0,1.0
1626294730.791823,3.418,-20.02,-32.715,1.0,1.0
1626294730.7957292,23.926,0.488,-25.879,1.0,1.0
1626294730.7996354,-46.875,-6.836,-23.926,1.0,1.0
1626294730.8035417,-78.613,-9.766,-25.879,1.0,1.0
1626294730.807448,-32.715,-91.309,-45.898,1.0,1.0
1626294730.8113542,-85.93799999999999,-30.273000000000003,-34.18,-175.78099999999998,1.0
1626294730.8152604,-55.176,-43.945,-44.434,-43.457,1.0
1626294730.8191667,16.113,-53.711000000000006,-40.039,114.74600000000001,1.0
1626294730.823073,2.93,-14.648,-43.945,21.973000000000003,1.0
1626294730.8269792,-78.125,-17.09,-54.199,-167.48,1.0
1626294730.8308856,-54.199,-7.324,-10.254000000000001,-86.426,1.0
1626294730.8347917,31.25,-44.922,-7.812,109.863,1.0
1626294730.838698,22.949,-53.223,-26.855,56.152,1.0
1626294730.8426042,-75.195,-40.039,-36.133,-161.13299999999998,1.0
1626294730.8465104,-92.773,-26.855,-41.992,-159.668,1.0
1626294730.8504167,2.441,-6.348,-22.461,62.5,1.0
1626294730.854323,29.785,-44.922,-26.366999999999997,105.95700000000001,1.0
1626294730.858229,-28.32,-20.02,-32.715,1.0,1.0
1626294730.8621356,-62.5,9.766,-20.996,1.0,1.0
1626294730.8660414,-0.488,-0.488,-13.672,1.0,1.0
1626294730.8699481,55.176,-25.879,-31.738000000000003,1.0,1.0
1626294730.873854,-17.578,-65.43,-57.617,1.0,1.0
1626294730.8777602,-95.215,-33.203,-42.48,1.0,1.0
1626294730.881667,-50.293,-5.859,-34.668,1.0,1.0
1626294730.885573,43.457,3.418,-25.879,1.0,1.0
1626294730.889479,15.137,-35.156,-22.461,1.0,1.0
1626294730.8933854,-93.75,-77.148,-32.715,1.0,1.0
1626294730.8972914,-79.59,-46.875,-33.203,1.0,1.0
1626294730.901198,20.996,-34.18,-29.296999999999997,1.0,1.0
1626294730.9051042,35.645,-13.672,-18.555,1.0,1.0
1626294730.9090104,-67.383,-49.316,-26.366999999999997,1.0,1.0
1626294730.9129167,-101.074,-68.848,-23.438000000000002,1.0,1.0
1626294730.916823,5.859,-17.09,9.766,1.0,1.0
1626294730.9207292,57.129,15.137,6.348,1.0,1.0
1626294730.9246354,-25.879,31.738000000000003,-28.32,1.0,1.0
1626294730.9285414,-119.62899999999999,-45.898,-64.453,1.0,1.0
1626294730.932448,-62.012,-59.57,-47.363,1.0,1.0
1626294730.9363542,27.831999999999997,-9.277000000000001,-27.344,1.0,1.0
1626294730.9402604,-6.348,-21.973000000000003,-37.598,1.0,1.0
1626294730.9441667,-82.031,-47.852,-46.387,1.0,1.0
1626294730.948073,-71.777,-66.406,-38.574,1.0,1.0
1626294730.9519792,-67.87100000000001,-22.461,-18.066,-135.74200000000002,1.0
1626294730.9558854,-90.33200000000001,-27.344,-32.715,-137.207,1.0
1626294730.9597917,-9.277000000000001,-37.109,-26.855,59.082,1.0
1626294730.963698,26.366999999999997,-20.508000000000003,0.977,99.609,1.0
1626294730.9676042,-48.828,-29.785,1.465,-85.449,1.0
1626294730.9715104,-106.445,-29.785,-10.742,-175.293,1.0
1626294730.975417,-67.87100000000001,-98.633,-41.016000000000005,-17.09,1.0
1626294730.979323,10.254000000000001,-83.008,-33.691,121.58200000000001,1.0
1626294730.983229,-28.32,-30.761999999999997,-18.066,-33.203,1.0
1626294730.9871356,-107.42200000000001,-46.387,-17.578,-194.33599999999998,1.0
1626294730.9910414,-74.707,-45.898,-40.039,-70.312,1.0
1626294730.9949477,-17.09,-92.285,-67.87100000000001,88.37899999999999,1.0
1626294730.998854,-20.996,-72.266,-43.945,1.0,1.0
1626294731.0027602,-83.49600000000001,-30.761999999999997,-17.578,1.0,1.0
1626294731.006667,-76.66,-18.066,0.488,1.0,1.0
1626294731.010573,-2.441,-24.414,-17.578,1.0,1.0
1626294731.0144792,-9.766,-69.336,-41.992,1.0,1.0
1626294731.0183854,-80.566,-44.434,-13.672,1.0,1.0
1626294731.0222914,-114.74600000000001,-38.574,-18.555,1.0,1.0
1626294731.026198,-43.945,-56.641000000000005,-39.551,1.0,1.0
1626294731.0301042,5.859,-52.246,-43.457,1.0,1.0
1626294731.0340102,-65.43,-54.199,-54.688,1.0,1.0
1626294731.0379167,-106.934,-38.086,-38.574,1.0,1.0
1626294731.041823,-41.504,-21.484,-20.508000000000003,1.0,1.0
1626294731.0457292,27.344,-12.207,-14.16,1.0,1.0
1626294731.0496354,-18.066,-51.27,-25.879,1.0,1.0
1626294731.0535417,-95.70299999999999,-64.941,-25.391,1.0,1.0
1626294731.057448,-53.223,-11.23,-11.23,1.0,1.0
1626294731.0613542,23.926,-0.488,-18.066,1.0,1.0
1626294731.0652604,14.16,3.906,-34.668,1.0,1.0
1626294731.0691667,-82.52,-46.387,-65.43,1.0,1.0
1626294731.073073,-94.727,-78.613,-53.223,1.0,1.0
1626294731.0769792,-12.207,-56.152,-27.831999999999997,1.0,1.0
1626294731.0808856,18.555,-19.531,-22.949,1.0,1.0
1626294731.0847917,-58.105,-23.438000000000002,-41.016000000000005,1.0,1.0
1626294731.088698,-133.789,-104.98,-70.801,1.0,1.0
1626294731.0926042,-99.609,-17.09,-62.988,-135.74200000000002,1.0
1626294731.0965104,-86.914,-2.441,-34.668,70.801,1.0
1626294731.1004167,39.062,15.137,13.184000000000001,102.539,1.0
1626294731.104323,54.199,-3.418,0.488,-95.215,1.0
1626294731.108229,-85.93799999999999,-60.059,-64.453,-175.293,1.0
1626294731.1121356,-105.95700000000001,-39.062,-40.039,20.508000000000003,1.0
1626294731.1160414,8.301,-16.113,-4.395,113.77,1.0
1626294731.1199481,46.387,-34.18,-20.996,-44.922,1.0
1626294731.123854,-39.062,-45.41,-34.18,-153.32,1.0
1626294731.1277602,-99.12100000000001,-40.039,-59.57,-22.461,1.0
1626294731.131667,-22.949,-17.09,-58.105,117.18799999999999,1.0
1626294731.135573,52.246,-14.648,-22.949,-8.301,1.0
1626294731.139479,13.672,-3.418,-13.672,1.0,1.0
1626294731.1433854,-81.055,-17.578,-40.527,1.0,1.0
1626294731.1472914,-67.87100000000001,-35.645,-39.062,1.0,1.0
1626294731.151198,20.996,-16.602,-14.648,1.0,1.0
1626294731.1551042,2.441,-7.324,-16.602,1.0,1.0
1626294731.1590104,-76.172,-11.23,-21.973000000000003,1.0,1.0
1626294731.1629167,-95.215,-111.816,-57.129,1.0,1.0
1626294731.166823,-2.93,-103.027,-44.922,1.0,1.0
1626294731.1707292,34.668,-14.16,-23.438000000000002,1.0,1.0
1626294731.1746354,-52.733999999999995,-0.488,-37.109,1.0,1.0
1626294731.1785414,-94.727,-5.371,-49.316,1.0,1.0
1626294731.182448,-32.715,-38.086,-68.359,1.0,1.0
1626294731.1863542,-59.57,8.789,-32.227,-162.59799999999998,1.0
1626294731.1902604,-50.781000000000006,-36.133,-54.199,-56.641000000000005,1.0
1626294731.1941667,-1.465,-63.965,-62.5,67.87100000000001,1.0
1626294731.198073,6.348,-1.953,-29.296999999999997,-1.953,1.0
1626294731.2019792,-80.566,0.488,-32.227,-191.895,1.0
1626294731.2058854,-79.59,-4.883,-22.949,-124.512,1.0
1626294731.2097917,-1.465,-66.406,-32.715,71.777,1.0
1626294731.213698,18.555,-67.87100000000001,-35.645,56.641000000000005,1.0
1626294731.2176042,-50.781000000000006,-29.296999999999997,-25.879,-125.0,1.0
1626294731.2215104,-63.477,-14.648,-21.484,-128.906,1.0
1626294731.225417,35.156,-1.953,-11.719000000000001,86.914,1.0
1626294731.229323,32.715,-79.102,-38.086,110.84,1.0
1626294731.233229,-55.176,-52.246,-46.387,1.0,1.0
1626294731.2371356,-94.727,-7.324,-45.41,1.0,1.0
1626294731.2410414,-17.09,7.324,-21.484,1.0,1.0
1626294731.2449477,34.668,-4.395,-18.066,1.0,1.0
1626294731.248854,-58.593999999999994,-61.523,-63.965,1.0,1.0
1626294731.2527602,-104.00399999999999,-13.672,-38.574,1.0,1.0
1626294731.256667,-42.48,-2.93,-12.207,1.0,1.0
1626294731.260573,39.551,-18.066,-22.461,1.0,1.0
1626294731.2644792,4.883,-26.366999999999997,-46.387,1.0,1.0
1626294731.2683854,-108.887,-61.035,-57.617,1.0,1.0
1626294731.2722914,-98.633,-44.922,-21.973000000000003,1.0,1.0
1626294731.276198,12.207,-7.812,0.0,1.0,1.0
1626294731.2801042,46.875,2.441,-5.859,1.0,1.0
1626294731.2840102,-67.383,-59.082,-34.18,1.0,1.0
1626294731.2879167,-119.62899999999999,-75.684,-58.105,1.0,1.0
1626294731.291823,-9.766,-6.348,-27.344,1.0,1.0
1626294731.2957292,42.48,20.02,-6.348,1.0,1.0
1626294731.2996354,-40.039,14.648,-26.855,1.0,1.0
1626294731.3035417,-151.855,-51.758,-73.73,1.0,1.0
1626294731.307448,-90.82,-48.34,-59.082,1.0,1.0
1626294731.3113542,10.742,-16.113,-26.855,1.0,1.0
1626294731.3152604,-31.738000000000003,-23.438000000000002,-47.363,1.0,1.0
1626294731.3191667,-98.633,-14.648,-49.316,1.0,1.0
1626294731.323073,-60.547,-53.223,-22.461,1.0,1.0
1626294731.3269792,-31.25,8.301,-40.039,-109.863,1.0
1626294731.3308856,-88.867,-34.668,-48.828,-156.25,1.0
1626294731.3347917,-25.391,-73.242,-59.082,31.738000000000003,1.0
1626294731.338698,54.199,-54.688,-8.301,119.62899999999999,1.0
1626294731.3426042,-11.719000000000001,-32.715,-0.488,-66.895,1.0
1626294731.3465104,-93.75,-18.555,-45.41,-178.71099999999998,1.0
1626294731.3504167,-63.965,-79.102,-78.613,-35.645,1.0
1626294731.354323,30.273000000000003,-42.48,-52.246,108.398,1.0
1626294731.358229,10.742,-3.906,-30.761999999999997,-15.137,1.0
1626294731.3621356,-67.87100000000001,-15.625,-23.926,-162.109,1.0
1626294731.3660414,-31.738000000000003,0.977,-41.992,-35.156,1.0
1626294731.3699481,10.254000000000001,-79.102,-93.262,97.656,1.0
1626294731.373854,11.23,-64.453,-52.246,1.0,1.0
1626294731.3777602,-47.852,-15.625,-24.414,1.0,1.0
1626294731.381667,-44.922,1.465,-10.742,1.0,1.0
1626294731.385573,26.366999999999997,-2.93,-13.672,1.0,1.0
1626294731.389479,8.301,-68.848,-50.293,1.0,1.0
1626294731.3933854,-48.34,-37.109,-40.527,1.0,1.0
1626294731.3972914,-67.383,-12.207,-26.366999999999997,1.0,1.0
1626294731.401198,10.254000000000001,-8.789,0.0,1.0,1.0
1626294731.4051042,59.57,-14.16,-15.625,1.0,1.0
1626294731.4090104,-30.761999999999997,-69.824,-64.941,1.0,1.0
1626294731.4129167,-88.867,-28.809,-43.945,1.0,1.0
1626294731.416823,-20.02,12.207,-0.488,1.0,1.0
1626294731.4207292,56.641000000000005,18.555,-3.906,1.0,1.0
1626294731.4246354,0.0,-11.23,-47.363,1.0,1.0
1626294731.4285414,-107.42200000000001,-37.109,-49.316,1.0,1.0
1626294731.432448,-79.59,-17.578,-24.414,1.0,1.0
1626294731.4363542,24.414,-24.901999999999997,-7.812,1.0,1.0
1626294731.4402604,22.461,-36.133,-6.348,1.0,1.0
1626294731.4441667,-88.37899999999999,-77.637,-56.152,1.0,1.0
1626294731.448073,-89.355,-47.363,-64.941,1.0,1.0
1626294731.4519792,15.137,-4.883,-32.715,1.0,1.0
1626294731.4558854,39.062,-12.695,-10.742,1.0,1.0
1626294731.4597917,-40.527,-25.391,-4.883,1.0,1.0
1626294731.463698,-130.859,-112.79299999999999,-50.781000000000006,1.0,1.0
1626294731.4676042,-85.93799999999999,-35.645,-40.527,-190.43,1.0
1626294731.4715104,-74.219,-4.395,-36.621,-114.74600000000001,1.0
1626294731.475417,28.809,-4.395,-4.883,114.74600000000001,1.0
1626294731.479323,59.082,-21.484,-11.23,110.84,1.0
1626294731.483229,-77.637,-111.32799999999999,-56.152,-146.97299999999998,1.0
1626294731.4871356,-98.145,-55.663999999999994,-19.531,-158.691,1.0
1626294731.4910414,-1.953,-11.23,-6.836,62.012,1.0
1626294731.4949477,43.945,-8.301,-17.09,119.62899999999999,1.0
1626294731.498854,-28.32,-26.855,-22.461,-75.684,1.0
1626294731.5027602,-101.56200000000001,-72.266,-48.828,-188.965,1.0
1626294731.506667,-6.348,4.883,-16.113,20.508000000000003,1.0
1626294731.510573,68.359,27.344,-6.348,148.438,1.0
1626294731.5144792,0.488,-4.883,-24.414,1.0,1.0
1626294731.5183854,-103.027,-32.715,-24.901999999999997,1.0,1.0
1626294731.5222914,-88.867,-46.387,-20.508000000000003,1.0,1.0
1626294731.526198,29.785,-9.766,-5.859,1.0,1.0
1626294731.5301042,18.555,-7.812,-24.901999999999997,1.0,1.0
1626294731.5340102,-91.79700000000001,-21.484,-46.875,1.0,1.0
1626294731.5379167,-129.88299999999998,-82.031,-70.312,1.0,1.0
1626294731.541823,-11.719000000000001,-52.246,-37.598,1.0,1.0
1626294731.5457292,46.875,-10.254000000000001,-5.371,1.0,1.0
1626294731.5496354,-50.293,-19.043,-28.32,1.0,1.0
1626294731.5535417,-92.285,-31.25,-41.992,1.0,1.0
1626294731.557448,-35.645,-90.82,-51.27,1.0,1.0
1626294731.5613542,-103.027,-38.086,-41.992,-192.38299999999998,1.0
1626294731.5652604,-72.266,-38.574,-54.199,-66.406,1.0
1626294731.5691667,21.973000000000003,-28.809,-58.593999999999994,110.352,1.0
1626294731.573073,21.973000000000003,7.812,-46.875,33.691,1.0
1626294731.5769792,-80.566,-18.555,-49.805,-167.96900000000002,1.0
1626294731.5808856,-77.637,-26.855,-31.25,-104.98,1.0
1626294731.5847917,-0.488,-57.129,-31.25,90.82,1.0
1626294731.588698,21.973000000000003,-44.922,-26.855,75.684,1.0
1626294731.5926042,-42.968999999999994,-8.789,-27.831999999999997,-112.79299999999999,1.0
1626294731.5965104,-71.289,-9.277000000000001,-31.25,-123.04700000000001,1.0
1626294731.6004167,9.277000000000001,-24.901999999999997,-10.742,75.195,1.0
1626294731.604323,28.32,-97.656,-36.133,102.539,1.0
1626294731.608229,-39.062,-70.312,-56.641000000000005,1.0,1.0
1626294731.6121356,-86.426,-20.996,-35.645,1.0,1.0
1626294731.6160414,-21.484,-4.883,-6.836,1.0,1.0
1626294731.6199481,47.363,-9.766,-19.531,1.0,1.0
1626294731.623854,-33.203,-81.543,-70.312,1.0,1.0
1626294731.6277602,-100.098,-45.898,-51.758,1.0,1.0
1626294731.631667,-41.992,-7.812,-10.742,1.0,1.0
1626294731.635573,40.039,-6.836,-8.789,1.0,1.0
1626294731.639479,17.578,-20.996,-17.09,1.0,1.0
1626294731.6433854,-82.031,-65.918,-36.133,1.0,1.0
1626294731.6472914,-67.383,-17.578,-31.25,1.0,1.0
1626294731.651198,35.645,5.859,-0.488,1.0,1.0
1626294731.6551042,58.593999999999994,6.348,6.836,1.0,1.0
1626294731.6590104,-41.016000000000005,-33.691,-20.508000000000003,1.0,1.0
1626294731.6629167,-80.078,-72.266,-23.438000000000002,1.0,1.0
1626294731.666823,14.648,-8.789,-15.137,1.0,1.0
1626294731.6707292,61.035,12.207,-24.901999999999997,1.0,1.0
1626294731.6746354,-16.602,3.418,-41.504,1.0,1.0
1626294731.6785414,-90.82,-47.363,-39.062,1.0,1.0
1626294731.682448,-35.645,-36.621,-13.184000000000001,1.0,1.0
1626294731.6863542,48.34,12.695,-10.742,1.0,1.0
1626294731.6902604,9.277000000000001,-0.977,-22.461,1.0,1.0
1626294731.6941667,-83.49600000000001,-28.809,-22.949,1.0,1.0
1626294731.698073,-67.87100000000001,-92.285,-20.02,1.0,1.0
1626294731.7019792,-109.863,-61.523,-42.48,-36.133,1.0
1626294731.7058854,-18.066,-3.418,-15.137,125.0,1.0
1626294731.7097917,74.219,5.371,4.395,9.766,1.0
1626294731.713698,6.836,-6.836,-20.02,-149.90200000000002,1.0
1626294731.7176042,-104.00399999999999,-52.246,-52.733999999999995,-85.93799999999999,1.0
1626294731.7215104,-30.273000000000003,-2.93,-7.324,98.145,1.0
1626294731.725417,67.87100000000001,19.043,-2.93,40.039,1.0
1626294731.729323,12.207,-17.09,-34.668,-167.96900000000002,1.0
1626294731.733229,-99.609,-43.457,-44.434,-129.395,1.0
1626294731.7371356,-98.145,-55.176,-47.852,92.285,1.0
1626294731.7410414,0.0,-10.254000000000001,-30.761999999999997,133.30100000000002,1.0
1626294731.7449477,23.438000000000002,-9.766,-13.184000000000001,-103.027,1.0
1626294731.748854,-53.223,-13.184000000000001,-19.043,1.0,1.0
1626294731.7527602,-90.82,-25.391,-32.715,1.0,1.0
1626294731.756667,-9.766,-42.968999999999994,-39.062,1.0,1.0
1626294731.760573,52.733999999999995,0.0,-38.574,1.0,1.0
1626294731.7644792,-29.785,2.441,-33.691,1.0,1.0
1626294731.7683854,-111.32799999999999,-15.625,-32.715,1.0,1.0
1626294731.7722914,-65.43,-58.105,-41.504,1.0,1.0
1626294731.776198,29.296999999999997,-34.18,-29.785,1.0,1.0
1626294731.7801042,-14.16,-4.883,-25.879,1.0,1.0
1626294731.7840102,-107.91,-38.086,-42.48,1.0,1.0
1626294731.7879167,-72.75399999999999,-36.621,-39.062,1.0,1.0
1626294731.791823,20.508000000000003,-45.41,-25.879,1.0,1.0
1626294731.7957292,10.742,-34.668,-29.785,1.0,1.0
1626294731.7996354,-91.79700000000001,-30.761999999999997,-43.457,1.0,1.0
1626294731.8035417,-104.00399999999999,-18.555,-42.48,1.0,1.0
1626294731.807448,-8.301,-3.906,-32.715,1.0,1.0
1626294731.8113542,3.418,-30.273000000000003,-41.992,1.0,1.0
1626294731.8152604,-102.051,-41.992,-63.477,1.0,1.0
1626294731.8191667,-138.184,-43.457,-66.895,1.0,1.0
1626294731.823073,-34.668,-26.855,-33.203,1.0,1.0
1626294731.8269792,16.602,-42.48,-17.09,1.0,1.0
1626294731.8308856,-55.176,-63.965,-39.062,1.0,1.0
1626294731.8347917,-100.098,-32.715,-33.691,1.0,1.0
1626294731.838698,-51.27,-30.761999999999997,-27.831999999999997,1.0,1.0
1626294731.8426042,18.555,-33.203,-32.715,1.0,1.0
1626294731.8465104,-9.277000000000001,-47.363,-37.598,1.0,1.0
1626294731.8504167,-100.586,-57.617,-54.688,1.0,1.0
1626294731.854323,-74.219,-36.133,-36.133,1.0,1.0
1626294731.858229,18.555,-38.086,-19.043,1.0,1.0
1626294731.8621356,16.113,-9.766,-34.18,1.0,1.0
1626294731.8660414,-89.355,-55.176,-68.848,1.0,1.0
1626294731.8699481,-101.56200000000001,-62.012,-64.941,1.0,1.0
1626294731.873854,3.418,-16.602,-32.227,1.0,1.0
1626294731.8777602,43.945,-11.23,-20.508000000000003,1.0,1.0
1626294731.881667,-43.457,-27.344,-37.109,1.0,1.0
1626294731.885573,-96.68,-83.49600000000001,-39.551,1.0,1.0
1626294731.889479,-105.95700000000001,-51.27,-72.266,-144.043,1.0
1626294731.8933854,-89.844,-25.879,-60.059,60.547,1.0
1626294731.8972914,17.578,-11.719000000000001,-36.133,104.00399999999999,1.0
1626294731.901198,21.973000000000003,-21.973000000000003,-36.621,-83.49600000000001,1.0
1626294731.9051042,-88.867,-84.961,-47.363,-150.391,1.0
1626294731.9090104,-101.56200000000001,-58.105,-30.273000000000003,41.992,1.0
1626294731.9129167,-15.625,-30.761999999999997,-33.691,106.445,1.0
1626294731.916823,20.996,-29.785,-33.203,-78.613,1.0
1626294731.9207292,-48.34,-32.715,-26.366999999999997,-206.543,1.0
1626294731.9246354,-128.906,-88.867,-57.617,-64.453,1.0
1626294731.9285414,-55.663999999999994,-62.988,-50.293,112.79299999999999,1.0
1626294731.932448,40.039,-14.16,-28.809,-1.465,1.0
1626294731.9363542,-16.602,-19.043,-50.293,1.0,1.0
1626294731.9402604,-113.281,-36.133,-67.87100000000001,1.0,1.0
1626294731.9441667,-82.031,-32.227,-60.547,1.0,1.0
1626294731.948073,24.414,0.977,-35.156,1.0,1.0
1626294731.9519792,12.207,-10.254000000000001,-30.761999999999997,1.0,1.0
1626294731.9558854,-73.242,-33.691,-34.668,1.0,1.0
1626294731.9597917,-84.961,-68.848,-39.551,1.0,1.0
1626294731.963698,33.203,-46.387,-21.484,1.0,1.0
1626294731.9676042,97.16799999999999,-2.93,2.441,1.0,1.0
1626294731.9715104,-9.277000000000001,-9.766,-20.02,1.0,1.0
1626294731.975417,-82.52,-28.32,-29.296999999999997,1.0,1.0
1626294731.979323,-19.531,-48.828,-23.438000000000002,1.0,1.0
1626294731.983229,-104.98,-46.387,-45.898,-180.66400000000002,1.0
1626294731.9871356,-51.758,-58.105,-22.949,-44.434,1.0
1626294731.9910414,30.761999999999997,-56.152,-18.066,123.04700000000001,1.0
1626294731.9949477,22.949,-14.648,-27.344,43.945,1.0
1626294731.998854,-49.805,-3.906,-39.062,-135.74200000000002,1.0
1626294732.0027602,-69.824,-5.371,-40.527,-104.00399999999999,1.0
1626294732.006667,-25.391,-48.828,-44.434,54.199,1.0
1626294732.010573,-9.277000000000001,-64.453,-41.016000000000005,38.574,1.0
1626294732.0144792,-99.12100000000001,-34.668,-36.133,-173.828,1.0
1626294732.0183854,-129.88299999999998,-17.578,-39.062,-197.266,1.0
1626294732.0222914,-17.09,-11.719000000000001,-16.602,41.016000000000005,1.0
1626294732.026198,30.273000000000003,-69.824,-10.742,103.516,1.0
1626294732.0301042,-49.805,-48.828,-29.296999999999997,1.0,1.0
1626294732.0340102,-124.512,-22.949,-36.133,1.0,1.0
1626294732.0379167,-62.012,-41.016000000000005,-40.039,1.0,1.0
1626294732.041823,19.531,-36.133,-39.551,1.0,1.0
1626294732.0457292,-41.016000000000005,-51.758,-41.504,1.0,1.0
1626294732.0496354,-127.441,-29.296999999999997,-34.18,1.0,1.0
1626294732.0535417,-93.75,-20.02,-15.625,1.0,1.0
1626294732.057448,9.277000000000001,0.0,-6.348,1.0,1.0
1626294732.0613542,-6.348,-13.184000000000001,-35.645,1.0,1.0
1626294732.0652604,-105.469,-59.57,-44.922,1.0,1.0
1626294732.0691667,-90.82,-14.16,-33.203,1.0,1.0
1626294732.073073,11.23,0.488,-25.879,1.0,1.0
1626294732.0769792,36.621,-8.301,-16.602,1.0,1.0
1626294732.0808856,-73.73,-53.711000000000006,-55.176,1.0,1.0
1626294732.0847917,-126.465,-111.816,-74.707,1.0,1.0
1626294732.088698,-38.086,-68.359,-42.48,1.0,1.0
1626294732.0926042,17.578,-25.879,-23.438000000000002,1.0,1.0
1626294732.0965104,-38.086,-3.906,-12.695,1.0,1.0
1626294732.1004167,-125.0,-59.57,-26.855,1.0,1.0
1626294732.104323,-82.031,-64.941,-32.715,1.0,1.0
1626294732.108229,0.0,-15.625,-37.109,1.0,1.0
1626294732.1121356,-28.32,-8.789,-41.992,1.0,1.0
1626294732.1160414,-97.656,-10.254000000000001,-39.551,1.0,1.0
1626294732.1199481,-101.56200000000001,-89.355,-72.75399999999999,1.0,1.0
1626294732.123854,-105.469,-46.387,-34.668,-21.484,1.0
1626294732.1277602,-33.203,8.301,-9.277000000000001,144.043,1.0
1626294732.131667,42.968999999999994,11.719000000000001,-11.23,15.625,1.0
1626294732.135573,-4.883,-25.391,-23.438000000000002,-178.22299999999998,1.0
1626294732.139479,-114.258,-107.91,-59.57,-106.445,1.0
1626294732.1433854,-72.266,-69.336,-55.176,101.074,1.0
1626294732.1472914,26.366999999999997,-41.016000000000005,-30.273000000000003,55.663999999999994,1.0
1626294732.151198,2.441,-19.043,-26.366999999999997,-151.855,1.0
1626294732.1551042,-99.609,-29.296999999999997,-41.504,-138.184,1.0
1626294732.1590104,-102.051,-73.242,-61.523,84.961,1.0
1626294732.1629167,8.301,-16.113,-37.598,121.094,1.0
1626294732.166823,23.438000000000002,-9.277000000000001,-14.16,-108.398,1.0
1626294732.1707292,-84.961,-36.133,-28.32,1.0,1.0
1626294732.1746354,-123.04700000000001,-51.27,-41.016000000000005,1.0,1.0
1626294732.1785414,-34.18,-66.895,-36.621,1.0,1.0
1626294732.182448,14.16,-38.574,-41.992,1.0,1.0
1626294732.1863542,-54.688,-36.133,-46.875,1.0,1.0
1626294732.1902604,-110.352,-38.086,-40.527,1.0,1.0
1626294732.1941667,-47.363,-96.68,-33.203,1.0,1.0
1626294732.198073,48.828,-78.613,-7.812,1.0,1.0
1626294732.2019792,-0.488,-13.672,-23.926,1.0,1.0
1626294732.2058854,-109.863,-22.461,-57.129,1.0,1.0
1626294732.2097917,-87.402,-20.996,-38.574,1.0,1.0
1626294732.213698,3.418,-68.848,-26.366999999999997,1.0,1.0
1626294732.2176042,17.09,-29.296999999999997,-12.207,1.0,1.0
1626294732.2215104,-68.848,-2.441,-19.531,1.0,1.0
1626294732.225417,-77.148,-22.949,-25.879,1.0,1.0
1626294732.229323,16.113,-25.879,-18.066,1.0,1.0
1626294732.233229,38.086,-42.968999999999994,-34.18,1.0,1.0
1626294732.2371356,-42.48,-3.906,-47.852,1.0,1.0
1626294732.2410414,-75.195,-9.277000000000001,-44.922,1.0,1.0
1626294732.2449477,22.949,-27.344,-14.648,1.0,1.0
1626294732.248854,65.918,-33.691,-6.836,1.0,1.0
1626294732.2527602,-32.227,-59.57,-30.273000000000003,1.0,1.0
1626294732.256667,-92.285,-30.273000000000003,-32.227,1.0,1.0
1626294732.260573,-44.922,-14.648,-25.391,1.0,1.0
1626294732.2644792,16.602,-9.766,-24.901999999999997,111.32799999999999,1.0
1626294732.2683854,-10.254000000000001,-25.879,-29.785,-17.578,1.0
1626294732.2722914,-79.59,-38.086,-39.551,-177.24599999999998,1.0
1626294732.276198,-44.922,-8.301,-33.691,-68.359,1.0
1626294732.2801042,42.48,-10.254000000000001,-25.879,122.07,1.0
1626294732.2840102,38.574,-17.09,-24.901999999999997,70.312,1.0
1626294732.2879167,-69.824,-57.617,-42.48,-155.273,1.0
1626294732.291823,-93.75,-55.663999999999994,-37.598,-157.715,1.0
1626294732.2957292,11.719000000000001,-20.02,0.0,70.801,1.0
1626294732.2996354,36.621,-21.484,-3.418,93.262,1.0
1626294732.3035417,-66.895,-41.504,-44.434,-130.371,1.0
1626294732.307448,-126.95299999999999,-85.449,-67.383,-199.707,1.0
1626294732.3113542,-78.125,-45.41,-46.387,-172.363,1.0
1626294732.3152604,-61.523,-4.883,-27.344,40.527,1.0
1626294732.3191667,26.855,-17.09,-18.066,91.79700000000001,1.0
1626294732.323073,35.645,-28.809,-30.273000000000003,-101.56200000000001,1.0
1626294732.3269792,-61.035,-45.41,-48.34,-181.15200000000002,1.0
1626294732.3308856,-73.73,-17.09,-40.527,16.602,1.0
1626294732.3347917,21.973000000000003,0.488,-18.555,129.395,1.0
1626294732.338698,49.316,3.906,-24.901999999999997,-32.715,1.0
1626294732.3426042,-43.945,-22.949,-35.645,-169.43400000000003,1.0
1626294732.3465104,-102.051,-72.266,-27.831999999999997,-27.344,1.0
1626294732.3504167,-15.137,-19.043,-0.977,155.273,1.0
1626294732.354323,52.733999999999995,7.812,-12.695,40.039,1.0
1626294732.358229,12.695,-3.418,-44.434,1.0,1.0
1626294732.3621356,-74.707,-41.016000000000005,-40.039,1.0,1.0
1626294732.3660414,-78.613,-72.75399999999999,-37.109,1.0,1.0
1626294732.3699481,16.113,-26.366999999999997,-27.344,1.0,1.0
1626294732.373854,13.672,-19.043,-20.508000000000003,1.0,1.0
1626294732.3777602,-75.684,-19.043,-35.645,1.0,1.0
1626294732.381667,-77.148,-60.547,-34.18,1.0,1.0
1626294732.385573,20.996,-70.801,-0.488,1.0,1.0
1626294732.389479,39.062,-34.668,-11.23,1.0,1.0
1626294732.3933854,-43.945,-27.344,-29.785,1.0,1.0
1626294732.3972914,-86.426,-17.578,-20.508000000000003,1.0,1.0
1626294732.401198,-15.137,-61.035,-21.973000000000003,1.0,1.0
1626294732.4051042,-93.262,-23.438000000000002,-44.922,-175.78099999999998,1.0
1626294732.4090104,-53.223,-27.831999999999997,-19.531,-48.34,1.0
1626294732.4129167,45.41,-30.273000000000003,-28.32,137.695,1.0
1626294732.416823,23.926,-4.883,-27.344,41.016000000000005,1.0
1626294732.4207292,-86.426,-44.922,-27.344,-168.457,1.0
1626294732.4246354,-84.961,-55.176,-31.738000000000003,-111.32799999999999,1.0
1626294732.4285414,7.812,-71.289,-22.949,95.215,1.0
1626294732.432448,20.996,-51.27,-20.02,82.52,1.0
1626294732.4363542,-73.242,-13.184000000000001,-32.715,-132.812,1.0
1626294732.4402604,-105.95700000000001,-14.648,-27.344,-162.59799999999998,1.0
1626294732.4441667,-11.719000000000001,-13.672,-20.02,51.758,1.0
1626294732.448073,26.855,-67.87100000000001,-35.156,116.699,1.0
1626294732.4519792,-32.715,-58.593999999999994,-30.761999999999997,1.0,1.0
1626294732.4558854,-80.078,-21.973000000000003,-18.066,1.0,1.0
1626294732.4597917,-29.785,3.418,-20.508000000000003,1.0,1.0
1626294732.463698,29.296999999999997,-10.254000000000001,-31.25,1.0,1.0
1626294732.4676042,-21.484,-76.172,-46.875,1.0,1.0
1626294732.4715104,-83.008,-27.831999999999997,-42.48,1.0,1.0
1626294732.475417,-46.875,5.859,-33.203,1.0,1.0
1626294732.479323,33.691,-11.719000000000001,-31.738000000000003,1.0,1.0
1626294732.483229,-0.977,-44.922,-35.156,1.0,1.0
1626294732.4871356,-106.445,-75.195,-40.039,1.0,1.0
1626294732.4910414,-91.79700000000001,-33.691,-20.996,1.0,1.0
1626294732.4949477,17.09,-6.836,-8.789,1.0,1.0
1626294732.498854,45.41,-7.324,-20.996,1.0,1.0
1626294732.5027602,-50.293,-52.246,-37.109,1.0,1.0
1626294732.506667,-97.656,-70.312,-33.691,1.0,1.0
1626294732.510573,-21.484,-32.227,-34.18,1.0,1.0
1626294732.5144792,33.691,-3.906,-37.109,1.0,1.0
1626294732.5183854,-21.484,14.16,-38.086,1.0,1.0
1626294732.5222914,-102.539,-43.457,-48.828,1.0,1.0
1626294732.526198,-51.758,-49.316,-15.625,1.0,1.0
1626294732.5301042,48.34,-7.324,11.23,1.0,1.0
1626294732.5340102,10.742,-7.324,-7.324,1.0,1.0
1626294732.5379167,-80.078,-25.391,-25.391,1.0,1.0
1626294732.541823,-62.988,-83.008,-30.273000000000003,1.0,1.0
1626294732.5457292,-83.49600000000001,-31.25,-11.719000000000001,-60.547,1.0
1626294732.5496354,-32.715,-1.465,-17.09,125.977,1.0
1626294732.5535417,37.109,-16.113,-19.043,27.344,1.0
1626294732.557448,-17.09,-53.223,-22.461,-173.828,1.0
1626294732.5613542,-103.027,-69.336,-18.555,-82.52,1.0
1626294732.5652604,-70.312,-26.855,-17.578,116.211,1.0
1626294732.5691667,23.438000000000002,-1.465,-24.414,72.266,1.0
1626294732.573073,11.719000000000001,-7.324,-29.296999999999997,-125.977,1.0
1626294732.5769792,-84.961,-28.32,-32.715,-119.62899999999999,1.0
1626294732.5808856,-80.078,-39.551,-38.086,82.52,1.0
1626294732.5847917,15.625,-6.348,-33.203,106.445,1.0
1626294732.588698,28.809,-4.883,-38.086,-75.195,1.0
1626294732.5926042,-68.848,-27.344,-43.457,1.0,1.0
1626294732.5965104,-87.891,-44.922,-13.672,1.0,1.0
1626294732.6004167,15.625,-39.062,0.488,1.0,1.0
1626294732.604323,46.387,-35.645,-38.574,1.0,1.0
1626294732.608229,-52.246,-49.316,-49.316,1.0,1.0
1626294732.6121356,-131.34799999999998,-34.18,-39.551,1.0,1.0
1626294732.6160414,-69.336,-60.059,-42.968999999999994,1.0,1.0
1626294732.6199481,8.301,-56.641000000000005,-52.246,1.0,1.0
1626294732.623854,-21.973000000000003,-22.949,-42.968999999999994,1.0,1.0
1626294732.6277602,-97.16799999999999,-17.578,-29.296999999999997,1.0,1.0
1626294732.631667,-84.473,-34.668,-30.761999999999997,1.0,1.0
1626294732.635573,-4.883,-96.68,-37.109,1.0,1.0
1626294732.639479,-101.56200000000001,-55.176,-55.176,-149.414,1.0
1626294732.6433854,-95.215,-27.831999999999997,-55.663999999999994,69.824,1.0
1626294732.6472914,17.09,-1.465,-23.438000000000002,122.07,1.0
1626294732.651198,31.25,-16.602,-15.625,-90.33200000000001,1.0
1626294732.6551042,-58.593999999999994,-65.918,-24.901999999999997,-191.895,1.0
1626294732.6590104,-87.402,-46.387,-25.879,5.371,1.0
1626294732.6629167,-18.066,-21.973000000000003,-30.273000000000003,135.74200000000002,1.0
1626294732.666823,22.461,-20.996,-44.434,-34.668,1.0
1626294732.6707292,-42.48,-39.062,-38.086,-180.176,1.0
1626294732.6746354,-113.281,-62.012,-33.203,-55.176,1.0
1626294732.6785414,-51.27,-30.761999999999997,-25.879,110.352,1.0
1626294732.682448,49.316,-1.953,-5.371,21.484,1.0
1626294732.6863542,-3.418,-30.273000000000003,-32.715,1.0,1.0
1626294732.6902604,-100.586,-66.895,-53.711000000000006,1.0,1.0
1626294732.6941667,-66.406,-59.082,-21.973000000000003,1.0,1.0
1626294732.698073,37.598,-15.625,2.441,1.0,1.0
1626294732.7019792,27.344,0.977,-17.09,1.0,1.0
1626294732.7058854,-77.148,-3.418,-37.598,1.0,1.0
1626294732.7097917,-85.449,-32.227,-27.344,1.0,1.0
1626294732.713698,2.441,-43.457,-19.531,1.0,1.0
1626294732.7176042,17.578,-28.809,-38.086,1.0,1.0
1626294732.7215104,-59.57,-42.968999999999994,-58.593999999999994,1.0,1.0
1626294732.725417,-87.402,-57.617,-37.598,1.0,1.0
1626294732.729323,-8.301,-66.406,-8.301,1.0,1.0
1626294732.733229,-88.37899999999999,-31.25,-54.199,-188.965,1.0
1626294732.7371356,-46.875,-26.855,-50.781000000000006,-61.523,1.0
1626294732.7410414,40.527,-28.32,-19.043,129.395,1.0
1626294732.7449477,28.32,-15.625,-10.254000000000001,51.27,1.0
1626294732.748854,-74.707,-19.043,-37.598,-157.227,1.0
1626294732.7527602,-85.93799999999999,-13.184000000000001,-27.344,-119.62899999999999,1.0
1626294732.756667,9.766,-39.062,-4.883,92.285,1.0
1626294732.760573,49.316,-50.293,-3.906,106.445,1.0
1626294732.7644792,-25.391,-24.901999999999997,-15.137,-91.79700000000001,1.0
1626294732.7683854,-85.449,-30.273000000000003,-40.039,-148.92600000000002,1.0
1626294732.7722914,-24.901999999999997,-16.602,-33.691,35.156,1.0
1626294732.776198,27.344,-35.645,-19.043,111.816,1.0
1626294732.7801042,-37.598,-34.18,-41.504,-76.172,1.0
1626294732.7840102,-105.95700000000001,-25.879,-41.016000000000005,-192.87099999999998,1.0
1626294732.7879167,-58.593999999999994,-31.738000000000003,-27.831999999999997,-34.668,1.0
1626294732.791823,22.949,-18.555,-30.761999999999997,114.74600000000001,1.0
1626294732.7957292,-9.766,-40.527,-32.227,-17.09,1.0
1626294732.7996354,-98.145,-32.715,-29.785,-185.05900000000003,1.0
1626294732.8035417,-64.941,-10.742,-22.949,-64.453,1.0
1626294732.807448,26.366999999999997,-10.742,-15.137,117.18799999999999,1.0
1626294732.8113542,25.391,-20.508000000000003,-15.137,48.828,1.0
1626294732.8152604,-53.223,-26.855,-30.273000000000003,-140.137,1.0
1626294732.8191667,-68.848,-21.484,-42.48,-118.164,1.0
1626294732.823073,13.184000000000001,-16.602,-21.484,79.102,1.0
1626294732.8269792,41.016000000000005,-3.418,-32.227,1.0,1.0
1626294732.8308856,-52.733999999999995,-25.879,-71.289,1.0,1.0
1626294732.8347917,-106.445,-45.898,-54.199,1.0,1.0
1626294732.838698,-17.578,-11.23,-17.578,1.0,1.0
1626294732.8426042,43.457,-10.742,-2.441,1.0,1.0
1626294732.8465104,-33.691,-34.668,-10.742,1.0,1.0
1626294732.8504167,-114.74600000000001,-57.129,-35.645,1.0,1.0
1626294732.854323,-61.523,-61.523,-38.574,1.0,1.0
1626294732.858229,33.691,-26.855,-23.438000000000002,1.0,1.0
1626294732.8621356,15.137,-6.836,-29.785,1.0,1.0
1626294732.8660414,-87.891,-18.555,-50.293,1.0,1.0
1626294732.8699481,-72.266,-45.898,-37.109,1.0,1.0
1626294732.873854,-90.33200000000001,-39.062,-28.809,-50.781000000000006,1.0
1626294732.8777602,-41.016000000000005,-48.34,-44.922,128.418,1.0
1626294732.881667,39.551,-48.34,-32.715,21.484,1.0
1626294732.885573,-21.484,-48.34,-32.715,-185.05900000000003,1.0
1626294732.889479,-104.98,-50.293,-42.968999999999994,-124.023,1.0
1626294732.8933854,-58.105,-10.254000000000001,-49.316,93.75,1.0
1626294732.8972914,23.926,-10.742,-45.41,76.172,1.0
1626294732.901198,6.836,-23.438000000000002,-34.18,-136.719,1.0
1626294732.9051042,-82.031,-42.968999999999994,-29.785,-159.18,1.0
1626294732.9090104,-83.008,-58.105,-19.531,55.176,1.0
1626294732.9129167,16.602,-21.484,-20.02,110.84,1.0
1626294732.916823,33.203,-23.926,-28.32,-70.312,1.0
1626294732.9207292,-59.57,-30.273000000000003,-43.457,1.0,1.0
1626294732.9246354,-91.79700000000001,-33.203,-64.453,1.0,1.0
1626294732.9285414,-8.789,-66.406,-47.363,1.0,1.0
1626294732.932448,39.551,-51.758,-18.066,1.0,1.0
1626294732.9363542,-41.016000000000005,-32.715,-24.901999999999997,1.0,1.0
1626294732.9402604,-106.934,-17.09,-42.48,1.0,1.0
1626294732.9441667,-36.133,-22.461,-31.25,1.0,1.0
1626294732.948073,36.621,-36.133,-8.789,1.0,1.0
1626294732.9519792,-22.949,-40.039,-22.461,1.0,1.0
1626294732.9558854,-101.074,-36.621,-34.668,1.0,1.0
1626294732.9597917,-61.035,-17.09,-25.879,1.0,1.0
1626294732.963698,26.366999999999997,-30.761999999999997,-26.366999999999997,1.0,1.0
1626294732.9676042,-102.539,-23.438000000000002,-30.761999999999997,-152.344,1.0
1626294732.9715104,-26.855,-13.672,-40.039,52.733999999999995,1.0
1626294732.975417,13.672,-38.086,-36.621,107.91,1.0
1626294732.979323,-44.434,-40.039,-19.531,-69.824,1.0
1626294732.983229,-97.16799999999999,-36.621,-22.461,-159.18,1.0
1626294732.9871356,-25.879,-12.207,-31.25,10.742,1.0
1626294732.9910414,49.316,-22.461,-23.926,144.531,1.0
1626294732.9949477,-3.906,-41.016000000000005,-13.672,-6.348,1.0
1626294732.998854,-101.56200000000001,-46.387,-23.438000000000002,-186.523,1.0
1626294733.0027602,-75.195,-49.316,-31.738000000000003,-75.195,1.0
1626294733.006667,15.625,-31.25,-35.645,106.445,1.0
1626294733.010573,-20.02,-61.035,-50.293,8.301,1.0
1626294733.0144792,-104.00399999999999,-52.733999999999995,-40.527,1.0,1.0
1626294733.0183854,-76.66,-28.32,-17.578,1.0,1.0
1626294733.0222914,20.996,-21.484,-6.348,1.0,1.0
1626294733.026198,23.926,-33.203,-31.738000000000003,1.0,1.0
1626294733.0301042,-83.984,-73.242,-51.27,1.0,1.0
1626294733.0340102,-100.586,-30.273000000000003,-31.25,1.0,1.0
1626294733.0379167,-13.184000000000001,-12.207,-10.254000000000001,1.0,1.0
1626294733.041823,40.527,-31.738000000000003,0.0,1.0,1.0
1626294733.0457292,-25.879,-46.875,-16.113,1.0,1.0
1626294733.0496354,-125.488,-74.707,-48.34,1.0,1.0
1626294733.0535417,-58.593999999999994,-30.273000000000003,-27.831999999999997,1.0,1.0
1626294733.057448,31.738000000000003,-2.441,-5.371,1.0,1.0
1626294733.0613542,-12.207,-19.043,-18.555,1.0,1.0
1626294733.0652604,-110.84,-62.5,-55.176,1.0,1.0
1626294733.0691667,-95.70299999999999,-72.266,-60.547,1.0,1.0
1626294733.073073,17.578,-27.831999999999997,-29.785,1.0,1.0
1626294733.0769792,10.254000000000001,-33.203,-42.48,1.0,1.0
1626294733.0808856,-75.195,-34.668,-46.387,1.0,1.0
1626294733.0847917,-103.516,-63.965,-42.968999999999994,1.0,1.0
1626294733.088698,-23.438000000000002,-46.875,-41.992,1.0,1.0
1626294733.0926042,27.344,-13.184000000000001,-20.02,1.0,1.0
1626294733.0965104,-60.547,-20.02,-21.484,1.0,1.0
1626294733.1004167,-102.051,-24.901999999999997,-37.109,1.0,1.0
1626294733.104323,-44.922,-95.70299999999999,-43.945,1.0,1.0
1626294733.108229,-101.074,-24.901999999999997,-42.48,-187.5,1.0
1626294733.1121356,-52.246,-21.484,-9.277000000000001,-59.082,1.0
1626294733.1160414,37.109,-26.855,-14.648,121.58200000000001,1.0
1626294733.1199481,9.277000000000001,-21.973000000000003,-47.363,30.273000000000003,1.0
1626294733.123854,-85.93799999999999,-18.555,-40.527,-172.363,1.0
1626294733.1277602,-77.637,-9.766,-23.926,-105.469,1.0
1626294733.131667,6.348,-3.906,-11.719000000000001,88.867,1.0
1626294733.135573,41.016000000000005,-1.953,6.348,93.262,1.0
1626294733.139479,-35.645,-19.043,-33.203,-100.586,1.0
1626294733.1433854,-96.191,-48.828,-65.43,-165.03900000000002,1.0
1626294733.1472914,-33.203,-55.176,-39.062,22.461,1.0
1626294733.151198,2.441,-74.707,-32.715,83.49600000000001,1.0
1626294733.1551042,-57.129,-41.016000000000005,-29.296999999999997,1.0,1.0
1626294733.1590104,-111.32799999999999,-20.02,-25.879,1.0,1.0
1626294733.1629167,-46.387,-27.344,-13.672,1.0,1.0
1626294733.166823,29.296999999999997,-34.668,-21.484,1.0,1.0
1626294733.1707292,-34.18,-76.66,-44.922,1.0,1.0
1626294733.1746354,-107.42200000000001,-24.901999999999997,-27.831999999999997,1.0,1.0
1626294733.1785414,-79.59,0.977,-32.715,1.0,1.0
1626294733.182448,14.16,-14.16,-42.48,1.0,1.0
1626294733.1863542,24.901999999999997,-26.366999999999997,-35.156,1.0,1.0
1626294733.1902604,-73.73,-64.453,-42.48,1.0,1.0
1626294733.1941667,-87.891,-39.062,-41.016000000000005,1.0,1.0
1626294733.198073,2.93,-19.043,-30.761999999999997,1.0,1.0
1626294733.2019792,38.086,-11.23,-19.531,1.0,1.0
1626294733.2058854,-37.598,-38.086,-12.207,1.0,1.0
1626294733.2097917,-101.56200000000001,-83.984,-24.901999999999997,1.0,1.0
1626294733.213698,-41.016000000000005,-44.922,-29.785,1.0,1.0
1626294733.2176042,13.672,-15.137,-26.366999999999997,1.0,1.0
1626294733.2215104,-39.062,1.953,-24.414,1.0,1.0
1626294733.225417,-114.258,-32.715,-38.574,1.0,1.0
1626294733.229323,-61.523,-46.875,-36.621,1.0,1.0
1626294733.233229,41.016000000000005,-16.602,-9.277000000000001,1.0,1.0
1626294733.2371356,10.254000000000001,-16.113,-4.395,1.0,1.0
1626294733.2410414,-91.309,-22.461,-31.738000000000003,1.0,1.0
1626294733.2449477,-111.816,-86.914,-50.781000000000006,1.0,1.0
1626294733.248854,-133.30100000000002,-33.203,-55.663999999999994,-47.363,1.0
1626294733.2527602,-47.852,11.719000000000001,-26.366999999999997,125.488,1.0
1626294733.256667,51.758,14.16,-12.207,8.301,1.0
1626294733.260573,7.812,-21.484,-18.555,-173.34,1.0
1626294733.2644792,-98.633,-107.42200000000001,-46.875,-109.863,1.0
1626294733.2683854,-67.87100000000001,-74.219,-41.992,111.32799999999999,1.0
1626294733.2722914,17.578,-32.227,-20.508000000000003,88.37899999999999,1.0
1626294733.276198,8.789,-0.977,-15.625,-141.113,1.0
1626294733.2801042,-77.637,-11.23,-31.25,-165.52700000000002,1.0
1626294733.2840102,-87.891,-45.41,-54.688,58.105,1.0
1626294733.2879167,11.23,-10.742,-40.039,123.04700000000001,1.0
1626294733.291823,52.246,-3.906,-23.438000000000002,-110.84,1.0
1626294733.2957292,-30.273000000000003,3.418,-31.738000000000003,1.0,1.0
1626294733.2996354,-86.914,-25.879,-49.805,1.0,1.0
1626294733.3035417,-17.578,-56.641000000000005,-35.645,1.0,1.0
1626294733.307448,53.711000000000006,-6.348,-4.883,1.0,1.0
1626294733.3113542,-8.301,-18.066,-21.484,1.0,1.0
1626294733.3152604,-83.984,-27.344,-43.457,1.0,1.0
1626294733.3191667,-38.574,-54.688,-49.805,1.0,1.0
1626294733.323073,51.27,-62.988,-22.461,1.0,1.0
1626294733.3269792,18.555,-25.391,-20.508000000000003,1.0,1.0
1626294733.3308856,-75.684,-14.16,-36.621,1.0,1.0
1626294733.3347917,-59.082,-17.578,-25.879,1.0,1.0
1626294733.338698,14.16,-57.129,-35.645,1.0,1.0
1626294733.3426042,-80.078,-45.898,-20.508000000000003,-145.50799999999998,1.0
1626294733.3465104,1.953,-17.578,-10.742,58.105,1.0
1626294733.3504167,49.316,-20.508000000000003,-5.371,119.141,1.0
1626294733.354323,-29.296999999999997,-14.648,-23.438000000000002,-80.566,1.0
1626294733.358229,-101.56200000000001,-24.901999999999997,-45.898,-188.965,1.0
1626294733.3621356,-39.062,-25.879,-36.133,-9.277000000000001,1.0
1626294733.3660414,45.41,-53.711000000000006,-26.366999999999997,130.859,1.0
1626294733.3699481,4.395,-53.223,-30.273000000000003,-14.648,1.0
1626294733.373854,-81.055,-19.043,-47.363,-182.61700000000002,1.0
1626294733.3777602,-37.598,-3.906,-51.27,-59.57,1.0
1626294733.381667,46.875,-2.441,-23.926,119.62899999999999,1.0
1626294733.385573,15.625,-67.383,-24.901999999999997,27.344,1.0
1626294733.389479,-67.383,-71.777,-39.062,1.0,1.0
1626294733.3933854,-66.895,-31.25,-11.719000000000001,1.0,1.0
1626294733.3972914,7.324,-34.18,4.883,1.0,1.0
1626294733.401198,13.184000000000001,-52.246,-17.578,1.0,1.0
1626294733.4051042,-89.355,-91.309,-53.223,1.0,1.0
1626294733.4090104,-117.676,-36.133,-52.733999999999995,1.0,1.0
1626294733.4129167,-13.184000000000001,11.23,-19.531,1.0,1.0
1626294733.416823,35.645,-16.113,-32.715,1.0,1.0
1626294733.4207292,-54.199,-37.598,-68.848,1.0,1.0
1626294733.4246354,-126.465,-63.477,-61.523,1.0,1.0
1626294733.4285414,-63.965,-48.34,-40.527,1.0,1.0
1626294733.432448,14.648,-32.715,-39.551,1.0,1.0
1626294733.4363542,-7.324,-5.371,-24.414,1.0,1.0
1626294733.4402604,-105.469,-49.805,-30.273000000000003,1.0,1.0
1626294733.4441667,-104.492,-85.93799999999999,-58.593999999999994,1.0,1.0
1626294733.448073,7.812,-28.809,-46.387,1.0,1.0
1626294733.4519792,3.418,-22.949,-38.086,1.0,1.0
1626294733.4558854,-95.215,-28.32,-46.875,1.0,1.0
1626294733.4597917,-124.512,-60.059,-57.617,1.0,1.0
1626294733.463698,-31.25,-52.733999999999995,-52.246,1.0,1.0
1626294733.4676042,20.02,-21.973000000000003,-34.668,1.0,1.0
1626294733.4715104,-63.477,-46.875,-29.296999999999997,1.0,1.0
1626294733.475417,-103.027,-49.316,-24.414,1.0,1.0
1626294733.479323,-59.57,-90.82,-52.733999999999995,1.0,1.0
1626294733.483229,-62.988,-49.316,-29.296999999999997,83.49600000000001,1.0
1626294733.4871356,17.578,9.766,-20.02,110.352,1.0
1626294733.4910414,17.09,6.836,-16.602,-103.027,1.0
1626294733.4949477,-82.52,-20.996,-45.898,-161.13299999999998,1.0
1626294733.498854,-142.09,-91.79700000000001,-68.848,29.296999999999997,1.0
1626294733.5027602,-26.366999999999997,-33.203,-24.414,160.645,1.0
1626294733.506667,38.574,-10.254000000000001,-11.719000000000001,-25.391,1.0
1626294733.510573,-52.733999999999995,-48.828,-37.598,-216.797,1.0
1626294733.5144792,-117.18799999999999,-61.035,-27.831999999999997,-70.801,1.0
1626294733.5183854,-44.922,-73.242,-27.831999999999997,115.234,1.0
1626294733.5222914,38.086,-29.296999999999997,-34.18,21.973000000000003,1.0
1626294733.526198,-14.648,-8.301,-31.25,-167.96900000000002,1.0
1626294733.5301042,-92.285,-3.418,-28.809,1.0,1.0
1626294733.5340102,-58.105,-11.719000000000001,-17.578,1.0,1.0
1626294733.5379167,37.109,-18.066,-15.137,1.0,1.0
1626294733.541823,34.18,11.23,-9.277000000000001,1.0,1.0
1626294733.5457292,-80.078,-16.602,-29.785,1.0,1.0
1626294733.5496354,-97.16799999999999,-32.715,-31.25,1.0,1.0
1626294733.5535417,6.836,-4.883,-3.418,1.0,1.0
1626294733.557448,47.363,-14.648,-6.348,1.0,1.0
1626294733.5613542,-44.434,-49.316,-30.761999999999997,1.0,1.0
1626294733.5652604,-98.145,-45.898,-36.133,1.0,1.0
1626294733.5691667,-17.09,-40.039,-23.438000000000002,1.0,1.0
1626294733.573073,46.387,-41.016000000000005,-25.391,1.0,1.0
1626294733.5769792,-13.184000000000001,-34.18,-32.715,1.0,1.0
1626294733.5808856,-94.238,-21.973000000000003,-37.109,1.0,1.0
1626294733.5847917,-43.945,7.812,-20.508000000000003,1.0,1.0
1626294733.588698,50.781000000000006,8.789,-8.789,1.0,1.0
1626294733.5926042,11.719000000000001,-20.508000000000003,-16.113,1.0,1.0
1626294733.5965104,-68.848,-14.648,0.0,1.0,1.0
1626294733.6004167,-35.645,-10.254000000000001,2.441,1.0,1.0
1626294733.604323,40.527,-24.414,-25.391,1.0,1.0
1626294733.608229,26.855,-16.113,-35.156,1.0,1.0
1626294733.6121356,-64.453,-11.719000000000001,-41.504,1.0,1.0
1626294733.6160414,-74.219,1.953,-33.203,1.0,1.0
1626294733.6199481,15.625,-2.441,-11.719000000000001,1.0,1.0
1626294733.623854,42.968999999999994,-17.578,-6.836,1.0,1.0
1626294733.6277602,-59.57,-34.18,-35.645,1.0,1.0
1626294733.631667,-119.141,-49.316,-46.387,1.0,1.0
1626294733.635573,-16.113,-21.973000000000003,-9.766,1.0,1.0
1626294733.639479,77.148,-10.742,15.625,1.0,1.0
1626294733.6433854,-10.254000000000001,-24.901999999999997,-31.25,1.0,1.0
1626294733.6472914,-122.07,-57.129,-81.543,1.0,1.0
1626294733.651198,-60.547,-50.293,-44.922,1.0,1.0
1626294733.6551042,35.645,-34.18,-13.672,1.0,1.0
1626294733.6590104,2.441,-25.391,-22.949,1.0,1.0
1626294733.6629167,-84.473,-24.414,-36.133,1.0,1.0
1626294733.666823,-92.285,-76.172,-54.199,1.0,1.0
1626294733.6707292,-80.566,-40.527,-26.366999999999997,-163.57399999999998,1.0
1626294733.6746354,-4.883,3.418,0.0,29.296999999999997,1.0
1626294733.6785414,48.34,-4.883,-8.301,149.414,1.0
1626294733.682448,-9.277000000000001,-26.855,-28.809,-8.789,1.0
1626294733.6863542,-117.18799999999999,-99.609,-46.387,-196.28900000000002,1.0
1626294733.6902604,-79.59,-50.781000000000006,-39.551,-76.172,1.0
1626294733.6941667,36.133,-15.625,-34.668,129.88299999999998,1.0
1626294733.698073,24.901999999999997,-20.508000000000003,-31.738000000000003,54.199,1.0
1626294733.7019792,-90.82,-43.457,-40.527,-170.898,1.0
1626294733.7058854,-106.445,-72.75399999999999,-38.574,-147.461,1.0
1626294733.7097917,0.977,-24.414,-16.602,79.102,1.0
1626294733.713698,36.133,-7.324,-11.23,94.238,1.0
1626294733.7176042,-39.551,7.812,-9.766,1.0,1.0
1626294733.7215104,-100.586,-14.648,-32.715,1.0,1.0
1626294733.725417,-37.109,-56.641000000000005,-40.039,1.0,1.0
1626294733.729323,39.551,-15.625,-25.391,1.0,1.0
1626294733.733229,-31.25,-8.301,-46.387,1.0,1.0
1626294733.7371356,-106.445,-17.09,-56.641000000000005,1.0,1.0
1626294733.7410414,-77.637,-62.5,-80.078,1.0,1.0
1626294733.7449477,-1.953,-71.777,-65.43,1.0,1.0
1626294733.748854,-9.277000000000001,-29.296999999999997,-26.855,1.0,1.0
1626294733.7527602,-97.656,-21.973000000000003,-47.363,1.0,1.0
1626294733.756667,-62.012,-18.555,-29.785,1.0,1.0
1626294733.760573,9.277000000000001,-83.49600000000001,-33.691,1.0,1.0
1626294733.7644792,-92.773,-33.203,-35.156,-151.36700000000002,1.0
1626294733.7683854,-20.508000000000003,-37.109,-13.672,41.016000000000005,1.0
1626294733.7722914,19.043,-45.898,-8.789,100.098,1.0
1626294733.776198,-59.57,-37.598,-30.273000000000003,-102.539,1.0
1626294733.7801042,-107.42200000000001,-48.828,-30.761999999999997,-197.266,1.0
1626294733.7840102,-18.555,-20.508000000000003,1.953,1.465,1.0
