timestamps,TP9,AF7,AF8,TP10,Right AUX
1626294701.233229,-86.426,-13.672,-14.16,-181.641,1.0
1626294701.2371356,-17.09,-17.578,-20.508000000000003,1.465,1.0
1626294701.2410414,27.831999999999997,-63.477,-71.289,111.816,1.0
1626294701.2449477,-3.418,-38.574,-81.543,-14.16,1.0
1626294701.248854,-64.453,10.254000000000001,-26.855,-158.691,1.0
1626294701.2527602,-69.336,-9.766,-2.441,-83.49600000000001,1.0
1626294701.256667,12.207,-21.973000000000003,-15.625,99.12100000000001,1.0
1626294701.260573,11.23,-35.645,-23.438000000000002,38.574,1.0
1626294701.2644792,-74.219,-36.621,-30.273000000000003,-163.57399999999998,1.0
1626294701.2683854,-91.79700000000001,-37.598,-53.223,-140.625,1.0
1626294701.2722914,2.93,-15.625,-35.645,80.078,1.0
1626294701.276198,57.129,-9.277000000000001,-13.184000000000001,115.723,1.0
1626294701.2801042,19.043,22.949,-3.418,1.0,1.0
1626294701.2840102,-70.801,0.0,-14.648,1.0,1.0
1626294701.2879167,-98.633,-57.617,-52.733999999999995,1.0,1.0
1626294701.291823,1.953,-58.593999999999994,-30.761999999999997,1.0,1.0
1626294701.2957292,53.711000000000006,-29.785,2.93,1.0,1.0
1626294701.2996354,-30.273000000000003,-17.09,8.789,1.0,1.0
1626294701.3035417,-105.95700000000001,-25.879,-8.789,1.0,1.0
1626294701.307448,-61.523,-62.988,-56.641000000000005,1.0,1.0
1626294701.3113542,10.742,-44.922,-40.039,1.0,1.0
1626294701.3152604,-26.366999999999997,-16.113,-8.301,1.0,1.0
1626294701.3191667,-86.426,-26.366999999999997,-17.09,1.0,1.0
1626294701.323073,-58.105,-47.363,-24.901999999999997,1.0,1.0
1626294701.3269792,-0.977,-23.926,-1.953,29.785,1.0
1626294701.3308856,71.777,-26.366999999999997,-12.695,155.762,1.0
1626294701.3347917,-22.461,-60.547,-39.062,-43.457,1.0
1626294701.338698,-109.863,-51.758,-15.137,-204.59,1.0
1626294701.3426042,-47.363,-31.25,4.883,-48.34,1.0
1626294701.3465104,29.296999999999997,-33.691,-21.484,123.535,1.0
1626294701.3504167,-4.883,-2.441,-52.246,21.484,1.0
1626294701.354323,-102.051,-20.996,-52.733999999999995,-178.71099999999998,1.0
1626294701.358229,-84.473,-30.761999999999997,-16.113,-117.18799999999999,1.0
1626294701.3621356,21.484,-20.996,-18.066,102.539,1.0
1626294701.3660414,41.016000000000005,-18.555,-22.461,102.051,1.0
1626294701.3699481,-71.777,-40.039,-35.645,-124.023,1.0
1626294701.373854,-102.539,-30.761999999999997,-39.551,-191.40599999999998,1.0
1626294701.3777602,-105.469,-0.977,-33.203,-149.414,1.0
1626294701.381667,-0.977,-19.043,-30.761999999999997,74.219,1.0
1626294701.385573,30.273000000000003,-44.434,-34.18,82.031,1.0
1626294701.389479,-52.733999999999995,-28.32,-29.296999999999997,-121.094,1.0
1626294701.3933854,-99.12100000000001,-20.508000000000003,-48.828,-172.363,1.0
1626294701.3972914,-19.043,-15.137,-37.598,27.831999999999997,1.0
1626294701.401198,25.879,-50.293,-33.203,104.00399999999999,1.0
1626294701.4051042,-55.176,-62.5,-63.477,-94.238,1.0
1626294701.4090104,-117.18799999999999,-45.898,-56.152,-212.891,1.0
1626294701.4129167,-53.223,-28.32,-15.137,-41.504,1.0
1626294701.416823,40.527,-16.602,-0.488,133.30100000000002,1.0
1626294701.4207292,72.266,9.766,-0.977,6.348,1.0
1626294701.4246354,0.0,-11.23,-37.598,-184.082,1.0
1626294701.4285414,-107.91,-52.246,-60.059,-76.172,1.0
1626294701.432448,-32.227,-29.785,-28.809,130.371,1.0
1626294701.4363542,77.637,-5.859,-2.93,61.035,1.0
1626294701.4402604,22.461,-32.227,-25.879,-153.809,1.0
1626294701.4441667,-80.078,-39.551,-31.25,-153.32,1.0
1626294701.448073,-89.355,-75.195,-41.016000000000005,65.918,1.0
1626294701.4519792,24.901999999999997,-45.898,-23.438000000000002,120.117,1.0
1626294701.4558854,54.688,2.441,-19.043,-88.867,1.0
1626294701.4597917,-49.316,-14.648,-47.852,-159.18,1.0
1626294701.463698,-75.195,-39.062,-16.113,47.852,1.0
1626294701.4676042,-94.727,-15.625,-41.016000000000005,-129.395,1.0
1626294701.4715104,32.227,11.719000000000001,1.953,110.352,1.0
1626294701.475417,52.246,-18.555,-11.23,114.258,1.0
1626294701.479323,-58.593999999999994,-31.25,-59.082,-125.977,1.0
1626294701.483229,-94.238,-17.578,-63.965,-166.50400000000002,1.0
1626294701.4871356,-13.184000000000001,-23.438000000000002,-28.809,46.387,1.0
1626294701.4910414,35.645,-10.254000000000001,-17.09,115.723,1.0
1626294701.4949477,-24.414,-58.593999999999994,-46.387,-67.87100000000001,1.0
1626294701.498854,-91.309,-67.383,-37.598,-180.66400000000002,1.0
1626294701.5027602,-38.574,-3.906,-7.812,-10.254000000000001,1.0
1626294701.506667,38.574,29.785,3.418,136.719,1.0
1626294701.510573,2.93,-0.977,-15.625,0.977,1.0
1626294701.5144792,2.441,-29.296999999999997,-20.996,1.0,1.0
1626294701.5183854,-103.027,-20.508000000000003,-54.199,1.0,1.0
1626294701.5222914,-83.49600000000001,-61.523,-62.988,1.0,1.0
1626294701.526198,8.301,-53.223,-28.809,1.0,1.0
1626294701.5301042,-9.277000000000001,0.0,-30.761999999999997,1.0,1.0
1626294701.5340102,-104.492,-5.371,-55.176,1.0,1.0
1626294701.5379167,-66.406,-4.883,-45.41,1.0,1.0
1626294701.541823,22.461,-53.223,-30.761999999999997,1.0,1.0
1626294701.5457292,15.137,-70.312,-40.527,1.0,1.0
1626294701.5496354,-66.895,-53.223,-50.293,1.0,1.0
1626294701.5535417,-78.613,-30.761999999999997,-19.531,1.0,1.0
1626294701.557448,2.93,-25.879,-1.953,1.0,1.0
1626294701.5613542,32.227,-2.441,-10.254000000000001,107.42200000000001,1.0
1626294701.5652604,53.711000000000006,17.578,-3.418,90.82,1.0
1626294701.5691667,-55.663999999999994,-29.296999999999997,-37.598,-140.625,1.0
1626294701.573073,-102.539,-62.988,-45.41,-177.24599999999998,1.0
1626294701.5769792,-13.184000000000001,-44.434,-25.879,40.527,1.0
1626294701.5808856,39.551,-40.039,-22.949,110.84,1.0
1626294701.5847917,-28.809,-23.438000000000002,-22.949,-81.543,1.0
1626294701.588698,-95.215,-30.761999999999997,-24.414,-179.199,1.0
1626294701.5926042,-24.901999999999997,-22.949,-10.254000000000001,4.883,1.0
1626294701.5965104,51.27,-8.789,-0.488,133.789,1.0
1626294701.6004167,-6.348,-11.719000000000001,-24.414,-24.414,1.0
1626294701.604323,-68.359,-12.695,-29.296999999999997,-165.03900000000002,1.0
1626294701.608229,-87.891,-13.184000000000001,-48.34,-165.03900000000002,1.0
1626294701.6121356,-23.438000000000002,-6.836,-16.602,8.789,1.0
1626294701.6160414,33.691,-55.176,-19.043,127.441,1.0
1626294701.6199481,-9.766,-62.012,-51.27,-20.996,1.0
1626294701.623854,-86.426,-39.551,-61.035,-185.05900000000003,1.0
1626294701.6277602,-49.805,-35.156,-12.207,-63.477,1.0
1626294701.631667,41.992,-8.789,9.277000000000001,135.254,1.0
1626294701.635573,-0.488,-42.48,-29.296999999999997,34.18,1.0
1626294701.639479,-95.70299999999999,-29.296999999999997,-29.785,-176.27,1.0
1626294701.6433854,-75.195,5.859,-15.625,-115.234,1.0
1626294701.6472914,12.695,3.418,-20.996,91.79700000000001,1.0
1626294701.651198,6.348,-42.968999999999994,-48.828,69.336,1.0
1626294701.6551042,43.945,0.0,-37.598,-153.809,1.0
1626294701.6590104,-45.898,-11.719000000000001,-49.316,-176.27,1.0
1626294701.6629167,-115.723,-104.00399999999999,-48.828,49.316,1.0
1626294701.666823,-16.602,-71.289,-27.831999999999997,150.391,1.0
1626294701.6707292,44.434,3.906,-10.742,-57.129,1.0
1626294701.6746354,-52.246,-30.273000000000003,-31.25,-201.66,1.0
1626294701.6785414,-102.539,-39.551,-49.316,-20.508000000000003,1.0
1626294701.682448,-45.41,-67.87100000000001,-61.523,142.09,1.0
1626294701.6863542,26.855,-50.293,-42.48,6.348,1.0
1626294701.6902604,-13.672,-13.672,-41.504,-211.91400000000002,1.0
1626294701.6941667,-82.52,7.812,-63.477,-115.723,1.0
1626294701.698073,-40.527,-6.836,-49.316,116.211,1.0
1626294701.7019792,-23.926,-3.906,-8.301,11.23,1.0
1626294701.7058854,55.176,7.324,-27.344,141.113,1.0
1626294701.7097917,-34.668,-65.43,-52.246,-49.316,1.0
1626294701.713698,-117.676,-89.355,-25.391,-204.59,1.0
1626294701.7176042,-73.242,-25.879,-10.254000000000001,-71.777,1.0
1626294701.7215104,19.043,18.066,-20.508000000000003,110.352,1.0
1626294701.725417,25.391,32.227,-10.254000000000001,42.48,1.0
1626294701.729323,-82.031,-38.086,-19.531,-166.50400000000002,1.0
1626294701.733229,-89.844,-52.246,-23.926,-121.58200000000001,1.0
1626294701.7371356,0.977,-21.484,-20.02,90.33200000000001,1.0
1626294701.7410414,21.484,2.441,-15.625,83.008,1.0
1626294701.7449477,-64.453,-16.602,-25.391,-138.672,1.0
1626294701.748854,-77.637,-34.668,-21.973000000000003,-162.109,1.0
1626294701.7527602,-83.49600000000001,-9.766,-23.926,-134.27700000000002,1.0
1626294701.756667,-15.625,-39.551,-68.848,49.805,1.0
1626294701.760573,23.926,-40.039,-66.895,65.918,1.0
1626294701.7644792,-38.574,-7.324,-40.039,-107.42200000000001,1.0
1626294701.7683854,-94.238,-7.324,-25.391,-166.016,1.0
1626294701.7722914,-29.296999999999997,3.906,-3.906,19.531,1.0
1626294701.776198,15.137,-60.059,-24.414,106.934,1.0
1626294701.7801042,-43.457,-41.504,-26.366999999999997,-63.965,1.0
1626294701.7840102,-102.051,-10.742,1.465,-185.05900000000003,1.0
1626294701.7879167,-42.48,-51.27,1.465,-24.414,1.0
1626294701.791823,29.296999999999997,-61.035,-17.578,134.766,1.0
1626294701.7957292,43.457,9.766,-32.715,1.0,1.0
1626294701.7996354,-16.602,18.066,-12.695,1.0,1.0
1626294701.8035417,-88.37899999999999,-41.504,-17.09,1.0,1.0
1626294701.807448,-43.945,-53.711000000000006,-19.531,1.0,1.0
1626294701.8113542,31.738000000000003,-7.812,-20.508000000000003,1.0,1.0
1626294701.8152604,4.395,-10.254000000000001,-13.672,1.0,1.0
1626294701.8191667,-87.402,-22.461,-10.742,1.0,1.0
1626294701.823073,-85.93799999999999,-31.25,-23.926,1.0,1.0
1626294701.8269792,20.02,-12.695,-27.831999999999997,1.0,1.0
1626294701.8308856,48.828,-7.812,-31.738000000000003,1.0,1.0
1626294701.8347917,-42.968999999999994,-13.672,-31.738000000000003,1.0,1.0
1626294701.838698,-84.961,-12.695,-37.598,1.0,1.0
1626294701.8426042,-81.543,-26.855,-33.691,-115.723,1.0
1626294701.8465104,20.02,-33.691,-3.418,97.16799999999999,1.0
1626294701.8504167,40.039,-46.875,-17.09,82.52,1.0
1626294701.854323,-65.918,-47.363,-42.968999999999994,-146.484,1.0
1626294701.858229,-104.00399999999999,-20.508000000000003,-30.761999999999997,-186.035,1.0
1626294701.8621356,-6.836,7.812,-6.348,35.156,1.0
1626294701.8660414,51.27,7.324,-9.277000000000001,125.0,1.0
1626294701.8699481,-42.48,-40.527,-58.593999999999994,-83.008,1.0
1626294701.873854,-101.56200000000001,-46.875,-56.641000000000005,-191.40599999999998,1.0
1626294701.8777602,-35.156,-32.227,-38.086,-12.207,1.0
1626294701.881667,40.039,-9.766,-42.48,130.859,1.0
1626294701.885573,-15.137,-1.465,-32.715,-21.973000000000003,1.0
1626294701.889479,-22.461,-40.527,-53.711000000000006,1.0,1.0
1626294701.8933854,-96.68,-42.48,-39.551,1.0,1.0
1626294701.8972914,-25.391,-18.555,-12.695,1.0,1.0
1626294701.901198,57.129,-18.066,7.324,1.0,1.0
1626294701.9051042,8.789,-29.296999999999997,-0.977,1.0,1.0
1626294701.9090104,-77.637,-35.645,-5.371,1.0,1.0
1626294701.9129167,-50.293,-18.555,-4.395,1.0,1.0
1626294701.916823,52.246,-5.859,-1.465,1.0,1.0
1626294701.9207292,47.363,-7.324,-19.531,1.0,1.0
1626294701.9246354,-76.66,-13.672,-43.457,1.0,1.0
1626294701.9285414,-81.055,-22.949,-37.109,1.0,1.0
1626294701.932448,37.598,-35.645,-22.461,1.0,1.0
1626294701.9363542,23.438000000000002,-6.836,-27.831999999999997,111.32799999999999,1.0
1626294701.9402604,19.531,-8.789,-26.366999999999997,69.824,1.0
1626294701.9441667,-71.289,-26.366999999999997,-24.901999999999997,-136.719,1.0
1626294701.948073,-95.70299999999999,-35.156,-27.831999999999997,-148.438,1.0
1626294701.9519792,0.0,-35.645,-19.043,59.082,1.0
1626294701.9558854,55.176,-56.152,-46.875,123.04700000000001,1.0
1626294701.9597917,-31.25,-44.922,-42.968999999999994,-70.312,1.0
1626294701.963698,-112.305,-46.875,-35.156,-197.75400000000002,1.0
1626294701.9676042,-32.715,-32.715,-19.043,-3.418,1.0
1626294701.9715104,68.848,8.301,11.719000000000001,168.945,1.0
1626294701.975417,10.254000000000001,8.789,-9.277000000000001,10.254000000000001,1.0
1626294701.979323,-113.281,-31.25,-53.711000000000006,-199.707,1.0
1626294701.983229,-105.469,-46.875,-70.801,-196.28900000000002,1.0
1626294701.9871356,-38.086,8.301,-62.012,-31.738000000000003,1.0
1626294701.9910414,51.27,2.93,-18.555,134.27700000000002,1.0
1626294701.9949477,-13.184000000000001,-26.366999999999997,-24.414,-22.949,1.0
1626294701.998854,-100.586,-36.133,-41.992,-190.43,1.0
1626294702.0027602,-69.824,-18.066,-51.27,-65.918,1.0
1626294702.006667,18.555,-9.277000000000001,-41.016000000000005,119.62899999999999,1.0
1626294702.010573,-3.906,-49.805,-26.366999999999997,32.227,1.0
1626294702.0144792,-99.12100000000001,-23.926,-26.366999999999997,-180.66400000000002,1.0
1626294702.0183854,-92.285,-16.602,-11.719000000000001,-145.02,1.0
1626294702.0222914,29.296999999999997,-47.363,19.043,102.051,1.0
1626294702.026198,68.359,-22.461,12.695,135.254,1.0
1626294702.0301042,32.715,16.113,-20.996,1.0,1.0
1626294702.0340102,-59.57,-26.366999999999997,-26.855,1.0,1.0
1626294702.0379167,-83.984,-56.641000000000005,-24.414,1.0,1.0
1626294702.041823,2.93,-32.227,-44.434,1.0,1.0
1626294702.0457292,39.551,-12.695,-61.523,1.0,1.0
1626294702.0496354,-44.434,-22.461,-34.668,1.0,1.0
1626294702.0535417,-87.891,-18.066,-3.906,1.0,1.0
1626294702.057448,-22.461,-30.761999999999997,-6.836,1.0,1.0
1626294702.0613542,41.016000000000005,-48.828,-17.09,1.0,1.0
1626294702.0652604,-14.16,-38.574,-34.18,1.0,1.0
1626294702.0691667,-106.445,-20.996,-49.316,1.0,1.0
1626294702.073073,-42.48,2.93,-14.16,1.0,1.0
1626294702.0769792,0.488,0.488,-37.598,1.953,1.0
1626294702.0808856,60.547,0.488,-23.438000000000002,137.207,1.0
1626294702.0847917,-23.438000000000002,-59.57,-71.777,-34.668,1.0
1626294702.088698,-92.285,-52.733999999999995,-75.684,-198.73,1.0
1626294702.0926042,-21.973000000000003,-6.348,-16.602,-43.457,1.0
1626294702.0965104,73.242,-16.113,-9.766,156.25,1.0
1626294702.1004167,52.733999999999995,-30.761999999999997,-28.32,61.523,1.0
1626294702.104323,-67.87100000000001,-60.059,-36.133,-170.41,1.0
1626294702.108229,-83.008,-33.203,-34.668,-136.719,1.0
1626294702.1121356,41.992,-3.906,-20.02,96.191,1.0
1626294702.1160414,80.078,16.602,10.254000000000001,112.79299999999999,1.0
1626294702.1199481,-51.27,1.465,-10.742,-120.605,1.0
1626294702.123854,-81.543,-31.25,-51.758,-156.738,1.0
1626294702.1277602,-93.262,-21.973000000000003,-61.523,-159.18,1.0
1626294702.131667,4.883,-8.789,-22.461,51.27,1.0
1626294702.135573,42.48,-31.738000000000003,-8.301,76.172,1.0
1626294702.139479,-39.551,-70.312,-17.09,-115.234,1.0
1626294702.1433854,-73.73,-43.945,-15.137,-145.02,1.0
1626294702.1472914,8.789,-23.438000000000002,-14.648,54.688,1.0
1626294702.151198,70.801,-53.711000000000006,-18.066,154.785,1.0
1626294702.1551042,-21.484,-42.48,-38.574,-59.57,1.0
1626294702.1590104,-128.906,-41.504,-68.848,-230.46900000000002,1.0
1626294702.1629167,-68.848,-36.133,-60.059,-59.082,1.0
1626294702.166823,35.156,-20.996,-28.809,121.58200000000001,1.0
1626294702.1707292,78.613,-3.418,-14.16,163.57399999999998,1.0
1626294702.1746354,6.348,16.113,18.066,-13.672,1.0
1626294702.1785414,-84.961,-24.414,-13.672,-187.988,1.0
1626294702.182448,-70.312,-49.316,-61.035,-79.59,1.0
1626294702.1863542,10.254000000000001,-42.968999999999994,-44.434,106.445,1.0
1626294702.1902604,6.836,-44.922,-22.949,22.461,1.0
1626294702.1941667,-78.613,-29.785,-22.461,-174.805,1.0
1626294702.198073,-103.516,-45.898,-48.828,-143.066,1.0
1626294702.2019792,-3.906,-19.531,-38.086,82.52,1.0
1626294702.2058854,25.879,-6.348,-32.227,72.75399999999999,1.0
1626294702.2097917,-36.133,-30.273000000000003,-31.738000000000003,-138.184,1.0
1626294702.213698,-64.453,-38.574,-16.602,-146.484,1.0
1626294702.2176042,-100.586,-5.371,-65.918,-132.812,1.0
1626294702.2215104,10.254000000000001,4.395,-47.363,94.727,1.0
1626294702.225417,24.901999999999997,-15.137,-41.016000000000005,78.613,1.0
1626294702.229323,-59.57,-23.438000000000002,-24.414,-127.93,1.0
1626294702.233229,-72.75399999999999,-14.16,-21.484,-145.50799999999998,1.0
1626294702.2371356,8.301,-30.761999999999997,-27.344,58.593999999999994,1.0
1626294702.2410414,45.41,-23.438000000000002,-30.273000000000003,125.488,1.0
1626294702.2449477,-62.012,-60.059,-66.406,-108.887,1.0
1626294702.248854,-120.605,-34.18,-53.223,-214.355,1.0
1626294702.2527602,-47.852,22.461,-19.531,-20.508000000000003,1.0
1626294702.256667,27.831999999999997,8.789,-12.207,125.0,1.0
1626294702.260573,-1.465,-26.366999999999997,-17.578,-12.695,1.0
1626294702.2644792,-34.18,-21.484,-32.715,1.0,1.0
1626294702.2683854,-101.074,-19.043,-70.801,1.0,1.0
1626294702.2722914,-22.949,-9.766,-62.988,1.0,1.0
1626294702.276198,56.641000000000005,-20.508000000000003,-25.879,1.0,1.0
1626294702.2801042,-7.812,-23.438000000000002,-48.34,1.0,1.0
1626294702.2840102,-94.238,-15.137,-43.945,1.0,1.0
1626294702.2879167,-57.617,-7.812,2.93,1.0,1.0
1626294702.291823,6.348,-40.039,-21.973000000000003,1.0,1.0
1626294702.2957292,-2.93,-51.758,-43.945,1.0,1.0
1626294702.2996354,-68.359,-32.715,-40.039,1.0,1.0
1626294702.3035417,-79.102,-6.348,-36.133,1.0,1.0
1626294702.307448,10.742,-3.906,-41.992,1.0,1.0
1626294702.3113542,10.254000000000001,-45.41,-26.855,81.543,1.0
1626294702.3152604,32.227,-22.461,-17.09,66.895,1.0
1626294702.3191667,-66.406,-44.434,-29.785,-153.32,1.0
1626294702.323073,-95.70299999999999,-28.32,-39.551,-163.57399999999998,1.0
1626294702.3269792,10.254000000000001,-8.789,-21.484,73.242,1.0
1626294702.3308856,63.965,-8.301,-11.719000000000001,134.766,1.0
1626294702.3347917,-38.574,14.648,-34.18,-90.82,1.0
1626294702.338698,-133.30100000000002,-48.828,-61.523,-226.074,1.0
1626294702.3426042,-39.551,-42.48,-35.156,-23.438000000000002,1.0
1626294702.3465104,41.016000000000005,-8.301,-23.926,124.023,1.0
1626294702.3504167,-24.414,-30.273000000000003,-37.598,-45.41,1.0
1626294702.354323,-114.74600000000001,-57.129,-31.738000000000003,-208.00799999999998,1.0
1626294702.358229,-101.074,-6.348,-13.672,-188.477,1.0
1626294702.3621356,-41.016000000000005,7.324,-9.277000000000001,-18.066,1.0
1626294702.3660414,20.02,-47.363,-13.184000000000001,111.816,1.0
1626294702.3699481,-9.277000000000001,-57.129,-27.831999999999997,-20.02,1.0
1626294702.373854,-79.102,-23.926,-39.551,-181.641,1.0
1626294702.3777602,-55.176,-33.203,-29.296999999999997,-73.242,1.0
1626294702.381667,57.617,-18.066,1.465,144.043,1.0
1626294702.385573,18.066,-40.527,-30.273000000000003,43.457,1.0
1626294702.389479,-91.79700000000001,-46.875,-44.434,-180.66400000000002,1.0
1626294702.3933854,-77.637,-32.227,-14.648,-124.512,1.0
1626294702.3972914,36.133,-25.879,-7.812,110.352,1.0
1626294702.401198,51.758,-23.438000000000002,-19.043,111.32799999999999,1.0
1626294702.4051042,18.066,-9.766,-7.324,-128.418,1.0
1626294702.4090104,-69.824,-26.855,-10.742,-166.016,1.0
1626294702.4129167,-85.93799999999999,-72.75399999999999,3.418,54.199,1.0
1626294702.416823,1.953,-64.941,1.465,157.227,1.0
1626294702.4207292,32.227,-2.93,-10.254000000000001,-52.246,1.0
1626294702.4246354,-53.711000000000006,-10.254000000000001,-8.301,-199.21900000000002,1.0
1626294702.4285414,-104.00399999999999,-30.273000000000003,-11.719000000000001,-12.207,1.0
1626294702.432448,-37.109,-68.359,-5.859,141.113,1.0
1626294702.4363542,34.18,-39.551,2.441,15.137,1.0
1626294702.4402604,-33.203,-20.508000000000003,-20.02,-187.012,1.0
1626294702.4441667,-121.094,-27.344,-42.968999999999994,-110.352,1.0
1626294702.448073,-67.383,-29.785,-38.086,112.79299999999999,1.0
1626294702.4519792,-41.504,11.719000000000001,-23.438000000000002,-25.391,1.0
1626294702.4558854,24.414,7.812,-28.809,101.074,1.0
1626294702.4597917,-24.901999999999997,-44.434,-67.383,-50.781000000000006,1.0
1626294702.463698,-106.934,-37.109,-77.637,-210.938,1.0
1626294702.4676042,-47.852,25.391,-20.508000000000003,-59.57,1.0
1626294702.4715104,58.593999999999994,20.508000000000003,11.23,147.94899999999998,1.0
1626294702.475417,35.645,-13.184000000000001,-10.254000000000001,51.27,1.0
1626294702.479323,-105.95700000000001,-79.59,-60.547,-200.195,1.0
1626294702.483229,-106.445,-47.363,-50.781000000000006,-151.855,1.0
1626294702.4871356,19.043,4.883,-9.277000000000001,91.79700000000001,1.0
1626294702.4910414,35.156,-9.766,-23.438000000000002,83.49600000000001,1.0
1626294702.4949477,-63.965,-39.062,-49.316,-135.74200000000002,1.0
1626294702.498854,-80.078,-41.016000000000005,-44.922,1.0,1.0
1626294702.5027602,-90.33200000000001,-10.742,-22.949,1.0,1.0
1626294702.506667,8.301,-24.901999999999997,-21.973000000000003,1.0,1.0
1626294702.510573,44.922,-31.738000000000003,-42.968999999999994,1.0,1.0
1626294702.5144792,-27.831999999999997,-7.324,-35.156,1.0,1.0
1626294702.5183854,-95.215,-22.461,-20.996,1.0,1.0
1626294702.5222914,-22.949,1.465,-24.414,1.0,1.0
1626294702.526198,34.668,-38.086,-39.551,1.0,1.0
1626294702.5301042,-38.574,-74.219,-43.457,1.0,1.0
1626294702.5340102,-105.95700000000001,-56.152,-25.879,1.0,1.0
1626294702.5379167,-45.41,-44.922,-9.766,1.0,1.0
1626294702.541823,36.621,-24.901999999999997,2.93,1.0,1.0
1626294702.5457292,75.195,-3.906,-38.086,156.25,1.0
1626294702.5496354,16.602,-25.879,-33.203,-14.648,1.0
1626294702.5535417,-95.70299999999999,-76.172,-40.527,-191.895,1.0
1626294702.557448,-62.5,-52.733999999999995,-30.273000000000003,-54.199,1.0
1626294702.5613542,41.016000000000005,23.926,-12.207,134.766,1.0
1626294702.5652604,-8.789,6.836,-39.551,-0.488,1.0
1626294702.5691667,-97.656,-20.02,-28.809,-173.828,1.0
1626294702.573073,-103.516,-74.219,-35.645,-123.04700000000001,1.0
1626294702.5769792,14.16,-45.898,-30.761999999999997,103.516,1.0
1626294702.5808856,43.457,-7.324,-11.719000000000001,96.191,1.0
1626294702.5847917,-43.945,5.371,1.953,-115.234,1.0
1626294702.588698,-74.219,-20.996,-10.254000000000001,-129.88299999999998,1.0
1626294702.5926042,-78.125,-24.901999999999997,-32.227,-109.863,1.0
1626294702.5965104,19.531,-26.366999999999997,-5.859,97.16799999999999,1.0
1626294702.6004167,34.18,-62.988,-11.23,80.566,1.0
1626294702.604323,-55.176,-56.152,-40.039,-134.27700000000002,1.0
1626294702.608229,-80.566,-1.953,-43.945,-152.344,1.0
1626294702.6121356,11.23,16.602,-19.531,70.312,1.0
1626294702.6160414,76.66,27.831999999999997,6.348,157.227,1.0
1626294702.6199481,-43.945,-67.383,-36.133,-90.33200000000001,1.0
1626294702.623854,-130.371,-84.473,-50.293,-219.238,1.0
1626294702.6277602,-47.852,-22.461,-21.973000000000003,-18.066,1.0
1626294702.631667,25.879,4.395,-13.672,135.254,1.0
1626294702.635573,-30.761999999999997,-12.695,-30.273000000000003,-17.578,1.0
1626294702.639479,-2.93,-20.508000000000003,-21.484,-208.00799999999998,1.0
1626294702.6433854,-91.309,-19.043,-25.879,-65.918,1.0
1626294702.6472914,-53.223,-46.387,-37.109,139.648,1.0
1626294702.651198,6.836,-52.246,-25.879,53.711000000000006,1.0
1626294702.6551042,-27.344,-19.531,-32.227,-166.50400000000002,1.0
1626294702.6590104,-109.375,-11.23,-53.711000000000006,-137.207,1.0
1626294702.6629167,-68.848,-4.395,-36.621,91.309,1.0
1626294702.666823,39.062,-42.968999999999994,-12.207,114.258,1.0
1626294702.6707292,49.316,-38.086,-11.23,-93.75,1.0
1626294702.6746354,-62.5,-24.414,-41.016000000000005,-173.34,1.0
1626294702.6785414,-102.539,-37.598,-46.875,28.809,1.0
1626294702.682448,6.836,-20.02,-11.23,158.203,1.0
1626294702.6863542,4.395,-33.691,-30.273000000000003,96.191,1.0
1626294702.6902604,25.879,-14.648,-20.508000000000003,71.777,1.0
1626294702.6941667,-67.383,-68.359,-28.809,-137.207,1.0
1626294702.698073,-93.75,-77.148,-20.02,-147.461,1.0
1626294702.7019792,-8.789,-13.672,-25.391,55.176,1.0
1626294702.7058854,35.156,-9.766,-49.805,104.492,1.0
1626294702.7097917,-28.809,-19.043,-38.086,-77.637,1.0
1626294702.713698,-83.49600000000001,-35.645,-29.296999999999997,-168.457,1.0
1626294702.7176042,-23.438000000000002,-27.344,-28.32,17.09,1.0
1626294702.7215104,54.199,-12.207,-20.02,151.36700000000002,1.0
1626294702.725417,-7.812,-11.23,-40.039,-20.508000000000003,1.0
1626294702.729323,-109.863,-29.296999999999997,-58.593999999999994,-202.637,1.0
1626294702.733229,-77.148,-23.926,-24.414,-160.645,1.0
1626294702.7371356,-19.043,6.348,-26.366999999999997,8.301,1.0
1626294702.7410414,61.035,-14.16,-20.02,146.97299999999998,1.0
1626294702.7449477,9.277000000000001,-20.02,-19.043,-1.953,1.0
1626294702.748854,-87.402,-9.277000000000001,-26.366999999999997,-176.27,1.0
1626294702.7527602,-58.593999999999994,-25.391,-21.973000000000003,-59.57,1.0
1626294702.756667,26.366999999999997,-23.438000000000002,-43.945,120.117,1.0
1626294702.760573,23.926,-36.621,-40.527,52.246,1.0
1626294702.7644792,-71.289,-60.547,-14.648,-145.50799999999998,1.0
1626294702.7683854,-95.215,-32.715,-20.996,-126.465,1.0
1626294702.7722914,13.184000000000001,9.277000000000001,-21.973000000000003,92.773,1.0
1626294702.776198,68.848,2.93,-4.395,120.117,1.0
1626294702.7801042,15.137,-25.879,-31.738000000000003,-104.00399999999999,1.0
1626294702.7840102,-100.586,-35.645,-55.663999999999994,-186.035,1.0
1626294702.7879167,-112.305,-50.293,-40.039,12.695,1.0
1626294702.791823,7.812,-24.901999999999997,-11.23,133.30100000000002,1.0
1626294702.7957292,52.246,-9.277000000000001,-17.09,-57.129,1.0
1626294702.7996354,-48.34,-43.945,-37.109,-193.359,1.0
1626294702.8035417,-108.398,-47.363,-33.203,-27.344,1.0
1626294702.807448,-44.922,-64.941,-40.039,131.34799999999998,1.0
1626294702.8113542,21.973000000000003,-54.688,-51.27,-2.441,1.0
1626294702.8152604,-40.527,-29.785,-52.246,-208.984,1.0
1626294702.8191667,-120.117,-31.738000000000003,-47.363,-100.586,1.0
1626294702.823073,-60.547,-14.648,-34.668,127.441,1.0
1626294702.8269792,-7.812,-8.789,-6.348,26.855,1.0
1626294702.8308856,53.223,0.977,-40.039,151.855,1.0
1626294702.8347917,-24.901999999999997,-35.156,-54.688,-44.922,1.0
1626294702.838698,-106.445,-71.777,-31.25,-208.00799999999998,1.0
1626294702.8426042,-86.426,-49.805,-20.508000000000003,-76.172,1.0
1626294702.8465104,10.254000000000001,-14.16,-18.066,116.699,1.0
1626294702.8504167,9.766,-10.254000000000001,-4.395,28.809,1.0
1626294702.854323,-90.33200000000001,-62.5,-16.113,-178.22299999999998,1.0
1626294702.858229,-74.219,-48.828,-14.16,-99.12100000000001,1.0
1626294702.8621356,20.508000000000003,-32.715,-17.578,107.42200000000001,1.0
1626294702.8660414,37.109,-53.711000000000006,-31.25,89.844,1.0
1626294702.8699481,-45.41,-52.246,-39.062,-114.74600000000001,1.0
1626294702.873854,-77.637,-14.648,-51.27,1.0,1.0
1626294702.8777602,-76.66,-23.438000000000002,-14.16,1.0,1.0
1626294702.881667,16.602,-34.18,1.953,1.0,1.0
1626294702.885573,42.48,-38.086,-8.301,1.0,1.0
1626294702.889479,-32.715,-30.273000000000003,-22.949,1.0,1.0
1626294702.8933854,-73.73,-16.113,-22.461,1.0,1.0
1626294702.8972914,-8.301,8.789,-29.785,1.0,1.0
1626294702.901198,26.366999999999997,-56.641000000000005,-41.016000000000005,1.0,1.0
1626294702.9051042,-48.828,-77.148,-51.27,1.0,1.0
1626294702.9090104,-97.656,-25.879,-52.246,1.0,1.0
1626294702.9129167,-27.831999999999997,-0.488,-27.831999999999997,1.0,1.0
1626294702.916823,62.012,-9.277000000000001,-21.973000000000003,1.0,1.0
1626294702.9207292,44.434,-11.23,-26.855,115.723,1.0
1626294702.9246354,-16.113,0.488,-39.551,-48.34,1.0
1626294702.9285414,-78.125,-44.922,-40.039,-175.78099999999998,1.0
1626294702.932448,-39.551,-80.078,-32.715,-32.227,1.0
1626294702.9363542,31.738000000000003,-37.109,-20.996,125.977,1.0
1626294702.9402604,9.766,-13.184000000000001,-17.578,13.672,1.0
1626294702.9441667,-78.125,-12.207,-28.809,-186.035,1.0
1626294702.948073,-84.473,-38.574,-39.551,-119.141,1.0
1626294702.9519792,6.836,-29.296999999999997,-45.41,86.426,1.0
1626294702.9558854,15.625,-15.625,-37.109,47.363,1.0
1626294702.9597917,-83.008,-27.831999999999997,-31.738000000000003,-158.203,1.0
1626294702.963698,-91.309,-24.414,-31.25,-158.691,1.0
1626294702.9676042,-95.215,-32.715,-38.574,-124.512,1.0
1626294702.9715104,24.901999999999997,-3.418,-18.555,125.488,1.0
1626294702.975417,39.551,-39.062,-28.809,120.117,1.0
1626294702.979323,-53.223,-76.66,-51.27,-116.699,1.0
1626294702.983229,-86.426,-33.203,-42.48,-153.32,1.0
1626294702.9871356,-23.438000000000002,-7.324,-42.48,51.758,1.0
1626294702.9910414,31.25,-20.02,-45.41,125.0,1.0
1626294702.9949477,-48.34,-57.129,-51.27,-76.172,1.0
1626294702.998854,-98.633,-38.574,-28.809,-181.641,1.0
1626294703.0027602,-23.438000000000002,-16.602,-1.953,-11.23,1.0
1626294703.006667,39.062,-14.16,-7.324,139.16,1.0
1626294703.010573,-18.066,-26.366999999999997,-31.25,0.488,1.0
1626294703.0144792,-25.391,-3.906,-39.062,-53.711000000000006,1.0
1626294703.0183854,-90.82,-10.254000000000001,-30.273000000000003,-173.34,1.0
1626294703.0222914,-30.273000000000003,-93.262,-24.901999999999997,-1.465,1.0
1626294703.026198,48.34,-97.16799999999999,-16.113,148.92600000000002,1.0
1626294703.0301042,8.789,-27.831999999999997,-16.113,9.277000000000001,1.0
1626294703.0340102,-98.633,-43.457,-34.668,-187.988,1.0
1626294703.0379167,-78.125,-2.93,-42.968999999999994,-91.79700000000001,1.0
1626294703.041823,12.695,-24.414,-55.663999999999994,99.609,1.0
1626294703.0457292,6.348,-47.852,-41.992,39.062,1.0
1626294703.0496354,-81.543,-14.648,-35.156,-161.621,1.0
1626294703.0535417,-87.402,5.859,-27.344,-141.113,1.0
1626294703.057448,-5.371,1.465,-25.391,65.43,1.0
1626294703.0613542,38.086,-34.18,-16.113,122.559,1.0
1626294703.0652604,48.828,-29.296999999999997,-21.973000000000003,87.402,1.0
1626294703.0691667,-69.336,-65.918,-35.645,-147.94899999999998,1.0
1626294703.073073,-103.027,-52.246,-31.25,-167.96900000000002,1.0
1626294703.0769792,5.859,13.184000000000001,-13.672,57.129,1.0
1626294703.0808856,60.547,24.901999999999997,-18.555,126.465,1.0
1626294703.0847917,-31.738000000000003,9.277000000000001,-55.663999999999994,-82.031,1.0
1626294703.088698,-116.211,-62.012,-63.477,-202.637,1.0
1626294703.0926042,-41.016000000000005,-46.387,-6.836,-7.812,1.0
1626294703.0965104,38.086,5.371,12.207,132.32399999999998,1.0
1626294703.1004167,-26.366999999999997,1.953,-26.366999999999997,-34.18,1.0
1626294703.104323,-101.074,-18.555,-32.715,-199.707,1.0
1626294703.108229,-98.145,-38.574,-13.184000000000001,-190.918,1.0
1626294703.1121356,-36.133,-23.438000000000002,-14.648,-12.695,1.0
1626294703.1160414,43.457,-34.668,-23.926,139.648,1.0
1626294703.1199481,6.836,-44.922,-44.922,-1.953,1.0
1626294703.123854,-76.66,-15.137,-59.57,-178.22299999999998,1.0
1626294703.1277602,-71.777,-16.113,-49.805,-87.402,1.0
1626294703.131667,14.648,-8.301,-16.602,106.445,1.0
1626294703.135573,1.953,-38.086,-21.484,31.738000000000003,1.0
1626294703.139479,-89.355,-32.227,-34.18,-170.898,1.0
1626294703.1433854,-103.027,-5.371,-35.156,-139.648,1.0
1626294703.1472914,-12.695,-2.93,-37.109,70.801,1.0
1626294703.151198,40.527,-8.789,-1.953,108.398,1.0
1626294703.1551042,56.641000000000005,23.926,-20.996,-101.56200000000001,1.0
1626294703.1590104,-54.688,-34.18,-23.926,-166.016,1.0
1626294703.1629167,-119.62899999999999,-95.70299999999999,-27.831999999999997,35.645,1.0
1626294703.166823,-31.25,-61.035,-29.785,142.09,1.0
1626294703.1707292,37.109,-5.371,-15.625,-68.359,1.0
1626294703.1746354,-38.574,-27.831999999999997,-16.113,-229.98,1.0
1626294703.1785414,-86.914,-19.043,1.465,-39.062,1.0
1626294703.182448,-29.296999999999997,-22.461,-20.996,121.58200000000001,1.0
1626294703.1863542,25.391,-22.949,-33.691,6.348,1.0
1626294703.1902604,-33.691,-6.348,-21.484,-195.312,1.0
1626294703.1941667,-103.027,-6.836,-46.875,-120.605,1.0
1626294703.198073,-42.48,-12.695,-23.438000000000002,132.812,1.0
1626294703.2019792,-14.648,-22.949,-14.16,16.113,1.0
1626294703.2058854,52.246,-5.371,-28.32,137.695,1.0
1626294703.2097917,0.488,-23.438000000000002,-29.785,-21.484,1.0
1626294703.213698,-101.074,-56.152,-43.457,-202.148,1.0
1626294703.2176042,-63.477,-46.387,-43.945,-72.75399999999999,1.0
1626294703.2215104,50.293,-17.09,-26.366999999999997,143.555,1.0
1626294703.225417,27.831999999999997,-12.695,-32.227,44.434,1.0
1626294703.229323,-93.75,-57.617,-77.637,-193.84799999999998,1.0
1626294703.233229,-87.402,-32.227,-38.574,-131.34799999999998,1.0
1626294703.2371356,25.391,7.812,9.766,107.91,1.0
1626294703.2410414,42.968999999999994,-4.883,-7.812,88.867,1.0
1626294703.2449477,-54.688,-46.875,-16.602,-138.672,1.0
1626294703.248854,-68.359,-37.598,-36.133,1.0,1.0
1626294703.2527602,-67.87100000000001,-17.578,-20.508000000000003,1.0,1.0
1626294703.256667,19.531,-0.977,-36.133,1.0,1.0
1626294703.260573,31.738000000000003,-21.484,-43.457,1.0,1.0
1626294703.2644792,-55.176,-14.16,-32.715,1.0,1.0
1626294703.2683854,-105.469,-38.086,-19.531,1.0,1.0
1626294703.2722914,-7.812,-35.645,7.324,1.0,1.0
1626294703.276198,41.992,-53.711000000000006,-35.156,1.0,1.0
1626294703.2801042,-27.344,-51.758,-51.758,1.0,1.0
1626294703.2840102,-93.75,-12.207,-26.855,1.0,1.0
1626294703.2879167,-52.733999999999995,2.441,-22.461,1.0,1.0
1626294703.291823,23.438000000000002,-0.977,-19.043,1.0,1.0
1626294703.2957292,51.758,-2.93,-42.968999999999994,140.137,1.0
1626294703.2996354,4.395,1.465,-38.574,-7.324,1.0
1626294703.3035417,-104.492,-52.246,-51.758,-187.5,1.0
1626294703.307448,-74.707,-65.43,-28.32,-62.988,1.0
1626294703.3113542,22.461,-12.695,-9.277000000000001,116.211,1.0
1626294703.3152604,0.488,-13.672,-26.366999999999997,12.207,1.0
1626294703.3191667,-78.613,-44.434,-22.461,-160.645,1.0
1626294703.323073,-73.242,-83.984,-26.855,-91.309,1.0
1626294703.3269792,46.387,-29.785,-19.531,140.625,1.0
1626294703.3308856,53.223,6.836,-23.926,104.00399999999999,1.0
1626294703.3347917,-76.66,-10.254000000000001,-39.551,-149.90200000000002,1.0
1626294703.338698,-113.281,-25.391,-38.086,-165.52700000000002,1.0
1626294703.3426042,-97.656,-23.438000000000002,-58.593999999999994,-125.977,1.0
1626294703.3465104,0.977,-6.836,-49.805,81.543,1.0
1626294703.3504167,26.366999999999997,-39.062,-25.879,70.312,1.0
1626294703.354323,-58.593999999999994,-47.852,-17.578,-135.74200000000002,1.0
1626294703.358229,-80.078,-8.789,-23.926,-149.414,1.0
1626294703.3621356,7.324,-18.066,-10.254000000000001,62.5,1.0
1626294703.3660414,53.223,-22.461,6.836,133.789,1.0
1626294703.3699481,-22.461,-37.598,-7.812,-62.5,1.0
1626294703.373854,-88.867,-38.574,-29.785,-176.75799999999998,1.0
1626294703.3777602,-47.363,-18.066,-58.105,-26.855,1.0
1626294703.381667,40.527,13.672,-48.34,124.512,1.0
1626294703.385573,7.324,15.137,-44.922,-10.254000000000001,1.0
1626294703.389479,0.488,5.859,-22.461,-213.86700000000002,1.0
1626294703.3933854,-71.289,-9.766,-46.387,-93.75,1.0
1626294703.3972914,-50.293,-54.688,-59.082,119.141,1.0
1626294703.401198,34.668,-38.086,-23.926,54.688,1.0
1626294703.4051042,2.441,-12.695,-25.391,-163.57399999999998,1.0
1626294703.4090104,-101.074,-33.203,-36.133,-142.578,1.0
1626294703.4129167,-61.523,-29.296999999999997,-13.184000000000001,99.609,1.0
1626294703.416823,35.645,-62.5,-6.348,105.95700000000001,1.0
1626294703.4207292,32.227,-60.547,-17.578,-120.117,1.0
1626294703.4246354,-59.57,-35.156,-20.996,-197.266,1.0
1626294703.4285414,-92.285,-38.574,-28.32,6.836,1.0
1626294703.432448,-14.16,-29.296999999999997,-26.366999999999997,132.32399999999998,1.0
1626294703.4363542,4.883,1.953,-37.598,93.75,1.0
1626294703.4402604,20.996,-16.113,-37.598,70.801,1.0
1626294703.4441667,-76.172,-36.621,-51.758,-161.621,1.0
1626294703.448073,-96.68,-22.461,-52.733999999999995,-165.03900000000002,1.0
1626294703.4519792,12.695,-4.883,-33.691,70.801,1.0
1626294703.4558854,57.617,-20.02,-16.602,132.812,1.0
1626294703.4597917,-29.785,-33.691,-18.555,-69.336,1.0
1626294703.463698,-124.023,-58.105,-56.152,-208.984,1.0
1626294703.4676042,-66.895,-42.48,-43.945,-25.391,1.0
1626294703.4715104,30.761999999999997,-1.465,-19.043,136.719,1.0
1626294703.475417,-8.789,-18.555,-22.949,-22.949,1.0
1626294703.479323,-104.00399999999999,-56.152,-33.691,-194.33599999999998,1.0
1626294703.483229,-108.398,-36.133,-36.621,-186.523,1.0
1626294703.4871356,-41.504,-5.859,-33.691,-4.883,1.0
1626294703.4910414,53.711000000000006,-20.508000000000003,-36.621,151.855,1.0
1626294703.4949477,14.648,-23.926,-23.926,14.648,1.0
1626294703.498854,-77.148,-14.648,-38.086,-162.109,1.0
1626294703.5027602,-52.733999999999995,-31.738000000000003,-40.039,-50.293,1.0
1626294703.506667,45.41,-7.324,-0.488,157.715,1.0
1626294703.510573,41.016000000000005,-51.758,-13.672,78.125,1.0
1626294703.5144792,-63.965,-64.453,-26.366999999999997,-143.066,1.0
1626294703.5183854,-88.37899999999999,-29.296999999999997,-29.785,-116.211,1.0
1626294703.5222914,-2.93,-37.109,-39.062,95.70299999999999,1.0
1626294703.526198,18.555,-49.316,-36.133,84.961,1.0
1626294703.5301042,30.761999999999997,-15.137,-31.25,-137.695,1.0
1626294703.5340102,-49.805,3.906,-35.156,-165.03900000000002,1.0
1626294703.5379167,-85.449,-24.414,-51.27,55.663999999999994,1.0
1626294703.541823,-3.418,-22.461,-50.781000000000006,170.898,1.0
1626294703.5457292,47.852,9.277000000000001,-15.625,-30.761999999999997,1.0
1626294703.5496354,-24.901999999999997,-15.137,-6.348,-198.73,1.0
1626294703.5535417,-59.082,-35.156,-23.438000000000002,-11.23,1.0
1626294703.557448,-23.438000000000002,-57.617,-44.922,164.551,1.0
1626294703.5613542,31.738000000000003,-25.879,-27.831999999999997,16.113,1.0
1626294703.5652604,-20.508000000000003,-13.184000000000001,-25.391,-199.21900000000002,1.0
1626294703.5691667,-96.68,-34.18,-40.039,-107.42200000000001,1.0
1626294703.573073,-41.016000000000005,-38.574,-20.02,124.512,1.0
1626294703.5769792,-14.648,-9.277000000000001,-4.883,16.602,1.0
1626294703.5808856,66.895,11.719000000000001,-1.465,160.156,1.0
1626294703.5847917,-33.203,-62.012,-64.941,-58.593999999999994,1.0
1626294703.588698,-128.906,-67.87100000000001,-87.402,-231.93400000000003,1.0
1626294703.5926042,-56.152,-14.16,-47.363,-60.059,1.0
1626294703.5965104,27.831999999999997,-18.555,-28.809,119.141,1.0
1626294703.6004167,6.836,-1.953,-24.414,23.438000000000002,1.0
1626294703.604323,-74.707,-33.691,-26.855,-170.898,1.0
1626294703.608229,-75.684,-46.387,-27.831999999999997,-122.07,1.0
1626294703.6121356,2.441,-52.246,-21.484,78.613,1.0
1626294703.6160414,15.625,-52.246,-27.344,73.242,1.0
1626294703.6199481,-63.965,-24.414,-36.133,-131.34799999999998,1.0
1626294703.623854,-90.82,-24.901999999999997,-41.016000000000005,1.0,1.0
1626294703.6277602,-91.309,7.324,-27.831999999999997,1.0,1.0
1626294703.631667,9.277000000000001,-21.484,-12.695,1.0,1.0
1626294703.635573,38.574,-38.574,-40.039,1.0,1.0
1626294703.639479,-60.059,-31.25,-61.035,1.0,1.0
1626294703.6433854,-111.32799999999999,-64.453,-33.691,1.0,1.0
1626294703.6472914,-22.461,-24.901999999999997,-4.395,1.0,1.0
1626294703.651198,27.831999999999997,-16.113,-27.344,1.0,1.0
1626294703.6551042,-40.527,-19.531,-51.758,1.0,1.0
1626294703.6590104,-98.145,-0.488,-35.645,1.0,1.0
1626294703.6629167,-30.761999999999997,14.648,-15.625,1.0,1.0
1626294703.666823,28.32,5.859,-14.648,1.0,1.0
1626294703.6707292,65.918,8.301,7.324,154.785,1.0
1626294703.6746354,-2.441,4.395,-11.719000000000001,-10.254000000000001,1.0
1626294703.6785414,-121.58200000000001,-76.66,-82.031,-210.449,1.0
1626294703.682448,-78.613,-78.613,-94.727,-81.055,1.0
1626294703.6863542,14.16,-28.32,-17.09,101.56200000000001,1.0
1626294703.6902604,-15.137,-54.199,23.438000000000002,-2.441,1.0
1626294703.6941667,-84.473,-54.199,17.09,-163.57399999999998,1.0
1626294703.698073,-82.031,-94.727,-14.648,-117.676,1.0
1626294703.7019792,16.113,-60.547,-16.113,104.492,1.0
1626294703.7058854,24.414,-1.953,-15.137,87.402,1.0
1626294703.7097917,-80.566,-5.859,-31.25,-150.879,1.0
1626294703.713698,-107.91,-6.348,-42.48,-166.99200000000002,1.0
1626294703.7176042,-68.848,-28.809,-30.273000000000003,-111.32799999999999,1.0
1626294703.7215104,21.973000000000003,10.742,-31.25,96.68,1.0
1626294703.725417,8.301,-41.016000000000005,-52.733999999999995,69.336,1.0
1626294703.729323,-78.613,-63.965,-65.43,-148.438,1.0
1626294703.733229,-58.105,4.883,-36.133,-145.996,1.0
1626294703.7371356,24.414,12.695,-12.207,80.078,1.0
1626294703.7410414,49.805,9.277000000000001,-11.719000000000001,142.578,1.0
1626294703.7449477,-47.363,-43.945,-37.598,-78.125,1.0
1626294703.748854,-88.37899999999999,-64.941,-39.551,-185.547,1.0
1626294703.7527602,-11.719000000000001,-22.949,-26.855,7.812,1.0
1626294703.756667,50.781000000000006,18.066,-24.414,144.043,1.0
1626294703.760573,10.742,16.113,-26.366999999999997,-20.996,1.0
1626294703.7644792,12.695,-19.531,-19.531,-219.727,1.0
1626294703.7683854,-69.824,2.441,-35.156,-92.285,1.0
1626294703.7722914,-40.527,-47.852,-38.086,115.723,1.0
1626294703.776198,44.922,-44.434,-23.926,30.761999999999997,1.0
1626294703.7801042,5.859,15.625,-18.066,-179.199,1.0
1626294703.7840102,-70.312,-3.418,-18.066,-142.578,1.0
1626294703.7879167,-41.016000000000005,-15.625,-19.043,96.191,1.0
1626294703.791823,21.973000000000003,-60.059,-32.715,108.887,1.0
1626294703.7957292,28.32,-47.363,-43.945,-119.141,1.0
1626294703.7996354,-56.152,-10.254000000000001,-30.761999999999997,-172.852,1.0
1626294703.8035417,-76.172,-7.812,-20.996,52.246,1.0
1626294703.807448,8.789,2.441,-20.996,162.109,1.0
1626294703.8113542,18.555,-6.836,-20.996,116.699,1.0
1626294703.8152604,33.203,7.324,-12.695,90.82,1.0
1626294703.8191667,-84.961,-72.266,-38.574,-154.785,1.0
1626294703.823073,-126.95299999999999,-107.42200000000001,-50.781000000000006,-174.805,1.0
1626294703.8269792,-9.766,-18.066,-26.855,46.875,1.0
1626294703.8308856,61.523,-17.578,-31.25,87.402,1.0
1626294703.8347917,-38.574,-37.109,-37.598,-105.95700000000001,1.0
1626294703.838698,-136.23,-72.75399999999999,-63.477,-215.82,1.0
1626294703.8426042,-35.156,-45.41,-65.918,-24.901999999999997,1.0
1626294703.8465104,51.758,-6.836,-42.968999999999994,121.58200000000001,1.0
1626294703.8504167,-19.043,-22.461,-41.016000000000005,-48.828,1.0
1626294703.854323,-98.633,-12.695,-22.461,-204.102,1.0
1626294703.858229,-87.891,11.23,-42.48,-189.453,1.0
1626294703.8621356,-13.672,14.16,-12.695,9.766,1.0
1626294703.8660414,27.344,-45.41,-14.16,137.695,1.0
1626294703.8699481,-28.32,-72.75399999999999,-41.504,-24.901999999999997,1.0
1626294703.873854,-99.609,-36.133,-38.086,-191.895,1.0
1626294703.8777602,-64.941,-36.133,-27.344,-68.359,1.0
1626294703.881667,26.855,-26.855,-25.391,136.719,1.0
1626294703.885573,9.277000000000001,-62.012,-35.645,46.875,1.0
1626294703.889479,-81.055,-43.945,-37.598,-169.922,1.0
1626294703.8933854,-90.82,-2.93,-27.831999999999997,-131.34799999999998,1.0
1626294703.8972914,-10.254000000000001,-5.371,-18.066,76.66,1.0
1626294703.901198,16.113,-8.789,-13.184000000000001,82.031,1.0
1626294703.9051042,3.906,6.348,-30.761999999999997,55.663999999999994,1.0
1626294703.9090104,-95.215,-3.906,-31.738000000000003,-170.41,1.0
1626294703.9129167,-115.234,-48.828,-20.508000000000003,-160.645,1.0
1626294703.916823,-22.949,-47.363,-13.672,49.316,1.0
1626294703.9207292,18.555,-17.09,-17.578,80.566,1.0
1626294703.9246354,-62.012,-27.831999999999997,-34.18,-122.559,1.0
1626294703.9285414,-103.027,-10.254000000000001,-30.761999999999997,-176.75799999999998,1.0
1626294703.932448,-22.949,-38.086,-18.555,27.344,1.0
1626294703.9363542,50.781000000000006,-28.809,-25.391,144.043,1.0
1626294703.9402604,-7.812,-8.789,-41.016000000000005,-30.761999999999997,1.0
1626294703.9441667,-94.727,-27.344,-29.296999999999997,-180.176,1.0
1626294703.948073,-64.941,-42.48,-29.785,-40.527,1.0
1626294703.9519792,-50.781000000000006,-35.156,-32.227,-9.277000000000001,1.0
1626294703.9558854,29.785,0.488,-12.695,125.488,1.0
1626294703.9597917,-34.18,-51.27,-23.926,-53.711000000000006,1.0
1626294703.963698,-124.023,-68.848,-35.645,-221.19099999999997,1.0
1626294703.9676042,-73.73,-32.715,-16.113,-74.707,1.0
1626294703.9715104,20.508000000000003,-32.715,-1.953,104.00399999999999,1.0
1626294703.975417,3.906,-23.438000000000002,-8.301,14.16,1.0
1626294703.979323,-118.164,-86.914,-53.711000000000006,-208.984,1.0
1626294703.983229,-119.141,-59.57,-70.801,-160.156,1.0
1626294703.9871356,5.371,6.348,-41.016000000000005,75.195,1.0
1626294703.9910414,30.761999999999997,-17.578,-25.879,76.66,1.0
1626294703.9949477,-68.359,-36.133,-24.901999999999997,-138.184,1.0
1626294703.998854,-76.66,-9.277000000000001,-49.316,1.0,1.0
1626294704.0027602,-71.777,-12.207,-38.086,1.0,1.0
1626294704.006667,11.23,-79.59,-15.625,1.0,1.0
1626294704.010573,38.086,-91.79700000000001,-3.906,1.0,1.0
1626294704.0144792,-38.574,-36.621,-32.715,1.0,1.0
1626294704.0183854,-83.49600000000001,-23.438000000000002,-41.016000000000005,1.0,1.0
1626294704.0222914,13.672,17.578,10.742,1.0,1.0
1626294704.026198,34.18,-33.691,-20.02,1.0,1.0
1626294704.0301042,-47.363,-38.086,-41.504,1.0,1.0
1626294704.0340102,-101.56200000000001,-11.23,-24.414,1.0,1.0
1626294704.0379167,-37.598,-23.438000000000002,-3.906,1.0,1.0
1626294704.041823,57.129,-1.953,13.672,1.0,1.0
1626294704.0457292,53.223,-5.371,-8.789,125.977,1.0
1626294704.0496354,-15.137,11.719000000000001,-31.25,-55.176,1.0
1626294704.0535417,-119.62899999999999,-40.039,-59.57,-219.727,1.0
1626294704.057448,-58.105,-45.41,-21.973000000000003,-53.223,1.0
1626294704.0613542,48.34,9.277000000000001,0.488,133.789,1.0
1626294704.0652604,0.488,-19.531,-32.715,0.0,1.0
1626294704.0691667,-95.70299999999999,-23.926,-52.733999999999995,-195.312,1.0
1626294704.073073,-81.055,-43.457,-48.34,-107.42200000000001,1.0
1626294704.0769792,15.625,-37.598,-24.414,107.91,1.0
1626294704.0808856,24.414,-0.977,-15.137,60.059,1.0
1626294704.0847917,-65.43,-8.789,-33.691,-145.996,1.0
1626294704.088698,-82.52,-33.691,-30.273000000000003,-137.207,1.0
1626294704.0926042,-64.941,-30.761999999999997,-52.733999999999995,-100.098,1.0
1626294704.0965104,51.758,-3.906,-28.32,134.766,1.0
1626294704.1004167,65.43,-11.719000000000001,-22.949,113.77,1.0
1626294704.104323,-57.129,-42.48,-32.227,-134.766,1.0
1626294704.108229,-97.16799999999999,-24.414,-29.296999999999997,-163.086,1.0
1626294704.1121356,-12.207,-15.625,-32.715,53.223,1.0
1626294704.1160414,39.062,-12.207,-14.16,128.906,1.0
1626294704.1199481,-50.781000000000006,-46.875,-24.414,-85.449,1.0
1626294704.123854,-110.84,-66.406,-37.109,-197.75400000000002,1.0
1626294704.1277602,-20.02,-35.156,-18.066,8.301,1.0
1626294704.131667,56.641000000000005,-20.508000000000003,-9.766,147.94899999999998,1.0
1626294704.135573,-2.93,-32.715,-37.109,-18.555,1.0
1626294704.139479,-23.438000000000002,-11.23,-48.34,-203.125,1.0
1626294704.1433854,-83.49600000000001,-12.695,-51.758,-83.008,1.0
1626294704.1472914,-65.43,-75.195,-57.129,126.95299999999999,1.0
1626294704.151198,18.555,-77.148,-56.152,59.57,1.0
1626294704.1551042,5.859,-24.901999999999997,-46.875,-155.273,1.0
1626294704.1590104,-98.633,-59.082,-27.831999999999997,-137.207,1.0
1626294704.1629167,-68.359,-50.781000000000006,-7.324,89.844,1.0
1626294704.166823,16.113,-48.828,-13.184000000000001,86.426,1.0
1626294704.1707292,14.648,-28.809,-12.695,-126.95299999999999,1.0
1626294704.1746354,-65.918,3.906,-11.719000000000001,-174.805,1.0
1626294704.1785414,-88.37899999999999,6.348,-26.855,20.508000000000003,1.0
1626294704.182448,-2.93,-12.695,-36.133,126.95299999999999,1.0
1626294704.1863542,47.363,0.0,-29.785,133.30100000000002,1.0
1626294704.1902604,55.176,19.043,-7.324,96.68,1.0
1626294704.1941667,-68.359,-54.688,-30.761999999999997,-154.785,1.0
1626294704.198073,-102.539,-87.402,-56.641000000000005,-169.43400000000003,1.0
1626294704.2019792,4.883,-39.551,-39.062,58.593999999999994,1.0
1626294704.2058854,38.086,-16.602,-39.062,98.633,1.0
1626294704.2097917,-35.156,1.953,-45.41,-91.79700000000001,1.0
1626294704.213698,-104.00399999999999,-59.57,-59.57,-195.801,1.0
1626294704.2176042,-46.387,-42.48,-43.945,-20.508000000000003,1.0
1626294704.2215104,38.086,16.113,-15.137,118.164,1.0
1626294704.225417,-13.672,0.977,-29.296999999999997,-37.109,1.0
1626294704.229323,-100.098,-28.809,-44.922,-189.453,1.0
1626294704.233229,-106.934,4.883,-41.992,-69.824,1.0
1626294704.2371356,-16.113,21.484,-2.441,121.094,1.0
1626294704.2410414,55.176,-41.992,-17.09,33.203,1.0
1626294704.2449477,-25.879,-76.66,-57.129,-185.547,1.0
1626294704.248854,-94.727,-23.438000000000002,-55.663999999999994,-143.555,1.0
1626294704.2527602,-36.621,-27.344,-39.551,65.43,1.0
1626294704.256667,55.663999999999994,-30.273000000000003,-22.949,65.43,1.0
1626294704.260573,20.508000000000003,-54.199,-47.852,-145.996,1.0
1626294704.2644792,-83.984,-32.227,-50.781000000000006,-160.156,1.0
1626294704.2683854,-90.82,6.348,-28.32,36.621,1.0
1626294704.2722914,11.719000000000001,5.859,-14.16,91.309,1.0
1626294704.276198,50.293,-8.789,-11.23,-100.586,1.0
1626294704.2801042,36.133,-11.719000000000001,-30.761999999999997,59.57,1.0
1626294704.2840102,-64.453,5.371,-24.414,-158.691,1.0
1626294704.2879167,-99.609,-56.152,-9.277000000000001,-139.648,1.0
1626294704.291823,6.836,-72.266,-4.883,89.355,1.0
1626294704.2957292,25.391,3.906,-11.719000000000001,89.844,1.0
1626294704.2996354,-79.102,-6.348,-26.855,-132.812,1.0
1626294704.3035417,-105.95700000000001,-12.207,-33.203,-166.016,1.0
1626294704.307448,-34.18,-38.574,-31.738000000000003,22.461,1.0
1626294704.3113542,20.508000000000003,-35.156,-31.738000000000003,118.164,1.0
1626294704.3152604,-31.738000000000003,-15.625,-31.25,-56.152,1.0
1626294704.3191667,-95.215,-21.973000000000003,-25.391,-182.61700000000002,1.0
1626294704.323073,-25.879,-39.062,-15.625,-24.414,1.0
1626294704.3269792,8.301,-9.277000000000001,12.207,44.922,1.0
1626294704.3308856,74.219,15.625,-5.371,156.738,1.0
1626294704.3347917,-20.02,-67.383,-53.223,-45.898,1.0
1626294704.338698,-116.211,-95.215,-58.593999999999994,-211.91400000000002,1.0
1626294704.3426042,-54.199,-11.23,-45.41,-62.988,1.0
1626294704.3465104,45.898,3.906,-38.574,126.95299999999999,1.0
1626294704.3504167,26.366999999999997,2.93,-25.391,42.968999999999994,1.0
1626294704.354323,-83.49600000000001,-43.945,-32.227,-163.086,1.0
1626294704.358229,-89.844,-46.875,-39.062,-105.95700000000001,1.0
1626294704.3621356,7.812,-31.25,-45.41,105.469,1.0
1626294704.3660414,46.387,-26.855,-30.761999999999997,113.77,1.0
1626294704.3699481,-38.086,-20.996,-20.02,-90.33200000000001,1.0
1626294704.373854,-78.613,-25.391,-29.785,1.0,1.0
1626294704.3777602,-78.613,-16.113,-33.203,1.0,1.0
1626294704.381667,5.371,-46.387,-32.227,1.0,1.0
1626294704.385573,8.789,-61.523,-35.645,1.0,1.0
1626294704.389479,-81.543,-22.949,-32.715,1.0,1.0
1626294704.3933854,-116.699,-26.855,-32.227,1.0,1.0
1626294704.3972914,-24.901999999999997,0.488,-32.227,1.0,1.0
1626294704.401198,27.831999999999997,-41.504,-41.504,1.0,1.0
1626294704.4051042,-46.875,-65.43,-37.598,1.0,1.0
1626294704.4090104,-92.285,-24.901999999999997,-35.156,1.0,1.0
1626294704.4129167,-31.738000000000003,-21.973000000000003,-50.781000000000006,1.0,1.0
1626294704.416823,54.199,-7.812,-19.043,1.0,1.0
1626294704.4207292,45.41,-19.531,-21.973000000000003,136.23,1.0
1626294704.4246354,-41.504,-14.16,-50.781000000000006,-72.266,1.0
1626294704.4285414,-101.074,-26.366999999999997,-26.855,-194.824,1.0
1626294704.432448,-42.48,-15.137,-5.371,-20.02,1.0
1626294704.4363542,29.296999999999997,0.0,-30.761999999999997,126.95299999999999,1.0
1626294704.4402604,-16.602,-29.296999999999997,-34.668,-10.254000000000001,1.0
1626294704.4441667,-114.258,-32.227,-35.645,-193.84799999999998,1.0
1626294704.448073,-86.426,-51.27,-37.109,-113.281,1.0
1626294704.4519792,18.066,-56.152,-13.672,89.355,1.0
1626294704.4558854,18.066,-53.711000000000006,-20.996,50.293,1.0
1626294704.4597917,-84.961,-49.805,-46.387,-160.156,1.0
1626294704.463698,-106.445,-24.414,-37.598,-155.273,1.0
1626294704.4676042,-96.68,-20.508000000000003,-29.785,-124.023,1.0
1626294704.4715104,1.953,1.953,-24.901999999999997,73.73,1.0
1626294704.475417,22.461,-45.898,-27.831999999999997,64.941,1.0
1626294704.479323,-68.848,-74.219,-33.691,-143.555,1.0
1626294704.483229,-106.445,-31.25,-43.457,-166.016,1.0
1626294704.4871356,-23.438000000000002,-12.695,-52.733999999999995,38.574,1.0
1626294704.4910414,40.039,-5.371,-14.648,111.816,1.0
1626294704.4949477,-31.25,-63.965,-13.672,-77.148,1.0
1626294704.498854,-99.609,-51.758,-64.453,-179.199,1.0
1626294704.5027602,-34.18,12.207,-47.363,4.883,1.0
1626294704.506667,41.016000000000005,19.043,-4.883,134.27700000000002,1.0
1626294704.510573,-12.207,-7.324,-16.113,-28.32,1.0
1626294704.5144792,-5.859,-8.301,-38.086,-204.102,1.0
1626294704.5183854,-86.426,-13.184000000000001,-42.48,-88.867,1.0
1626294704.5222914,-36.621,-62.988,-38.086,112.79299999999999,1.0
1626294704.526198,39.551,-72.266,-13.184000000000001,33.691,1.0
1626294704.5301042,-8.789,-0.488,-17.09,-170.898,1.0
1626294704.5340102,-94.727,20.02,-37.109,-129.395,1.0
1626294704.5379167,-45.898,6.836,-17.09,89.844,1.0
1626294704.541823,36.621,-40.039,-31.738000000000003,92.773,1.0
1626294704.5457292,15.625,-56.641000000000005,-68.359,-110.352,1.0
1626294704.5496354,-61.523,-41.992,-46.387,-154.297,1.0
1626294704.5535417,-77.148,-14.648,-23.438000000000002,49.316,1.0
1626294704.557448,20.996,-0.488,-21.484,146.484,1.0
1626294704.5613542,43.945,26.855,-20.508000000000003,112.79299999999999,1.0
1626294704.5652604,28.32,11.719000000000001,4.395,77.148,1.0
1626294704.5691667,-98.145,-59.57,-31.738000000000003,-163.57399999999998,1.0
1626294704.573073,-106.445,-68.848,-37.598,-178.22299999999998,1.0
1626294704.5769792,2.441,-17.578,-16.113,56.641000000000005,1.0
1626294704.5808856,22.949,-46.875,-23.926,97.656,1.0
1626294704.5847917,-54.199,-49.805,-35.645,-115.234,1.0
1626294704.588698,-129.88299999999998,-83.984,-45.41,-214.355,1.0
1626294704.5926042,-51.27,-69.336,-23.438000000000002,-9.277000000000001,1.0
1626294704.5965104,37.598,-10.742,-13.184000000000001,133.30100000000002,1.0
1626294704.6004167,-9.277000000000001,-12.695,-25.879,-22.949,1.0
1626294704.604323,-84.961,-11.23,-15.625,-176.27,1.0
1626294704.608229,-145.02,-30.273000000000003,-52.246,1.0,1.0
1626294704.6121356,-50.781000000000006,-5.859,-27.344,1.0,1.0
1626294704.6160414,25.391,-21.484,-25.879,1.0,1.0
1626294704.6199481,-53.711000000000006,-44.434,-33.203,1.0,1.0
1626294704.623854,-110.84,-29.296999999999997,-20.02,1.0,1.0
1626294704.6277602,-57.617,-36.621,-13.672,1.0,1.0
1626294704.631667,26.855,-27.831999999999997,-23.926,1.0,1.0
1626294704.635573,2.441,-62.5,-26.855,1.0,1.0
1626294704.639479,-98.633,-64.453,-37.598,1.0,1.0
1626294704.6433854,-119.62899999999999,-16.602,-39.062,1.0,1.0
1626294704.6472914,-3.906,18.555,-6.836,1.0,1.0
1626294704.651198,28.32,13.184000000000001,-16.113,1.0,1.0
1626294704.6551042,30.273000000000003,13.672,-12.207,66.406,1.0
1626294704.6590104,-79.102,-0.488,-32.715,-160.156,1.0
1626294704.6629167,-105.95700000000001,-34.18,-41.992,-159.18,1.0
1626294704.666823,-0.488,-42.48,-8.789,63.477,1.0
1626294704.6707292,33.203,-14.16,-5.371,99.609,1.0
1626294704.6746354,-43.457,-17.09,-43.457,-125.488,1.0
1626294704.6785414,-94.238,-21.484,-52.246,-188.965,1.0
1626294704.682448,-41.992,-36.621,-34.18,21.973000000000003,1.0
1626294704.6863542,62.988,-12.207,-3.906,151.855,1.0
1626294704.6902604,1.953,-6.348,-15.137,-34.668,1.0
1626294704.6941667,-110.84,-51.758,-48.34,-208.49599999999998,1.0
1626294704.698073,-47.852,-37.109,-42.968999999999994,-51.27,1.0
1626294704.7019792,-48.34,-30.273000000000003,-53.711000000000006,-3.418,1.0
1626294704.7058854,19.043,-19.531,-54.199,113.77,1.0
1626294704.7097917,-15.137,-59.082,-21.484,-39.062,1.0
1626294704.713698,-67.383,-51.758,-3.418,-163.086,1.0
1626294704.7176042,-42.48,-11.23,-22.949,-33.691,1.0
1626294704.7215104,34.668,0.488,-17.578,129.395,1.0
1626294704.725417,8.301,-6.348,-21.973000000000003,18.066,1.0
1626294704.729323,-103.027,-57.617,-59.082,-205.56599999999997,1.0
1626294704.733229,-92.285,-36.621,-58.105,-138.184,1.0
1626294704.7371356,24.901999999999997,0.977,-40.039,90.82,1.0
1626294704.7410414,42.968999999999994,-12.695,-31.738000000000003,76.172,1.0
1626294704.7449477,-43.457,-10.742,-15.625,-135.254,1.0
1626294704.748854,-87.402,-21.484,-46.387,-168.945,1.0
1626294704.7527602,-89.355,-9.766,-35.645,30.273000000000003,1.0
1626294704.756667,-3.418,-63.477,-35.156,98.145,1.0
1626294704.760573,26.366999999999997,-84.961,-31.25,-89.355,1.0
1626294704.7644792,-54.688,-37.109,-32.715,-195.312,1.0
1626294704.7683854,-87.402,-27.344,-34.668,-8.789,1.0
1626294704.7722914,-2.441,-5.859,-27.831999999999997,137.695,1.0
1626294704.776198,24.414,-62.012,-40.039,-23.926,1.0
1626294704.7801042,-44.922,-62.012,-57.617,-197.75400000000002,1.0
1626294704.7840102,-110.352,-18.555,-68.359,-71.777,1.0
1626294704.7879167,-50.293,4.883,-44.922,122.559,1.0
1626294704.791823,53.711000000000006,20.996,-11.23,31.738000000000003,1.0
1626294704.7957292,43.457,0.0,-26.366999999999997,113.77,1.0
1626294704.7996354,-13.672,-8.301,-40.039,-62.012,1.0
1626294704.8035417,-108.398,-77.637,-44.434,-218.262,1.0
1626294704.807448,-64.941,-89.355,-50.293,-67.87100000000001,1.0
1626294704.8113542,40.039,-13.184000000000001,-23.926,125.977,1.0
1626294704.8152604,24.901999999999997,8.301,-12.695,18.066,1.0
1626294704.8191667,-62.012,2.93,-37.598,-161.621,1.0
1626294704.823073,-67.87100000000001,-66.406,-61.523,-92.285,1.0
1626294704.8269792,30.761999999999997,-49.805,-39.062,112.79299999999999,1.0
1626294704.8308856,45.41,-7.812,-12.695,80.566,1.0
1626294704.8347917,-51.27,-30.761999999999997,-8.301,-137.695,1.0
1626294704.838698,-72.266,-13.184000000000001,-20.02,-136.23,1.0
1626294704.8426042,-80.566,-33.691,-45.41,-107.42200000000001,1.0
1626294704.8465104,4.395,-5.859,-36.133,90.82,1.0
1626294704.8504167,37.598,-11.23,-35.156,72.266,1.0
1626294704.854323,-53.711000000000006,-27.344,-39.062,-138.184,1.0
1626294704.858229,-103.027,-23.438000000000002,-41.504,-166.50400000000002,1.0
1626294704.8621356,-9.766,-20.02,-28.809,45.898,1.0
1626294704.8660414,64.941,-0.977,1.465,136.719,1.0
1626294704.8699481,-22.461,-53.711000000000006,-14.16,-66.895,1.0
1626294704.873854,-99.12100000000001,-72.266,-38.574,-180.66400000000002,1.0
1626294704.8777602,-25.391,-10.742,-23.926,10.742,1.0
1626294704.881667,43.457,24.901999999999997,-26.855,143.066,1.0
1626294704.885573,-14.16,3.906,-34.668,-22.461,1.0
1626294704.889479,-48.34,-30.273000000000003,-45.41,-205.56599999999997,1.0
1626294704.8933854,-106.445,-21.484,-46.387,-65.918,1.0
1626294704.8972914,-59.57,-67.87100000000001,-41.992,142.09,1.0
1626294704.901198,15.137,-59.57,-35.156,36.133,1.0
1626294704.9051042,-9.277000000000001,-7.324,-34.18,-193.84799999999998,1.0
1626294704.9090104,-89.355,-22.461,-21.484,-143.555,1.0
1626294704.9129167,-58.593999999999994,-16.602,-14.648,113.77,1.0
1626294704.916823,17.578,-51.27,-28.32,108.887,1.0
1626294704.9207292,14.648,-51.758,-35.645,-112.79299999999999,1.0
1626294704.9246354,-64.941,-25.879,-40.039,-161.13299999999998,1.0
1626294704.9285414,-78.125,-27.344,-26.855,65.918,1.0
1626294704.932448,0.0,-20.02,-19.531,149.90200000000002,1.0
1626294704.9363542,28.809,-5.371,-18.066,124.023,1.0
1626294704.9402604,29.785,-9.277000000000001,-11.719000000000001,73.73,1.0
1626294704.9441667,-96.68,-53.711000000000006,-27.831999999999997,-174.805,1.0
1626294704.948073,-116.699,-57.129,-34.18,-167.48,1.0
1626294704.9519792,-1.465,-17.578,-15.137,73.73,1.0
1626294704.9558854,38.574,-35.156,-33.203,111.32799999999999,1.0
1626294704.9597917,-25.391,-20.508000000000003,-31.25,-83.49600000000001,1.0
1626294704.963698,-87.891,-26.366999999999997,-25.879,-172.363,1.0
1626294704.9676042,-35.156,-39.062,-36.621,2.93,1.0
1626294704.9715104,40.039,-3.906,-32.715,124.023,1.0
1626294704.975417,-21.973000000000003,-0.488,-32.227,-42.48,1.0
1626294704.979323,-122.559,-27.344,-35.156,-207.52,1.0
1626294704.983229,-112.79299999999999,-55.176,-44.434,1.0,1.0
1626294704.9871356,-30.273000000000003,3.906,-36.133,1.0,1.0
1626294704.9910414,49.316,-4.883,-19.043,1.0,1.0
1626294704.9949477,-22.949,-48.34,-23.438000000000002,1.0,1.0
1626294704.998854,-108.398,-28.809,-38.574,1.0,1.0
1626294705.0027602,-74.707,-32.227,-56.641000000000005,1.0,1.0
1626294705.006667,12.695,-32.227,-43.945,1.0,1.0
1626294705.010573,-12.695,-73.242,-48.34,1.0,1.0
1626294705.0144792,-99.12100000000001,-99.609,-36.621,1.0,1.0
1626294705.0183854,-83.984,-61.035,-16.602,1.0,1.0
1626294705.0222914,9.277000000000001,0.0,-3.906,1.0,1.0
1626294705.026198,30.273000000000003,23.438000000000002,16.602,1.0,1.0
1626294705.0301042,46.387,15.625,-9.766,61.523,1.0
1626294705.0340102,-66.895,10.254000000000001,-33.203,-175.78099999999998,1.0
1626294705.0379167,-116.699,-69.336,-59.57,-177.24599999999998,1.0
1626294705.041823,-18.066,-76.66,-46.875,44.434,1.0
1626294705.0457292,31.25,-9.766,-26.366999999999997,79.59,1.0
1626294705.0496354,-67.383,-20.508000000000003,-37.109,-132.32399999999998,1.0
1626294705.0535417,-101.56200000000001,-4.395,-41.504,-181.641,1.0
1626294705.057448,-10.742,-23.438000000000002,-34.668,31.738000000000003,1.0
1626294705.0613542,61.035,-33.203,-30.273000000000003,138.672,1.0
1626294705.0652604,-1.465,-32.715,-37.109,-41.992,1.0
1626294705.0691667,-91.309,-53.223,-35.645,-184.57,1.0
1626294705.073073,-48.828,-45.898,-25.879,-40.039,1.0
1626294705.0769792,-2.93,15.625,-5.859,33.203,1.0
1626294705.0808856,55.176,17.09,-13.184000000000001,148.92600000000002,1.0
1626294705.0847917,-41.016000000000005,-57.129,-56.152,-65.918,1.0
1626294705.088698,-124.023,-69.336,-74.707,-219.727,1.0
1626294705.0926042,-54.199,-12.695,-37.109,-38.574,1.0
1626294705.0965104,20.508000000000003,-36.621,-14.16,124.512,1.0
1626294705.1004167,-14.16,-30.761999999999997,-34.18,-0.977,1.0
1626294705.104323,-96.191,-45.41,-47.363,-196.77700000000002,1.0
1626294705.108229,-67.383,-57.617,-19.531,-95.70299999999999,1.0
1626294705.1121356,27.831999999999997,-28.809,-3.906,123.535,1.0
1626294705.1160414,33.203,-13.184000000000001,-32.715,77.148,1.0
1626294705.1199481,-76.172,-23.438000000000002,-41.504,-144.531,1.0
1626294705.123854,-88.867,-24.414,-29.296999999999997,-175.293,1.0
1626294705.1277602,-93.262,-10.254000000000001,-33.691,-131.34799999999998,1.0
1626294705.131667,0.0,-55.663999999999994,-36.621,84.473,1.0
1626294705.135573,21.484,-71.777,-31.738000000000003,83.49600000000001,1.0
1626294705.139479,-52.246,-21.484,-27.831999999999997,-117.18799999999999,1.0
1626294705.1433854,-84.961,-29.296999999999997,-38.574,-147.94899999999998,1.0
1626294705.1472914,-2.441,-17.578,-30.273000000000003,61.035,1.0
1626294705.151198,52.733999999999995,-8.301,-26.366999999999997,140.625,1.0
1626294705.1551042,-17.578,-20.508000000000003,-22.461,-48.34,1.0
1626294705.1590104,-92.285,-36.621,-25.391,-177.734,1.0
1626294705.1629167,-29.785,-34.18,-38.574,-18.066,1.0
1626294705.166823,59.082,-22.461,-19.043,142.578,1.0
1626294705.1707292,40.039,-21.484,-23.438000000000002,131.34799999999998,1.0
1626294705.1746354,-16.113,-16.602,-32.715,-42.968999999999994,1.0
1626294705.1785414,-76.172,-32.227,-22.949,-160.156,1.0
1626294705.182448,-25.879,-39.551,-18.555,-7.812,1.0
1626294705.1863542,34.668,-21.973000000000003,-23.926,146.97299999999998,1.0
1626294705.1902604,-14.648,-39.062,-38.574,10.254000000000001,1.0
1626294705.1941667,-98.145,-62.5,-42.968999999999994,-176.75799999999998,1.0
1626294705.198073,-68.848,-76.172,-39.551,-73.242,1.0
1626294705.2019792,15.625,-39.551,-38.086,125.488,1.0
1626294705.2058854,-2.441,-13.672,-47.363,51.27,1.0
1626294705.2097917,-93.262,-25.391,-43.945,-167.96900000000002,1.0
1626294705.213698,-105.95700000000001,-20.508000000000003,-41.016000000000005,-149.90200000000002,1.0
1626294705.2176042,-72.266,-9.766,-31.25,-109.375,1.0
1626294705.2215104,20.508000000000003,-2.93,-43.457,101.56200000000001,1.0
1626294705.225417,10.254000000000001,-70.312,-48.34,60.547,1.0
1626294705.229323,-85.449,-101.074,-37.598,-162.59799999999998,1.0
1626294705.233229,-76.172,-24.901999999999997,1.465,-145.02,1.0
1626294705.2371356,7.812,-20.508000000000003,13.184000000000001,72.266,1.0
1626294705.2410414,35.645,-7.324,-8.789,110.352,1.0
1626294705.2449477,-52.733999999999995,-47.363,-46.387,-111.32799999999999,1.0
1626294705.248854,-114.74600000000001,-68.359,-48.34,-202.148,1.0
1626294705.2527602,-24.414,-5.859,-29.785,11.23,1.0
1626294705.256667,71.289,16.113,-38.574,156.738,1.0
1626294705.260573,17.09,0.0,-36.621,0.977,1.0
1626294705.2644792,-37.109,-13.184000000000001,-23.926,-86.426,1.0
1626294705.2683854,-95.70299999999999,-6.348,-29.785,-195.312,1.0
1626294705.2722914,-46.875,-59.082,-45.41,-22.949,1.0
1626294705.276198,23.438000000000002,-70.801,-38.086,118.652,1.0
1626294705.2801042,-16.113,-29.296999999999997,-40.039,-24.414,1.0
1626294705.2840102,-100.098,-42.968999999999994,-40.527,-193.84799999999998,1.0
1626294705.2879167,-53.711000000000006,-14.648,-36.621,-65.43,1.0
1626294705.291823,41.016000000000005,-41.504,-29.296999999999997,126.465,1.0
1626294705.2957292,8.789,-61.035,-12.695,37.109,1.0
1626294705.2996354,-94.727,-38.086,-21.484,-174.31599999999997,1.0
1626294705.3035417,-82.52,-16.602,-34.18,-124.023,1.0
1626294705.307448,30.761999999999997,-7.324,-16.113,120.605,1.0
1626294705.3113542,20.02,-13.672,-30.273000000000003,106.445,1.0
1626294705.3152604,23.438000000000002,-17.578,-22.949,64.941,1.0
1626294705.3191667,-68.359,-93.262,-27.344,-141.602,1.0
1626294705.323073,-94.238,-101.56200000000001,-40.527,-139.648,1.0
1626294705.3269792,8.789,-4.395,-27.831999999999997,78.125,1.0
1626294705.3308856,45.41,8.301,-13.672,103.027,1.0
1626294705.3347917,-38.086,-10.254000000000001,-24.414,-116.699,1.0
1626294705.338698,-117.676,-80.566,-59.57,-219.727,1.0
1626294705.3426042,-40.527,-60.547,-41.504,-11.719000000000001,1.0
1626294705.3465104,72.266,26.366999999999997,-7.324,140.137,1.0
1626294705.3504167,7.324,21.973000000000003,-35.645,-31.738000000000003,1.0
1626294705.354323,-97.656,-5.859,-59.57,-186.035,1.0
1626294705.358229,-96.68,-31.738000000000003,-37.109,1.0,1.0
1626294705.3621356,-25.879,-25.879,-25.879,1.0,1.0
1626294705.3660414,46.875,-44.434,-17.09,1.0,1.0
1626294705.3699481,-0.977,-36.133,-29.296999999999997,1.0,1.0
1626294705.373854,-86.914,4.395,-40.039,1.0,1.0
1626294705.3777602,-66.406,-7.812,-49.316,1.0,1.0
1626294705.381667,28.32,-0.977,-44.434,1.0,1.0
1626294705.385573,3.418,-53.223,-34.668,1.0,1.0
1626294705.389479,-76.172,-65.43,-48.828,1.0,1.0
1626294705.3933854,-70.801,-22.461,-35.645,1.0,1.0
1626294705.3972914,-13.184000000000001,-18.066,-11.719000000000001,1.0,1.0
1626294705.401198,13.184000000000001,-13.184000000000001,-29.296999999999997,1.0,1.0
1626294705.4051042,26.366999999999997,-4.883,-23.438000000000002,64.453,1.0
1626294705.4090104,-100.098,-26.366999999999997,-47.852,-173.828,1.0
1626294705.4129167,-121.58200000000001,-97.656,-61.035,-160.156,1.0
1626294705.416823,-15.625,-89.844,-52.246,70.312,1.0
1626294705.4207292,36.133,-0.488,-40.527,92.773,1.0
1626294705.4246354,-86.426,2.93,-36.621,-137.207,1.0
1626294705.4285414,-141.113,5.371,-19.531,-188.477,1.0
1626294705.432448,-38.086,-38.086,-26.855,23.926,1.0
1626294705.4363542,53.223,-42.968999999999994,-43.457,115.723,1.0
1626294705.4402604,-21.973000000000003,-12.207,-35.156,-54.688,1.0
1626294705.4441667,-119.141,-13.672,-25.879,-177.734,1.0
1626294705.448073,-58.593999999999994,-31.25,-30.273000000000003,-31.738000000000003,1.0
1626294705.4519792,-31.25,-18.066,-21.484,27.831999999999997,1.0
1626294705.4558854,37.109,-0.488,-15.625,140.625,1.0
1626294705.4597917,-20.508000000000003,-44.434,-24.414,-39.551,1.0
1626294705.463698,-108.398,-62.012,-25.879,-206.055,1.0
1626294705.4676042,-67.87100000000001,-11.719000000000001,-27.344,-61.035,1.0
1626294705.4715104,36.133,-9.766,-18.066,138.672,1.0
1626294705.475417,10.254000000000001,5.371,-24.901999999999997,29.296999999999997,1.0
1626294705.479323,-105.469,-48.34,-55.663999999999994,-202.148,1.0
1626294705.483229,-98.633,-78.613,-44.434,-128.418,1.0
1626294705.4871356,17.578,-38.086,-24.901999999999997,96.68,1.0
1626294705.4910414,28.32,-23.438000000000002,-37.109,59.082,1.0
1626294705.4949477,-70.312,12.207,-24.414,-136.23,1.0
1626294705.498854,-66.895,4.883,-19.531,-145.50799999999998,1.0
1626294705.5027602,-64.453,8.789,-23.926,54.688,1.0
1626294705.506667,17.09,-34.668,-34.668,120.117,1.0
1626294705.510573,41.504,-56.152,-45.41,-72.75399999999999,1.0
1626294705.5144792,-39.551,-30.761999999999997,-37.109,-181.641,1.0
1626294705.5183854,-81.543,-18.066,-15.137,-21.484,1.0
1626294705.5222914,2.93,17.09,-8.789,112.79299999999999,1.0
1626294705.526198,39.551,-48.828,-30.273000000000003,-25.391,1.0
1626294705.5301042,-61.523,-86.426,-58.593999999999994,-179.688,1.0
1626294705.5340102,-126.465,-46.387,-57.617,-63.965,1.0
1626294705.5379167,-48.34,-25.879,-34.18,107.42200000000001,1.0
1626294705.541823,41.016000000000005,-5.859,-27.344,19.531,1.0
1626294705.5457292,72.75399999999999,38.574,9.766,147.461,1.0
1626294705.5496354,-25.391,-3.906,-34.668,-58.593999999999994,1.0
1626294705.5535417,-135.74200000000002,-96.68,-77.637,-231.93400000000003,1.0
1626294705.557448,-69.824,-95.215,-64.453,-71.777,1.0
1626294705.5613542,58.593999999999994,16.113,-2.441,139.648,1.0
1626294705.5652604,13.184000000000001,10.254000000000001,-4.395,5.859,1.0
1626294705.5691667,-95.215,-13.672,-20.508000000000003,-199.707,1.0
1626294705.573073,-74.219,-65.43,-24.414,-100.586,1.0
1626294705.5769792,41.992,-61.035,-27.344,133.30100000000002,1.0
1626294705.5808856,41.992,-35.156,-45.41,80.078,1.0
1626294705.5847917,-53.223,-38.086,-37.598,-140.625,1.0
1626294705.588698,-54.199,6.348,-12.207,-113.77,1.0
1626294705.5926042,-65.918,-16.602,-21.484,1.0,1.0
1626294705.5965104,34.18,6.836,-1.465,1.0,1.0
1626294705.6004167,52.246,-44.922,1.953,1.0,1.0
1626294705.604323,-41.504,-73.242,0.488,1.0,1.0
1626294705.608229,-72.266,-23.438000000000002,-11.23,1.0,1.0
1626294705.6121356,-3.418,-13.184000000000001,-41.992,1.0,1.0
1626294705.6160414,42.48,15.625,-27.831999999999997,1.0,1.0
1626294705.6199481,-35.156,-50.293,-35.645,1.0,1.0
1626294705.623854,-96.68,-84.473,-76.172,1.0,1.0
1626294705.6277602,-21.973000000000003,-20.996,-41.016000000000005,1.0,1.0
1626294705.631667,45.898,3.906,-4.395,1.0,1.0
1626294705.635573,-16.602,4.395,-16.602,1.0,1.0
1626294705.639479,-19.531,-13.672,-13.184000000000001,-70.801,1.0
1626294705.6433854,-86.426,-35.156,-15.137,-175.293,1.0
1626294705.6472914,-40.039,-72.75399999999999,-45.41,-22.949,1.0
1626294705.651198,34.18,-78.125,-57.129,110.352,1.0
1626294705.6551042,-0.977,-42.968999999999994,-50.293,-27.831999999999997,1.0
1626294705.6590104,-92.285,-32.227,-49.805,-196.28900000000002,1.0
1626294705.6629167,-67.87100000000001,-3.418,-39.551,-80.566,1.0
1626294705.666823,25.391,-14.16,-23.438000000000002,118.164,1.0
1626294705.6707292,18.555,-10.742,-23.926,46.387,1.0
1626294705.6746354,-65.43,-2.93,-22.461,-155.273,1.0
1626294705.6785414,-55.176,-5.859,-9.766,-104.98,1.0
1626294705.682448,51.758,8.301,-10.254000000000001,125.488,1.0
1626294705.6863542,27.831999999999997,-5.371,-14.16,124.512,1.0
1626294705.6902604,2.93,-19.531,-32.227,35.645,1.0
1626294705.6941667,-86.426,-66.895,-41.992,-170.898,1.0
1626294705.698073,-93.75,-75.195,-52.733999999999995,-146.97299999999998,1.0
1626294705.7019792,13.184000000000001,-24.414,-21.484,81.543,1.0
1626294705.7058854,40.527,-19.043,-10.254000000000001,102.539,1.0
1626294705.7097917,-63.477,-0.977,-42.48,-119.62899999999999,1.0
1626294705.713698,-130.371,-58.105,-45.898,-193.359,1.0
1626294705.7176042,-35.156,-50.781000000000006,-19.043,20.02,1.0
1626294705.7215104,55.663999999999994,8.301,-15.625,148.92600000000002,1.0
1626294705.725417,-15.625,-6.348,-17.578,-40.039,1.0
1626294705.729323,-99.12100000000001,-13.672,-8.301,-187.5,1.0
1626294705.733229,-122.07,-38.574,-44.434,1.0,1.0
1626294705.7371356,-41.016000000000005,-31.25,-30.273000000000003,1.0,1.0
1626294705.7410414,35.645,-62.988,-34.18,1.0,1.0
1626294705.7449477,-20.996,-55.176,-37.598,1.0,1.0
1626294705.748854,-105.95700000000001,-9.277000000000001,-21.973000000000003,1.0,1.0
1626294705.7527602,-70.312,-18.066,-15.625,1.0,1.0
1626294705.756667,27.831999999999997,0.977,-18.555,1.0,1.0
1626294705.760573,-2.441,-41.504,-31.738000000000003,1.0,1.0
1626294705.7644792,-103.027,-61.035,-51.758,1.0,1.0
1626294705.7683854,-69.336,-6.348,-35.156,1.0,1.0
1626294705.7722914,57.129,15.137,-1.465,1.0,1.0
1626294705.776198,63.965,-11.23,-7.812,1.0,1.0
1626294705.7801042,31.738000000000003,-10.254000000000001,-10.742,58.105,1.0
1626294705.7840102,-65.918,-16.113,-48.828,-152.344,1.0
1626294705.7879167,-103.027,-68.359,-68.359,-150.391,1.0
1626294705.791823,-25.391,-71.777,-44.434,52.733999999999995,1.0
1626294705.7957292,30.761999999999997,3.418,-15.137,93.262,1.0
1626294705.7996354,-67.87100000000001,-10.742,-33.203,-128.906,1.0
1626294705.8035417,-115.234,-14.16,-23.438000000000002,-181.15200000000002,1.0
1626294705.807448,-42.968999999999994,-44.922,-28.32,14.16,1.0
1626294705.8113542,19.531,-43.457,-30.761999999999997,112.305,1.0
1626294705.8152604,-29.785,-6.836,-23.438000000000002,-60.059,1.0
1626294705.8191667,-87.891,-18.066,-26.366999999999997,-168.457,1.0
1626294705.823073,-14.648,-18.066,-22.461,13.184000000000001,1.0
1626294705.8269792,-19.043,-22.461,-49.805,26.855,1.0
1626294705.8308856,51.27,-32.227,-44.922,137.207,1.0
1626294705.8347917,-41.016000000000005,-119.62899999999999,-50.293,-68.359,1.0
1626294705.838698,-133.789,-123.04700000000001,-51.27,-217.285,1.0
1626294705.8426042,-55.663999999999994,-17.09,-17.578,-29.785,1.0
1626294705.8465104,33.203,7.324,-6.348,142.578,1.0
1626294705.8504167,11.23,28.809,-16.602,28.809,1.0
1626294705.854323,-97.656,-31.25,-31.25,-183.105,1.0
1626294705.858229,-76.172,-54.688,-16.113,-93.262,1.0
1626294705.8621356,44.434,-9.766,5.859,142.09,1.0
1626294705.8660414,39.062,-9.277000000000001,-20.02,90.33200000000001,1.0
1626294705.8699481,-78.125,-16.113,-73.242,-155.273,1.0
1626294705.873854,-80.566,-20.996,-22.949,-187.5,1.0
1626294705.8777602,-59.082,-6.348,-14.16,48.828,1.0
1626294705.881667,4.883,-76.172,-25.879,110.84,1.0
1626294705.885573,0.488,-88.37899999999999,-42.968999999999994,-89.844,1.0
1626294705.889479,-59.082,7.324,-29.296999999999997,-175.293,1.0
1626294705.8933854,-84.961,-11.719000000000001,-26.366999999999997,6.348,1.0
1626294705.8972914,6.348,-7.324,-0.488,149.90200000000002,1.0
1626294705.901198,42.968999999999994,-37.598,-6.836,-41.992,1.0
1626294705.9051042,-25.879,-38.086,-37.598,-185.05900000000003,1.0
1626294705.9090104,-81.055,-14.648,-49.316,-49.805,1.0
1626294705.9129167,-9.766,-10.742,-19.043,95.70299999999999,1.0
1626294705.916823,60.059,-7.812,-2.93,19.043,1.0
1626294705.9207292,47.852,-37.598,-18.555,119.62899999999999,1.0
1626294705.9246354,-12.207,-16.113,-24.901999999999997,-49.805,1.0
1626294705.9285414,-119.62899999999999,-76.172,-62.988,-199.707,1.0
1626294705.932448,-65.43,-68.359,-59.082,-41.016000000000005,1.0
1626294705.9363542,46.875,12.695,-25.879,134.766,1.0
1626294705.9402604,0.0,-17.09,-26.855,-7.324,1.0
1626294705.9441667,-90.82,-15.625,-29.785,-181.15200000000002,1.0
1626294705.948073,-79.102,-48.828,-38.086,-90.33200000000001,1.0
1626294705.9519792,18.066,-44.922,-27.344,109.375,1.0
1626294705.9558854,33.691,-9.766,-3.418,67.383,1.0
1626294705.9597917,-60.547,-31.738000000000003,-14.16,-141.113,1.0
1626294705.963698,-81.543,-35.645,-31.738000000000003,-128.418,1.0
1626294705.9676042,-39.062,-3.906,-17.09,-61.523,1.0
1626294705.9715104,36.133,8.789,-25.879,129.88299999999998,1.0
1626294705.975417,4.395,-74.219,-51.27,44.434,1.0
1626294705.979323,-94.238,-119.62899999999999,-62.5,-178.22299999999998,1.0
1626294705.983229,-79.102,-27.344,-45.898,-134.766,1.0
1626294705.9871356,7.812,1.953,-41.016000000000005,83.008,1.0
1626294705.9910414,39.062,17.09,-36.133,118.164,1.0
1626294705.9949477,-45.898,-24.901999999999997,-40.527,-91.79700000000001,1.0
1626294705.998854,-100.098,-37.598,-24.901999999999997,-169.922,1.0
1626294706.0027602,-20.02,-6.348,-11.23,31.25,1.0
1626294706.006667,57.617,0.488,-20.02,146.97299999999998,1.0
1626294706.010573,8.301,11.719000000000001,-20.996,-22.949,1.0
1626294706.0144792,-21.484,-16.602,-33.203,-65.43,1.0
1626294706.0183854,-69.336,-34.18,-21.973000000000003,-153.809,1.0
1626294706.0222914,-17.578,-65.43,-18.066,17.09,1.0
1626294706.026198,26.366999999999997,-51.27,-33.203,120.117,1.0
1626294706.0301042,-25.391,0.488,-37.109,-41.016000000000005,1.0
1626294706.0340102,-110.352,-29.296999999999997,-34.668,-210.938,1.0
1626294706.0379167,-62.5,-26.855,-8.301,-70.801,1.0
1626294706.041823,28.32,-40.527,-29.785,120.605,1.0
1626294706.0457292,9.766,-40.527,-61.035,26.366999999999997,1.0
1626294706.0496354,-73.73,-10.742,-42.968999999999994,-173.34,1.0
1626294706.0535417,-75.684,-15.137,-29.785,-131.34799999999998,1.0
1626294706.057448,27.344,-25.391,-7.812,98.633,1.0
1626294706.0613542,39.551,-28.809,-18.555,119.141,1.0
1626294706.0652604,41.992,-1.465,-16.602,68.359,1.0
1626294706.0691667,-55.663999999999994,-37.598,-22.949,-151.36700000000002,1.0
1626294706.073073,-85.93799999999999,-58.593999999999994,-35.156,-138.672,1.0
1626294706.0769792,-4.395,-18.066,-37.109,78.125,1.0
1626294706.0808856,56.641000000000005,4.883,-13.184000000000001,108.887,1.0
1626294706.0847917,-32.227,13.184000000000001,-42.968999999999994,-113.281,1.0
1626294706.088698,-110.84,-30.273000000000003,-71.289,-198.24200000000002,1.0
1626294706.0926042,-35.156,-49.805,-45.898,3.418,1.0
1626294706.0965104,41.016000000000005,-26.366999999999997,-22.949,119.62899999999999,1.0
1626294706.1004167,-25.879,-26.855,-29.296999999999997,-48.34,1.0
1626294706.104323,-105.469,-36.133,-26.366999999999997,-183.105,1.0
1626294706.108229,-93.75,-22.461,-20.996,1.0,1.0
1626294706.1121356,-0.977,2.441,-14.16,1.0,1.0
1626294706.1160414,89.844,-43.945,-3.906,1.0,1.0
1626294706.1199481,-21.484,-86.426,-29.785,1.0,1.0
1626294706.123854,-120.605,-33.691,-38.086,1.0,1.0
1626294706.1277602,-67.383,-25.879,-22.461,1.0,1.0
1626294706.131667,34.18,-20.02,-18.066,1.0,1.0
1626294706.135573,0.0,-85.449,-43.945,1.0,1.0
1626294706.139479,-98.633,-80.078,-61.523,1.0,1.0
1626294706.1433854,-78.125,-13.184000000000001,-52.246,1.0,1.0
1626294706.1472914,23.926,-18.555,-35.156,1.0,1.0
1626294706.151198,36.133,-22.949,-14.16,1.0,1.0
1626294706.1551042,20.02,2.441,-35.645,42.968999999999994,1.0
1626294706.1590104,-81.543,-23.926,-28.32,-165.52700000000002,1.0
1626294706.1629167,-82.52,-72.75399999999999,-24.901999999999997,-111.32799999999999,1.0
1626294706.166823,36.621,-43.457,-31.25,95.70299999999999,1.0
1626294706.1707292,45.898,22.949,-18.555,93.262,1.0
1626294706.1746354,-84.473,-14.16,-19.531,-132.812,1.0
1626294706.1785414,-101.56200000000001,-10.254000000000001,-23.926,-164.551,1.0
1626294706.182448,-30.273000000000003,-58.593999999999994,-55.663999999999994,23.926,1.0
1626294706.1863542,36.133,-70.312,-51.27,110.352,1.0
1626294706.1902604,-12.695,-13.672,-32.227,-62.988,1.0
1626294706.1941667,-103.516,-16.113,-22.949,-193.359,1.0
1626294706.198073,-54.199,-10.254000000000001,-20.02,-12.207,1.0
1626294706.2019792,4.395,-3.906,-28.32,36.621,1.0
1626294706.2058854,45.41,8.789,-5.371,159.18,1.0
1626294706.2097917,-45.41,-58.593999999999994,-32.715,-48.34,1.0
1626294706.213698,-112.79299999999999,-107.91,-58.593999999999994,-213.37900000000002,1.0
1626294706.2176042,-34.18,-6.348,-34.18,-25.879,1.0
1626294706.2215104,48.828,-7.812,-22.949,150.879,1.0
1626294706.225417,1.465,-30.761999999999997,-22.461,22.461,1.0
1626294706.229323,-109.863,-80.566,-55.663999999999994,-184.57,1.0
1626294706.233229,-79.102,-68.359,-58.593999999999994,-108.887,1.0
1626294706.2371356,19.531,-10.254000000000001,-10.254000000000001,101.56200000000001,1.0
1626294706.2410414,5.371,5.859,-9.277000000000001,55.176,1.0
1626294706.2449477,-93.262,22.949,-38.574,-168.457,1.0
1626294706.248854,-77.637,-9.766,-43.457,-153.809,1.0
1626294706.2527602,-66.406,-2.441,-11.23,82.031,1.0
1626294706.256667,14.648,-59.082,-10.742,121.58200000000001,1.0
1626294706.260573,22.949,-91.309,-18.066,-85.449,1.0
1626294706.2644792,-37.109,-25.391,-19.043,-162.109,1.0
1626294706.2683854,-69.824,-28.32,-33.691,16.602,1.0
1626294706.2722914,3.418,-34.18,-22.949,136.23,1.0
1626294706.276198,37.598,-35.645,-29.296999999999997,-39.062,1.0
1626294706.2801042,-49.316,-16.113,-41.504,-204.59,1.0
1626294706.2840102,-95.70299999999999,9.277000000000001,-22.461,-76.66,1.0
1626294706.2879167,-35.645,2.441,-18.066,106.445,1.0
1626294706.291823,20.996,0.0,-30.761999999999997,33.691,1.0
1626294706.2957292,53.223,6.836,-39.551,119.141,1.0
1626294706.2996354,-22.461,22.949,-47.363,-81.055,1.0
1626294706.3035417,-113.77,-64.453,-31.25,-215.82,1.0
1626294706.307448,-64.941,-98.145,-17.09,-49.316,1.0
1626294706.3113542,33.203,-14.16,-8.301,103.516,1.0
1626294706.3152604,-7.324,-11.23,-34.668,-43.457,1.0
1626294706.3191667,-83.984,-22.949,-43.457,-187.988,1.0
1626294706.323073,-70.312,-60.059,-35.156,-92.285,1.0
1626294706.3269792,25.391,-24.414,-17.578,105.469,1.0
1626294706.3308856,37.598,12.207,-37.109,59.082,1.0
1626294706.3347917,-66.895,-18.555,-81.543,-166.50400000000002,1.0
1626294706.338698,-91.79700000000001,-23.438000000000002,-56.152,-161.621,1.0
1626294706.3426042,-86.914,-4.395,-28.32,1.0,1.0
1626294706.3465104,10.742,-0.977,-15.625,1.0,1.0
1626294706.3504167,12.207,-54.688,-29.785,1.0,1.0
1626294706.354323,-92.773,-72.266,-38.086,1.0,1.0
1626294706.358229,-109.863,-31.738000000000003,-23.926,1.0,1.0
1626294706.3621356,-10.742,-40.527,-13.672,1.0,1.0
1626294706.3660414,55.176,3.418,-7.324,1.0,1.0
1626294706.3699481,-30.761999999999997,-33.691,-25.879,1.0,1.0
1626294706.373854,-109.863,-49.316,-36.133,1.0,1.0
1626294706.3777602,-40.039,2.93,-19.043,1.0,1.0
1626294706.381667,26.366999999999997,13.672,-24.414,1.0,1.0
1626294706.385573,-26.855,2.441,-37.109,1.0,1.0
1626294706.389479,-35.645,4.883,-20.996,-74.707,1.0
1626294706.3933854,-92.285,-12.207,-24.414,-168.457,1.0
1626294706.3972914,-12.207,-63.477,-32.715,21.484,1.0
1626294706.401198,61.035,-58.105,-25.391,152.832,1.0
1626294706.4051042,-5.371,-20.02,-18.066,-15.137,1.0
1626294706.4090104,-93.262,-21.484,-36.133,-184.082,1.0
1626294706.4129167,-59.082,-26.366999999999997,-42.48,-62.5,1.0
1626294706.416823,34.18,-90.82,-15.137,131.836,1.0
1626294706.4207292,14.648,-60.547,-28.809,36.133,1.0
1626294706.4246354,-85.93799999999999,11.23,-55.663999999999994,-185.547,1.0
1626294706.4285414,-91.309,2.93,-43.457,-140.137,1.0
1626294706.432448,0.0,3.906,-23.438000000000002,85.449,1.0
1626294706.4363542,6.836,-0.977,-21.484,108.887,1.0
1626294706.4402604,3.418,-8.789,-33.203,33.691,1.0
1626294706.4441667,-85.93799999999999,-97.16799999999999,-42.48,-166.016,1.0
1626294706.448073,-78.613,-104.00399999999999,-31.25,-118.164,1.0
1626294706.4519792,3.906,1.465,-24.414,89.844,1.0
1626294706.4558854,12.207,-3.418,-27.344,86.426,1.0
1626294706.4597917,-67.87100000000001,-35.645,-36.621,-124.023,1.0
1626294706.463698,-113.77,-84.961,-50.781000000000006,-185.05900000000003,1.0
1626294706.4676042,-34.18,-50.293,-36.621,17.578,1.0
1626294706.4715104,43.457,-1.953,-13.184000000000001,131.34799999999998,1.0
1626294706.475417,-23.926,-10.254000000000001,-13.184000000000001,-55.663999999999994,1.0
1626294706.479323,-112.305,-10.254000000000001,-31.25,-192.38299999999998,1.0
1626294706.483229,-103.516,-22.949,-44.434,-25.391,1.0
1626294706.4871356,-13.672,3.418,-32.227,152.832,1.0
1626294706.4910414,57.129,-15.137,-27.344,26.855,1.0
1626294706.4949477,-23.438000000000002,-54.199,-44.434,-165.03900000000002,1.0
1626294706.498854,-80.566,-24.414,-40.527,-75.195,1.0
1626294706.5027602,14.648,-7.324,-27.344,121.58200000000001,1.0
1626294706.506667,80.078,-39.062,3.906,66.406,1.0
1626294706.510573,6.348,-73.242,2.441,-129.395,1.0
1626294706.5144792,-90.33200000000001,-30.273000000000003,-38.086,-109.375,1.0
1626294706.5183854,-50.293,-19.043,-44.922,79.59,1.0
1626294706.5222914,33.203,-10.254000000000001,-54.199,104.492,1.0
1626294706.526198,-10.254000000000001,-16.602,-62.012,-102.539,1.0
1626294706.5301042,-24.414,-20.508000000000003,-13.672,-63.965,1.0
1626294706.5340102,-77.637,-33.691,-20.508000000000003,-162.109,1.0
1626294706.5379167,-6.836,-62.012,-17.09,13.184000000000001,1.0
1626294706.541823,59.082,-30.761999999999997,-15.137,138.672,1.0
1626294706.5457292,-23.438000000000002,-40.527,-48.34,-42.48,1.0
1626294706.5496354,-118.652,-45.41,-65.918,-208.984,1.0
1626294706.5535417,-71.777,-28.32,-39.062,-65.43,1.0
1626294706.557448,36.621,-32.227,-24.414,136.719,1.0
1626294706.5613542,30.761999999999997,9.766,-38.574,56.152,1.0
1626294706.5652604,-58.105,12.207,-49.805,-149.414,1.0
1626294706.5691667,-70.801,-6.348,-47.852,-122.559,1.0
1626294706.573073,11.23,-32.715,-25.879,86.426,1.0
1626294706.5769792,42.968999999999994,-2.93,-17.09,136.23,1.0
1626294706.5808856,33.691,-26.366999999999997,-15.137,67.87100000000001,1.0
1626294706.5847917,-89.844,-117.676,-41.504,-181.641,1.0
1626294706.588698,-95.215,-66.895,-53.711000000000006,-157.715,1.0
1626294706.5926042,12.207,-28.809,-35.156,77.637,1.0
1626294706.5965104,43.457,-14.648,-27.344,110.84,1.0
1626294706.6004167,-62.5,-16.113,-43.945,-124.023,1.0
1626294706.604323,-136.719,-62.012,-49.316,-211.91400000000002,1.0
1626294706.608229,-29.296999999999997,-14.648,-31.738000000000003,19.043,1.0
1626294706.6121356,48.828,-11.23,-22.461,133.30100000000002,1.0
1626294706.6160414,-14.648,-18.066,-25.391,-40.039,1.0
1626294706.6199481,-86.914,-38.086,-56.641000000000005,-175.78099999999998,1.0
1626294706.623854,-97.656,-16.113,-33.691,-38.574,1.0
1626294706.6277602,-19.043,-15.137,-16.602,130.371,1.0
1626294706.631667,31.738000000000003,-91.79700000000001,-23.438000000000002,3.418,1.0
1626294706.635573,-20.508000000000003,-36.621,-38.574,-180.66400000000002,1.0
1626294706.639479,-103.516,-18.066,-53.711000000000006,-113.77,1.0
1626294706.6433854,-58.105,-31.738000000000003,-32.715,83.984,1.0
1626294706.6472914,28.809,-42.48,-28.809,70.312,1.0
1626294706.651198,-3.906,-111.32799999999999,-34.668,-144.531,1.0
1626294706.6551042,-88.867,-55.176,-22.949,-155.273,1.0
1626294706.6590104,-85.93799999999999,-0.488,-26.366999999999997,48.828,1.0
1626294706.6629167,9.766,12.207,-21.973000000000003,103.027,1.0
1626294706.666823,6.348,-2.93,-49.316,-95.70299999999999,1.0
1626294706.6707292,21.973000000000003,5.859,-25.391,41.992,1.0
1626294706.6746354,-84.961,-5.371,-58.105,-177.24599999999998,1.0
1626294706.6785414,-108.887,-95.70299999999999,-74.219,-153.809,1.0
1626294706.682448,9.277000000000001,-45.41,-36.621,89.844,1.0
1626294706.6863542,32.715,3.906,-30.761999999999997,89.844,1.0
1626294706.6902604,-48.828,20.996,-19.531,-116.211,1.0
1626294706.6941667,-92.773,-19.043,-30.761999999999997,-165.03900000000002,1.0
1626294706.698073,-39.551,-95.70299999999999,-65.918,14.648,1.0
1626294706.7019792,41.992,-29.296999999999997,-36.133,123.535,1.0
1626294706.7058854,-10.254000000000001,0.977,-17.578,-46.387,1.0
1626294706.7097917,-75.684,-30.761999999999997,-17.09,-159.668,1.0
1626294706.713698,-25.879,-48.828,-13.184000000000001,-4.883,1.0
1626294706.7176042,-12.207,4.883,-16.113,1.0,1.0
1626294706.7215104,56.641000000000005,14.16,-22.949,1.0,1.0
1626294706.725417,-38.086,-72.266,-70.312,1.0,1.0
1626294706.729323,-98.145,-50.781000000000006,-63.477,1.0,1.0
1626294706.733229,-33.203,-24.901999999999997,-32.227,1.0,1.0
1626294706.7371356,46.875,-13.184000000000001,-10.254000000000001,1.0,1.0
1626294706.7410414,2.93,-33.203,-21.484,1.0,1.0
1626294706.7449477,-121.58200000000001,-113.281,-47.852,1.0,1.0
1626294706.748854,-82.031,-53.223,-22.461,1.0,1.0
1626294706.7527602,23.926,4.395,-15.625,1.0,1.0
1626294706.756667,29.296999999999997,11.719000000000001,-14.648,1.0,1.0
1626294706.760573,-51.27,-13.672,-24.414,1.0,1.0
1626294706.7644792,-46.387,18.066,-40.039,-150.879,1.0
1626294706.7683854,-56.641000000000005,-14.16,-27.344,-101.074,1.0
1626294706.7722914,14.16,-86.426,-33.691,91.79700000000001,1.0
1626294706.776198,29.296999999999997,-43.457,-32.227,71.777,1.0
1626294706.7801042,-58.105,-24.901999999999997,-25.879,-141.113,1.0
1626294706.7840102,-97.16799999999999,-41.016000000000005,-21.973000000000003,-156.25,1.0
1626294706.7879167,-11.719000000000001,-55.176,-17.578,62.988,1.0
1626294706.791823,36.621,-94.727,-35.645,113.77,1.0
1626294706.7957292,-25.391,-41.016000000000005,-43.457,-83.49600000000001,1.0
1626294706.7996354,-100.098,-11.23,-49.805,-199.707,1.0
1626294706.8035417,-48.34,-5.859,-37.109,-23.926,1.0
1626294706.807448,19.043,-13.672,-27.344,110.84,1.0
1626294706.8113542,34.18,-0.488,1.953,135.254,1.0
1626294706.8152604,-40.527,-40.039,-29.296999999999997,-62.988,1.0
1626294706.8191667,-140.625,-124.512,-73.242,-222.65599999999998,1.0
1626294706.823073,-49.805,-64.941,-28.809,-16.602,1.0
1626294706.8269792,62.5,10.254000000000001,2.441,163.086,1.0
1626294706.8308856,29.296999999999997,34.18,-9.766,25.391,1.0
1626294706.8347917,-83.49600000000001,-46.387,-41.016000000000005,-172.852,1.0
1626294706.838698,-93.75,-113.281,-54.199,-102.539,1.0
1626294706.8426042,11.719000000000001,-27.344,-33.691,112.305,1.0
1626294706.8465104,18.066,-9.277000000000001,-27.344,61.523,1.0
1626294706.8504167,-75.684,-30.761999999999997,-19.043,-152.344,1.0
1626294706.854323,-82.031,-26.855,-30.273000000000003,-125.0,1.0
1626294706.858229,-68.848,-4.395,-24.901999999999997,1.0,1.0
1626294706.8621356,32.715,-14.648,-24.414,1.0,1.0
1626294706.8660414,23.926,-96.191,-77.148,1.0,1.0
1626294706.8699481,-59.082,-45.898,-70.312,1.0,1.0
1626294706.873854,-69.824,-4.883,-25.391,1.0,1.0
1626294706.8777602,16.113,-20.02,-7.324,1.0,1.0
1626294706.881667,46.387,-12.207,-20.02,1.0,1.0
1626294706.885573,-41.016000000000005,-36.133,-42.968999999999994,1.0,1.0
1626294706.889479,-83.49600000000001,-12.207,-30.273000000000003,1.0,1.0
1626294706.8933854,0.977,11.23,-5.371,1.0,1.0
1626294706.8972914,72.266,17.578,-4.395,1.0,1.0
1626294706.901198,-15.137,-17.578,-27.831999999999997,1.0,1.0
1626294706.9051042,-15.625,-18.555,-37.109,-62.012,1.0
1626294706.9090104,-88.867,-34.668,-37.598,-174.31599999999997,1.0
1626294706.9129167,-55.176,-92.285,-45.41,-32.227,1.0
1626294706.916823,17.578,-60.547,-31.25,104.00399999999999,1.0
1626294706.9207292,-10.742,-31.738000000000003,-34.668,-41.504,1.0
1626294706.9246354,-67.87100000000001,-28.809,-27.831999999999997,-172.852,1.0
1626294706.9285414,-37.598,-45.41,-19.043,-41.992,1.0
1626294706.932448,22.461,-74.707,-39.551,107.91,1.0
1626294706.9363542,14.16,-21.484,-27.831999999999997,43.945,1.0
1626294706.9402604,-79.59,-7.812,-30.761999999999997,-176.75799999999998,1.0
1626294706.9441667,-88.37899999999999,1.465,-39.062,-146.484,1.0
1626294706.948073,0.488,-2.93,-31.738000000000003,93.262,1.0
1626294706.9519792,35.645,3.418,-23.926,127.441,1.0
1626294706.9558854,35.156,2.441,-33.203,62.012,1.0
1626294706.9597917,-48.828,-56.152,-31.738000000000003,-145.996,1.0
1626294706.963698,-62.5,-21.484,-19.531,-107.91,1.0
1626294706.9676042,22.461,-13.184000000000001,-19.531,101.074,1.0
1626294706.9715104,58.593999999999994,-49.805,-16.113,112.79299999999999,1.0
1626294706.975417,-29.785,-60.547,-19.043,-99.609,1.0
1626294706.979323,-85.93799999999999,-53.223,-36.133,-172.852,1.0
1626294706.983229,-16.113,-24.414,-31.25,22.461,1.0
1626294706.9871356,35.645,-27.831999999999997,-27.831999999999997,131.836,1.0
1626294706.9910414,-13.672,-1.953,-51.758,-37.109,1.0
1626294706.9949477,-90.82,-20.02,-56.641000000000005,-179.199,1.0
1626294706.998854,-92.773,-27.831999999999997,-28.32,-174.805,1.0
1626294707.0027602,-23.926,-36.621,-27.344,11.719000000000001,1.0
1626294707.006667,48.34,-79.102,-41.504,124.512,1.0
1626294707.010573,-5.371,-42.48,-51.758,-48.828,1.0
1626294707.0144792,-98.633,-45.41,-57.129,-202.637,1.0
1626294707.0183854,-34.668,-37.109,-49.316,-41.504,1.0
1626294707.0222914,42.48,-24.414,-45.898,112.305,1.0
1626294707.026198,-33.691,-83.49600000000001,-60.547,-34.18,1.0
1626294707.0301042,-105.469,-72.75399999999999,-49.316,-201.66,1.0
1626294707.0340102,-56.152,-28.809,-26.855,-105.95700000000001,1.0
1626294707.0379167,26.366999999999997,12.695,-19.043,102.539,1.0
1626294707.041823,39.551,-21.973000000000003,-30.761999999999997,83.49600000000001,1.0
1626294707.0457292,7.324,14.648,-11.23,51.27,1.0
1626294707.0496354,-85.449,-20.508000000000003,-27.344,-164.551,1.0
1626294707.0535417,-112.305,-166.50400000000002,-53.711000000000006,-146.97299999999998,1.0
1626294707.057448,12.695,-84.473,-20.508000000000003,88.37899999999999,1.0
1626294707.0613542,55.663999999999994,-8.301,-4.395,93.262,1.0
1626294707.0652604,-63.477,-20.02,-29.785,-124.023,1.0
1626294707.0691667,-93.262,-32.227,-25.879,-139.648,1.0
1626294707.073073,13.672,-61.523,-0.977,76.66,1.0
1626294707.0769792,54.199,-12.695,-7.812,135.74200000000002,1.0
1626294707.0808856,-45.898,-17.09,-32.715,-89.355,1.0
1626294707.0847917,-116.699,-12.695,-41.992,-202.148,1.0
1626294707.088698,-44.434,-14.16,-41.016000000000005,-20.508000000000003,1.0
1626294707.0926042,-29.785,6.836,-10.742,1.0,1.0
1626294707.0965104,26.366999999999997,7.812,-18.066,1.0,1.0
1626294707.1004167,-35.645,-88.37899999999999,-37.598,1.0,1.0
1626294707.104323,-102.051,-42.48,-40.527,1.0,1.0
1626294707.108229,-52.246,7.324,-25.391,1.0,1.0
1626294707.1121356,36.621,-6.836,-18.066,1.0,1.0
1626294707.1160414,7.324,-39.062,-23.926,1.0,1.0
1626294707.1199481,-105.469,-107.91,-37.109,1.0,1.0
1626294707.123854,-85.93799999999999,-31.738000000000003,-28.809,1.0,1.0
1626294707.1277602,15.137,16.113,-18.066,1.0,1.0
1626294707.131667,25.391,8.789,-22.461,1.0,1.0
1626294707.135573,-64.453,-26.366999999999997,-42.48,1.0,1.0
1626294707.139479,-98.145,-7.324,-35.156,-187.988,1.0
1626294707.1433854,-85.449,-22.461,-42.968999999999994,-103.027,1.0
1626294707.1472914,12.695,-92.285,-43.457,98.633,1.0
1626294707.151198,49.316,-19.531,2.441,85.93799999999999,1.0
1626294707.1551042,-44.434,4.395,5.371,-125.977,1.0
1626294707.1590104,-90.33200000000001,-15.625,-21.973000000000003,-156.25,1.0
1626294707.1629167,19.043,6.348,-9.277000000000001,79.102,1.0
1626294707.166823,62.012,-17.09,0.488,141.113,1.0
1626294707.1707292,-65.918,-18.066,-37.598,-113.281,1.0
1626294707.1746354,-129.395,-10.254000000000001,-52.246,-219.727,1.0
1626294707.1785414,-50.293,-0.977,-35.645,-15.625,1.0
1626294707.182448,31.25,-12.695,-33.203,130.859,1.0
1626294707.1863542,35.645,6.836,-15.625,105.469,1.0
1626294707.1902604,-41.504,-8.789,-38.086,-95.70299999999999,1.0
1626294707.1941667,-125.488,-82.52,-46.387,-216.797,1.0
1626294707.198073,-62.988,-37.598,-35.156,-30.761999999999997,1.0
1626294707.2019792,43.945,10.742,-9.277000000000001,137.695,1.0
1626294707.2058854,10.742,-16.602,-1.465,2.441,1.0
1626294707.2097917,-88.37899999999999,-50.293,-34.18,-183.105,1.0
1626294707.213698,-74.219,-62.5,-47.852,-87.402,1.0
1626294707.2176042,38.086,-14.648,-33.203,124.512,1.0
1626294707.2215104,24.414,-22.461,-46.387,49.316,1.0
1626294707.225417,-91.79700000000001,-24.414,-50.781000000000006,-176.27,1.0
1626294707.229323,-101.56200000000001,-25.391,-38.574,-148.438,1.0
1626294707.233229,-110.352,-33.203,-35.156,-131.836,1.0
1626294707.2371356,-12.695,-28.32,-36.133,75.684,1.0
1626294707.2410414,-22.461,-87.891,-63.965,17.578,1.0
1626294707.2449477,-98.145,-44.434,-63.477,-182.61700000000002,1.0
1626294707.248854,-93.75,-14.16,-62.988,-160.156,1.0
1626294707.2527602,23.438000000000002,0.977,-31.25,83.984,1.0
1626294707.256667,58.105,-39.551,0.0,124.023,1.0
1626294707.260573,-74.219,-136.23,-44.922,-136.23,1.0
1626294707.2644792,-115.234,-50.781000000000006,-44.434,-200.195,1.0
1626294707.2683854,-14.648,4.395,-22.461,28.32,1.0
1626294707.2722914,43.945,2.93,-31.25,135.254,1.0
1626294707.276198,-24.901999999999997,-10.742,-44.434,-56.152,1.0
1626294707.2801042,-21.484,-9.766,-25.391,-74.707,1.0
1626294707.2840102,-94.238,-16.113,-51.27,-175.293,1.0
1626294707.2879167,-47.363,-82.52,-64.453,-8.789,1.0
1626294707.291823,47.852,-32.715,-21.973000000000003,136.719,1.0
1626294707.2957292,7.812,-7.324,-7.812,-10.254000000000001,1.0
1626294707.2996354,-85.93799999999999,-16.113,-16.602,-179.199,1.0
1626294707.3035417,-73.242,-25.391,-27.344,-70.801,1.0
1626294707.307448,-10.742,-119.141,-49.805,89.355,1.0
1626294707.3113542,0.977,-71.777,-38.574,29.296999999999997,1.0
1626294707.3152604,-77.637,-15.137,-36.133,-162.109,1.0
1626294707.3191667,-78.125,8.789,-27.831999999999997,-118.164,1.0
1626294707.323073,-2.441,6.836,-18.555,78.125,1.0
1626294707.3269792,26.366999999999997,-5.371,-5.371,126.465,1.0
1626294707.3308856,26.366999999999997,-1.953,-2.93,66.895,1.0
1626294707.3347917,-81.543,-74.219,-32.715,-153.32,1.0
1626294707.338698,-100.586,-38.574,-49.316,-141.602,1.0
1626294707.3426042,4.883,10.742,-26.366999999999997,83.984,1.0
1626294707.3465104,47.363,-2.441,-1.465,110.352,1.0
1626294707.3504167,-53.223,-56.152,-8.301,-117.18799999999999,1.0
1626294707.354323,-130.371,-99.12100000000001,-36.133,-203.125,1.0
1626294707.358229,-65.918,-45.898,-45.898,-9.766,1.0
1626294707.3621356,16.602,-25.391,-52.733999999999995,106.445,1.0
1626294707.3660414,-32.227,-12.695,-55.176,-65.43,1.0
1626294707.3699481,-110.84,-19.531,-26.366999999999997,-199.21900000000002,1.0
1626294707.373854,-119.141,18.066,-50.781000000000006,-206.055,1.0
1626294707.3777602,-54.199,12.207,-54.199,-4.883,1.0
1626294707.381667,0.0,-87.891,-60.059,92.285,1.0
1626294707.385573,-29.296999999999997,-36.621,-33.203,-63.477,1.0
1626294707.389479,-91.309,3.906,-28.32,-185.05900000000003,1.0
1626294707.3933854,-44.922,-25.879,-25.391,-35.156,1.0
1626294707.3972914,44.922,-29.296999999999997,1.953,132.812,1.0
1626294707.401198,-24.414,-62.012,-32.227,-15.625,1.0
1626294707.4051042,-127.93,-39.551,-70.801,-216.797,1.0
1626294707.4090104,-90.82,-35.156,-56.641000000000005,-121.58200000000001,1.0
1626294707.4129167,31.738000000000003,-24.414,-10.742,118.164,1.0
1626294707.416823,21.484,-34.18,-21.973000000000003,70.312,1.0
1626294707.4207292,30.273000000000003,-7.324,-20.996,47.852,1.0
1626294707.4246354,-86.426,-22.949,-38.086,-184.57,1.0
1626294707.4285414,-120.605,-105.95700000000001,-56.152,-162.59799999999998,1.0
1626294707.432448,-6.348,-43.945,-45.898,81.543,1.0
1626294707.4363542,43.457,17.09,-52.733999999999995,98.633,1.0
1626294707.4402604,-46.387,3.418,-44.922,-121.58200000000001,1.0
1626294707.4441667,-104.98,-54.199,-39.062,-178.71099999999998,1.0
1626294707.448073,-25.879,-109.863,-33.203,27.831999999999997,1.0
1626294707.4519792,46.875,-36.621,-9.277000000000001,122.07,1.0
1626294707.4558854,-24.414,-6.348,-14.648,-82.52,1.0
1626294707.4597917,-84.961,-20.02,-23.926,-198.73,1.0
1626294707.463698,-39.062,-48.828,-39.062,-37.598,1.0
1626294707.4676042,-17.09,-8.301,-47.363,1.0,1.0
1626294707.4715104,30.761999999999997,-5.371,-52.733999999999995,1.0,1.0
1626294707.475417,-55.663999999999994,-81.543,-46.875,1.0,1.0
1626294707.479323,-117.676,-35.156,-19.043,1.0,1.0
1626294707.483229,-39.062,6.836,-13.184000000000001,1.0,1.0
1626294707.4871356,58.593999999999994,10.254000000000001,-6.836,1.0,1.0
1626294707.4910414,17.578,-17.578,0.0,1.0,1.0
1626294707.4949477,-92.773,-111.816,-26.366999999999997,1.0,1.0
1626294707.498854,-68.848,-66.895,-34.668,1.0,1.0
1626294707.5027602,16.602,-19.531,-23.438000000000002,1.0,1.0
1626294707.506667,12.207,6.348,-21.484,1.0,1.0
1626294707.510573,-79.102,-36.133,-40.527,1.0,1.0
1626294707.5144792,-97.656,-13.672,-52.733999999999995,-192.38299999999998,1.0
1626294707.5183854,-75.684,-31.738000000000003,-41.504,-108.887,1.0
1626294707.5222914,10.254000000000001,-79.59,-50.781000000000006,82.52,1.0
1626294707.526198,32.715,-23.926,-26.855,72.75399999999999,1.0
1626294707.5301042,-55.176,1.953,-19.043,-129.88299999999998,1.0
1626294707.5340102,-84.961,3.906,-21.973000000000003,-140.137,1.0
1626294707.5379167,-2.441,-5.371,-25.879,77.148,1.0
1626294707.541823,24.901999999999997,-67.87100000000001,-51.758,116.699,1.0
1626294707.5457292,-44.434,-42.968999999999994,-53.711000000000006,-81.543,1.0
1626294707.5496354,-104.98,-41.992,-40.527,-186.523,1.0
1626294707.5535417,-20.02,-13.672,-5.859,7.812,1.0
1626294707.557448,72.266,-0.488,5.859,162.109,1.0
1626294707.5613542,42.48,-27.831999999999997,-61.035,118.652,1.0
1626294707.5652604,-26.366999999999997,-54.199,-42.48,-71.289,1.0
1626294707.5691667,-85.93799999999999,-89.844,-10.742,-173.828,1.0
1626294707.573073,-15.137,-25.391,-0.977,1.465,1.0
1626294707.5769792,57.617,-0.488,-10.742,148.438,1.0
1626294707.5808856,7.324,-9.766,-27.344,2.441,1.0
1626294707.5847917,-90.33200000000001,-20.02,-40.527,-179.688,1.0
1626294707.588698,-52.246,-15.137,-28.809,-52.246,1.0
1626294707.5926042,42.48,12.207,-24.901999999999997,145.50799999999998,1.0
1626294707.5965104,15.625,-9.766,-43.457,54.688,1.0
1626294707.6004167,-95.70299999999999,-30.273000000000003,-51.758,-174.31599999999997,1.0
1626294707.604323,-107.42200000000001,-41.016000000000005,-40.527,-155.762,1.0
1626294707.608229,-49.316,-46.875,-28.809,78.613,1.0
1626294707.6121356,54.199,-30.273000000000003,-0.977,114.74600000000001,1.0
1626294707.6160414,39.062,-68.848,-12.695,-98.145,1.0
1626294707.6199481,-72.266,-37.109,-28.32,-147.461,1.0
1626294707.623854,-86.426,-4.395,-21.484,41.504,1.0
1626294707.6277602,23.438000000000002,19.531,-0.977,114.258,1.0
1626294707.631667,54.199,16.602,-4.883,-52.733999999999995,1.0
1626294707.635573,-53.711000000000006,-60.059,-42.968999999999994,-169.922,1.0
1626294707.639479,-94.727,-41.016000000000005,-31.738000000000003,-13.672,1.0
1626294707.6433854,-16.113,-10.254000000000001,-12.207,135.254,1.0
1626294707.6472914,54.199,-3.418,-20.02,-3.418,1.0
1626294707.651198,0.488,-41.992,-41.504,-181.15200000000002,1.0
1626294707.6551042,-27.344,-20.508000000000003,-33.691,-78.125,1.0
1626294707.6590104,-68.848,-34.18,-3.418,-152.344,1.0
1626294707.6629167,-28.809,-104.00399999999999,-47.363,6.348,1.0
1626294707.666823,36.621,-51.758,-51.27,120.117,1.0
1626294707.6707292,-6.348,-20.508000000000003,-29.785,-36.133,1.0
1626294707.6746354,-100.586,-22.461,-22.949,-194.33599999999998,1.0
1626294707.6785414,-56.152,-16.113,1.465,-53.711000000000006,1.0
1626294707.682448,27.831999999999997,-81.543,-14.648,124.512,1.0
1626294707.6863542,12.695,-47.852,-27.344,37.109,1.0
1626294707.6902604,-77.148,-43.945,-32.227,-178.71099999999998,1.0
1626294707.6941667,-75.195,-37.109,-28.809,-131.34799999999998,1.0
1626294707.698073,26.366999999999997,-23.438000000000002,-3.906,101.56200000000001,1.0
1626294707.7019792,35.645,9.277000000000001,-11.719000000000001,115.234,1.0
1626294707.7058854,20.508000000000003,-5.859,-27.831999999999997,-104.492,1.0
1626294707.7097917,-89.355,-112.305,-63.477,-171.875,1.0
1626294707.713698,-85.449,-87.402,-45.41,33.203,1.0
1626294707.7176042,16.113,-20.996,-33.691,104.492,1.0
1626294707.7215104,58.593999999999994,11.23,-21.484,-91.79700000000001,1.0
1626294707.725417,-42.48,-9.277000000000001,-38.086,-206.543,1.0
1626294707.729323,-124.512,-85.93799999999999,-69.824,-20.02,1.0
1626294707.733229,-15.137,-32.227,-36.133,137.695,1.0
1626294707.7371356,56.641000000000005,1.953,-20.02,-41.992,1.0
1626294707.7410414,-25.391,3.906,-26.366999999999997,-209.47299999999998,1.0
1626294707.7449477,-105.469,-34.18,-45.898,-82.52,1.0
1626294707.748854,-102.539,-19.043,-24.901999999999997,-167.96900000000002,1.0
1626294707.7527602,-16.113,-24.901999999999997,-9.766,38.574,1.0
1626294707.756667,29.296999999999997,-102.051,-32.227,124.512,1.0
1626294707.760573,-37.109,-71.777,-51.27,-51.27,1.0
1626294707.7644792,-89.844,-25.879,-45.898,-183.59400000000002,1.0
1626294707.7683854,-47.363,-13.672,-21.484,-20.996,1.0
1626294707.7722914,40.039,-10.254000000000001,-16.113,146.97299999999998,1.0
1626294707.776198,-4.883,-42.48,-38.574,11.719000000000001,1.0
1626294707.7801042,-100.098,-20.996,-36.621,-175.293,1.0
1626294707.7840102,-66.895,-17.578,-21.973000000000003,-92.285,1.0
1626294707.7879167,30.761999999999997,-9.277000000000001,-12.207,136.719,1.0
1626294707.791823,26.366999999999997,-19.531,-15.625,104.492,1.0
1626294707.7957292,-22.461,-3.418,-52.733999999999995,23.926,1.0
1626294707.7996354,-101.56200000000001,-34.18,-62.5,-178.22299999999998,1.0
1626294707.8035417,-93.75,-159.18,-58.593999999999994,-123.04700000000001,1.0
1626294707.807448,17.578,-73.73,-22.461,100.098,1.0
1626294707.8113542,14.648,-1.465,-20.996,76.172,1.0
1626294707.8152604,-90.82,-26.855,-41.504,-155.762,1.0
1626294707.8191667,-118.164,-28.809,-42.48,-167.96900000000002,1.0
1626294707.823073,-5.859,-50.781000000000006,-16.602,71.777,1.0
1626294707.8269792,40.039,1.953,-14.648,134.766,1.0
1626294707.8308856,-45.898,3.418,-32.227,-95.215,1.0
1626294707.8347917,-93.262,-19.531,-27.831999999999997,-205.56599999999997,1.0
1626294707.838698,-63.477,-46.387,-34.18,-32.227,1.0
1626294707.8426042,-25.391,-16.113,-34.18,1.0,1.0
1626294707.8465104,45.41,-3.906,-22.461,1.0,1.0
1626294707.8504167,-29.296999999999997,-97.656,-15.625,1.0,1.0
1626294707.854323,-123.04700000000001,-74.707,-46.875,1.0,1.0
1626294707.858229,-58.105,-6.836,-37.109,1.0,1.0
1626294707.8621356,19.043,10.254000000000001,-16.113,1.0,1.0
1626294707.8660414,-1.465,-17.09,-13.672,1.0,1.0
1626294707.8699481,-103.027,-76.66,-30.273000000000003,1.0,1.0
1626294707.873854,-88.867,-44.434,-41.016000000000005,1.0,1.0
1626294707.8777602,24.414,-6.836,-35.156,1.0,1.0
1626294707.881667,38.086,8.301,-25.879,1.0,1.0
1626294707.885573,-39.551,-41.016000000000005,-30.273000000000003,1.0,1.0
1626294707.889479,-80.566,-10.254000000000001,-41.504,-162.109,1.0
1626294707.8933854,-65.43,-16.113,-17.09,-82.52,1.0
1626294707.8972914,21.973000000000003,-104.98,-18.555,105.95700000000001,1.0
1626294707.901198,27.344,-47.852,-6.348,75.684,1.0
1626294707.9051042,-68.359,6.348,-15.137,-135.254,1.0
1626294707.9090104,-104.98,-2.93,-35.645,-164.551,1.0
1626294707.9129167,5.859,17.09,-13.184000000000001,68.359,1.0
1626294707.916823,49.316,-36.621,-8.789,122.07,1.0
1626294707.9207292,-44.434,-47.363,-35.645,-96.68,1.0
1626294707.9246354,-85.449,-27.344,-67.87100000000001,-183.59400000000002,1.0
1626294707.9285414,-11.23,-4.883,-61.523,6.348,1.0
1626294707.932448,34.18,-20.996,-34.18,122.07,1.0
1626294707.9363542,41.992,-7.812,-36.621,123.535,1.0
1626294707.9402604,-42.48,-21.973000000000003,-39.551,-78.125,1.0
1626294707.9441667,-123.04700000000001,-85.449,-54.688,-207.52,1.0
1626294707.948073,-55.663999999999994,-34.18,-39.062,-31.738000000000003,1.0
1626294707.9519792,28.809,8.789,-24.901999999999997,122.559,1.0
1626294707.9558854,-7.324,-6.348,-24.414,-18.066,1.0
1626294707.9597917,-90.82,-39.551,-25.879,-187.988,1.0
1626294707.963698,-77.637,-75.195,-42.968999999999994,-86.426,1.0
1626294707.9676042,12.207,-24.414,-39.551,104.492,1.0
1626294707.9715104,7.324,-2.93,-21.484,31.25,1.0
1626294707.975417,-90.33200000000001,-28.809,-24.414,-185.05900000000003,1.0
1626294707.979323,-83.984,-32.227,-49.316,-142.09,1.0
1626294707.983229,-63.477,-18.555,-39.062,79.59,1.0
1626294707.9871356,22.461,-13.672,-16.113,85.449,1.0
1626294707.9910414,33.203,-17.09,-6.348,-128.418,1.0
1626294707.9949477,-49.316,-2.441,-22.949,-166.50400000000002,1.0
1626294707.998854,-76.172,-4.883,-36.133,32.715,1.0
1626294708.0027602,16.602,3.418,-18.066,118.652,1.0
1626294708.006667,40.039,-33.691,-15.137,-60.547,1.0
1626294708.010573,-66.406,-90.33200000000001,-43.945,-207.03099999999998,1.0
1626294708.0144792,-104.98,-30.761999999999997,-41.016000000000005,-51.27,1.0
1626294708.0183854,-23.926,-18.555,-23.438000000000002,108.887,1.0
1626294708.0222914,49.316,-28.809,-18.066,-6.348,1.0
1626294708.026198,-16.602,-51.758,-37.598,-178.71099999999998,1.0
1626294708.0301042,-35.645,-35.156,-44.434,-100.586,1.0
1626294708.0340102,-93.75,-39.062,-40.527,-181.15200000000002,1.0
1626294708.0379167,-44.922,-74.219,-30.273000000000003,-11.719000000000001,1.0
1626294708.041823,34.18,-37.109,-24.901999999999997,117.18799999999999,1.0
1626294708.0457292,-8.301,-1.953,-26.366999999999997,-35.645,1.0
1626294708.0496354,-78.125,-8.301,-26.855,-181.15200000000002,1.0
1626294708.0535417,-32.227,-14.648,-18.066,-46.387,1.0
1626294708.057448,57.129,-29.296999999999997,-22.949,133.30100000000002,1.0
1626294708.0613542,31.25,-39.062,-39.551,31.738000000000003,1.0
1626294708.0652604,-88.867,-51.758,-45.898,-191.895,1.0
1626294708.0691667,-74.219,-14.648,-26.366999999999997,-116.211,1.0
1626294708.073073,20.02,-7.812,-29.296999999999997,97.16799999999999,1.0
1626294708.0769792,36.621,-9.766,-24.414,127.441,1.0
1626294708.0808856,28.809,-15.625,-25.879,52.246,1.0
1626294708.0847917,-89.844,-99.609,-49.805,-186.035,1.0
1626294708.088698,-95.215,-66.895,-43.457,-142.09,1.0
1626294708.0926042,6.348,-28.809,-37.109,82.52,1.0
1626294708.0965104,42.968999999999994,-9.766,-23.926,96.191,1.0
1626294708.1004167,-50.781000000000006,-22.949,-19.531,-124.512,1.0
1626294708.104323,-116.699,-82.52,-29.785,-192.38299999999998,1.0
1626294708.108229,-0.977,-25.391,-10.254000000000001,59.57,1.0
1626294708.1121356,78.125,7.812,-6.348,164.551,1.0
1626294708.1160414,-3.418,-6.348,-37.109,-45.898,1.0
1626294708.1199481,-102.539,-42.968999999999994,-50.781000000000006,-192.38299999999998,1.0
1626294708.123854,-77.637,-24.901999999999997,-3.418,-165.52700000000002,1.0
1626294708.1277602,-1.953,-15.625,-33.203,35.645,1.0
1626294708.131667,44.434,-23.438000000000002,-52.733999999999995,123.04700000000001,1.0
1626294708.135573,-35.645,-24.901999999999997,-59.082,-72.75399999999999,1.0
1626294708.139479,-120.117,-33.203,-60.547,-216.30900000000003,1.0
1626294708.1433854,-59.57,-27.831999999999997,-28.809,-49.805,1.0
1626294708.1472914,35.156,-33.203,-20.508000000000003,127.441,1.0
1626294708.151198,6.836,-50.293,-29.785,11.719000000000001,1.0
1626294708.1551042,-71.777,-30.761999999999997,-20.02,-167.48,1.0
1626294708.1590104,-53.711000000000006,-8.789,-14.648,-80.078,1.0
1626294708.1629167,40.527,-28.809,-18.066,127.441,1.0
1626294708.166823,55.663999999999994,-31.25,-22.949,92.773,1.0
1626294708.1707292,21.484,-5.371,-23.926,35.645,1.0
1626294708.1746354,-73.242,-12.695,-34.18,-167.48,1.0
1626294708.1785414,-63.477,-59.082,-14.16,-97.656,1.0
1626294708.182448,33.203,-37.598,-12.207,125.0,1.0
1626294708.1863542,14.16,-34.18,-45.898,73.242,1.0
1626294708.1902604,-84.473,-31.25,-47.852,-150.879,1.0
1626294708.1941667,-98.145,-17.09,-42.968999999999994,-154.297,1.0
1626294708.198073,-14.16,-37.109,-33.691,53.223,1.0
1626294708.2019792,24.901999999999997,-22.949,-21.973000000000003,103.516,1.0
1626294708.2058854,-51.758,-14.16,-34.668,-101.074,1.0
1626294708.2097917,-103.516,-10.742,-37.109,-191.40599999999998,1.0
1626294708.213698,-41.016000000000005,-23.438000000000002,-41.992,-2.93,1.0
1626294708.2176042,-19.043,-24.414,-26.855,132.812,1.0
1626294708.2215104,34.18,-28.809,-47.363,-14.16,1.0
1626294708.225417,-24.901999999999997,-43.945,-62.012,-170.898,1.0
1626294708.229323,-77.637,-48.828,-25.879,-56.641000000000005,1.0
1626294708.233229,-23.926,-23.438000000000002,-11.719000000000001,116.211,1.0
1626294708.2371356,39.551,11.23,-29.785,36.621,1.0
1626294708.2410414,5.371,-20.02,-28.809,-171.875,1.0
1626294708.2449477,-78.613,-92.285,-24.901999999999997,-150.879,1.0
1626294708.248854,-71.289,-75.684,-30.273000000000003,62.5,1.0
1626294708.2527602,8.789,-46.875,-27.344,79.59,1.0
1626294708.256667,13.184000000000001,-21.484,-8.301,-136.23,1.0
1626294708.260573,-84.473,-3.418,-25.879,-181.15200000000002,1.0
1626294708.2644792,-84.473,-39.551,-45.898,-173.828,1.0
1626294708.2683854,-85.449,-56.152,-32.227,-105.95700000000001,1.0
1626294708.2722914,-3.418,-92.773,-31.738000000000003,88.867,1.0
1626294708.276198,16.602,-46.875,-18.555,64.941,1.0
1626294708.2801042,-64.453,-5.859,-25.879,-146.97299999999998,1.0
1626294708.2840102,-93.75,-14.16,-43.457,-157.715,1.0
1626294708.2879167,-19.043,-18.555,-30.761999999999997,62.5,1.0
1626294708.291823,18.066,-30.273000000000003,-20.02,101.074,1.0
1626294708.2957292,-51.758,-20.02,-32.715,-106.445,1.0
1626294708.2996354,-115.234,-25.879,-51.758,-195.801,1.0
1626294708.3035417,-40.527,-15.137,-25.879,2.93,1.0
1626294708.307448,27.831999999999997,-24.901999999999997,-24.901999999999997,129.395,1.0
1626294708.3113542,43.945,-16.602,-20.508000000000003,121.094,1.0
1626294708.3152604,-33.203,-19.531,-28.809,-91.79700000000001,1.0
1626294708.3191667,-130.371,-94.238,-69.336,-228.02700000000002,1.0
1626294708.323073,-31.738000000000003,-51.27,-31.25,-8.301,1.0
1626294708.3269792,65.918,5.859,-7.812,145.996,1.0
1626294708.3308856,11.719000000000001,6.836,-23.926,-2.93,1.0
1626294708.3347917,-67.87100000000001,-23.926,-34.668,-165.03900000000002,1.0
1626294708.338698,-66.406,-96.191,-63.965,-77.148,1.0
1626294708.3426042,31.25,-52.733999999999995,-32.227,130.859,1.0
1626294708.3465104,19.043,-12.207,-9.277000000000001,60.547,1.0
1626294708.3504167,-75.195,-4.883,-24.901999999999997,-158.203,1.0
1626294708.354323,-70.801,-23.438000000000002,-41.504,-114.258,1.0
1626294708.358229,-57.129,-21.484,-30.273000000000003,83.008,1.0
1626294708.3621356,54.688,-5.859,-10.254000000000001,87.402,1.0
1626294708.3660414,20.02,-50.781000000000006,-43.457,-120.117,1.0
1626294708.3699481,-87.891,-46.875,-56.641000000000005,-157.715,1.0
1626294708.373854,-94.727,-23.926,-39.062,51.27,1.0
1626294708.3777602,-5.371,-9.766,-18.066,139.648,1.0
1626294708.381667,28.809,-19.531,-13.184000000000001,-48.828,1.0
1626294708.385573,-47.852,-61.035,-39.062,-184.082,1.0
1626294708.389479,-89.844,-38.574,-49.316,-24.901999999999997,1.0
1626294708.3933854,-26.855,-28.32,-34.18,103.027,1.0
1626294708.3972914,37.109,-18.555,-28.809,-26.855,1.0
1626294708.401198,-26.366999999999997,-21.484,-38.574,-191.895,1.0
1626294708.4051042,-26.366999999999997,-13.672,-24.901999999999997,-70.801,1.0
1626294708.4090104,-118.652,-22.461,-56.641000000000005,-171.387,1.0
1626294708.4129167,-70.312,-83.984,-80.566,4.883,1.0
1626294708.416823,19.043,-44.434,-62.988,112.305,1.0
1626294708.4207292,-12.695,-15.625,-28.809,-59.082,1.0
1626294708.4246354,-67.383,-25.879,0.488,-177.24599999999998,1.0
1626294708.4285414,-45.41,-60.059,-17.09,-50.293,1.0
1626294708.432448,-3.906,-103.516,-69.824,97.656,1.0
1626294708.4363542,-6.348,-33.691,-61.523,12.695,1.0
1626294708.4402604,-74.219,1.465,-22.461,-176.75799999999998,1.0
1626294708.4441667,-73.242,-20.508000000000003,-4.883,-111.32799999999999,1.0
1626294708.448073,13.672,-55.176,-2.441,98.145,1.0
1626294708.4519792,42.48,-8.789,-16.602,1.0,1.0
1626294708.4558854,20.996,-26.366999999999997,-36.621,1.0,1.0
1626294708.4597917,-103.027,-102.051,-65.43,1.0,1.0
1626294708.463698,-90.82,-53.711000000000006,-41.504,1.0,1.0
1626294708.4676042,24.414,6.348,-7.324,1.0,1.0
1626294708.4715104,43.945,1.953,0.488,1.0,1.0
1626294708.475417,-79.102,-55.663999999999994,-29.785,1.0,1.0
1626294708.479323,-143.066,-124.023,-69.824,1.0,1.0
1626294708.483229,-14.16,-18.555,-40.039,1.0,1.0
1626294708.4871356,57.617,8.301,-21.973000000000003,1.0,1.0
1626294708.4910414,-6.836,-24.901999999999997,-22.461,1.0,1.0
1626294708.4949477,-83.984,-46.387,-29.296999999999997,1.0,1.0
1626294708.498854,-55.176,1.465,3.418,-115.234,1.0
1626294708.5027602,-0.977,-16.602,0.488,60.059,1.0
1626294708.506667,1.953,-103.027,-54.688,80.566,1.0
1626294708.510573,-43.945,-59.57,-55.663999999999994,-84.473,1.0
1626294708.5144792,-82.52,-24.414,-44.922,-192.38299999999998,1.0
1626294708.5183854,-22.949,-15.625,-30.761999999999997,-22.949,1.0
1626294708.5222914,50.293,-30.761999999999997,-21.973000000000003,137.695,1.0
1626294708.526198,-19.043,-94.727,-47.852,-21.484,1.0
1626294708.5301042,-93.75,-38.574,-33.203,-191.40599999999998,1.0
1626294708.5340102,-53.223,14.16,-33.691,-70.801,1.0
1626294708.5379167,44.922,36.133,-35.645,143.066,1.0
1626294708.541823,24.414,-22.461,-37.109,71.289,1.0
1626294708.5457292,49.805,-1.953,-20.02,25.879,1.0
1626294708.5496354,-76.66,-21.973000000000003,-33.691,-176.27,1.0
1626294708.5535417,-114.258,-75.684,-59.57,-141.602,1.0
1626294708.557448,13.672,-41.992,-28.32,105.95700000000001,1.0
1626294708.5613542,51.27,0.0,0.0,114.258,1.0
1626294708.5652604,-45.41,8.301,-5.859,-122.07,1.0
1626294708.5691667,-81.055,-7.324,-23.926,-152.832,1.0
1626294708.573073,-4.395,-61.035,-47.852,57.617,1.0
1626294708.5769792,52.733999999999995,-21.484,-31.738000000000003,140.137,1.0
1626294708.5808856,-11.23,-20.996,-20.996,-55.176,1.0
1626294708.5847917,-44.434,-41.504,-6.836,-145.996,1.0
1626294708.588698,1.465,-19.531,-26.366999999999997,41.016000000000005,1.0
1626294708.5926042,2.441,-12.207,-25.879,166.016,1.0
1626294708.5965104,72.75399999999999,-0.488,-13.672,16.602,1.0
1626294708.6004167,-41.504,-77.148,-49.805,-156.738,1.0
1626294708.604323,-103.516,-55.663999999999994,-49.805,-25.391,1.0
1626294708.608229,-22.461,-34.18,-28.32,145.996,1.0
1626294708.6121356,53.223,-82.52,-31.25,35.156,1.0
1626294708.6160414,19.043,-85.93799999999999,-29.785,-157.227,1.0
1626294708.6199481,-94.238,-93.262,-43.457,-115.234,1.0
1626294708.623854,-72.266,-24.901999999999997,-27.831999999999997,109.375,1.0
1626294708.6277602,43.457,15.137,-16.113,88.37899999999999,1.0
1626294708.631667,28.809,3.418,-30.273000000000003,-132.812,1.0
1626294708.635573,-97.16799999999999,-25.879,-32.227,-155.762,1.0
1626294708.639479,-98.633,-24.414,-52.733999999999995,-193.359,1.0
1626294708.6433854,-77.148,-24.414,-24.901999999999997,-98.633,1.0
1626294708.6472914,-16.602,-113.77,-19.043,102.051,1.0
1626294708.651198,0.977,-93.75,-11.719000000000001,58.593999999999994,1.0
1626294708.6551042,-78.125,-43.457,-25.391,-151.36700000000002,1.0
1626294708.6590104,-79.102,2.441,-35.156,-131.34799999999998,1.0
1626294708.6629167,8.301,-0.488,-25.879,85.93799999999999,1.0
1626294708.666823,37.598,-86.914,-11.719000000000001,121.094,1.0
1626294708.6707292,-28.809,-39.551,-8.301,-70.312,1.0
1626294708.6746354,-95.70299999999999,-11.719000000000001,-30.761999999999997,-167.48,1.0
1626294708.6785414,-21.484,-5.371,-26.366999999999997,16.113,1.0
1626294708.682448,41.504,-25.879,-23.926,127.93,1.0
1626294708.6863542,24.901999999999997,-30.273000000000003,-12.207,117.18799999999999,1.0
1626294708.6902604,-81.543,-36.621,-43.457,-121.58200000000001,1.0
1626294708.6941667,-149.90200000000002,-105.469,-60.059,-234.863,1.0
1626294708.698073,-46.387,-76.172,-36.621,-10.742,1.0
1626294708.7019792,39.551,-29.785,-31.738000000000003,144.043,1.0
1626294708.7058854,-5.859,11.23,-43.945,-20.996,1.0
1626294708.7097917,-82.52,1.953,-38.574,-193.359,1.0
1626294708.713698,-68.359,-74.707,-48.34,-79.59,1.0
1626294708.7176042,48.34,-31.25,-38.574,127.441,1.0
1626294708.7215104,30.761999999999997,-16.602,-29.785,41.504,1.0
1626294708.725417,-71.777,7.324,-51.758,-176.27,1.0
1626294708.729323,-64.941,25.391,-36.621,-133.789,1.0
1626294708.733229,-51.27,16.113,-14.16,-64.941,1.0
1626294708.7371356,35.156,-4.883,-11.719000000000001,126.95299999999999,1.0
1626294708.7410414,1.465,-90.82,-46.875,32.715,1.0
1626294708.7449477,-99.609,-67.383,-46.387,-186.035,1.0
1626294708.748854,-103.516,-18.066,-27.344,-148.438,1.0
1626294708.7527602,0.488,-10.254000000000001,-11.23,79.59,1.0
