timestamps,TP9,AF7,AF8,TP10,Right AUX
1626203018.585389,-171.387,-26.855,-36.133,-210.938,1.0
1626203018.5892951,50.293,-21.973000000000003,-14.648,87.402,1.0
1626203018.5932014,111.32799999999999,-41.504,-18.555,153.32,1.0
1626203018.5971074,-98.633,-55.176,-28.32,-127.93,1.0
1626203018.601014,-209.96099999999998,-45.41,-27.831999999999997,-248.535,1.0
1626203018.6049201,-30.761999999999997,-38.574,-15.137,3.906,1.0
1626203018.6088262,105.95700000000001,-30.761999999999997,-22.461,171.875,1.0
1626203018.6127326,-48.828,-24.901999999999997,-38.086,-55.176,1.0
1626203018.616639,-227.051,-37.109,-42.48,-282.715,1.0
1626203018.6205451,-90.82,-37.109,-23.926,-85.449,1.0
1626203018.6244514,129.395,-26.855,-8.789,189.94099999999997,1.0
1626203018.6283576,46.875,-34.18,-24.901999999999997,56.641000000000005,1.0
1626203018.632264,7.324,-48.34,-49.805,1.0,1.0
1626203018.6361701,-201.66,-56.641000000000005,-50.293,1.0,1.0
1626203018.6400764,-87.891,-28.32,-24.901999999999997,1.0,1.0
1626203018.6439826,119.62899999999999,1.465,-27.344,1.0,1.0
1626203018.647889,41.992,-21.484,-60.547,1.0,1.0
1626203018.6517951,-170.898,-46.875,-52.733999999999995,1.0,1.0
1626203018.6557016,-161.13299999999998,-41.016000000000005,-35.156,1.0,1.0
1626203018.6596076,48.828,-25.391,-31.738000000000003,1.0,1.0
1626203018.663514,80.078,-28.32,-32.227,1.0,1.0
1626203018.6674201,-108.398,-49.316,-41.016000000000005,1.0,1.0
1626203018.6713264,-166.016,-32.227,-26.855,1.0,1.0
1626203018.6752326,24.901999999999997,-9.277000000000001,-8.301,1.0,1.0
1626203018.679139,49.805,-51.27,-22.461,97.16799999999999,1.0
1626203018.683045,87.891,-55.176,-45.41,136.23,1.0
1626203018.6869516,-123.535,-46.387,-57.129,-148.92600000000002,1.0
1626203018.6908574,-193.359,-38.574,-30.273000000000003,-231.445,1.0
1626203018.6947641,10.254000000000001,-31.25,-2.441,45.41,1.0
1626203018.69867,125.488,-1.465,-13.184000000000001,193.359,1.0
1626203018.7025762,-46.875,-14.648,-46.387,-50.781000000000006,1.0
1626203018.706483,-190.43,-43.457,-33.691,-235.84,1.0
1626203018.710389,-44.434,-41.504,-21.973000000000003,-26.366999999999997,1.0
1626203018.714295,126.465,-39.551,-40.527,199.21900000000002,1.0
1626203018.7182014,29.296999999999997,-30.761999999999997,-47.363,49.805,1.0
1626203018.7221074,-177.24599999999998,-33.691,-45.41,-229.00400000000002,1.0
1626203018.726014,-190.918,3.418,-48.34,-243.65200000000002,1.0
1626203018.7299201,-78.125,-3.418,-33.691,-71.777,1.0
1626203018.7338264,116.699,-17.578,-31.25,179.688,1.0
1626203018.7377326,41.016000000000005,-23.438000000000002,-22.461,58.105,1.0
1626203018.741639,-171.387,-27.831999999999997,-31.738000000000003,-224.12099999999998,1.0
1626203018.7455451,-122.559,-33.691,-30.273000000000003,-140.625,1.0
1626203018.7494514,97.656,-30.273000000000003,-13.672,148.438,1.0
1626203018.7533574,89.844,-44.922,-24.901999999999997,113.77,1.0
1626203018.757264,-125.0,-59.082,-45.898,-181.15200000000002,1.0
1626203018.7611701,-164.062,-34.18,-42.968999999999994,-216.797,1.0
1626203018.7650764,35.156,-19.531,-39.062,60.547,1.0
1626203018.7689826,112.79299999999999,-29.785,-47.852,149.90200000000002,1.0
1626203018.772889,80.078,-35.645,-24.901999999999997,124.512,1.0
1626203018.7767951,-147.461,-38.086,-50.293,-183.105,1.0
1626203018.7807014,-211.426,-35.156,-54.688,-248.535,1.0
1626203018.7846076,11.23,-29.296999999999997,-32.227,47.852,1.0
1626203018.788514,135.74200000000002,-35.645,-28.809,184.57,1.0
1626203018.7924201,-27.344,-29.296999999999997,-24.901999999999997,-59.57,1.0
1626203018.7963264,-190.43,-47.363,-28.809,-251.465,1.0
1626203018.800233,-31.25,-24.901999999999997,-24.414,-21.484,1.0
1626203018.804139,153.32,6.836,-29.785,201.66,1.0
1626203018.808045,17.578,-14.648,-55.176,4.395,1.0
1626203018.8119516,-204.59,-29.296999999999997,-59.082,-271.48400000000004,1.0
1626203018.8158574,-135.254,-32.715,-43.457,-145.996,1.0
1626203018.8197637,-51.27,-46.387,-40.039,-35.645,1.0
1626203018.82367,136.719,-29.296999999999997,-44.434,199.21900000000002,1.0
1626203018.8275762,34.18,-8.789,-52.246,34.668,1.0
1626203018.831483,-167.96900000000002,-10.742,-45.898,-231.93400000000003,1.0
1626203018.835389,-110.84,-14.648,-31.25,-128.906,1.0
1626203018.8392951,117.18799999999999,2.441,-7.324,169.922,1.0
1626203018.8432014,94.238,-23.438000000000002,-9.766,116.699,1.0
1626203018.8471074,-108.398,-46.387,-18.555,-155.273,1.0
1626203018.851014,-112.79299999999999,-36.133,-5.371,-147.94899999999998,1.0
1626203018.8549201,65.43,-55.176,-7.812,105.95700000000001,1.0
1626203018.8588262,90.33200000000001,-58.105,-25.879,138.184,1.0
1626203018.8627326,-117.676,-31.738000000000003,-48.34,-149.414,1.0
1626203018.866639,-137.207,-38.086,-53.223,1.0,1.0
1626203018.8705451,-181.15200000000002,-58.593999999999994,-69.824,1.0,1.0
1626203018.8744514,47.363,-37.109,-39.062,1.0,1.0
1626203018.8783576,145.02,-1.465,-14.648,1.0,1.0
1626203018.882264,-74.219,-29.296999999999997,-33.203,1.0,1.0
1626203018.8861701,-194.824,-31.738000000000003,-28.809,1.0,1.0
1626203018.8900764,-19.531,-25.391,-13.184000000000001,1.0,1.0
1626203018.8939826,134.27700000000002,-35.156,-8.789,1.0,1.0
1626203018.897889,-0.488,-36.621,-18.555,1.0,1.0
1626203018.9017951,-193.84799999999998,-53.223,-49.805,1.0,1.0
1626203018.9057016,-99.609,-67.87100000000001,-59.082,1.0,1.0
1626203018.9096076,107.42200000000001,-38.086,-28.32,1.0,1.0
1626203018.913514,124.512,-20.508000000000003,-20.02,181.15200000000002,1.0
1626203018.9174201,4.395,-16.113,-29.296999999999997,0.0,1.0
1626203018.9213264,-172.363,-15.625,-40.527,-239.74599999999998,1.0
1626203018.9252326,-87.891,-40.527,-28.809,-101.074,1.0
1626203018.929139,120.117,-36.621,-3.906,173.34,1.0
1626203018.933045,80.078,-18.555,-4.395,87.402,1.0
1626203018.9369516,-158.203,-41.504,-39.551,-223.63299999999998,1.0
1626203018.9408574,-147.461,-34.668,-52.246,-184.082,1.0
1626203018.9447641,77.637,-27.344,-37.598,119.141,1.0
1626203018.94867,97.656,-27.344,-39.551,125.977,1.0
1626203018.9525762,-110.84,-33.203,-40.527,-162.109,1.0
1626203018.956483,-177.734,-34.18,-25.391,-226.074,1.0
1626203018.960389,-167.48,-41.992,-47.852,-197.75400000000002,1.0
1626203018.964295,45.41,-56.152,-20.02,91.79700000000001,1.0
1626203018.9682014,117.18799999999999,-46.387,-11.23,155.762,1.0
1626203018.9721074,-59.57,-44.922,-15.137,-106.934,1.0
1626203018.976014,-168.457,-55.663999999999994,-15.625,-225.58599999999998,1.0
1626203018.9799201,29.296999999999997,-23.926,-12.207,49.316,1.0
1626203018.9838264,142.578,-12.207,-50.293,194.824,1.0
1626203018.9877326,-38.574,-33.203,-64.941,-59.082,1.0
1626203018.991639,-196.28900000000002,-31.25,-36.133,-257.812,1.0
1626203018.9955451,-69.824,-14.648,-24.414,-68.848,1.0
1626203018.9994514,130.859,-4.883,-16.602,181.15200000000002,1.0
1626203019.0033574,45.41,-10.254000000000001,-14.648,43.945,1.0
1626203019.007264,-21.484,-45.41,-29.785,-22.949,1.0
1626203019.0111701,-213.86700000000002,-56.641000000000005,-40.039,-262.207,1.0
1626203019.0150764,-86.426,-41.992,-46.875,-83.008,1.0
1626203019.0189826,90.33200000000001,-23.926,-42.968999999999994,145.02,1.0
1626203019.022889,4.883,-21.973000000000003,-31.25,6.348,1.0
1626203019.0267951,-167.48,-45.898,-17.09,-230.46900000000002,1.0
1626203019.0307014,-126.95299999999999,-18.066,-13.672,-152.344,1.0
1626203019.0346076,95.215,7.812,-28.809,138.672,1.0
1626203019.038514,107.91,-7.812,-39.551,125.488,1.0
1626203019.0424201,-123.535,-41.016000000000005,-34.668,-177.24599999999998,1.0
1626203019.0463264,-207.52,-74.219,-40.527,-244.141,1.0
1626203019.050233,-12.695,-56.152,-41.016000000000005,26.366999999999997,1.0
1626203019.054139,56.152,-29.785,-53.223,111.32799999999999,1.0
1626203019.058045,83.984,-21.973000000000003,-45.41,130.371,1.0
1626203019.0619516,-127.93,-13.672,-45.41,-157.227,1.0
1626203019.0658574,-178.71099999999998,0.0,-25.391,-208.49599999999998,1.0
1626203019.0697637,48.34,-10.742,0.488,92.773,1.0
1626203019.07367,138.672,-34.18,-12.695,201.66,1.0
1626203019.0775762,-71.777,-60.059,-44.434,-83.984,1.0
1626203019.081483,-220.703,-70.801,-50.293,-265.137,1.0
1626203019.085389,-65.918,-49.805,-41.992,-43.945,1.0
1626203019.0892951,106.445,-23.438000000000002,-48.828,169.43400000000003,1.0
1626203019.0932014,-5.371,-28.809,-49.805,-2.441,1.0
1626203019.0971074,-190.43,-40.039,-37.109,-244.62900000000002,1.0
1626203019.101014,-198.73,-18.555,-43.457,-259.76599999999996,1.0
1626203019.1049201,-46.875,-14.16,-33.203,-42.968999999999994,1.0
1626203019.1088262,143.555,-17.578,-18.555,199.21900000000002,1.0
1626203019.1127326,30.273000000000003,-33.203,-40.039,31.25,1.0
1626203019.116639,-187.012,-43.457,-56.641000000000005,-244.62900000000002,1.0
1626203019.1205451,-124.512,-41.992,-42.968999999999994,-142.578,1.0
1626203019.1244514,103.027,-29.296999999999997,-28.809,147.94899999999998,1.0
1626203019.1283576,95.215,-28.809,-17.09,106.445,1.0
1626203019.132264,-133.30100000000002,-33.691,-21.484,-201.66,1.0
1626203019.1361701,-163.086,-24.414,-35.156,-211.426,1.0
1626203019.1400764,46.875,-26.366999999999997,-33.691,86.914,1.0
1626203019.1439826,105.95700000000001,-41.016000000000005,-25.391,148.438,1.0
1626203019.147889,83.008,-32.227,-52.733999999999995,111.816,1.0
1626203019.1517951,-130.371,-35.156,-51.758,-175.78099999999998,1.0
1626203019.1557016,-155.762,-42.48,-31.25,-197.266,1.0
1626203019.1596076,53.711000000000006,-42.968999999999994,-23.438000000000002,84.473,1.0
1626203019.163514,119.62899999999999,-22.949,-32.227,167.48,1.0
1626203019.1674201,-89.844,-31.738000000000003,-42.968999999999994,-113.77,1.0
1626203019.1713264,-223.145,-46.875,-38.086,-275.879,1.0
1626203019.1752326,-34.18,-41.504,-10.742,-20.02,1.0
1626203019.179139,145.02,-17.09,-1.953,188.477,1.0
1626203019.183045,18.066,-6.348,-16.113,-3.906,1.0
1626203019.1869516,-158.203,-25.391,-24.414,-227.051,1.0
1626203019.1908574,-62.012,-45.898,-28.32,-77.637,1.0
1626203019.1947641,-27.344,-17.09,-40.039,-24.901999999999997,1.0
1626203019.19867,158.691,9.766,-12.207,206.055,1.0
1626203019.2025762,16.113,-35.156,-9.277000000000001,18.555,1.0
1626203019.206483,-193.359,-64.453,-20.996,-236.328,1.0
1626203019.210389,-109.375,-56.152,-38.574,-104.98,1.0
1626203019.214295,75.684,-54.199,-46.875,147.461,1.0
1626203019.2182014,23.926,-41.504,-41.504,56.152,1.0
1626203019.2221074,-160.645,-29.296999999999997,-44.922,-204.102,1.0
1626203019.226014,-140.625,-18.066,-38.086,-154.785,1.0
1626203019.2299201,78.613,0.977,-14.648,138.672,1.0
1626203019.2338264,135.254,3.418,0.977,175.78099999999998,1.0
1626203019.2377326,-76.172,-40.039,-20.02,-116.699,1.0
1626203019.241639,-137.207,-40.527,-54.199,1.0,1.0
1626203019.2455451,-172.363,-51.758,-50.293,1.0,1.0
1626203019.2494514,41.016000000000005,-47.363,-32.715,1.0,1.0
1626203019.2533574,117.676,-38.086,-24.414,1.0,1.0
1626203019.257264,-82.031,-13.184000000000001,-22.461,1.0,1.0
1626203019.2611701,-197.75400000000002,-15.625,-30.761999999999997,1.0,1.0
1626203019.2650764,-2.441,-25.391,-31.25,1.0,1.0
1626203019.2689826,128.418,-22.949,-33.691,1.0,1.0
1626203019.272889,-44.434,-33.691,-42.48,1.0,1.0
1626203019.2767951,-193.84799999999998,-31.738000000000003,-43.945,1.0,1.0
1626203019.2807014,-50.781000000000006,-23.438000000000002,-28.32,1.0,1.0
1626203019.2846076,152.344,-11.23,-13.184000000000001,1.0,1.0
1626203019.288514,150.391,-58.593999999999994,-37.109,190.918,1.0
1626203019.2924201,-9.766,-76.66,-27.344,-29.296999999999997,1.0
1626203019.2963264,-210.449,-64.941,-41.504,-272.461,1.0
1626203019.300233,-109.375,-32.715,-44.434,-106.445,1.0
1626203019.304139,101.56200000000001,-14.16,-35.645,171.875,1.0
1626203019.308045,40.039,-17.09,-35.645,68.848,1.0
1626203019.3119516,-168.945,-25.879,-32.715,-209.96099999999998,1.0
1626203019.3158574,-148.438,-40.039,-32.227,-156.738,1.0
1626203019.3197637,61.523,-55.176,-25.879,126.465,1.0
1626203019.32367,88.37899999999999,-45.898,-24.414,137.207,1.0
1626203019.3275762,-106.934,-31.25,-31.25,-144.531,1.0
1626203019.331483,-158.691,-33.691,-25.391,-196.28900000000002,1.0
1626203019.335389,-133.30100000000002,-15.625,-20.996,-161.13299999999998,1.0
1626203019.3392951,63.477,-14.648,-30.761999999999997,115.723,1.0
1626203019.3432014,80.566,-32.227,-33.691,121.094,1.0
1626203019.3471074,-135.254,-54.199,-39.062,-170.41,1.0
1626203019.351014,-190.918,-50.781000000000006,-38.086,-223.145,1.0
1626203019.3549201,11.719000000000001,-33.203,-27.344,54.688,1.0
1626203019.3588262,109.375,-29.296999999999997,-22.949,175.78099999999998,1.0
1626203019.3627326,-76.172,-33.203,-36.133,-72.75399999999999,1.0
1626203019.366639,-214.84400000000002,-34.668,-29.296999999999997,-248.047,1.0
1626203019.3705451,-57.617,-33.203,-30.273000000000003,-37.598,1.0
1626203019.3744514,128.906,-31.738000000000003,-31.25,187.5,1.0
1626203019.3783576,20.996,-18.066,-10.742,17.09,1.0
1626203019.382264,-52.246,-21.484,-35.156,-261.719,1.0
1626203019.3861701,-193.359,-25.879,-21.973000000000003,-138.184,1.0
1626203019.3900764,-46.387,-15.625,-8.301,148.438,1.0
1626203019.3939826,120.605,-21.973000000000003,-30.761999999999997,87.402,1.0
1626203019.397889,10.254000000000001,-28.32,-58.593999999999994,-191.40599999999998,1.0
1626203019.4017951,-179.199,-31.738000000000003,-51.758,-186.035,1.0
1626203019.4057016,-134.27700000000002,-12.207,-30.273000000000003,101.56200000000001,1.0
1626203019.4096076,60.547,-16.113,-20.996,134.27700000000002,1.0
1626203019.413514,46.387,-42.968999999999994,-28.809,-155.762,1.0
1626203019.4174201,-153.32,-40.039,-33.691,-239.25799999999998,1.0
1626203019.4213264,-168.945,-50.293,-29.785,29.785,1.0
1626203019.4252326,62.988,-35.156,-28.809,174.31599999999997,1.0
1626203019.429139,76.66,-20.996,-22.461,123.04700000000001,1.0
1626203019.433045,76.66,-23.438000000000002,-34.668,106.445,1.0
1626203019.4369516,-136.719,-27.344,-38.574,-175.293,1.0
1626203019.4408574,-182.12900000000002,-15.137,-36.133,-210.938,1.0
1626203019.4447641,21.973000000000003,-18.066,-41.504,65.43,1.0
1626203019.44867,109.375,-36.133,-46.387,165.52700000000002,1.0
1626203019.4525762,-66.406,-39.062,-35.645,-92.773,1.0
1626203019.456483,-176.75799999999998,-18.066,-21.484,-240.72299999999998,1.0
1626203019.460389,-18.066,-16.113,-21.973000000000003,-7.812,1.0
1626203019.464295,130.371,-26.855,-24.414,186.035,1.0
1626203019.4682014,-9.766,-9.766,-36.621,-14.16,1.0
1626203019.4721074,-187.988,0.488,-43.945,-238.77,1.0
1626203019.476014,-191.40599999999998,-47.852,-41.504,-239.25799999999998,1.0
1626203019.4799201,-26.366999999999997,-31.25,-11.719000000000001,-11.719000000000001,1.0
1626203019.4838264,159.668,-35.645,10.742,219.727,1.0
1626203019.4877326,12.695,-46.875,-16.602,12.207,1.0
1626203019.491639,-199.21900000000002,-29.296999999999997,-49.316,-253.90599999999998,1.0
1626203019.4955451,-108.398,-21.973000000000003,-66.406,-125.0,1.0
1626203019.4994514,127.441,-17.578,-23.926,170.898,1.0
1626203019.5033574,84.961,-27.831999999999997,-5.859,100.098,1.0
1626203019.507264,-150.879,-40.039,-29.296999999999997,-212.891,1.0
1626203019.5111701,-140.137,-32.715,-18.555,-187.5,1.0
1626203019.5150764,97.16799999999999,-7.324,-1.953,121.58200000000001,1.0
1626203019.5189826,124.512,-2.441,-17.578,148.92600000000002,1.0
1626203019.522889,75.684,-15.137,-27.831999999999997,108.887,1.0
1626203019.5267951,-111.32799999999999,-1.465,-7.812,-155.762,1.0
1626203019.5307014,-114.74600000000001,-18.555,-2.441,-145.50799999999998,1.0
1626203019.5346076,83.008,-59.082,-16.602,125.977,1.0
1626203019.538514,134.766,-33.203,-25.391,171.875,1.0
1626203019.5424201,-66.895,5.859,-36.133,-108.398,1.0
1626203019.5463264,-181.641,-3.418,-43.945,-232.422,1.0
1626203019.550233,-1.953,-29.296999999999997,-45.898,13.184000000000001,1.0
1626203019.554139,133.789,-34.668,-49.316,181.15200000000002,1.0
1626203019.558045,-46.387,-32.227,-44.922,-57.129,1.0
1626203019.5619516,-208.49599999999998,-35.645,-40.527,-263.672,1.0
1626203019.5658574,-48.34,-20.02,-25.879,-45.41,1.0
1626203019.5697637,-12.695,-22.461,-20.02,24.414,1.0
1626203019.57367,128.418,-14.16,-27.831999999999997,199.21900000000002,1.0
1626203019.5775762,-25.391,-33.691,-34.668,-23.438000000000002,1.0
1626203019.581483,-206.055,-51.27,-28.809,-255.859,1.0
1626203019.585389,-94.238,-41.992,-31.25,-89.844,1.0
1626203019.5892951,110.84,-38.574,-35.156,186.035,1.0
1626203019.5932014,42.48,-43.457,-26.366999999999997,79.102,1.0
1626203019.5971074,-179.688,-41.992,-21.973000000000003,-214.355,1.0
1626203019.601014,-161.621,-55.663999999999994,-16.113,-162.109,1.0
1626203019.6049201,70.801,-55.663999999999994,-26.855,133.30100000000002,1.0
1626203019.6088262,104.00399999999999,-34.668,-31.738000000000003,142.578,1.0
1626203019.6127326,-115.723,-39.551,-21.484,-152.832,1.0
1626203019.616639,-164.062,-43.945,-63.965,1.0,1.0
1626203019.6205451,-162.109,-26.855,-58.105,1.0,1.0
1626203019.6244514,57.617,-10.742,-32.227,1.0,1.0
1626203019.6283576,85.449,-24.414,-19.043,1.0,1.0
1626203019.632264,-127.93,-76.172,-14.648,1.0,1.0
1626203019.6361701,-199.707,-70.312,-26.366999999999997,1.0,1.0
1626203019.6400764,0.488,-26.855,-25.391,1.0,1.0
1626203019.6439826,122.07,-18.066,-21.484,1.0,1.0
1626203019.647889,-42.968999999999994,-4.395,-33.203,1.0,1.0
1626203019.6517951,-220.215,-10.254000000000001,-52.733999999999995,1.0,1.0
1626203019.6557016,-97.656,-31.738000000000003,-60.547,1.0,1.0
1626203019.6596076,84.473,-48.34,-35.645,1.0,1.0
1626203019.663514,104.492,-58.593999999999994,-32.227,187.5,1.0
1626203019.6674201,-18.555,-29.785,-22.949,-21.973000000000003,1.0
1626203019.6713264,-180.66400000000002,-29.296999999999997,-23.438000000000002,-235.84,1.0
1626203019.6752326,-64.453,-27.831999999999997,-25.879,-65.918,1.0
1626203019.679139,135.254,-28.32,-16.113,186.523,1.0
1626203019.683045,67.383,-26.366999999999997,-12.695,66.406,1.0
1626203019.6869516,-132.32399999999998,-20.508000000000003,-24.414,-207.52,1.0
1626203019.6908574,-84.473,-9.277000000000001,-40.039,-123.535,1.0
1626203019.6947641,113.77,-5.371,-33.203,169.43400000000003,1.0
1626203019.69867,110.352,-10.254000000000001,-25.391,134.766,1.0
1626203019.7025762,-102.539,-36.133,-43.945,-162.109,1.0
1626203019.706483,-134.27700000000002,-69.824,-36.133,-166.99200000000002,1.0
1626203019.710389,-165.52700000000002,-11.23,-45.898,-186.523,1.0
1626203019.714295,57.129,-3.906,-13.184000000000001,116.699,1.0
1626203019.7182014,69.824,-28.32,-25.879,105.95700000000001,1.0
1626203019.7221074,-139.648,-53.223,-51.758,-188.965,1.0
1626203019.726014,-182.61700000000002,-41.016000000000005,-37.598,-214.84400000000002,1.0
1626203019.7299201,27.831999999999997,-38.086,-17.578,75.684,1.0
1626203019.7338264,159.668,-3.906,-6.348,197.266,1.0
1626203019.7377326,-1.465,16.602,-4.883,-35.156,1.0
1626203019.741639,-163.086,-14.16,-21.973000000000003,-207.52,1.0
1626203019.7455451,-34.18,-24.901999999999997,-41.992,-14.16,1.0
1626203019.7494514,101.56200000000001,-27.344,-43.945,165.52700000000002,1.0
1626203019.7533574,-33.691,-49.316,-47.363,-35.645,1.0
1626203019.757264,-35.156,-19.043,-1.953,-273.926,1.0
1626203019.7611701,-182.12900000000002,-33.691,-14.16,-109.375,1.0
1626203019.7650764,-26.366999999999997,-19.043,-19.043,156.738,1.0
1626203019.7689826,126.465,-18.555,-37.598,72.75399999999999,1.0
1626203019.772889,15.625,-28.809,-44.922,-196.28900000000002,1.0
1626203019.7767951,-184.082,-22.461,-52.733999999999995,-147.94899999999998,1.0
1626203019.7807014,-119.62899999999999,-17.578,-38.574,141.113,1.0
1626203019.7846076,102.051,-12.695,-13.672,141.602,1.0
1626203019.788514,76.66,-13.184000000000001,-31.738000000000003,-150.391,1.0
1626203019.7924201,-142.09,-29.296999999999997,-34.668,-225.09799999999998,1.0
1626203019.7963264,-144.531,-38.574,-33.691,44.434,1.0
1626203019.800233,74.219,-10.254000000000001,-44.434,186.523,1.0
1626203019.804139,93.262,-27.344,-36.133,132.32399999999998,1.0
1626203019.808045,76.172,-6.348,-22.949,97.16799999999999,1.0
1626203019.8119516,-132.32399999999998,-36.133,-34.668,-191.40599999999998,1.0
1626203019.8158574,-176.75799999999998,-54.199,-48.34,-216.797,1.0
1626203019.8197637,32.715,-28.32,-44.434,76.172,1.0
1626203019.82367,116.699,-19.043,-26.366999999999997,163.57399999999998,1.0
1626203019.8275762,-92.773,-59.082,-48.828,-122.07,1.0
1626203019.831483,-210.449,-71.777,-59.57,-254.88299999999998,1.0
1626203019.835389,-9.766,-34.668,-17.09,15.137,1.0
1626203019.8392951,141.113,-23.438000000000002,-15.625,194.33599999999998,1.0
1626203019.8432014,-1.953,-26.366999999999997,-30.273000000000003,-25.879,1.0
1626203019.8471074,-153.32,-1.465,-19.531,-229.49200000000002,1.0
1626203019.851014,-182.61700000000002,-93.75,-18.066,1.0,1.0
1626203019.8549201,0.0,-50.781000000000006,-20.508000000000003,1.0,1.0
1626203019.8588262,135.74200000000002,-8.789,-39.551,1.0,1.0
1626203019.8627326,-25.879,-4.395,-53.223,1.0,1.0
1626203019.866639,-208.49599999999998,-20.02,-42.968999999999994,1.0,1.0
1626203019.8705451,-92.285,-23.438000000000002,-25.391,1.0,1.0
1626203019.8744514,110.352,-29.296999999999997,-20.02,1.0,1.0
1626203019.8783576,54.199,-33.203,-23.438000000000002,1.0,1.0
1626203019.882264,-145.02,-26.366999999999997,-39.062,1.0,1.0
1626203019.8861701,-125.0,-29.785,-33.203,1.0,1.0
1626203019.8900764,78.613,-58.105,-30.761999999999997,1.0,1.0
1626203019.8939826,105.469,-61.035,-25.879,1.0,1.0
1626203019.897889,78.613,-12.207,-18.555,82.52,1.0
1626203019.9017951,-127.93,-17.09,-19.531,-191.40599999999998,1.0
1626203019.9057016,-113.281,-14.16,-17.578,-153.809,1.0
1626203019.9096076,81.543,-26.366999999999997,-16.113,116.211,1.0
1626203019.913514,93.75,-45.898,-17.578,133.30100000000002,1.0
1626203019.9174201,-112.305,-60.547,-19.043,-148.92600000000002,1.0
1626203019.9213264,-185.05900000000003,-47.363,-19.043,-231.445,1.0
1626203019.9252326,-8.301,-22.461,-23.438000000000002,14.648,1.0
1626203019.929139,99.12100000000001,-19.043,-27.831999999999997,139.648,1.0
1626203019.933045,-63.477,-27.344,-34.18,-102.051,1.0
1626203019.9369516,-213.86700000000002,-36.133,-33.691,-283.691,1.0
1626203019.9408574,-61.523,-21.484,-18.066,-59.082,1.0
1626203019.9447641,-123.04700000000001,-29.785,-32.715,-90.82,1.0
1626203019.94867,4.883,-10.742,-16.602,70.801,1.0
1626203019.9525762,-162.59799999999998,-52.733999999999995,-18.555,-172.363,1.0
1626203019.956483,-329.102,-67.383,-27.344,-390.625,1.0
1626203019.960389,-199.707,-21.973000000000003,-29.296999999999997,-199.707,1.0
1626203019.964295,-14.648,-13.184000000000001,-43.945,43.945,1.0
1626203019.9682014,-86.914,-0.488,-48.828,-76.66,1.0
1626203019.9721074,-265.137,0.488,-39.551,-326.66,1.0
1626203019.976014,-222.65599999999998,-35.645,-41.504,-256.348,1.0
1626203019.9799201,-25.391,-28.809,-45.41,18.066,1.0
1626203019.9838264,-46.387,-27.344,-53.711000000000006,-20.996,1.0
1626203019.9877326,-229.98,-15.625,-38.086,-288.574,1.0
1626203019.991639,-194.33599999999998,-29.296999999999997,-46.875,1.0,1.0
1626203019.9955451,-143.555,-4.395,-38.086,1.0,1.0
1626203019.9994514,89.844,-17.578,-38.574,1.0,1.0
1626203020.0033574,118.164,-44.434,-66.895,1.0,1.0
1626203020.007264,-92.773,-58.593999999999994,-54.199,1.0,1.0
1626203020.0111701,-153.809,-31.25,-33.691,1.0,1.0
1626203020.0150764,95.215,-2.93,-17.09,1.0,1.0
1626203020.0189826,171.387,-17.578,-23.438000000000002,1.0,1.0
1626203020.022889,-62.988,-25.391,-43.457,1.0,1.0
1626203020.0267951,-170.41,-11.719000000000001,-27.344,1.0,1.0
1626203020.0307014,26.366999999999997,-4.883,-11.719000000000001,1.0,1.0
1626203020.0346076,199.21900000000002,-2.441,-24.414,1.0,1.0
1626203020.038514,187.988,-38.574,-2.441,239.25799999999998,1.0
1626203020.0424201,14.648,-29.785,-14.648,-5.371,1.0
1626203020.0463264,-134.27700000000002,-17.578,-31.738000000000003,-183.59400000000002,1.0
1626203020.050233,-16.113,-50.293,-31.25,0.488,1.0
1626203020.054139,131.34799999999998,-50.293,-32.715,197.75400000000002,1.0
1626203020.058045,28.32,-38.086,-43.457,41.504,1.0
1626203020.0619516,-138.672,-61.523,-32.227,-186.523,1.0
1626203020.0658574,-58.593999999999994,-56.641000000000005,-11.23,-61.523,1.0
1626203020.0697637,140.625,-16.113,-12.207,212.891,1.0
1626203020.07367,88.37899999999999,-12.695,-34.18,128.418,1.0
1626203020.0775762,-115.234,-29.785,-30.761999999999997,-152.832,1.0
1626203020.081483,-92.285,-17.578,-10.742,-111.32799999999999,1.0
1626203020.085389,-52.733999999999995,-11.719000000000001,-24.901999999999997,-75.684,1.0
1626203020.0892951,168.457,-39.062,6.348,214.355,1.0
1626203020.0932014,125.488,-71.289,-1.953,146.97299999999998,1.0
1626203020.0971074,-117.676,-45.41,-52.733999999999995,-168.945,1.0
1626203020.101014,-152.344,-20.996,-57.129,-188.965,1.0
1626203020.1049201,61.035,-42.968999999999994,-40.527,103.516,1.0
1626203020.1088262,145.02,-47.363,-34.18,191.895,1.0
1626203020.1127326,-54.199,-41.992,-26.855,-85.449,1.0
1626203020.116639,-159.18,-16.113,-19.531,-209.47299999999998,1.0
1626203020.1205451,41.016000000000005,11.23,-4.395,62.5,1.0
1626203020.1244514,166.016,-2.441,-8.789,230.957,1.0
1626203020.1283576,0.977,-28.809,-41.992,6.836,1.0
1626203020.132264,-71.777,-28.809,-43.945,-210.449,1.0
1626203020.1361701,-210.449,-45.41,-49.805,-29.296999999999997,1.0
1626203020.1400764,-30.761999999999997,-28.32,-28.32,230.46900000000002,1.0
1626203020.1439826,143.555,-21.973000000000003,-29.296999999999997,98.145,1.0
1626203020.147889,2.441,-32.715,-41.504,-177.734,1.0
1626203020.1517951,-184.57,-37.598,-38.086,-123.04700000000001,1.0
1626203020.1557016,-81.055,-36.133,-21.484,167.48,1.0
1626203020.1596076,125.977,-37.598,-19.043,173.828,1.0
1626203020.163514,85.93799999999999,-35.645,-35.645,-121.58200000000001,1.0
1626203020.1674201,-133.30100000000002,-32.715,-44.434,-177.734,1.0
1626203020.1713264,-145.996,-33.691,-36.133,83.49600000000001,1.0
1626203020.1752326,82.52,-21.484,-20.508000000000003,177.24599999999998,1.0
1626203020.179139,133.789,-16.602,-23.438000000000002,195.801,1.0
1626203020.183045,104.00399999999999,0.488,-5.371,125.488,1.0
1626203020.1869516,-130.859,-35.645,-14.16,-167.48,1.0
1626203020.1908574,-142.09,-54.199,-42.48,-145.02,1.0
1626203020.1947641,80.078,-35.645,-25.879,139.648,1.0
1626203020.19867,114.258,-12.695,-8.789,162.109,1.0
1626203020.2025762,-91.309,-1.465,-14.648,-113.77,1.0
1626203020.206483,-192.38299999999998,-28.32,-28.32,-213.37900000000002,1.0
1626203020.210389,6.348,-36.133,-24.901999999999997,58.593999999999994,1.0
1626203020.214295,155.273,-21.973000000000003,-22.949,224.609,1.0
1626203020.2182014,-17.09,-46.387,-36.133,-23.438000000000002,1.0
1626203020.2221074,-166.99200000000002,-50.293,-30.273000000000003,-211.426,1.0
1626203020.226014,-178.22299999999998,-23.438000000000002,-45.898,1.0,1.0
1626203020.2299201,-21.484,-26.366999999999997,-54.688,1.0,1.0
1626203020.2338264,137.207,-22.461,-23.926,1.0,1.0
1626203020.2377326,-19.531,-29.785,-21.973000000000003,1.0,1.0
1626203020.241639,-201.66,-38.086,-40.039,1.0,1.0
1626203020.2455451,-68.359,-40.039,-35.156,1.0,1.0
1626203020.2494514,131.836,-32.227,-27.344,1.0,1.0
1626203020.2533574,49.805,-20.508000000000003,-44.434,1.0,1.0
1626203020.257264,-178.22299999999998,-22.949,-64.453,1.0,1.0
1626203020.2611701,-139.648,-37.109,-37.109,1.0,1.0
1626203020.2650764,88.37899999999999,-38.086,-12.207,1.0,1.0
1626203020.2689826,97.656,-20.508000000000003,-14.16,1.0,1.0
1626203020.272889,50.293,-21.484,-27.344,57.617,1.0
1626203020.2767951,-160.156,-20.508000000000003,-28.32,-220.215,1.0
1626203020.2807014,-110.352,-11.719000000000001,0.977,-125.0,1.0
1626203020.2846076,89.844,-43.457,-14.16,151.855,1.0
1626203020.288514,89.355,-42.48,-36.621,141.602,1.0
1626203020.2924201,-125.977,-22.461,-31.25,-145.02,1.0
1626203020.2963264,-186.035,-35.645,-35.645,-213.86700000000002,1.0
1626203020.300233,8.301,-62.5,-43.945,56.641000000000005,1.0
1626203020.304139,116.211,-62.012,-29.785,184.57,1.0
1626203020.308045,-55.663999999999994,-16.602,-28.809,-76.172,1.0
1626203020.3119516,-205.56599999999997,0.488,-48.828,-256.348,1.0
1626203020.3158574,-30.273000000000003,-5.859,-42.48,-13.184000000000001,1.0
1626203020.3197637,27.344,-34.668,-45.898,42.48,1.0
1626203020.32367,125.0,-33.203,-39.551,167.48,1.0
1626203020.3275762,-40.039,-22.949,-22.949,-72.266,1.0
1626203020.331483,-185.05900000000003,-9.766,-16.113,-255.37099999999998,1.0
1626203020.335389,-42.968999999999994,-18.066,-22.461,-40.039,1.0
1626203020.3392951,140.625,-31.25,-34.668,183.59400000000002,1.0
1626203020.3432014,33.203,-30.273000000000003,-18.555,18.066,1.0
1626203020.3471074,-186.035,-33.203,-25.391,-247.07,1.0
1626203020.351014,-141.113,-34.18,-52.246,-159.668,1.0
1626203020.3549201,103.516,-8.789,-33.691,159.668,1.0
1626203020.3588262,81.055,-10.742,-27.344,116.699,1.0
1626203020.3627326,-151.36700000000002,-41.504,-29.785,-207.52,1.0
1626203020.366639,-180.176,-56.152,-27.831999999999997,-239.25799999999998,1.0
1626203020.3705451,-105.95700000000001,-39.551,-14.16,-116.211,1.0
1626203020.3744514,128.418,-24.414,-0.977,184.082,1.0
1626203020.3783576,93.262,-20.02,-17.09,116.211,1.0
1626203020.382264,-145.50799999999998,-11.719000000000001,-34.668,-192.87099999999998,1.0
1626203020.3861701,-146.97299999999998,-3.418,-38.086,-189.94099999999997,1.0
1626203020.3900764,68.359,-14.648,-28.32,107.91,1.0
1626203020.3939826,123.535,-24.901999999999997,-23.438000000000002,167.48,1.0
1626203020.397889,-80.566,-26.366999999999997,-29.785,-112.79299999999999,1.0
1626203020.4017951,-198.24200000000002,-47.852,-50.781000000000006,-262.695,1.0
1626203020.4057016,-26.855,-75.684,-45.41,-12.695,1.0
1626203020.4096076,137.695,-47.852,-12.695,207.03099999999998,1.0
1626203020.413514,158.691,-26.855,-15.625,196.28900000000002,1.0
1626203020.4174201,-4.395,-0.488,12.207,-35.645,1.0
1626203020.4213264,-153.809,-12.695,-7.812,-215.82,1.0
1626203020.4252326,-33.203,-15.137,-38.574,-24.414,1.0
1626203020.429139,114.258,-4.395,-34.18,176.75799999999998,1.0
1626203020.433045,-6.348,-27.344,-40.527,-12.695,1.0
1626203020.4369516,-177.734,-32.715,-33.691,-238.77,1.0
1626203020.4408574,-83.008,-32.715,-15.137,-89.355,1.0
1626203020.4447641,120.605,-49.805,-9.277000000000001,190.43,1.0
1626203020.44867,66.406,-49.316,-26.366999999999997,103.027,1.0
1626203020.4525762,-151.36700000000002,-52.246,-31.25,-184.082,1.0
1626203020.456483,-107.91,-84.961,0.488,-125.0,1.0
1626203020.460389,-139.16,-55.176,-25.879,-135.74200000000002,1.0
1626203020.464295,96.68,-41.992,-8.789,156.25,1.0
1626203020.4682014,77.637,-31.25,-5.859,104.98,1.0
1626203020.4721074,-157.715,-53.711000000000006,-30.761999999999997,-202.148,1.0
1626203020.476014,-187.012,-38.574,-55.663999999999994,-200.195,1.0
1626203020.4799201,48.34,-23.438000000000002,-52.733999999999995,104.00399999999999,1.0
1626203020.4838264,140.137,-16.602,-18.066,168.457,1.0
1626203020.4877326,-80.078,-39.062,-22.461,-125.488,1.0
1626203020.491639,-189.453,-63.965,-26.366999999999997,-231.445,1.0
1626203020.4955451,14.16,-33.203,-33.203,35.156,1.0
1626203020.4994514,133.789,-24.414,-64.453,189.94099999999997,1.0
1626203020.5033574,-44.434,-44.434,-75.195,-47.852,1.0
1626203020.507264,-90.33200000000001,-50.781000000000006,-57.129,-117.676,1.0
1626203020.5111701,-216.797,-70.312,-73.242,-256.836,1.0
1626203020.5150764,-27.344,-51.27,-45.41,-11.23,1.0
1626203020.5189826,133.789,-18.555,-25.879,182.12900000000002,1.0
1626203020.522889,-8.301,-28.809,-47.852,-23.926,1.0
1626203020.5267951,-171.875,-33.203,-44.922,-244.141,1.0
1626203020.5307014,-62.988,-15.137,-23.438000000000002,-74.219,1.0
1626203020.5346076,119.62899999999999,-20.02,-14.648,167.96900000000002,1.0
1626203020.538514,47.363,-32.715,-16.113,46.387,1.0
1626203020.5424201,-144.043,-43.945,-13.672,-205.56599999999997,1.0
1626203020.5463264,-105.95700000000001,-28.32,-27.344,-126.95299999999999,1.0
1626203020.550233,85.449,-23.926,-53.223,142.578,1.0
1626203020.554139,88.867,-15.625,-35.156,154.297,1.0
1626203020.558045,33.203,-22.461,-36.133,52.246,1.0
1626203020.5619516,-159.18,-33.691,-48.34,-218.75,1.0
1626203020.5658574,-138.184,-32.227,-34.668,-163.57399999999998,1.0
1626203020.5697637,77.637,-26.855,-8.789,119.141,1.0
1626203020.57367,109.375,-19.043,-15.137,133.30100000000002,1.0
1626203020.5775762,-112.79299999999999,-40.039,-38.086,-158.691,1.0
1626203020.581483,-187.988,-62.5,-29.296999999999997,-225.58599999999998,1.0
1626203020.585389,26.855,-50.293,-22.949,60.059,1.0
1626203020.5892951,141.602,-36.133,-34.18,191.895,1.0
1626203020.5932014,-28.32,-29.785,-37.109,-55.176,1.0
1626203020.5971074,-183.59400000000002,-31.25,-29.785,-238.77,1.0
1626203020.601014,-179.199,-46.875,-46.387,1.0,1.0
1626203020.6049201,16.113,-17.09,-33.203,1.0,1.0
1626203020.6088262,144.043,-22.461,-27.831999999999997,1.0,1.0
1626203020.6127326,-31.25,-40.527,-41.504,1.0,1.0
1626203020.616639,-195.801,-40.039,-33.203,1.0,1.0
1626203020.6205451,-79.102,-27.344,-25.391,1.0,1.0
1626203020.6244514,110.352,-21.973000000000003,-30.761999999999997,1.0,1.0
1626203020.6283576,20.02,-25.391,-42.968999999999994,1.0,1.0
1626203020.632264,-195.312,-31.738000000000003,-49.316,1.0,1.0
1626203020.6361701,-116.211,-23.438000000000002,-37.598,1.0,1.0
1626203020.6400764,123.04700000000001,-38.574,-34.18,1.0,1.0
1626203020.6439826,76.172,-65.918,-37.109,1.0,1.0
1626203020.647889,34.668,-22.949,-16.602,34.18,1.0
1626203020.6517951,-160.645,-37.109,-21.484,-226.074,1.0
1626203020.6557016,-122.559,-44.434,-25.391,-148.92600000000002,1.0
1626203020.6596076,84.961,-26.855,-25.879,129.88299999999998,1.0
1626203020.663514,82.52,-18.066,-17.09,115.234,1.0
1626203020.6674201,-127.93,-38.574,-32.227,-169.922,1.0
1626203020.6713264,-162.109,-46.875,-40.527,-207.03099999999998,1.0
1626203020.6752326,53.711000000000006,-49.805,-20.996,87.891,1.0
1626203020.679139,127.441,-47.852,-24.414,173.828,1.0
1626203020.683045,-64.453,-30.273000000000003,-32.715,-97.16799999999999,1.0
1626203020.6869516,-180.66400000000002,-14.16,-24.901999999999997,-236.328,1.0
1626203020.6908574,-20.508000000000003,-41.504,-28.32,0.0,1.0
1626203020.6947641,33.691,-38.086,-26.366999999999997,60.547,1.0
1626203020.69867,113.77,-60.059,-29.296999999999997,153.809,1.0
1626203020.7025762,-66.895,-54.199,-29.785,-106.934,1.0
1626203020.706483,-206.543,-43.457,-30.273000000000003,-273.926,1.0
1626203020.710389,-47.852,-21.484,-46.875,-42.968999999999994,1.0
1626203020.714295,125.488,-12.207,-56.641000000000005,173.828,1.0
1626203020.7182014,15.137,-40.039,-32.715,0.0,1.0
1626203020.7221074,-174.31599999999997,-36.133,-16.113,-243.16400000000002,1.0
1626203020.726014,-117.676,-27.831999999999997,-34.18,-125.488,1.0
1626203020.7299201,70.312,-26.366999999999997,-45.41,132.812,1.0
1626203020.7338264,37.109,-17.09,-41.504,55.176,1.0
1626203020.7377326,-163.086,-17.578,-33.203,-217.773,1.0
1626203020.741639,-173.828,-48.34,-41.504,-238.77,1.0
1626203020.7455451,-105.95700000000001,-34.668,-17.578,-126.465,1.0
1626203020.7494514,114.74600000000001,-20.508000000000003,0.977,159.18,1.0
1626203020.7533574,83.008,-22.949,-14.16,97.656,1.0
1626203020.757264,-137.695,-31.738000000000003,-43.945,-192.38299999999998,1.0
1626203020.7611701,-141.113,-45.41,-33.203,-184.57,1.0
1626203020.7650764,87.402,-66.895,-11.23,123.04700000000001,1.0
1626203020.7689826,126.95299999999999,-46.875,-17.578,174.31599999999997,1.0
1626203020.772889,-101.56200000000001,-17.09,-37.109,-134.766,1.0
1626203020.7767951,-207.03099999999998,-28.809,-46.875,-259.76599999999996,1.0
1626203020.7807014,-15.137,-35.156,-40.527,6.836,1.0
1626203020.7846076,128.906,-25.391,-37.109,179.688,1.0
1626203020.788514,96.191,-19.531,-46.875,145.996,1.0
1626203020.7924201,-98.145,-23.926,-45.898,-115.234,1.0
1626203020.7963264,-189.453,-26.855,-24.414,-238.77,1.0
1626203020.800233,-6.836,-25.391,-12.695,9.766,1.0
1626203020.804139,141.113,-38.574,-17.09,188.477,1.0
1626203020.808045,-9.766,-68.848,-23.926,-24.901999999999997,1.0
1626203020.8119516,-201.172,-64.941,-37.598,-253.418,1.0
1626203020.8158574,-89.844,-28.809,-43.945,-84.473,1.0
1626203020.8197637,108.398,-5.371,-28.32,166.50400000000002,1.0
1626203020.82367,39.551,-27.831999999999997,-28.809,53.711000000000006,1.0
1626203020.8275762,-183.105,-42.968999999999994,-37.109,-229.98,1.0
1626203020.831483,-160.645,-38.574,-35.645,-177.24599999999998,1.0
1626203020.835389,-115.234,-20.508000000000003,-21.973000000000003,-120.605,1.0
1626203020.8392951,65.918,-46.387,-38.574,132.812,1.0
1626203020.8432014,17.578,-51.758,-51.758,50.781000000000006,1.0
1626203020.8471074,-148.92600000000002,-21.973000000000003,-35.645,-204.102,1.0
1626203020.851014,-142.09,-37.109,-26.366999999999997,-177.734,1.0
1626203020.8549201,54.199,-53.223,-17.578,104.00399999999999,1.0
1626203020.8588262,54.688,-66.406,-35.156,102.539,1.0
1626203020.8627326,-132.32399999999998,-54.199,-44.922,-177.734,1.0
1626203020.866639,-182.12900000000002,-29.785,-39.062,-223.63299999999998,1.0
1626203020.8705451,8.301,-27.831999999999997,-49.316,43.457,1.0
1626203020.8744514,135.74200000000002,-31.738000000000003,-34.18,186.523,1.0
1626203020.8783576,-42.48,-52.246,-18.066,-62.012,1.0
1626203020.882264,-92.773,-48.828,-33.691,-108.887,1.0
1626203020.8861701,-215.332,-51.758,-58.105,-233.887,1.0
1626203020.8900764,-15.137,-26.366999999999997,-37.109,41.016000000000005,1.0
1626203020.8939826,131.836,-6.348,-26.366999999999997,196.28900000000002,1.0
1626203020.897889,-20.508000000000003,-7.812,-13.672,-45.898,1.0
1626203020.9017951,-184.082,-53.223,-11.23,-237.793,1.0
1626203020.9057016,-66.895,-58.593999999999994,-21.973000000000003,-39.062,1.0
1626203020.9096076,145.50799999999998,-10.254000000000001,-32.227,206.543,1.0
1626203020.913514,60.547,-3.906,-33.691,64.941,1.0
1626203020.9174201,-166.99200000000002,-18.066,-15.625,-202.637,1.0
1626203020.9213264,-111.816,-36.133,-3.906,-105.95700000000001,1.0
1626203020.9252326,98.633,-43.457,-6.836,168.945,1.0
1626203020.929139,117.18799999999999,-43.945,-17.578,202.148,1.0
1626203020.933045,34.668,-50.293,-18.555,66.406,1.0
1626203020.9369516,-150.391,-7.812,-18.066,-205.56599999999997,1.0
1626203020.9408574,-130.859,-9.766,-25.879,-148.438,1.0
1626203020.9447641,65.43,-22.949,-39.551,136.23,1.0
1626203020.94867,92.773,-14.648,-66.406,137.695,1.0
1626203020.9525762,-102.539,-20.02,-54.199,-151.36700000000002,1.0
1626203020.956483,-158.691,-38.574,-25.879,-199.21900000000002,1.0
1626203020.960389,64.453,-31.738000000000003,-12.695,97.656,1.0
1626203020.964295,156.738,-53.711000000000006,-2.93,203.613,1.0
1626203020.9682014,-53.223,-72.75399999999999,-29.296999999999997,-72.75399999999999,1.0
1626203020.9721074,-172.852,-29.785,-50.293,-216.30900000000003,1.0
1626203020.976014,-157.715,-30.273000000000003,-24.414,1.0,1.0
1626203020.9799201,25.879,-16.113,-32.715,1.0,1.0
1626203020.9838264,119.141,0.977,-40.039,1.0,1.0
1626203020.9877326,-73.242,-28.809,-52.246,1.0,1.0
1626203020.991639,-221.68,-57.129,-39.062,1.0,1.0
1626203020.9955451,-47.852,-65.918,-16.602,1.0,1.0
1626203020.9994514,137.207,-22.461,-7.324,1.0,1.0
1626203021.0033574,19.531,6.836,-20.508000000000003,1.0,1.0
1626203021.007264,-177.734,-15.137,-36.133,1.0,1.0
1626203021.0111701,-105.469,-34.18,-33.691,1.0,1.0
1626203021.0150764,105.469,-31.25,-20.996,1.0,1.0
1626203021.0189826,66.406,-24.901999999999997,-20.996,1.0,1.0
1626203021.022889,-2.93,-83.984,-38.086,-15.625,1.0
1626203021.0267951,-215.332,-68.359,-48.34,-285.645,1.0
1626203021.0307014,-136.719,-20.996,-41.016000000000005,-170.41,1.0
1626203021.0346076,92.773,-9.766,-29.785,132.32399999999998,1.0
1626203021.038514,74.219,-29.296999999999997,-30.761999999999997,90.82,1.0
1626203021.0424201,-157.715,-63.477,-37.598,-209.96099999999998,1.0
1626203021.0463264,-181.15200000000002,-62.012,-35.645,-219.727,1.0
1626203021.050233,43.945,-37.598,-36.133,77.637,1.0
1626203021.054139,84.473,-33.203,-56.641000000000005,130.859,1.0
1626203021.058045,-103.516,-34.668,-56.152,-142.578,1.0
1626203021.0619516,-192.87099999999998,-48.34,-30.273000000000003,-245.605,1.0
1626203021.0658574,-27.344,-46.387,-29.296999999999997,6.348,1.0
1626203021.0697637,37.598,-14.16,-30.273000000000003,95.70299999999999,1.0
1626203021.07367,126.465,-21.973000000000003,-31.738000000000003,169.922,1.0
1626203021.0775762,-62.5,-46.875,-31.25,-86.426,1.0
1626203021.081483,-210.938,-69.824,-30.273000000000003,-236.328,1.0
1626203021.085389,-26.366999999999997,-30.273000000000003,-22.461,8.789,1.0
1626203021.0892951,143.066,-2.441,-11.719000000000001,209.96099999999998,1.0
1626203021.0932014,-12.207,-17.578,-33.203,-12.695,1.0
1626203021.0971074,-178.22299999999998,-54.199,-37.109,-226.562,1.0
1626203021.101014,-80.566,-51.758,-22.949,-80.566,1.0
1626203021.1049201,104.492,-13.184000000000001,-30.273000000000003,158.691,1.0
1626203021.1088262,63.965,-16.113,-40.039,62.988,1.0
1626203021.1127326,-160.156,-22.461,-49.316,-207.52,1.0
1626203021.116639,-155.762,-39.551,-25.879,-223.63299999999998,1.0
1626203021.1205451,-72.75399999999999,-31.738000000000003,-27.344,-74.219,1.0
1626203021.1244514,117.18799999999999,-31.738000000000003,-30.273000000000003,182.61700000000002,1.0
1626203021.1283576,53.711000000000006,-45.41,-35.645,77.148,1.0
1626203021.132264,-142.09,-40.039,-29.296999999999997,-185.05900000000003,1.0
1626203021.1361701,-116.699,-37.598,-7.812,-136.719,1.0
1626203021.1400764,106.445,-31.738000000000003,-8.301,141.113,1.0
1626203021.1439826,152.344,-37.109,-5.371,188.965,1.0
1626203021.147889,-86.426,-58.593999999999994,-18.066,-105.469,1.0
1626203021.1517951,-194.824,-58.593999999999994,-40.527,-219.238,1.0
1626203021.1557016,12.207,-24.901999999999997,-16.602,55.663999999999994,1.0
1626203021.1596076,152.832,7.812,12.695,208.49599999999998,1.0
1626203021.163514,77.148,-16.113,-27.831999999999997,121.094,1.0
1626203021.1674201,-114.74600000000001,-24.901999999999997,-19.531,-148.92600000000002,1.0
1626203021.1713264,-192.38299999999998,-32.227,-13.672,-234.863,1.0
1626203021.1752326,1.953,-38.086,-15.625,30.761999999999997,1.0
1626203021.179139,151.855,-29.785,-14.648,198.24200000000002,1.0
1626203021.183045,-7.812,-36.621,-24.901999999999997,-31.738000000000003,1.0
1626203021.1869516,-183.59400000000002,-48.828,-37.598,-248.047,1.0
1626203021.1908574,-64.453,-35.156,-30.761999999999997,-65.918,1.0
1626203021.1947641,101.56200000000001,-26.366999999999997,-19.531,168.457,1.0
1626203021.19867,23.926,-21.973000000000003,-26.366999999999997,41.016000000000005,1.0
1626203021.2025762,-163.086,-48.828,-47.363,-210.938,1.0
1626203021.206483,-103.516,-50.781000000000006,-48.34,-118.652,1.0
1626203021.210389,-68.848,-15.137,-43.457,-70.312,1.0
1626203021.214295,128.906,-7.812,-17.09,191.895,1.0
1626203021.2182014,54.688,-30.761999999999997,-20.996,66.406,1.0
1626203021.2221074,-162.109,-64.453,-41.504,-224.609,1.0
1626203021.226014,-152.344,-57.617,-41.016000000000005,-177.734,1.0
1626203021.2299201,56.641000000000005,-28.809,-36.133,99.609,1.0
1626203021.2338264,79.59,-4.395,-32.715,97.656,1.0
1626203021.2377326,-116.211,9.277000000000001,-34.668,-176.75799999999998,1.0
1626203021.241639,-162.59799999999998,-4.883,-24.901999999999997,-211.91400000000002,1.0
1626203021.2455451,54.688,-38.086,-23.438000000000002,83.984,1.0
1626203021.2494514,143.555,-42.968999999999994,-44.922,181.641,1.0
1626203021.2533574,-60.547,-38.574,-62.988,-99.609,1.0
1626203021.257264,-103.516,-20.508000000000003,-56.641000000000005,-162.59799999999998,1.0
1626203021.2611701,-161.13299999999998,-20.508000000000003,-55.663999999999994,-213.37900000000002,1.0
1626203021.2650764,44.434,-12.207,-35.645,85.93799999999999,1.0
1626203021.2689826,142.578,-3.906,-18.555,189.453,1.0
1626203021.272889,-31.738000000000003,-48.828,-26.855,-65.918,1.0
1626203021.2767951,-162.109,-70.801,-23.438000000000002,-223.63299999999998,1.0
1626203021.2807014,-20.508000000000003,-36.621,-17.09,-20.996,1.0
1626203021.2846076,130.371,-14.16,-33.691,165.52700000000002,1.0
1626203021.288514,17.09,-15.137,-54.688,6.348,1.0
1626203021.2924201,-171.875,-19.043,-48.828,-223.145,1.0
1626203021.2963264,-91.309,-25.879,-18.066,-103.516,1.0
1626203021.300233,92.285,-41.992,-26.366999999999997,134.27700000000002,1.0
1626203021.304139,158.203,-9.277000000000001,-38.086,212.40200000000002,1.0
1626203021.308045,36.133,-46.387,-56.641000000000005,40.039,1.0
1626203021.3119516,-177.24599999999998,-45.41,-50.293,-233.398,1.0
1626203021.3158574,-122.07,-14.648,-33.203,-134.27700000000002,1.0
1626203021.3197637,96.68,-14.16,-24.414,156.738,1.0
1626203021.32367,91.79700000000001,-21.484,-36.621,115.723,1.0
1626203021.3275762,-121.58200000000001,-38.086,-35.156,-175.78099999999998,1.0
1626203021.331483,-136.719,-44.922,-19.043,-168.945,1.0
1626203021.335389,79.59,-22.461,-12.207,117.18799999999999,1.0
1626203021.3392951,117.676,-10.742,-22.461,154.785,1.0
1626203021.3432014,-91.79700000000001,-18.066,-39.551,-129.395,1.0
1626203021.3471074,-165.52700000000002,-21.484,-25.879,-217.285,1.0
1626203021.351014,-162.109,-53.711000000000006,-33.691,1.0,1.0
1626203021.3549201,40.039,-41.504,-23.926,1.0,1.0
1626203021.3588262,103.027,-24.901999999999997,-34.18,1.0,1.0
1626203021.3627326,-76.172,-8.789,-37.109,1.0,1.0
1626203021.366639,-182.12900000000002,-16.113,-22.461,1.0,1.0
1626203021.3705451,-22.461,-25.391,-14.16,1.0,1.0
1626203021.3744514,120.117,-35.645,-23.926,1.0,1.0
1626203021.3783576,-7.812,-37.598,-23.438000000000002,1.0,1.0
1626203021.382264,-184.082,-20.508000000000003,-12.207,1.0,1.0
1626203021.3861701,-95.70299999999999,-22.949,-24.414,1.0,1.0
1626203021.3900764,103.027,-16.113,-27.831999999999997,1.0,1.0
1626203021.3939826,48.34,-20.996,-17.578,1.0,1.0
1626203021.397889,19.043,-24.414,-23.926,16.602,1.0
1626203021.4017951,-176.75799999999998,-28.32,-10.742,-232.91,1.0
1626203021.4057016,-94.238,-24.901999999999997,-9.766,-102.539,1.0
1626203021.4096076,99.12100000000001,-22.461,-19.531,158.203,1.0
1626203021.413514,27.344,-35.156,-31.738000000000003,57.129,1.0
1626203021.4174201,-188.477,-47.852,-29.296999999999997,-222.168,1.0
1626203021.4213264,-160.156,-44.922,-16.113,-175.293,1.0
1626203021.4252326,49.316,-42.968999999999994,-19.531,102.051,1.0
1626203021.429139,71.289,-53.223,-28.809,124.512,1.0
1626203021.433045,-109.863,-45.898,-30.273000000000003,-135.254,1.0
1626203021.4369516,-184.082,-29.785,-29.785,-210.938,1.0
1626203021.4408574,9.766,-9.277000000000001,-20.02,50.781000000000006,1.0
1626203021.4447641,64.941,-7.812,-33.691,108.398,1.0
1626203021.44867,119.141,0.0,-25.391,159.18,1.0
1626203021.4525762,-71.289,-25.879,-41.992,-113.77,1.0
1626203021.456483,-162.109,-35.156,-50.781000000000006,-209.96099999999998,1.0
1626203021.460389,7.812,-38.086,-16.602,41.016000000000005,1.0
1626203021.464295,123.535,-40.039,-2.93,190.43,1.0
1626203021.4682014,-55.176,-40.039,-33.203,-44.922,1.0
1626203021.4721074,-219.238,-44.434,-42.968999999999994,-247.55900000000003,1.0
1626203021.476014,-86.426,-36.621,-28.809,-44.922,1.0
1626203021.4799201,93.75,-36.621,-27.344,189.94099999999997,1.0
1626203021.4838264,17.09,-35.156,-25.391,48.34,1.0
1626203021.4877326,-167.96900000000002,-36.621,-21.484,-198.73,1.0
1626203021.491639,-225.58599999999998,-34.668,-52.246,-106.934,1.0
1626203021.4955451,-107.42200000000001,-29.785,-27.831999999999997,167.96900000000002,1.0
1626203021.4994514,110.84,-12.695,-6.836,133.30100000000002,1.0
1626203021.5033574,44.922,-28.809,-13.672,-162.109,1.0
1626203021.507264,-157.715,-39.551,-8.301,-202.637,1.0
1626203021.5111701,-124.023,-43.457,-8.301,101.074,1.0
1626203021.5150764,86.426,-37.598,-27.831999999999997,194.33599999999998,1.0
1626203021.5189826,98.145,-16.602,-24.414,-91.309,1.0
1626203021.522889,-121.58200000000001,-22.461,-23.438000000000002,-249.512,1.0
1626203021.5267951,-193.359,-37.598,-35.156,-15.137,1.0
1626203021.5307014,9.277000000000001,-37.109,-33.691,180.176,1.0
1626203021.5346076,116.699,-29.296999999999997,-22.461,-29.296999999999997,1.0
1626203021.538514,106.445,-48.828,-13.672,148.92600000000002,1.0
1626203021.5424201,-93.75,-62.5,-23.926,-137.695,1.0
1626203021.5463264,-183.59400000000002,-64.453,-44.434,-228.02700000000002,1.0
1626203021.550233,5.371,-39.551,-50.781000000000006,33.691,1.0
1626203021.554139,125.488,-15.625,-59.082,168.945,1.0
1626203021.558045,-38.086,-31.25,-31.25,-61.035,1.0
1626203021.5619516,-181.15200000000002,-24.414,-11.719000000000001,-238.28099999999998,1.0
1626203021.5658574,-22.949,-7.812,-19.043,-17.09,1.0
1626203021.5697637,139.648,-7.324,-21.484,197.75400000000002,1.0
1626203021.57367,6.836,-36.133,-28.809,2.441,1.0
1626203021.5775762,-188.477,-51.758,-40.039,-250.0,1.0
1626203021.581483,-116.211,-32.715,-54.199,-128.418,1.0
1626203021.585389,-44.434,-20.02,-23.926,1.0,1.0
1626203021.5892951,153.809,-12.695,-5.859,1.0,1.0
1626203021.5932014,27.344,-23.438000000000002,-32.715,1.0,1.0
1626203021.5971074,-186.523,-35.156,-66.406,1.0,1.0
1626203021.601014,-122.07,-26.855,-62.012,1.0,1.0
1626203021.6049201,87.402,-34.18,-43.945,1.0,1.0
1626203021.6088262,49.316,-49.805,-35.156,1.0,1.0
1626203021.6127326,-156.738,-30.761999999999997,-26.366999999999997,1.0,1.0
1626203021.616639,-163.086,-22.461,-17.578,1.0,1.0
1626203021.6205451,45.41,-31.25,-23.926,1.0,1.0
1626203021.6244514,122.559,-10.742,-21.973000000000003,1.0,1.0
1626203021.6283576,-64.941,-15.625,-34.668,1.0,1.0
1626203021.632264,-113.77,-1.465,-30.761999999999997,-177.24599999999998,1.0
1626203021.6361701,-157.715,-14.16,-30.761999999999997,-203.125,1.0
1626203021.6400764,33.691,-31.738000000000003,-36.133,76.172,1.0
1626203021.6439826,123.535,-27.344,-27.831999999999997,183.59400000000002,1.0
1626203021.647889,-33.691,-18.066,-19.531,-61.523,1.0
1626203021.6517951,-153.32,-16.113,-13.672,-211.91400000000002,1.0
1626203021.6557016,-10.742,-17.578,-16.602,3.418,1.0
1626203021.6596076,129.88299999999998,-15.625,-22.461,183.59400000000002,1.0
1626203021.663514,-7.324,-13.672,-27.344,-22.461,1.0
1626203021.6674201,-179.688,-26.366999999999997,-36.133,-250.488,1.0
1626203021.6713264,-72.266,-38.086,-36.621,-89.355,1.0
1626203021.6752326,129.88299999999998,-32.715,-31.25,174.31599999999997,1.0
1626203021.679139,143.066,-16.602,-21.484,190.918,1.0
1626203021.683045,41.504,-36.621,-33.691,27.831999999999997,1.0
1626203021.6869516,-172.363,-50.781000000000006,-64.453,-243.16400000000002,1.0
1626203021.6908574,-97.16799999999999,-16.602,-39.062,-129.395,1.0
1626203021.6947641,99.609,-11.23,-18.066,144.043,1.0
1626203021.69867,37.109,-26.366999999999997,-31.25,52.733999999999995,1.0
1626203021.7025762,-160.156,-9.277000000000001,-27.831999999999997,-227.53900000000002,1.0
1626203021.706483,-153.32,-12.695,-28.32,-186.523,1.0
1626203021.710389,51.27,-19.043,-26.366999999999997,103.516,1.0
1626203021.714295,82.52,-8.301,-27.344,127.441,1.0
1626203021.7182014,-101.56200000000001,-29.785,-35.645,-146.97299999999998,1.0
1626203021.7221074,-191.895,-41.992,-29.785,-229.00400000000002,1.0
1626203021.726014,-156.738,-44.434,-36.133,1.0,1.0
1626203021.7299201,52.246,-41.504,-21.484,1.0,1.0
1626203021.7338264,97.656,-49.316,-21.973000000000003,1.0,1.0
1626203021.7377326,-104.492,-51.27,-25.391,1.0,1.0
1626203021.741639,-208.984,-42.968999999999994,-23.926,1.0,1.0
1626203021.7455451,-14.648,-35.645,-26.366999999999997,1.0,1.0
1626203021.7494514,147.461,-34.668,-36.621,1.0,1.0
1626203021.7533574,-7.324,-48.828,-37.598,1.0,1.0
1626203021.757264,-177.24599999999998,-34.18,-31.25,1.0,1.0
1626203021.7611701,-56.152,-13.184000000000001,-26.366999999999997,1.0,1.0
1626203021.7650764,134.766,-19.531,-23.438000000000002,1.0,1.0
1626203021.7689826,32.715,-20.508000000000003,-18.555,1.0,1.0
1626203021.772889,8.301,-23.438000000000002,-31.738000000000003,1.953,1.0
1626203021.7767951,-182.61700000000002,-48.828,-35.156,-234.375,1.0
1626203021.7807014,-93.75,-24.901999999999997,-37.598,-101.074,1.0
1626203021.7846076,115.723,7.324,-25.391,180.176,1.0
1626203021.788514,47.852,-24.901999999999997,-38.086,68.848,1.0
1626203021.7924201,-164.551,-70.801,-33.691,-200.68400000000003,1.0
1626203021.7963264,-138.672,-56.641000000000005,-29.296999999999997,-125.0,1.0
1626203021.800233,70.312,-30.273000000000003,-35.645,140.137,1.0
1626203021.804139,83.984,-21.484,-45.898,124.023,1.0
1626203021.808045,-118.652,-27.831999999999997,-32.227,-166.50400000000002,1.0
1626203021.8119516,-152.832,-10.742,-9.277000000000001,-195.801,1.0
1626203021.8158574,32.715,0.488,-48.828,77.637,1.0
1626203021.8197637,77.148,-38.574,-36.621,134.27700000000002,1.0
1626203021.82367,125.977,-20.996,-31.738000000000003,158.203,1.0
1626203021.8275762,-97.16799999999999,-30.273000000000003,-72.266,-151.36700000000002,1.0
1626203021.831483,-168.945,-15.625,-87.402,-220.215,1.0
1626203021.835389,35.645,-29.785,-8.789,67.87100000000001,1.0
1626203021.8392951,137.207,-43.945,26.366999999999997,189.453,1.0
1626203021.8432014,-52.733999999999995,-31.25,-16.113,-69.336,1.0
1626203021.8471074,-200.68400000000003,-40.527,-44.434,-240.234,1.0
1626203021.851014,-41.992,-56.152,-45.41,-8.301,1.0
1626203021.8549201,131.836,-28.32,-24.414,209.47299999999998,1.0
1626203021.8588262,14.16,6.348,-36.621,13.184000000000001,1.0
1626203021.8627326,-179.199,-9.277000000000001,-51.758,-271.48400000000004,1.0
1626203021.866639,-194.33599999999998,-51.758,-48.828,-242.676,1.0
1626203021.8705451,-45.898,-21.973000000000003,-43.945,-34.668,1.0
1626203021.8744514,150.391,-13.672,-30.761999999999997,208.00799999999998,1.0
1626203021.8783576,54.688,-28.32,-28.32,53.711000000000006,1.0
1626203021.882264,-161.621,-25.879,-19.531,-216.797,1.0
1626203021.8861701,-96.191,-11.719000000000001,-15.137,-105.95700000000001,1.0
1626203021.8900764,117.676,-57.617,-30.273000000000003,166.99200000000002,1.0
1626203021.8939826,81.543,-73.73,-34.18,102.539,1.0
1626203021.897889,-118.164,-19.531,-23.926,-173.34,1.0
1626203021.9017951,-165.03900000000002,-18.555,-41.016000000000005,-202.148,1.0
1626203021.9057016,31.738000000000003,-10.742,-35.156,69.336,1.0
1626203021.9096076,127.93,-7.324,-7.324,168.457,1.0
1626203021.913514,116.211,-8.301,-36.133,145.02,1.0
1626203021.9174201,-99.12100000000001,-6.348,-63.477,-140.625,1.0
1626203021.9213264,-176.75799999999998,-42.968999999999994,-53.711000000000006,-216.797,1.0
1626203021.9252326,32.715,-41.016000000000005,-16.602,64.941,1.0
1626203021.929139,120.605,-36.621,-1.953,171.875,1.0
1626203021.933045,-48.34,-30.761999999999997,-0.488,-77.148,1.0
1626203021.9369516,-183.105,-54.199,-31.25,-239.25799999999998,1.0
1626203021.9408574,-48.34,-56.152,-42.968999999999994,-32.227,1.0
1626203021.9447641,116.211,-12.207,-28.32,171.387,1.0
1626203021.94867,-0.977,-12.207,-34.18,-8.301,1.0
1626203021.9525762,-166.50400000000002,-53.223,-40.039,-227.53900000000002,1.0
1626203021.956483,-56.152,-66.895,-31.25,-69.336,1.0
1626203021.960389,-9.277000000000001,-31.738000000000003,-7.324,1.0,1.0
1626203021.964295,153.809,-14.648,-0.488,1.0,1.0
1626203021.9682014,25.391,-50.781000000000006,-7.812,1.0,1.0
1626203021.9721074,-171.387,-88.867,-38.574,1.0,1.0
1626203021.976014,-100.098,-63.965,-45.898,1.0,1.0
1626203021.9799201,104.98,-23.438000000000002,-34.18,1.0,1.0
1626203021.9838264,75.195,-20.508000000000003,-41.992,1.0,1.0
1626203021.9877326,-129.395,-12.695,-48.34,1.0,1.0
1626203021.991639,-138.672,-0.977,-29.785,1.0,1.0
1626203021.9955451,71.289,-7.324,-7.812,1.0,1.0
1626203021.9994514,120.605,-19.531,6.348,1.0,1.0
1626203022.0033574,-73.73,-32.715,6.836,1.0,1.0
1626203022.007264,-123.535,-29.296999999999997,-3.906,-170.898,1.0
1626203022.0111701,-154.297,-36.621,-20.02,-191.895,1.0
1626203022.0150764,47.363,-54.199,-36.133,86.914,1.0
1626203022.0189826,114.258,-57.129,-20.996,163.57399999999998,1.0
1626203022.022889,-70.801,-37.109,-31.738000000000003,-101.074,1.0
1626203022.0267951,-181.641,-16.113,-61.035,-231.93400000000003,1.0
1626203022.0307014,-14.648,-25.391,-38.086,9.766,1.0
1626203022.0346076,121.58200000000001,-43.457,-10.254000000000001,178.71099999999998,1.0
1626203022.038514,-22.949,-30.273000000000003,-13.672,-42.968999999999994,1.0
1626203022.0424201,-193.84799999999998,-17.578,-24.414,-254.395,1.0
1626203022.0463264,-74.219,-10.742,-19.531,-62.5,1.0
1626203022.050233,132.812,-15.625,-10.742,197.75400000000002,1.0
1626203022.054139,125.0,-41.504,-17.09,185.547,1.0
1626203022.058045,-2.441,-48.828,-40.039,-16.602,1.0
1626203022.0619516,-181.15200000000002,-36.621,-42.48,-247.55900000000003,1.0
1626203022.0658574,-74.707,-17.09,-8.301,-79.59,1.0
1626203022.0697637,134.27700000000002,2.441,14.648,187.988,1.0
1626203022.07367,77.148,-4.883,-0.488,84.961,1.0
1626203022.0775762,-163.086,-44.922,-35.156,-215.332,1.0
1626203022.081483,-163.57399999999998,-50.781000000000006,-48.828,-177.734,1.0
1626203022.085389,77.148,-24.901999999999997,-40.039,136.719,1.0
1626203022.0892951,105.95700000000001,-20.508000000000003,-43.457,147.94899999999998,1.0
1626203022.0932014,-125.0,-43.945,-44.434,-167.48,1.0
1626203022.0971074,-186.035,-49.316,-18.066,-229.00400000000002,1.0
1626203022.101014,-145.02,-21.484,-54.199,64.453,1.0
1626203022.1049201,79.59,5.371,-22.461,188.477,1.0
1626203022.1088262,102.539,-19.043,-36.133,-74.219,1.0
1626203022.1127326,-111.32799999999999,-31.25,-58.105,-258.301,1.0
1626203022.116639,-190.43,-23.926,-47.363,-29.785,1.0
1626203022.1205451,1.953,-27.831999999999997,-32.715,197.266,1.0
1626203022.1244514,106.934,-38.086,-55.663999999999994,4.883,1.0
1626203022.1283576,-57.617,-40.039,-63.965,-258.789,1.0
1626203022.132264,-190.43,-48.34,-31.738000000000003,-116.211,1.0
1626203022.1361701,-42.968999999999994,-38.086,-8.301,154.785,1.0
1626203022.1400764,122.559,-35.645,-16.602,86.426,1.0
1626203022.1439826,8.789,-58.105,-37.109,-208.49599999999998,1.0
1626203022.147889,-42.968999999999994,-28.32,-33.203,-58.593999999999994,1.0
1626203022.1517951,-208.984,-51.758,-29.785,-262.207,1.0
1626203022.1557016,-71.777,-36.133,-21.484,-55.176,1.0
1626203022.1596076,130.859,-17.578,-21.973000000000003,208.00799999999998,1.0
1626203022.163514,31.738000000000003,-38.574,-37.109,58.593999999999994,1.0
1626203022.1674201,-176.27,-47.363,-15.625,-212.891,1.0
1626203022.1713264,-111.816,-50.781000000000006,-2.441,-114.74600000000001,1.0
1626203022.1752326,100.586,-43.457,-12.695,165.03900000000002,1.0
1626203022.179139,65.43,-30.761999999999997,-20.02,108.398,1.0
1626203022.183045,-147.461,-32.715,-31.738000000000003,-181.15200000000002,1.0
1626203022.1869516,-153.32,-36.621,-30.273000000000003,-184.082,1.0
1626203022.1908574,61.035,-26.366999999999997,-27.344,101.56200000000001,1.0
1626203022.1947641,107.42200000000001,-9.766,-24.901999999999997,147.461,1.0
1626203022.19867,108.398,-26.366999999999997,-34.18,142.578,1.0
1626203022.2025762,-109.375,-51.27,-53.223,-157.227,1.0
1626203022.206483,-169.922,-35.645,-46.387,-210.449,1.0
1626203022.210389,27.344,-21.484,-36.133,61.523,1.0
1626203022.214295,114.258,-28.32,-39.551,155.762,1.0
1626203022.2182014,-67.87100000000001,-35.645,-35.645,-93.262,1.0
1626203022.2221074,-202.148,-47.852,-45.41,-256.836,1.0
1626203022.226014,-21.484,-34.18,-32.227,-20.02,1.0
1626203022.2299201,172.852,-13.672,-5.371,214.355,1.0
1626203022.2338264,27.344,-3.906,-38.574,14.16,1.0
1626203022.2377326,-187.988,-35.156,-56.152,-249.023,1.0
1626203022.241639,-205.078,-44.434,-34.668,-250.488,1.0
1626203022.2455451,-74.219,-45.41,-48.828,-61.035,1.0
1626203022.2494514,109.375,-41.016000000000005,-50.293,168.945,1.0
1626203022.2533574,9.766,-37.109,-41.992,15.625,1.0
1626203022.257264,-164.062,-48.828,-43.945,-203.613,1.0
1626203022.2611701,-66.406,-57.617,-13.672,-59.57,1.0
1626203022.2650764,111.32799999999999,-47.363,0.977,167.96900000000002,1.0
1626203022.2689826,51.27,-35.645,-13.672,79.59,1.0
1626203022.272889,-181.641,-29.296999999999997,-32.715,-226.562,1.0
1626203022.2767951,-195.801,-20.508000000000003,-36.621,-214.355,1.0
1626203022.2807014,44.434,-12.207,-10.742,95.70299999999999,1.0
1626203022.2846076,112.305,-29.296999999999997,-16.602,147.94899999999998,1.0
1626203022.288514,71.289,-31.25,-53.223,91.309,1.0
1626203022.2924201,-152.832,-46.387,-49.805,-199.707,1.0
1626203022.2963264,-175.293,-48.34,-30.761999999999997,-208.00799999999998,1.0
1626203022.300233,49.316,-49.316,-18.066,97.656,1.0
1626203022.304139,119.141,-39.551,-39.062,170.41,1.0
1626203022.308045,-99.609,-40.527,-64.453,-124.512,1.0
1626203022.3119516,-224.12099999999998,-46.875,-56.152,-261.719,1.0
1626203022.3158574,-26.855,-29.296999999999997,-22.949,4.395,1.0
1626203022.3197637,138.672,-20.996,-0.977,200.195,1.0
1626203022.32367,-6.836,-17.09,-11.23,-16.113,1.0
1626203022.3275762,-199.21900000000002,-21.973000000000003,-35.156,-251.953,1.0
1626203022.331483,-85.93799999999999,-36.621,-21.484,-74.219,1.0
1626203022.335389,-17.09,-20.02,-21.973000000000003,1.0,1.0
1626203022.3392951,138.184,-10.254000000000001,-15.137,1.0,1.0
1626203022.3432014,6.348,13.672,-28.32,1.0,1.0
1626203022.3471074,-181.641,-10.742,-44.434,1.0,1.0
1626203022.351014,-75.684,-21.973000000000003,-38.574,1.0,1.0
1626203022.3549201,109.375,-21.973000000000003,-26.855,1.0,1.0
1626203022.3588262,47.852,-48.34,-18.066,1.0,1.0
1626203022.3627326,-158.203,-53.711000000000006,-24.901999999999997,1.0,1.0
1626203022.366639,-145.996,-41.992,-34.668,1.0,1.0
1626203022.3705451,85.449,-32.227,-44.434,1.0,1.0
1626203022.3744514,109.375,-14.16,-55.176,1.0,1.0
1626203022.3783576,-115.723,-15.137,-45.898,1.0,1.0
1626203022.382264,-159.18,-42.968999999999994,-50.781000000000006,-213.37900000000002,1.0
1626203022.3861701,-180.176,-13.184000000000001,-45.898,-180.66400000000002,1.0
1626203022.3900764,72.266,-13.672,-30.273000000000003,130.371,1.0
1626203022.3939826,103.516,-36.133,-31.25,147.461,1.0
1626203022.397889,-123.04700000000001,-41.016000000000005,-25.391,-155.273,1.0
1626203022.4017951,-187.5,-15.137,-8.301,-229.98,1.0
1626203022.4057016,11.23,-15.137,-9.277000000000001,46.387,1.0
1626203022.4096076,107.42200000000001,-39.551,-36.133,166.016,1.0
1626203022.413514,-71.289,-40.527,-50.293,-91.79700000000001,1.0
1626203022.4174201,-216.30900000000003,-41.992,-46.875,-274.902,1.0
1626203022.4213264,-64.453,-41.504,-34.668,-54.688,1.0
1626203022.4252326,127.93,-19.531,-17.09,190.918,1.0
1626203022.429139,114.258,-17.09,-27.831999999999997,178.22299999999998,1.0
1626203022.433045,-21.484,-43.945,-39.551,-36.621,1.0
1626203022.4369516,-198.73,-51.27,-48.34,-255.37099999999998,1.0
1626203022.4408574,-65.43,-41.504,-38.574,-85.93799999999999,1.0
1626203022.4447641,133.30100000000002,-15.137,-27.831999999999997,173.828,1.0
1626203022.44867,22.949,-9.277000000000001,-34.668,47.363,1.0
1626203022.4525762,-172.852,-19.531,-25.391,-215.332,1.0
1626203022.456483,-134.27700000000002,-39.062,-25.391,-144.531,1.0
1626203022.460389,75.684,-69.824,-21.973000000000003,143.066,1.0
1626203022.464295,71.777,-49.805,-8.789,118.652,1.0
1626203022.4682014,-141.113,-21.973000000000003,-36.133,-181.15200000000002,1.0
1626203022.4721074,-140.625,-13.184000000000001,-42.968999999999994,-193.84799999999998,1.0
1626203022.476014,-160.645,-41.016000000000005,-29.296999999999997,-166.99200000000002,1.0
1626203022.4799201,87.891,-42.48,-24.414,127.93,1.0
1626203022.4838264,135.74200000000002,-31.738000000000003,-23.438000000000002,155.762,1.0
1626203022.4877326,-102.051,-56.641000000000005,-39.062,-142.578,1.0
1626203022.491639,-180.176,-60.547,-42.968999999999994,-214.84400000000002,1.0
1626203022.4955451,49.316,-22.949,-25.879,78.613,1.0
1626203022.4994514,136.719,-10.742,-15.137,188.965,1.0
1626203022.5033574,-55.176,-41.016000000000005,-19.043,-70.801,1.0
1626203022.507264,-204.59,-50.293,-48.34,-254.395,1.0
1626203022.5111701,-61.523,-39.062,-59.57,-29.785,1.0
1626203022.5150764,115.234,-36.133,-37.109,185.547,1.0
1626203022.5189826,-5.859,-28.32,-38.574,-11.23,1.0
1626203022.522889,-60.059,-32.715,-63.477,-95.215,1.0
1626203022.5267951,-186.523,-33.691,-49.316,-265.625,1.0
1626203022.5307014,-31.738000000000003,1.465,-15.625,-34.668,1.0
1626203022.5346076,139.648,0.0,7.324,205.56599999999997,1.0
1626203022.538514,44.922,-32.715,-9.766,41.992,1.0
1626203022.5424201,-171.875,-74.707,-40.527,-228.02700000000002,1.0
1626203022.5463264,-114.258,-59.57,-40.527,-116.211,1.0
1626203022.550233,93.75,-19.531,-36.133,137.207,1.0
1626203022.554139,56.641000000000005,-45.898,-43.945,63.477,1.0
1626203022.558045,-145.02,-59.57,-39.062,-203.125,1.0
1626203022.5619516,-164.062,-41.992,-37.598,-201.172,1.0
1626203022.5658574,52.246,-13.184000000000001,-35.645,93.262,1.0
1626203022.5697637,103.516,2.93,-23.926,148.92600000000002,1.0
1626203022.57367,70.312,-5.371,-41.504,96.68,1.0
1626203022.5775762,-154.785,-29.296999999999997,-42.48,-192.38299999999998,1.0
1626203022.581483,-182.61700000000002,-29.785,-35.156,-217.285,1.0
1626203022.585389,38.574,-27.831999999999997,-29.296999999999997,68.359,1.0
1626203022.5892951,116.699,-25.391,-20.02,167.48,1.0
1626203022.5932014,-69.824,-40.527,-30.273000000000003,-87.891,1.0
1626203022.5971074,-161.13299999999998,-46.387,-25.391,-209.96099999999998,1.0
1626203022.601014,8.301,-21.973000000000003,-10.254000000000001,47.363,1.0
1626203022.6049201,126.465,-30.273000000000003,-31.738000000000003,207.52,1.0
1626203022.6088262,-33.691,-67.87100000000001,-47.852,-33.203,1.0
1626203022.6127326,-214.355,-77.637,-47.852,-266.113,1.0
1626203022.616639,-178.22299999999998,-38.574,-15.137,-228.516,1.0
1626203022.6205451,-17.09,-43.457,0.977,4.395,1.0
1626203022.6244514,133.30100000000002,-26.366999999999997,-3.418,191.895,1.0
1626203022.6283576,-1.465,-26.855,-16.602,-4.883,1.0
1626203022.632264,-181.641,-31.25,-25.391,-244.141,1.0
1626203022.6361701,-86.426,-25.879,-41.992,-98.633,1.0
1626203022.6400764,104.492,-35.156,-53.711000000000006,164.551,1.0
1626203022.6439826,49.316,-33.203,-49.316,72.75399999999999,1.0
1626203022.647889,-146.97299999999998,-31.25,-34.668,-204.102,1.0
1626203022.6517951,-126.95299999999999,-45.898,-31.25,-167.96900000000002,1.0
1626203022.6557016,92.285,-23.438000000000002,-28.32,126.465,1.0
1626203022.6596076,104.00399999999999,-13.672,-25.879,129.88299999999998,1.0
1626203022.663514,78.613,-13.184000000000001,-28.32,84.961,1.0
1626203022.6674201,-161.621,-51.27,-56.641000000000005,-215.82,1.0
1626203022.6713264,-152.344,-30.761999999999997,-51.27,-189.453,1.0
1626203022.6752326,91.309,6.348,-23.438000000000002,121.58200000000001,1.0
1626203022.679139,124.023,-36.133,-26.855,152.832,1.0
1626203022.683045,-87.402,-54.199,-33.691,-134.27700000000002,1.0
1626203022.6869516,-177.24599999999998,-39.062,-28.32,-238.28099999999998,1.0
1626203022.6908574,6.836,-30.761999999999997,-29.785,26.855,1.0
1626203022.6947641,149.90200000000002,-24.901999999999997,-19.043,198.73,1.0
1626203022.69867,-24.414,-36.621,-20.996,-49.805,1.0
1626203022.7025762,-205.078,-46.875,-40.039,-267.09,1.0
1626203022.706483,-62.012,-32.715,-44.434,-69.336,1.0
1626203022.710389,4.883,-21.484,-23.438000000000002,1.0,1.0
1626203022.714295,144.043,-50.781000000000006,-27.831999999999997,1.0,1.0
1626203022.7182014,-16.113,-54.688,-38.574,1.0,1.0
1626203022.7221074,-195.312,-30.761999999999997,-29.296999999999997,1.0,1.0
1626203022.726014,-73.242,-23.926,-18.066,1.0,1.0
1626203022.7299201,126.95299999999999,-12.207,-11.23,1.0,1.0
1626203022.7338264,51.758,-15.137,-14.16,1.0,1.0
1626203022.7377326,-159.18,-35.645,-30.273000000000003,1.0,1.0
1626203022.741639,-120.605,-40.527,-36.621,1.0,1.0
1626203022.7455451,95.70299999999999,-26.366999999999997,-23.926,1.0,1.0
1626203022.7494514,88.37899999999999,-28.32,-32.715,1.0,1.0
1626203022.7533574,-120.605,-27.831999999999997,-41.992,1.0,1.0
1626203022.757264,-174.805,-28.809,-50.781000000000006,-226.562,1.0
1626203022.7611701,-171.387,-24.901999999999997,-48.828,-194.824,1.0
1626203022.7650764,55.663999999999994,-22.461,-20.508000000000003,100.098,1.0
1626203022.7689826,91.309,-15.137,-20.996,120.117,1.0
1626203022.772889,-117.676,-15.625,-48.828,-167.96900000000002,1.0
1626203022.7767951,-183.59400000000002,-35.645,-50.781000000000006,-236.81599999999997,1.0
1626203022.7807014,43.945,-44.922,-32.715,61.523,1.0
1626203022.7846076,166.99200000000002,-33.691,-35.156,195.801,1.0
1626203022.788514,-26.366999999999997,-41.504,-38.086,-75.195,1.0
1626203022.7924201,-184.57,-56.152,-33.203,-257.324,1.0
1626203022.7963264,-49.316,-40.527,-41.504,-44.434,1.0
1626203022.800233,114.258,-5.859,-43.945,171.875,1.0
1626203022.804139,124.023,-40.527,-31.738000000000003,171.875,1.0
1626203022.808045,-61.035,-23.926,-36.133,-73.242,1.0
1626203022.8119516,-208.49599999999998,-37.109,-53.223,-268.555,1.0
1626203022.8158574,-50.781000000000006,-37.109,-30.273000000000003,-48.34,1.0
1626203022.8197637,131.836,-20.02,-9.277000000000001,188.477,1.0
1626203022.82367,23.438000000000002,-24.901999999999997,-19.531,24.901999999999997,1.0
1626203022.8275762,-181.641,-36.133,-19.043,-233.398,1.0
1626203022.831483,-99.609,-29.785,-13.672,-105.95700000000001,1.0
1626203022.835389,121.094,-43.457,-22.461,182.61700000000002,1.0
1626203022.8392951,91.79700000000001,-27.831999999999997,-24.414,123.535,1.0
1626203022.8432014,-130.859,-7.812,-37.598,-175.78099999999998,1.0
1626203022.8471074,-173.828,-20.508000000000003,-46.875,-198.24200000000002,1.0
1626203022.851014,-158.203,-46.387,-35.156,84.961,1.0
1626203022.8549201,68.359,-30.273000000000003,-28.32,147.461,1.0
1626203022.8588262,81.055,-22.461,-21.484,-135.254,1.0
1626203022.8627326,-138.184,-38.086,-32.715,-258.301,1.0
1626203022.866639,-173.828,-42.48,-23.438000000000002,13.672,1.0
1626203022.8705451,49.805,-26.366999999999997,-19.043,186.035,1.0
1626203022.8744514,124.023,-20.996,-33.691,-42.48,1.0
1626203022.8783576,-101.074,-23.438000000000002,-43.945,-240.234,1.0
1626203022.882264,-223.145,-26.855,-34.668,-41.504,1.0
1626203022.8861701,-34.18,-37.598,-22.949,216.30900000000003,1.0
1626203022.8900764,109.863,-29.296999999999997,-24.901999999999997,60.547,1.0
1626203022.8939826,-25.391,-26.855,-24.901999999999997,-240.72299999999998,1.0
1626203022.897889,-41.504,-27.831999999999997,-29.296999999999997,-69.824,1.0
1626203022.9017951,-173.34,-27.344,-11.719000000000001,-227.051,1.0
1626203022.9057016,-9.277000000000001,-19.531,-1.953,6.836,1.0
1626203022.9096076,149.414,-11.719000000000001,-18.066,206.543,1.0
1626203022.913514,0.0,-36.133,-32.227,10.254000000000001,1.0
1626203022.9174201,-207.03099999999998,-51.758,-45.41,-237.793,1.0
1626203022.9213264,-105.469,-27.344,-30.273000000000003,-87.402,1.0
1626203022.9252326,108.887,-30.761999999999997,-23.926,184.57,1.0
1626203022.929139,53.223,-53.711000000000006,-33.691,88.37899999999999,1.0
1626203022.933045,-157.715,-44.922,-39.062,-192.38299999999998,1.0
1626203022.9369516,-155.273,-38.086,-47.852,-165.03900000000002,1.0
1626203022.9408574,67.383,-25.879,-21.973000000000003,132.812,1.0
1626203022.9447641,76.66,-49.316,-45.41,1.0,1.0
1626203022.94867,39.551,-58.105,-41.016000000000005,1.0,1.0
1626203022.9525762,-144.043,-39.551,-30.273000000000003,1.0,1.0
1626203022.956483,-142.578,-28.809,-22.949,1.0,1.0
1626203022.960389,72.266,-16.113,-20.996,1.0,1.0
1626203022.964295,128.418,0.488,-33.203,1.0,1.0
1626203022.9682014,-57.617,6.348,-18.555,1.0,1.0
1626203022.9721074,-167.48,-23.438000000000002,-27.831999999999997,1.0,1.0
1626203022.976014,-22.949,-53.223,-50.781000000000006,1.0,1.0
1626203022.9799201,119.141,-46.875,-35.645,1.0,1.0
1626203022.9838264,-39.062,-42.968999999999994,-31.25,1.0,1.0
1626203022.9877326,-208.984,-32.227,-30.761999999999997,1.0,1.0
1626203022.991639,-206.543,-44.434,-30.761999999999997,-257.812,1.0
1626203022.9955451,-39.551,-42.48,-33.691,-13.672,1.0
1626203022.9994514,122.07,-44.434,-31.25,179.688,1.0
1626203023.0033574,-33.691,-56.641000000000005,-46.875,-46.875,1.0
1626203023.007264,-212.40200000000002,-24.901999999999997,-43.457,-273.438,1.0
1626203023.0111701,-87.402,-6.836,-16.113,-83.49600000000001,1.0
1626203023.0150764,135.74200000000002,-29.785,8.789,195.801,1.0
1626203023.0189826,61.523,-48.828,-16.602,62.988,1.0
1626203023.022889,-186.523,-41.016000000000005,-48.34,-230.957,1.0
1626203023.0267951,-160.645,-36.621,-44.434,-161.621,1.0
1626203023.0307014,60.059,-41.992,-25.391,130.371,1.0
1626203023.0346076,73.73,-31.738000000000003,-27.831999999999997,117.18799999999999,1.0
1626203023.038514,27.344,-30.273000000000003,-59.57,53.711000000000006,1.0
1626203023.0424201,-169.43400000000003,-40.039,-49.805,-225.58599999999998,1.0
1626203023.0463264,-126.95299999999999,-23.926,-8.789,-144.531,1.0
1626203023.050233,84.961,-17.09,-22.461,143.555,1.0
1626203023.054139,105.95700000000001,-21.973000000000003,-36.133,145.02,1.0
1626203023.058045,-115.723,-28.32,-38.574,-153.32,1.0
1626203023.0619516,-191.895,-25.879,-33.691,-229.49200000000002,1.0
1626203023.0658574,32.227,-26.855,-16.113,64.453,1.0
1626203023.0697637,137.695,-42.48,-15.137,195.801,1.0
1626203023.07367,-31.738000000000003,-46.875,-40.527,-70.312,1.0
1626203023.0775762,-189.94099999999997,-49.316,-57.617,-263.184,1.0
1626203023.081483,-68.848,-50.293,-38.086,-35.156,1.0
1626203023.085389,16.113,-18.066,-45.898,1.0,1.0
1626203023.0892951,128.906,-14.16,-33.691,1.0,1.0
1626203023.0932014,-43.945,-13.672,-26.855,1.0,1.0
1626203023.0971074,-184.57,-30.761999999999997,-30.761999999999997,1.0,1.0
1626203023.101014,-56.641000000000005,-40.527,-25.879,1.0,1.0
1626203023.1049201,84.473,-42.48,-31.25,1.0,1.0
1626203023.1088262,-13.672,-42.968999999999994,-60.547,1.0,1.0
1626203023.1127326,-216.797,-31.738000000000003,-64.941,1.0,1.0
1626203023.116639,-141.602,-17.578,-33.691,1.0,1.0
1626203023.1205451,109.863,-5.859,-12.207,1.0,1.0
1626203023.1244514,100.586,-33.203,-32.715,1.0,1.0
1626203023.1283576,-125.488,-46.875,-52.246,1.0,1.0
1626203023.132264,-177.24599999999998,-31.25,-43.945,-239.25799999999998,1.0
1626203023.1361701,-126.465,-2.93,-30.761999999999997,-146.97299999999998,1.0
1626203023.1400764,103.516,15.625,-8.789,157.227,1.0
1626203023.1439826,65.918,-34.18,-7.812,110.84,1.0
1626203023.147889,-165.52700000000002,-51.758,-29.296999999999997,-192.38299999999998,1.0
1626203023.1517951,-187.5,-15.137,-38.086,-215.82,1.0
1626203023.1557016,20.508000000000003,-17.09,-23.438000000000002,80.566,1.0
1626203023.1596076,104.98,-36.133,-16.602,177.24599999999998,1.0
1626203023.163514,-68.359,-32.715,-28.809,-88.867,1.0
1626203023.1674201,-191.40599999999998,-42.48,-31.25,-245.11700000000002,1.0
1626203023.1713264,-25.391,-34.668,-32.715,-20.02,1.0
1626203023.1752326,122.07,-10.742,-36.133,182.12900000000002,1.0
1626203023.179139,124.512,-27.344,-12.207,198.73,1.0
1626203023.183045,-43.945,-17.578,-18.066,-62.988,1.0
1626203023.1869516,-186.523,-38.086,-27.344,-241.21099999999998,1.0
1626203023.1908574,-28.32,-85.449,-35.645,-13.184000000000001,1.0
1626203023.1947641,146.97299999999998,-77.637,-40.527,210.449,1.0
1626203023.19867,17.09,-23.438000000000002,-48.34,6.348,1.0
1626203023.2025762,-179.199,-3.418,-31.25,-258.789,1.0
1626203023.206483,-79.59,-20.02,-9.766,-100.586,1.0
1626203023.210389,127.93,-24.414,-7.324,176.27,1.0
1626203023.214295,98.145,-9.277000000000001,-1.953,88.867,1.0
1626203023.2182014,-120.605,-14.648,-11.719000000000001,-194.824,1.0
1626203023.2221074,-117.18799999999999,-17.09,-18.555,-157.715,1.0
1626203023.226014,-117.676,-51.27,-53.711000000000006,117.18799999999999,1.0
1626203023.2299201,128.906,-15.137,-6.348,118.164,1.0
1626203023.2338264,80.566,-10.254000000000001,-27.344,-154.785,1.0
1626203023.2377326,-160.645,-44.922,-60.059,-228.02700000000002,1.0
1626203023.241639,-172.363,-47.852,-43.457,40.039,1.0
1626203023.2455451,30.761999999999997,-27.344,-21.484,187.5,1.0
1626203023.2494514,87.891,-6.836,-26.855,-63.477,1.0
1626203023.2533574,-97.656,-9.766,-41.992,-258.789,1.0
1626203023.257264,-181.15200000000002,-16.113,-24.414,-36.133,1.0
1626203023.2611701,-15.625,-18.066,-13.672,213.37900000000002,1.0
1626203023.2650764,124.512,-25.391,-23.926,43.945,1.0
1626203023.2689826,-35.156,-42.968999999999994,-32.715,-241.699,1.0
1626203023.272889,-161.621,-13.672,-36.621,-176.75799999999998,1.0
1626203023.2767951,-284.18,-36.621,-26.366999999999997,-326.172,1.0
1626203023.2807014,-93.262,-24.414,-17.578,-71.289,1.0
1626203023.2846076,56.641000000000005,8.789,-20.996,111.816,1.0
1626203023.288514,-95.215,1.465,-31.25,-103.027,1.0
1626203023.2924201,-278.32,-26.366999999999997,-48.828,-333.98400000000004,1.0
1626203023.2963264,-140.625,-27.344,-33.203,-162.59799999999998,1.0
1626203023.300233,55.176,-16.602,-16.602,107.42200000000001,1.0
1626203023.304139,-37.598,-20.02,-36.133,-8.789,1.0
1626203023.308045,-229.49200000000002,-17.09,-39.551,-282.22700000000003,1.0
1626203023.3119516,-189.453,-9.766,-35.156,-210.449,1.0
1626203023.3158574,35.156,-10.742,-32.715,91.309,1.0
1626203023.3197637,98.145,-36.133,-40.039,149.90200000000002,1.0
1626203023.32367,49.316,-45.41,-31.738000000000003,63.477,1.0
1626203023.3275762,-154.297,-31.738000000000003,-27.344,-209.96099999999998,1.0
1626203023.331483,-133.30100000000002,-12.695,-23.438000000000002,-162.59799999999998,1.0
1626203023.335389,89.844,-20.508000000000003,-15.625,132.812,1.0
1626203023.3392951,105.95700000000001,-35.156,-26.366999999999997,140.625,1.0
1626203023.3432014,-100.098,-41.016000000000005,-39.062,-150.391,1.0
1626203023.3471074,-155.273,-38.086,-33.203,-219.727,1.0
1626203023.351014,57.129,-24.414,-14.648,70.801,1.0
1626203023.3549201,154.297,-33.203,-18.066,189.94099999999997,1.0
1626203023.3588262,-35.156,-56.641000000000005,-41.504,-82.52,1.0
1626203023.3627326,-173.34,-47.852,-41.992,-250.488,1.0
1626203023.366639,-152.344,-48.828,-41.016000000000005,-219.238,1.0
1626203023.3705451,54.688,-60.059,-21.973000000000003,62.012,1.0
1626203023.3744514,201.172,-25.391,-11.23,224.609,1.0
1626203023.3783576,35.156,-10.742,-21.484,-10.742,1.0
1626203023.382264,-133.789,-32.227,-34.18,-210.938,1.0
1626203023.3861701,8.789,-30.761999999999997,-17.09,-0.977,1.0
1626203023.3900764,193.84799999999998,-44.434,-2.93,244.62900000000002,1.0
1626203023.3939826,67.383,-55.663999999999994,-32.715,66.406,1.0
1626203023.397889,-162.109,-9.766,-50.781000000000006,-226.562,1.0
1626203023.4017951,-99.12100000000001,1.953,-42.968999999999994,-119.141,1.0
1626203023.4057016,139.648,-5.371,-32.227,186.523,1.0
1626203023.4096076,127.441,10.254000000000001,-22.461,140.137,1.0
1626203023.413514,61.035,-34.668,-23.926,56.152,1.0
1626203023.4174201,-160.645,-46.387,-40.039,-229.00400000000002,1.0
1626203023.4213264,-129.88299999999998,-34.18,-43.457,-162.59799999999998,1.0
1626203023.4252326,80.566,-23.926,-38.574,121.58200000000001,1.0
1626203023.429139,100.586,-19.531,-34.668,124.023,1.0
1626203023.433045,-112.305,-33.691,-41.992,-164.062,1.0
1626203023.4369516,-162.59799999999998,-43.457,-36.133,-205.078,1.0
1626203023.4408574,53.223,-51.758,-19.043,94.727,1.0
1626203023.4447641,144.043,-72.266,-19.531,200.68400000000003,1.0
1626203023.44867,-49.316,-44.922,-22.949,-74.219,1.0
1626203023.4525762,-197.266,-18.066,-50.781000000000006,-242.676,1.0
1626203023.456483,-37.109,-12.695,-52.733999999999995,-8.789,1.0
1626203023.460389,32.227,-46.387,-12.207,177.734,1.0
1626203023.464295,131.836,-17.578,-37.598,-24.901999999999997,1.0
1626203023.4682014,-45.41,-36.621,-44.922,-253.90599999999998,1.0
1626203023.4721074,-184.082,-38.574,-43.457,-107.91,1.0
1626203023.476014,-31.738000000000003,-19.043,-33.203,151.36700000000002,1.0
1626203023.4799201,136.719,-2.441,-25.879,52.733999999999995,1.0
1626203023.4838264,22.949,-20.508000000000003,-36.133,-225.58599999999998,1.0
1626203023.4877326,-175.293,-56.152,-51.27,-171.875,1.0
1626203023.491639,-96.191,-47.852,-44.922,150.391,1.0
1626203023.4955451,130.859,-17.09,-16.602,164.062,1.0
1626203023.4994514,85.449,-35.156,-7.812,-142.09,1.0
1626203023.5033574,-136.719,-40.039,-25.879,-206.055,1.0
1626203023.507264,-170.898,-48.828,-15.137,-229.49200000000002,1.0
1626203023.5111701,-99.12100000000001,-39.062,-28.809,-119.141,1.0
1626203023.5150764,101.56200000000001,-20.508000000000003,-22.949,158.203,1.0
1626203023.5189826,78.125,4.395,-24.901999999999997,110.352,1.0
1626203023.522889,-140.625,-30.273000000000003,-39.551,-188.477,1.0
1626203023.5267951,-164.062,-51.27,-44.434,-198.73,1.0
1626203023.5307014,54.199,-34.18,-28.32,95.215,1.0
1626203023.5346076,102.539,-27.831999999999997,-28.809,145.02,1.0
1626203023.538514,-102.051,-19.531,-56.152,-142.578,1.0
1626203023.5424201,-195.312,-24.414,-58.105,-249.512,1.0
1626203023.5463264,-11.23,-18.555,-40.039,15.625,1.0
1626203023.550233,119.62899999999999,-24.414,-35.645,181.641,1.0
1626203023.554139,139.648,-24.901999999999997,-28.809,174.805,1.0
1626203023.558045,-57.129,-24.414,-35.645,-104.00399999999999,1.0
1626203023.5619516,-168.945,-21.484,-21.973000000000003,-232.422,1.0
1626203023.5658574,-4.883,-11.23,-8.301,10.254000000000001,1.0
1626203023.5697637,155.762,-5.859,-1.953,202.148,1.0
1626203023.57367,12.695,-38.086,-21.973000000000003,-11.23,1.0
1626203023.5775762,-187.5,-54.688,-33.203,-253.90599999999998,1.0
1626203023.581483,-79.59,-28.32,-21.484,-88.37899999999999,1.0
1626203023.585389,125.488,6.348,-6.348,176.75799999999998,1.0
1626203023.5892951,50.781000000000006,2.441,-23.438000000000002,56.641000000000005,1.0
1626203023.5932014,-159.668,-13.672,-38.086,-221.19099999999997,1.0
1626203023.5971074,-107.91,-1.953,-7.812,-138.672,1.0
1626203023.601014,-78.125,-21.973000000000003,-32.227,-90.82,1.0
1626203023.6049201,129.88299999999998,-4.395,-15.625,186.035,1.0
1626203023.6088262,69.336,-14.16,-25.391,95.215,1.0
1626203023.6127326,-162.59799999999998,-31.25,-48.828,-210.449,1.0
1626203023.616639,-160.645,-30.273000000000003,-47.852,-186.523,1.0
1626203023.6205451,76.172,-6.836,-30.273000000000003,121.094,1.0
1626203023.6244514,107.91,-17.578,-29.296999999999997,144.531,1.0
1626203023.6283576,-122.559,-59.082,-35.156,-155.762,1.0
1626203023.632264,-193.359,-62.5,-29.785,-232.91,1.0
1626203023.6361701,14.16,-33.203,-17.578,47.363,1.0
1626203023.6400764,131.836,-14.648,-25.879,189.94099999999997,1.0
1626203023.6439826,-26.855,-40.527,-30.761999999999997,-43.945,1.0
1626203023.647889,-73.242,-30.761999999999997,-20.996,-98.145,1.0
1626203023.6517951,-161.621,-33.691,-18.555,-199.21900000000002,1.0
1626203023.6557016,15.137,-3.418,-32.715,50.781000000000006,1.0
1626203023.6596076,143.555,1.465,-35.156,201.172,1.0
1626203023.663514,-40.527,-25.391,-40.039,-50.293,1.0
1626203023.6674201,-222.168,-35.156,-47.363,-267.578,1.0
1626203023.6713264,-63.477,-13.184000000000001,-30.761999999999997,-54.199,1.0
1626203023.6752326,136.23,-6.348,-11.23,203.125,1.0
1626203023.679139,29.785,-33.203,-14.648,52.733999999999995,1.0
1626203023.683045,-183.59400000000002,-50.781000000000006,-21.973000000000003,-228.516,1.0
1626203023.6869516,-143.066,-42.968999999999994,-28.809,-141.602,1.0
1626203023.6908574,68.848,-47.852,-23.438000000000002,142.578,1.0
1626203023.6947641,101.56200000000001,-38.574,-34.668,1.0,1.0
1626203023.69867,24.414,-30.273000000000003,-25.879,1.0,1.0
1626203023.7025762,-198.24200000000002,-26.366999999999997,-30.273000000000003,1.0,1.0
1626203023.706483,-165.03900000000002,-29.785,-38.086,1.0,1.0
1626203023.710389,77.637,-12.695,-36.621,1.0,1.0
1626203023.714295,66.895,-28.32,-34.18,1.0,1.0
1626203023.7182014,-159.668,-35.156,-40.039,1.0,1.0
1626203023.7221074,-191.40599999999998,-5.859,-43.457,1.0,1.0
1626203023.726014,19.531,-17.09,-36.133,1.0,1.0
1626203023.7299201,122.07,-28.809,-14.648,1.0,1.0
1626203023.7338264,-76.172,-34.668,-28.809,1.0,1.0
1626203023.7377326,-209.96099999999998,-43.457,-43.457,1.0,1.0
1626203023.741639,-191.40599999999998,-30.761999999999997,-17.09,-231.93400000000003,1.0
1626203023.7455451,23.926,-22.461,-2.93,56.641000000000005,1.0
1626203023.7494514,123.04700000000001,-41.016000000000005,-18.066,173.34,1.0
1626203023.7533574,-62.5,-39.551,-33.203,-93.75,1.0
1626203023.757264,-184.082,-14.648,-19.531,-255.37099999999998,1.0
1626203023.7611701,-15.625,-12.695,-11.23,-19.531,1.0
1626203023.7650764,153.32,-38.086,-15.625,199.21900000000002,1.0
1626203023.7689826,20.996,-33.203,-29.296999999999997,20.996,1.0
1626203023.772889,-182.12900000000002,-10.254000000000001,-42.48,-237.305,1.0
1626203023.7767951,-99.12100000000001,-18.066,-37.598,-122.07,1.0
1626203023.7807014,89.355,-27.344,-28.809,154.297,1.0
1626203023.7846076,48.34,-32.715,-31.738000000000003,94.238,1.0
1626203023.788514,31.25,-23.926,-25.879,37.109,1.0
1626203023.7924201,-168.945,-26.366999999999997,-37.109,-220.703,1.0
1626203023.7963264,-116.211,-29.296999999999997,-20.02,-130.371,1.0
1626203023.800233,100.586,-16.602,-6.348,143.555,1.0
1626203023.804139,82.031,-7.324,-22.461,101.56200000000001,1.0
1626203023.808045,-138.184,-29.785,-47.852,-198.73,1.0
1626203023.8119516,-160.156,-45.898,-53.223,-211.91400000000002,1.0
1626203023.8158574,52.246,-9.277000000000001,-41.992,76.66,1.0
1626203023.8197637,110.352,-2.93,-25.391,140.137,1.0
1626203023.82367,-96.68,-39.062,-28.809,-132.812,1.0
1626203023.8275762,-196.77700000000002,-41.016000000000005,-29.785,-244.141,1.0
1626203023.831483,-0.977,-14.648,-15.625,25.391,1.0
1626203023.835389,18.066,-14.648,-37.598,183.105,1.0
1626203023.8392951,111.32799999999999,-8.789,-15.137,-58.105,1.0
1626203023.8432014,-71.777,-17.578,-20.996,-270.02,1.0
1626203023.8471074,-189.94099999999997,-27.344,-27.831999999999997,-74.219,1.0
1626203023.851014,-16.113,-30.761999999999997,-5.371,191.40599999999998,1.0
1626203023.8549201,132.32399999999998,-39.551,-4.395,69.824,1.0
1626203023.8588262,-4.395,-39.551,-39.551,-215.332,1.0
1626203023.8627326,-180.66400000000002,-29.296999999999997,-61.035,-144.531,1.0
1626203023.866639,-88.867,-36.133,-42.48,153.809,1.0
1626203023.8705451,100.098,-40.039,-17.578,138.672,1.0
1626203023.8744514,32.715,-39.551,-17.09,-161.621,1.0
1626203023.8783576,-191.40599999999998,-41.016000000000005,-18.066,-217.285,1.0
1626203023.882264,-175.78099999999998,-40.527,-29.785,-232.91,1.0
1626203023.8861701,-84.473,-51.27,-32.715,-109.375,1.0
1626203023.8900764,107.91,-44.922,-36.621,147.461,1.0
1626203023.8939826,48.828,-49.805,-30.761999999999997,69.336,1.0
1626203023.897889,-143.066,-33.691,-33.691,-199.21900000000002,1.0
1626203023.9017951,-130.371,-16.113,-32.715,-160.645,1.0
1626203023.9057016,92.285,-12.207,-15.137,130.859,1.0
1626203023.9096076,111.32799999999999,-42.48,-15.625,143.066,1.0
1626203023.913514,-85.93799999999999,-42.48,-30.761999999999997,-150.391,1.0
1626203023.9174201,-159.668,-14.16,-40.527,-224.609,1.0
1626203023.9213264,19.531,0.977,-36.621,60.547,1.0
1626203023.9252326,150.391,2.441,-21.484,208.00799999999998,1.0
1626203023.929139,129.395,-29.785,-25.391,157.227,1.0
1626203023.933045,-64.453,-15.137,-25.391,-123.04700000000001,1.0
1626203023.9369516,-178.22299999999998,-9.277000000000001,-17.578,-216.797,1.0
1626203023.9408574,31.738000000000003,6.348,-8.301,65.918,1.0
1626203023.9447641,174.805,-12.695,-2.93,218.262,1.0
1626203023.94867,-32.715,-79.59,-19.043,-56.152,1.0
1626203023.9525762,-222.65599999999998,-49.805,-38.574,-277.344,1.0
1626203023.956483,-78.125,0.488,-47.852,-77.637,1.0
1626203023.960389,116.699,-22.949,-51.27,166.99200000000002,1.0
1626203023.964295,-0.488,-42.968999999999994,-76.172,34.668,1.0
1626203023.9682014,-191.40599999999998,-37.598,-71.777,-217.773,1.0
1626203023.9721074,-114.74600000000001,-13.184000000000001,-12.695,-116.699,1.0
1626203023.976014,-73.242,-60.059,-30.761999999999997,-73.73,1.0
1626203023.9799201,148.92600000000002,-41.504,-7.812,209.96099999999998,1.0
1626203023.9838264,75.195,9.277000000000001,-9.277000000000001,88.37899999999999,1.0
1626203023.9877326,-161.13299999999998,-20.508000000000003,-25.879,-215.82,1.0
1626203023.991639,-137.695,-48.34,-34.668,-155.273,1.0
1626203023.9955451,76.66,-38.086,-43.457,130.859,1.0
1626203023.9994514,75.195,-46.387,-61.523,108.887,1.0
1626203024.0033574,-144.043,-37.109,-68.848,-191.40599999999998,1.0
1626203024.007264,-183.59400000000002,-17.09,-45.41,-231.93400000000003,1.0
1626203024.0111701,46.875,-11.719000000000001,-25.391,77.148,1.0
1626203024.0150764,153.809,-26.855,-27.831999999999997,191.895,1.0
1626203024.0189826,-49.805,-37.598,-26.855,-88.37899999999999,1.0
1626203024.022889,-129.88299999999998,-18.555,-58.105,-175.293,1.0
1626203024.0267951,-200.195,-28.809,-53.223,-257.324,1.0
1626203024.0307014,27.831999999999997,-4.883,-29.785,41.016000000000005,1.0
1626203024.0346076,155.762,2.93,-3.906,198.73,1.0
1626203024.038514,-37.598,-41.016000000000005,-15.137,-60.059,1.0
1626203024.0424201,-191.895,-55.663999999999994,-27.831999999999997,-244.62900000000002,1.0
1626203024.0463264,-49.316,-45.898,-29.296999999999997,-39.551,1.0
1626203024.050233,126.465,-47.363,-29.785,174.805,1.0
1626203024.054139,23.438000000000002,-30.273000000000003,-26.366999999999997,14.16,1.0
1626203024.058045,-181.15200000000002,-20.02,-39.551,-245.11700000000002,1.0
1626203024.0619516,-96.191,-37.598,-39.062,-117.18799999999999,1.0
1626203024.0658574,143.066,-31.738000000000003,-10.742,191.40599999999998,1.0
1626203024.0697637,139.16,-8.301,-8.789,1.0,1.0
1626203024.07367,28.809,-39.062,-16.602,1.0,1.0
1626203024.0775762,-186.523,-79.102,-23.926,1.0,1.0
1626203024.081483,-133.789,-76.172,-35.645,1.0,1.0
1626203024.085389,85.93799999999999,-47.363,-22.949,1.0,1.0
1626203024.0892951,72.75399999999999,-28.32,-17.578,1.0,1.0
1626203024.0932014,-151.855,-32.227,-31.25,1.0,1.0
1626203024.0971074,-173.34,-45.898,-24.414,1.0,1.0
1626203024.101014,62.012,-21.484,-15.137,1.0,1.0
1626203024.1049201,129.88299999999998,-9.766,-15.137,1.0,1.0
1626203024.1088262,-90.82,-43.457,-22.461,1.0,1.0
1626203024.1127326,-208.00799999999998,-42.968999999999994,-28.809,1.0,1.0
1626203024.116639,-164.551,-19.531,-27.344,-209.47299999999998,1.0
1626203024.1205451,48.828,-14.648,-14.16,86.914,1.0
1626203024.1244514,126.465,-9.277000000000001,-23.438000000000002,185.547,1.0
1626203024.1283576,-62.988,-11.23,-42.48,-91.309,1.0
1626203024.132264,-194.824,-37.109,-34.668,-256.836,1.0
1626203024.1361701,-3.906,-36.621,3.906,-4.883,1.0
1626203024.1400764,164.062,-27.344,1.465,189.453,1.0
1626203024.1439826,20.02,-44.922,-20.508000000000003,-20.996,1.0
1626203024.147889,-159.668,-46.387,-16.113,-239.74599999999998,1.0
1626203024.1517951,-76.172,-23.438000000000002,-23.438000000000002,-84.961,1.0
1626203024.1557016,113.281,-5.371,-29.296999999999997,169.922,1.0
1626203024.1596076,63.477,-6.348,-14.16,68.359,1.0
1626203024.163514,20.02,-68.848,-13.672,13.184000000000001,1.0
1626203024.1674201,-162.109,-86.914,-20.508000000000003,-217.773,1.0
1626203024.1713264,-80.078,-35.156,-14.648,-89.355,1.0
1626203024.1752326,97.16799999999999,-14.648,-37.109,154.297,1.0
1626203024.179139,57.129,-20.02,-61.523,83.008,1.0
1626203024.183045,-130.859,-2.441,-53.223,-174.31599999999997,1.0
1626203024.1869516,-122.07,-16.113,-15.625,-147.461,1.0
1626203024.1908574,53.223,-44.922,-15.137,103.516,1.0
1626203024.1947641,76.66,-61.523,-28.809,128.906,1.0
1626203024.19867,-96.68,-83.008,-33.691,-133.30100000000002,1.0
1626203024.2025762,-187.988,-61.523,-54.199,-237.305,1.0
1626203024.206483,13.184000000000001,-3.906,-40.039,44.434,1.0
1626203024.210389,63.477,-0.977,-35.156,203.125,1.0
1626203024.214295,127.93,5.859,-6.836,-82.031,1.0
1626203024.2182014,-91.309,-10.742,-18.066,-302.73400000000004,1.0
1626203024.2221074,-203.125,-20.996,-38.574,-66.895,1.0
1626203024.226014,-2.441,-47.852,-26.366999999999997,189.94099999999997,1.0
1626203024.2299201,131.836,-78.613,-11.23,20.996,1.0
1626203024.2338264,-20.996,-48.828,-18.555,-244.141,1.0
1626203024.2377326,-175.78099999999998,-4.883,-16.602,-121.58200000000001,1.0
1626203024.241639,-73.73,-9.766,-26.855,157.715,1.0
1626203024.2455451,107.42200000000001,-21.484,-36.621,98.633,1.0
1626203024.2494514,50.293,-15.625,-41.504,-180.66400000000002,1.0
1626203024.2533574,-157.227,-41.016000000000005,-62.988,-184.082,1.0
1626203024.257264,-202.637,-53.711000000000006,-50.293,-258.301,1.0
1626203024.2611701,-105.95700000000001,-54.688,-41.016000000000005,-109.375,1.0
1626203024.2650764,95.70299999999999,-36.621,-35.645,151.855,1.0
1626203024.2689826,41.016000000000005,-10.254000000000001,-38.574,41.992,1.0
1626203024.272889,-143.066,-23.926,-44.434,-196.77700000000002,1.0
1626203024.2767951,-104.492,-21.973000000000003,-27.831999999999997,-109.375,1.0
1626203024.2807014,83.49600000000001,-6.348,-8.301,140.137,1.0
1626203024.2846076,76.66,-33.691,-20.508000000000003,115.234,1.0
1626203024.288514,-141.113,-61.035,-40.527,-182.61700000000002,1.0
1626203024.2924201,-179.688,-35.156,-36.133,-218.75,1.0
1626203024.2963264,16.113,-10.742,-40.039,55.663999999999994,1.0
1626203024.300233,108.398,-27.344,-27.831999999999997,161.621,1.0
1626203024.304139,122.559,-30.761999999999997,4.395,1.0,1.0
1626203024.308045,-101.56200000000001,-32.715,-14.16,1.0,1.0
1626203024.3119516,-190.43,-13.184000000000001,-30.273000000000003,1.0,1.0
1626203024.3158574,22.949,9.766,-29.785,1.0,1.0
1626203024.3197637,125.0,-23.438000000000002,-35.156,1.0,1.0
1626203024.32367,-50.781000000000006,-32.715,-34.18,1.0,1.0
1626203024.3275762,-193.84799999999998,-51.758,-23.438000000000002,1.0,1.0
1626203024.331483,-59.57,-80.566,-11.23,1.0,1.0
1626203024.335389,122.07,-42.48,-20.996,1.0,1.0
1626203024.3392951,20.508000000000003,-3.418,-45.898,1.0,1.0
1626203024.3432014,-187.012,-15.625,-52.246,1.0,1.0
1626203024.3471074,-101.56200000000001,-36.133,-26.855,1.0,1.0
1626203024.351014,-59.082,-18.555,-10.742,-51.27,1.0
1626203024.3549201,135.254,-16.113,-5.371,196.28900000000002,1.0
1626203024.3588262,50.293,-14.16,-21.973000000000003,60.547,1.0
1626203024.3627326,-167.96900000000002,-17.09,-40.039,-216.797,1.0
1626203024.366639,-124.512,-38.086,-40.527,-133.789,1.0
1626203024.3705451,98.633,-49.316,-29.785,162.59799999999998,1.0
1626203024.3744514,70.312,-59.57,-24.414,109.863,1.0
1626203024.3783576,-166.99200000000002,-60.059,-31.25,-211.426,1.0
1626203024.382264,-188.477,-30.273000000000003,-26.855,-226.074,1.0
1626203024.3861701,47.363,-1.465,-14.648,84.473,1.0
1626203024.3900764,115.234,-7.812,-32.715,156.25,1.0
1626203024.3939826,-84.473,-31.25,-35.156,-122.559,1.0
1626203024.397889,-132.32399999999998,-32.715,-32.715,-156.738,1.0
1626203024.4017951,-198.24200000000002,-39.062,-37.598,-226.562,1.0
1626203024.4057016,27.344,-37.109,-39.551,59.57,1.0
1626203024.4096076,133.789,-55.176,-36.133,175.78099999999998,1.0
1626203024.413514,-57.617,-54.199,-27.344,-83.008,1.0
1626203024.4174201,-190.43,-43.457,-17.578,-246.09400000000002,1.0
1626203024.4213264,-37.598,-42.968999999999994,-24.414,-23.926,1.0
1626203024.4252326,121.58200000000001,-28.809,-32.715,175.78099999999998,1.0
1626203024.429139,-8.301,-31.25,-31.738000000000003,-15.137,1.0
1626203024.433045,-200.195,-40.527,-29.785,-249.512,1.0
1626203024.4369516,-95.70299999999999,-30.761999999999997,-30.761999999999997,-90.82,1.0
1626203024.4408574,114.74600000000001,-13.672,-23.438000000000002,182.12900000000002,1.0
1626203024.4447641,133.30100000000002,-25.391,-20.02,1.0,1.0
1626203024.44867,17.09,-27.831999999999997,-41.016000000000005,1.0,1.0
1626203024.4525762,-181.641,-35.645,-45.898,1.0,1.0
1626203024.456483,-109.375,-46.875,-34.668,1.0,1.0
1626203024.460389,137.695,-23.438000000000002,-17.09,1.0,1.0
1626203024.464295,114.74600000000001,-8.789,-22.461,1.0,1.0
1626203024.4682014,-130.371,-16.113,-55.176,1.0,1.0
1626203024.4721074,-171.875,-18.555,-56.641000000000005,1.0,1.0
1626203024.476014,54.688,-0.977,-44.922,1.0,1.0
1626203024.4799201,95.70299999999999,-6.836,-38.574,1.0,1.0
1626203024.4838264,-125.488,-36.133,-34.668,1.0,1.0
1626203024.4877326,-173.828,-41.992,-19.531,1.0,1.0
1626203024.491639,-168.457,-44.922,-37.109,-190.918,1.0
1626203024.4955451,38.574,-36.133,-30.761999999999997,92.285,1.0
1626203024.4994514,104.00399999999999,-43.457,-37.109,158.691,1.0
1626203024.5033574,-72.266,-43.457,-40.527,-100.098,1.0
1626203024.507264,-187.5,-28.809,-43.945,-224.12099999999998,1.0
1626203024.5111701,-6.836,-10.254000000000001,-30.273000000000003,31.25,1.0
1626203024.5150764,143.555,-34.18,-23.438000000000002,215.332,1.0
1626203024.5189826,-18.066,-46.875,-45.898,-18.066,1.0
1626203024.522889,-211.426,-19.531,-60.547,-247.07,1.0
1626203024.5267951,-86.914,0.488,-23.926,-66.895,1.0
1626203024.5307014,108.887,-0.488,5.371,173.828,1.0
1626203024.5346076,3.906,-24.901999999999997,-23.438000000000002,22.949,1.0
1626203024.538514,-30.273000000000003,-49.805,-45.41,-34.18,1.0
1626203024.5424201,-213.86700000000002,-82.031,-48.34,-261.719,1.0
1626203024.5463264,-106.445,-67.383,-17.09,-97.656,1.0
1626203024.550233,121.58200000000001,-8.789,3.906,183.105,1.0
1626203024.554139,57.129,-21.484,-5.859,78.613,1.0
1626203024.558045,-182.61700000000002,-47.363,-33.203,-218.262,1.0
1626203024.5619516,-176.27,-33.203,-38.574,-172.363,1.0
1626203024.5658574,68.359,-19.043,-20.02,133.30100000000002,1.0
1626203024.5697637,113.77,-28.809,-38.574,141.602,1.0
1626203024.57367,-96.191,-42.968999999999994,-67.383,-152.344,1.0
1626203024.5775762,-180.66400000000002,-19.043,-42.968999999999994,-212.40200000000002,1.0
1626203024.581483,20.02,-17.09,-10.742,68.359,1.0
1626203024.585389,61.035,-42.968999999999994,-20.996,109.375,1.0
1626203024.5892951,92.285,-40.039,-44.434,136.719,1.0
1626203024.5932014,-111.32799999999999,-31.25,-44.922,-156.738,1.0
1626203024.5971074,-187.5,-44.922,-19.531,-241.699,1.0
1626203024.601014,17.578,-67.383,-10.742,36.133,1.0
1626203024.6049201,147.461,-24.414,-8.301,185.547,1.0
1626203024.6088262,-11.23,8.789,-11.23,-68.848,1.0
1626203024.6127326,-200.195,-10.254000000000001,-26.855,-267.09,1.0
1626203024.616639,-77.148,-19.043,-31.738000000000003,-53.223,1.0
1626203024.6205451,126.465,-25.879,-30.273000000000003,182.12900000000002,1.0
1626203024.6244514,10.742,-34.18,-44.434,16.602,1.0
1626203024.6283576,-176.27,-49.316,-46.387,-239.74599999999998,1.0
1626203024.632264,-176.27,-34.668,-22.461,-230.957,1.0
1626203024.6361701,-44.922,-37.598,-18.066,-47.363,1.0
1626203024.6400764,140.137,-22.949,-40.039,192.38299999999998,1.0
1626203024.6439826,61.523,-6.836,-51.758,51.27,1.0
1626203024.647889,-148.438,-40.039,-36.133,-228.516,1.0
1626203024.6517951,-101.56200000000001,-24.414,-6.836,-130.859,1.0
1626203024.6557016,109.375,-15.137,-18.066,147.94899999999998,1.0
1626203024.6596076,81.543,-73.242,-36.621,103.516,1.0
1626203024.663514,-126.95299999999999,-88.37899999999999,-35.156,-183.105,1.0
1626203024.6674201,-159.18,-18.066,-27.831999999999997,-202.637,1.0
1626203024.6713264,67.383,34.668,-36.621,86.426,1.0
1626203024.6752326,157.715,21.484,-50.781000000000006,160.156,1.0
1626203024.679139,21.973000000000003,-10.254000000000001,-28.809,1.0,1.0
1626203024.683045,-187.5,-11.719000000000001,-23.438000000000002,1.0,1.0
1626203024.6869516,-286.621,-28.809,-49.805,1.0,1.0
1626203024.6908574,-67.383,-15.625,-30.273000000000003,1.0,1.0
1626203024.6947641,32.227,-18.066,-42.48,1.0,1.0
1626203024.69867,-190.43,-19.043,-62.5,1.0,1.0
1626203024.7025762,-322.26599999999996,-28.32,-42.48,1.0,1.0
1626203024.706483,-132.812,-28.32,-30.761999999999997,1.0,1.0
1626203024.710389,38.086,-17.578,-22.461,1.0,1.0
1626203024.714295,-126.465,-40.039,-28.32,1.0,1.0
1626203024.7182014,-330.07800000000003,-37.598,-51.27,1.0,1.0
1626203024.7221074,-232.422,-24.414,-56.641000000000005,1.0,1.0
1626203024.726014,-85.93799999999999,-39.062,-51.27,-75.684,1.0
1626203024.7299201,99.609,-30.761999999999997,-19.531,149.414,1.0
1626203024.7338264,-9.277000000000001,-35.156,-30.273000000000003,-19.531,1.0
1626203024.7377326,-197.266,-45.898,-33.203,-261.23,1.0
1626203024.741639,-92.773,-32.227,-14.16,-108.887,1.0
1626203024.7455451,159.18,-3.418,9.277000000000001,201.172,1.0
1626203024.7494514,113.77,-41.504,3.418,124.023,1.0
1626203024.7533574,-125.488,-78.613,-30.273000000000003,-176.75799999999998,1.0
1626203024.757264,-137.695,-41.992,-41.504,-164.062,1.0
1626203024.7611701,80.078,-17.09,-41.992,130.371,1.0
1626203024.7650764,130.859,-20.508000000000003,-41.992,175.78099999999998,1.0
1626203024.7689826,-77.148,-45.898,-35.645,-109.863,1.0
1626203024.772889,-52.733999999999995,-16.113,-35.156,-117.676,1.0
1626203024.7767951,-96.191,-7.324,-36.621,-147.94899999999998,1.0
1626203024.7807014,118.164,-13.184000000000001,-33.203,141.602,1.0
1626203024.7846076,180.66400000000002,-46.387,-53.711000000000006,202.637,1.0
1626203024.788514,-15.137,-68.848,-53.711000000000006,-63.477,1.0
1626203024.7924201,-113.77,-70.312,-43.457,-176.75799999999998,1.0
1626203024.7963264,75.684,-33.691,-9.277000000000001,79.102,1.0
1626203024.800233,209.96099999999998,-6.348,-3.418,251.953,1.0
1626203024.804139,31.25,-18.066,-35.156,13.672,1.0
1626203024.808045,-135.74200000000002,-11.23,-23.438000000000002,-206.055,1.0
1626203024.8119516,-8.301,-1.953,-8.301,-27.344,1.0
1626203024.8158574,191.895,-1.465,-15.625,231.445,1.0
1626203024.8197637,206.055,-20.508000000000003,3.418,1.0,1.0
1626203024.82367,69.336,-50.781000000000006,-21.973000000000003,1.0,1.0
1626203024.8275762,-100.586,-16.602,-26.366999999999997,1.0,1.0
1626203024.831483,-25.391,5.859,-5.859,1.0,1.0
1626203024.835389,119.141,-31.738000000000003,-11.23,1.0,1.0
1626203024.8392951,39.062,-46.387,-51.27,1.0,1.0
1626203024.8432014,-139.16,-43.457,-48.34,1.0,1.0
1626203024.8471074,-107.42200000000001,-60.059,-8.789,1.0,1.0
1626203024.851014,112.305,-42.968999999999994,-13.184000000000001,1.0,1.0
1626203024.8549201,148.438,-29.785,-15.137,1.0,1.0
1626203024.8588262,-69.824,-38.086,-23.926,1.0,1.0
1626203024.8627326,-122.07,-25.391,-36.621,1.0,1.0
1626203024.866639,-118.164,-26.855,-22.949,-153.809,1.0
1626203024.8705451,117.676,-37.598,-12.695,149.414,1.0
1626203024.8744514,142.09,-28.32,-23.438000000000002,169.43400000000003,1.0
1626203024.8783576,-98.633,-34.18,-33.203,-139.648,1.0
1626203024.882264,-182.61700000000002,-48.34,-36.621,-233.887,1.0
1626203024.8861701,38.574,-35.156,-32.227,58.105,1.0
1626203024.8900764,164.551,-45.41,-23.926,210.938,1.0
1626203024.8939826,-15.625,-59.082,-29.296999999999997,-36.133,1.0
1626203024.897889,-184.082,-48.828,-31.738000000000003,-238.28099999999998,1.0
1626203024.9017951,-48.828,-34.668,-29.785,-39.062,1.0
1626203024.9057016,143.555,-39.062,-34.18,204.59,1.0
1626203024.9096076,39.062,-56.641000000000005,-43.945,50.781000000000006,1.0
1626203024.913514,-3.418,-21.484,-24.901999999999997,-15.137,1.0
1626203024.9174201,-162.109,-34.668,-27.831999999999997,-206.543,1.0
1626203024.9213264,-37.109,-36.621,-17.578,-16.113,1.0
1626203024.9252326,146.97299999999998,-32.715,-14.648,219.238,1.0
1626203024.929139,40.039,-39.062,-29.785,63.965,1.0
1626203024.933045,-196.77700000000002,-50.781000000000006,-56.641000000000005,-237.793,1.0
1626203024.9369516,-151.36700000000002,-38.574,-62.988,-158.203,1.0
1626203024.9408574,91.309,-17.578,-35.156,147.94899999999998,1.0
1626203024.9447641,94.727,-29.785,-25.391,123.535,1.0
1626203024.94867,-124.023,-56.152,-36.133,-171.387,1.0
1626203024.9525762,-155.762,-46.875,-28.809,-201.66,1.0
1626203024.956483,62.012,-22.461,-9.766,96.191,1.0
1626203024.960389,73.73,-29.296999999999997,-50.293,189.453,1.0
1626203024.964295,84.473,-63.477,-60.547,-91.309,1.0
1626203024.9682014,-131.34799999999998,-65.43,-52.733999999999995,-235.84,1.0
1626203024.9721074,-173.34,-28.32,-12.695,10.254000000000001,1.0
1626203024.976014,42.48,-19.043,-5.859,211.91400000000002,1.0
1626203024.9799201,145.50799999999998,-19.043,-13.184000000000001,6.836,1.0
1626203024.9838264,-47.852,-29.785,-35.645,-240.72299999999998,1.0
1626203024.9877326,-213.37900000000002,-39.551,-52.733999999999995,-78.613,1.0
1626203024.991639,-43.945,-26.855,-32.227,186.035,1.0
1626203024.9955451,156.25,-14.16,-8.301,67.383,1.0
1626203024.9994514,22.461,-32.227,-25.879,-215.332,1.0
1626203025.0033574,-184.082,-57.129,-41.016000000000005,-160.645,1.0
1626203025.007264,-184.57,-18.066,-44.922,-247.07,1.0
1626203025.0111701,-49.805,-44.922,-27.344,-38.086,1.0
1626203025.0150764,124.023,-59.57,-40.527,187.5,1.0
1626203025.0189826,19.531,-45.898,-39.551,25.879,1.0
1626203025.022889,-182.61700000000002,-37.109,-32.715,-244.141,1.0
1626203025.0267951,-95.70299999999999,-22.461,-19.531,-117.18799999999999,1.0
1626203025.0307014,109.863,-40.527,-14.16,164.551,1.0
1626203025.0346076,52.733999999999995,-52.246,-32.227,80.566,1.0
1626203025.038514,-157.227,-36.621,-47.363,-207.03099999999998,1.0
1626203025.0424201,-163.57399999999998,-32.715,-45.898,-197.266,1.0
1626203025.0463264,59.57,-19.531,-32.227,105.95700000000001,1.0
1626203025.050233,111.816,-31.738000000000003,-34.18,158.203,1.0
1626203025.054139,109.863,-19.531,-23.438000000000002,1.0,1.0
1626203025.058045,-112.79299999999999,-41.016000000000005,-34.18,1.0,1.0
1626203025.0619516,-151.36700000000002,-56.641000000000005,-45.41,1.0,1.0
1626203025.0658574,75.195,-36.621,-30.761999999999997,1.0,1.0
1626203025.0697637,134.27700000000002,-7.812,-20.508000000000003,1.0,1.0
1626203025.07367,-83.49600000000001,-15.625,-26.855,1.0,1.0
1626203025.0775762,-209.96099999999998,-35.645,-24.901999999999997,1.0,1.0
1626203025.081483,-2.93,-35.156,-20.996,1.0,1.0
1626203025.085389,158.691,-26.855,-29.785,1.0,1.0
1626203025.0892951,-21.484,-41.504,-43.945,1.0,1.0
1626203025.0932014,-218.262,-63.477,-43.457,1.0,1.0
1626203025.0971074,-90.82,-45.898,-26.855,1.0,1.0
1626203025.101014,-48.34,-24.414,-39.062,-24.901999999999997,1.0
1626203025.1049201,111.32799999999999,-33.691,-31.25,175.293,1.0
1626203025.1088262,-5.371,-32.227,-20.996,-13.672,1.0
1626203025.1127326,-175.293,-9.766,-17.578,-232.422,1.0
1626203025.116639,-88.37899999999999,-2.441,-15.625,-94.727,1.0
1626203025.1205451,91.79700000000001,-23.926,-36.621,152.832,1.0
1626203025.1244514,30.273000000000003,-31.25,-53.223,58.593999999999994,1.0
1626203025.1283576,-176.75799999999998,-43.945,-36.133,-217.773,1.0
1626203025.132264,-145.996,-46.387,-16.602,-163.57399999999998,1.0
1626203025.1361701,83.49600000000001,-35.156,-24.414,127.441,1.0
1626203025.1400764,87.402,-35.645,-30.273000000000003,125.488,1.0
1626203025.1439826,-125.977,-55.176,-30.273000000000003,-162.59799999999998,1.0
1626203025.147889,-134.766,-50.781000000000006,-23.926,-182.61700000000002,1.0
1626203025.1517951,-131.836,-32.715,-15.625,-180.176,1.0
1626203025.1557016,89.355,-25.879,-6.348,123.535,1.0
1626203025.1596076,133.30100000000002,-33.203,-14.648,186.035,1.0
1626203025.163514,-89.355,-17.578,-37.598,-115.234,1.0
1626203025.1674201,-169.43400000000003,-7.812,-47.852,-228.02700000000002,1.0
1626203025.1713264,64.453,-17.578,-25.391,41.016000000000005,1.0
1626203025.1752326,152.344,-23.438000000000002,-7.324,194.33599999999998,1.0
1626203025.179139,-65.43,-28.809,-17.09,-41.016000000000005,1.0
1626203025.183045,-212.40200000000002,-41.992,-26.366999999999997,-242.188,1.0
1626203025.1869516,-77.637,-57.129,-29.785,-62.5,1.0
1626203025.1908574,130.371,-37.109,-27.344,182.12900000000002,1.0
1626203025.1947641,89.844,-32.715,-29.296999999999997,39.062,1.0
1626203025.19867,-45.41,-29.296999999999997,-24.414,-244.62900000000002,1.0
1626203025.2025762,-236.81599999999997,-58.105,-33.203,-150.879,1.0
1626203025.206483,-121.094,-59.082,-28.809,137.695,1.0
1626203025.210389,83.984,-35.156,-20.02,87.891,1.0
1626203025.214295,6.348,-33.691,-35.156,-209.96099999999998,1.0
1626203025.2182014,-183.105,-36.133,-20.996,-212.891,1.0
1626203025.2221074,-133.789,-15.137,-11.719000000000001,95.70299999999999,1.0
1626203025.226014,56.641000000000005,-17.09,-27.344,149.414,1.0
1626203025.2299201,55.663999999999994,-35.156,-22.461,-128.418,1.0
1626203025.2338264,-172.363,-39.551,-23.438000000000002,-233.398,1.0
1626203025.2377326,-226.074,-26.366999999999997,-30.273000000000003,13.184000000000001,1.0
1626203025.241639,-134.766,-35.645,-41.504,-179.688,1.0
1626203025.2455451,76.172,-21.484,-22.461,129.88299999999998,1.0
1626203025.2494514,96.191,-28.32,-36.133,132.812,1.0
1626203025.2533574,-133.789,-33.691,-47.852,-179.688,1.0
1626203025.257264,-208.984,-33.691,-44.922,-248.535,1.0
1626203025.2611701,0.977,-39.062,-35.645,37.598,1.0
1626203025.2650764,135.254,-34.668,-23.438000000000002,180.66400000000002,1.0
1626203025.2689826,-30.761999999999997,-49.805,-27.344,-50.293,1.0
1626203025.272889,-182.12900000000002,-54.199,-41.504,-229.00400000000002,1.0
1626203025.2767951,-54.688,-37.598,-33.203,-32.227,1.0
1626203025.2807014,103.027,-20.508000000000003,-20.996,173.34,1.0
1626203025.2846076,4.395,-14.16,-23.438000000000002,-4.395,1.0
1626203025.288514,-23.926,-22.461,-46.387,-44.434,1.0
1626203025.2924201,-166.99200000000002,-43.945,-43.945,-242.188,1.0
1626203025.2963264,-22.461,-32.715,-20.02,-35.156,1.0
1626203025.300233,122.07,-33.691,-23.438000000000002,185.547,1.0
1626203025.304139,11.23,-35.645,-41.992,10.254000000000001,1.0
1626203025.308045,-163.57399999999998,-40.527,-43.457,-241.21099999999998,1.0
1626203025.3119516,-92.773,-32.227,-33.203,-118.164,1.0
1626203025.3158574,98.633,-17.578,-32.227,165.03900000000002,1.0
1626203025.3197637,81.543,-30.273000000000003,-44.922,108.887,1.0
1626203025.32367,-121.58200000000001,-31.738000000000003,-41.992,-173.828,1.0
1626203025.3275762,-143.555,-24.901999999999997,-20.02,-175.78099999999998,1.0
1626203025.331483,66.406,-21.973000000000003,-19.531,104.98,1.0
1626203025.335389,115.723,-34.668,-17.09,146.484,1.0
1626203025.3392951,86.914,-52.733999999999995,-23.438000000000002,121.094,1.0
1626203025.3432014,-124.023,-62.012,-43.945,-162.59799999999998,1.0
1626203025.3471074,-166.50400000000002,-43.457,-70.312,-184.57,1.0
1626203025.351014,34.18,-16.602,-60.059,76.66,1.0
1626203025.3549201,140.625,-20.996,-19.531,166.50400000000002,1.0
1626203025.3588262,-55.176,-25.391,-13.184000000000001,-80.078,1.0
1626203025.3627326,-211.91400000000002,-20.508000000000003,-27.831999999999997,-250.488,1.0
1626203025.366639,-38.574,-18.555,-30.273000000000003,-27.831999999999997,1.0
1626203025.3705451,140.137,-8.301,-18.555,170.898,1.0
1626203025.3744514,13.672,-17.09,-22.949,-20.508000000000003,1.0
1626203025.3783576,-194.824,-30.273000000000003,-42.968999999999994,-251.953,1.0
1626203025.382264,-186.035,-58.105,-17.578,-250.0,1.0
1626203025.3861701,-15.625,-25.391,-5.371,-6.348,1.0
1626203025.3900764,148.438,-20.508000000000003,-6.836,209.96099999999998,1.0
1626203025.3939826,5.859,-57.129,-30.761999999999997,-6.836,1.0
1626203025.397889,-173.828,-39.551,-52.246,-259.277,1.0
1626203025.4017951,-72.75399999999999,-9.766,-28.809,-102.051,1.0
1626203025.4057016,129.395,-27.344,-5.859,169.922,1.0
1626203025.4096076,81.055,-41.504,-22.949,85.93799999999999,1.0
1626203025.413514,-140.625,-40.527,-45.41,-199.707,1.0
1626203025.4174201,-120.605,-25.879,-36.621,-165.03900000000002,1.0
1626203025.4213264,71.777,-11.719000000000001,-33.203,110.352,1.0
1626203025.4252326,86.914,-24.901999999999997,-36.133,139.16,1.0
1626203025.429139,103.027,-12.207,-13.184000000000001,112.79299999999999,1.0
1626203025.433045,-122.559,-17.578,-19.043,-183.59400000000002,1.0
1626203025.4369516,-151.855,-31.25,-16.602,-188.965,1.0
1626203025.4408574,60.547,-31.738000000000003,-14.16,98.633,1.0
1626203025.4447641,121.094,-30.273000000000003,-20.996,160.156,1.0
1626203025.44867,-87.402,-49.805,-38.086,-122.07,1.0
1626203025.4525762,-198.24200000000002,-48.828,-47.852,-247.07,1.0
1626203025.456483,3.906,-7.812,-32.227,30.761999999999997,1.0
1626203025.460389,142.09,-6.836,-20.02,201.66,1.0
1626203025.464295,-45.898,-43.457,-37.598,-57.129,1.0
1626203025.4682014,-205.56599999999997,-41.504,-30.273000000000003,-263.672,1.0
1626203025.4721074,-54.688,-23.438000000000002,-9.277000000000001,-51.758,1.0
1626203025.476014,-13.184000000000001,-27.831999999999997,-35.156,5.371,1.0
1626203025.4799201,125.488,-19.043,-25.879,192.38299999999998,1.0
1626203025.4838264,8.789,-10.254000000000001,-25.391,-3.418,1.0
1626203025.4877326,-157.715,-33.691,-33.691,-222.168,1.0
1626203025.491639,-62.012,-49.805,-35.156,-71.777,1.0
1626203025.4955451,140.625,-33.203,-25.879,173.34,1.0
1626203025.4994514,62.5,-40.039,-16.113,56.641000000000005,1.0
1626203025.5033574,-141.113,-37.109,-9.766,-210.938,1.0
1626203025.507264,-99.12100000000001,-19.531,-22.461,-145.996,1.0
1626203025.5111701,114.74600000000001,-18.066,-37.598,130.859,1.0
1626203025.5150764,114.258,-22.461,-42.48,121.094,1.0
1626203025.5189826,-121.58200000000001,-35.645,-53.711000000000006,-177.24599999999998,1.0
1626203025.522889,-148.438,-18.555,-38.574,-205.56599999999997,1.0
1626203025.5267951,-149.90200000000002,-44.434,-28.32,-185.05900000000003,1.0
1626203025.5307014,64.941,-36.133,-15.625,110.352,1.0
1626203025.5346076,103.516,-26.366999999999997,-21.973000000000003,134.27700000000002,1.0
1626203025.538514,-108.887,-36.621,-30.761999999999997,-172.852,1.0
1626203025.5424201,-177.24599999999998,-41.016000000000005,-23.438000000000002,-246.582,1.0
1626203025.5463264,42.968999999999994,-16.602,-14.648,58.593999999999994,1.0
1626203025.550233,151.855,-0.977,-28.32,192.87099999999998,1.0
1626203025.554139,-37.598,-17.578,-44.434,-79.59,1.0
1626203025.558045,-183.105,-32.715,-34.668,-262.695,1.0
1626203025.5619516,-23.926,-28.32,-16.113,-37.598,1.0
1626203025.5658574,141.602,-21.973000000000003,-25.391,182.12900000000002,1.0
1626203025.5697637,150.391,0.0,-12.695,5.371,1.0
1626203025.57367,-25.391,-19.531,-37.109,-252.44099999999997,1.0
1626203025.5775762,-192.38299999999998,-41.504,-31.738000000000003,-130.859,1.0
1626203025.581483,-61.523,-54.688,-9.277000000000001,150.391,1.0
1626203025.585389,109.863,-35.156,-14.16,76.66,1.0
1626203025.5892951,23.926,-12.695,-27.344,-211.91400000000002,1.0
1626203025.5932014,-172.852,-35.156,-39.062,-195.312,1.0
1626203025.5971074,-116.699,-37.109,-42.968999999999994,100.098,1.0
1626203025.601014,104.00399999999999,-23.438000000000002,-40.527,169.43400000000003,1.0
1626203025.6049201,81.055,-33.691,-38.086,-102.051,1.0
1626203025.6088262,-133.789,-46.875,-35.156,-227.051,1.0
1626203025.6127326,-150.391,-49.805,-20.508000000000003,39.062,1.0
1626203025.616639,-129.88299999999998,-33.203,-24.901999999999997,-147.461,1.0
1626203025.6205451,83.49600000000001,-26.855,-17.578,137.695,1.0
1626203025.6244514,94.238,-25.391,-15.137,128.906,1.0
1626203025.6283576,-130.371,-31.25,-34.18,-171.387,1.0
1626203025.632264,-187.012,-40.527,-53.711000000000006,-217.285,1.0
1626203025.6361701,36.133,-33.203,-28.32,79.59,1.0
1626203025.6400764,127.441,-33.691,-10.254000000000001,171.875,1.0
1626203025.6439826,-43.457,-37.598,-29.785,-79.59,1.0
1626203025.647889,-185.05900000000003,-43.457,-36.621,-240.72299999999998,1.0
1626203025.6517951,-29.785,-33.203,-26.855,-15.625,1.0
1626203025.6557016,125.488,-6.836,-39.062,175.78099999999998,1.0
1626203025.6596076,-18.066,-14.16,-50.781000000000006,-25.391,1.0
1626203025.663514,-54.199,-22.461,-26.366999999999997,-72.266,1.0
1626203025.6674201,-191.40599999999998,-39.062,-28.809,-246.09400000000002,1.0
1626203025.6713264,-24.901999999999997,-54.688,-25.391,-23.438000000000002,1.0
1626203025.6752326,145.50799999999998,-53.711000000000006,-35.156,190.43,1.0
1626203025.679139,11.23,-49.316,-38.574,9.277000000000001,1.0
1626203025.683045,-199.707,-19.531,-45.898,-255.37099999999998,1.0
1626203025.6869516,-125.0,-2.441,-44.434,-127.93,1.0
1626203025.6908574,93.262,-18.555,-25.879,162.59799999999998,1.0
1626203025.6947641,53.223,-19.531,-15.137,82.031,1.0
1626203025.69867,-176.75799999999998,-29.785,-28.809,-219.238,1.0
1626203025.7025762,-181.641,-45.898,-34.668,-201.66,1.0
1626203025.706483,50.781000000000006,-42.48,-22.461,109.375,1.0
1626203025.710389,113.77,-35.645,-16.602,163.086,1.0
1626203025.714295,-90.33200000000001,-31.25,-31.738000000000003,-129.88299999999998,1.0
1626203025.7182014,-183.59400000000002,-22.949,-36.621,-228.02700000000002,1.0
1626203025.7221074,10.254000000000001,-17.09,-20.996,43.945,1.0
1626203025.726014,130.859,-17.578,-28.809,178.22299999999998,1.0
1626203025.7299201,-24.901999999999997,-19.043,-29.785,-53.223,1.0
1626203025.7338264,-187.5,-41.016000000000005,-30.273000000000003,-250.488,1.0
1626203025.7377326,-62.5,-64.941,-38.086,-59.57,1.0
1626203025.741639,119.141,-55.663999999999994,-23.438000000000002,179.688,1.0
1626203025.7455451,5.371,-51.27,-33.203,10.254000000000001,1.0
1626203025.7494514,-213.37900000000002,-45.898,-50.781000000000006,-265.625,1.0
1626203025.7533574,-140.625,-26.366999999999997,-34.668,-138.672,1.0
1626203025.757264,101.074,-14.16,-20.996,1.0,1.0
1626203025.7611701,48.34,-35.156,-28.809,1.0,1.0
1626203025.7650764,29.785,-22.949,-46.387,1.0,1.0
1626203025.7689826,126.465,13.184000000000001,-33.203,1.0,1.0
1626203025.772889,-75.195,-26.855,-20.508000000000003,1.0,1.0
1626203025.7767951,-201.172,-66.895,-27.831999999999997,1.0,1.0
1626203025.7807014,-21.484,-44.922,-23.438000000000002,1.0,1.0
1626203025.7846076,108.398,-29.296999999999997,-25.879,1.0,1.0
1626203025.788514,-55.176,-36.133,-41.992,1.0,1.0
1626203025.7924201,-206.055,-31.738000000000003,-41.016000000000005,1.0,1.0
1626203025.7963264,-55.663999999999994,-19.531,-24.901999999999997,1.0,1.0
1626203025.800233,131.34799999999998,-28.809,-25.879,1.0,1.0
1626203025.804139,-144.043,-10.254000000000001,-32.227,86.426,1.0
1626203025.808045,61.523,-12.207,-26.366999999999997,193.84799999999998,1.0
1626203025.8119516,91.309,-16.602,-15.137,-82.52,1.0
1626203025.8158574,-118.164,-26.366999999999997,-24.414,-247.55900000000003,1.0
1626203025.8197637,-185.05900000000003,-25.391,-30.273000000000003,-23.926,1.0
1626203025.82367,3.906,-37.109,-32.227,184.082,1.0
1626203025.8275762,88.37899999999999,-49.316,-35.156,-4.883,1.0
1626203025.831483,-76.172,-51.27,-32.715,-261.23,1.0
1626203025.835389,-213.86700000000002,-39.062,-30.761999999999997,-129.395,1.0
1626203025.8392951,-73.73,-16.602,-27.831999999999997,155.273,1.0
1626203025.8432014,113.77,-13.184000000000001,-42.48,73.242,1.0
1626203025.8471074,12.207,-34.18,-56.641000000000005,-206.055,1.0
1626203025.851014,-191.895,-52.733999999999995,-37.109,-251.465,1.0
1626203025.8549201,-127.93,-41.504,-23.438000000000002,-129.395,1.0
1626203025.8588262,100.586,-21.484,-28.809,154.297,1.0
1626203025.8627326,88.37899999999999,-26.855,-37.109,96.191,1.0
1626203025.866639,-144.531,-37.598,-47.363,-199.707,1.0
1626203025.8705451,-200.195,-32.715,-35.645,-211.91400000000002,1.0
1626203025.8744514,32.227,-35.645,-29.785,78.125,1.0
1626203025.8783576,112.79299999999999,-29.296999999999997,-40.527,138.184,1.0
1626203025.882264,-116.699,-39.062,-36.621,-133.789,1.0
1626203025.8861701,-207.52,-57.617,-22.949,-241.21099999999998,1.0
1626203025.8900764,3.906,-41.504,-24.901999999999997,21.973000000000003,1.0
1626203025.8939826,131.836,-15.137,-28.32,195.801,1.0
1626203025.897889,-31.25,-24.414,-26.855,-38.574,1.0
