timestamps,TP9,AF7,AF8,TP10,Right AUX
1626294679.6707292,7.812,11.23,-48.34,31.25,1.0
1626294679.6746354,-88.37899999999999,1.465,-42.48,-161.13299999999998,1.0
1626294679.6785414,-97.16799999999999,-27.344,-38.086,-125.977,1.0
1626294679.682448,-6.836,-55.176,-42.48,73.73,1.0
1626294679.6863542,27.831999999999997,-18.555,-36.133,90.82,1.0
1626294679.6902604,-66.406,-34.18,-51.758,-119.62899999999999,1.0
1626294679.6941667,-110.84,-50.293,-52.246,-172.852,1.0
1626294679.698073,-29.296999999999997,-47.363,-31.738000000000003,23.926,1.0
1626294679.7019792,25.391,-49.805,-14.16,105.469,1.0
1626294679.7058854,-38.574,-30.761999999999997,-8.789,-63.965,1.0
1626294679.7097917,-110.352,-38.086,-29.785,-184.57,1.0
1626294679.713698,-56.152,-28.809,-25.391,-34.668,1.0
1626294679.7176042,-0.488,-20.996,-22.461,124.512,1.0
1626294679.7215104,43.945,-0.488,-38.574,-9.277000000000001,1.0
1626294679.725417,-21.484,-11.23,-47.852,-191.40599999999998,1.0
1626294679.729323,-92.773,-33.203,-47.363,-102.539,1.0
1626294679.733229,-35.645,-1.465,-37.598,85.449,1.0
1626294679.7371356,58.593999999999994,0.977,-12.207,31.25,1.0
1626294679.7410414,16.602,-15.137,-15.625,-169.43400000000003,1.0
1626294679.7449477,-98.633,-40.527,-39.062,-150.391,1.0
1626294679.748854,-91.79700000000001,-48.828,-40.039,71.777,1.0
1626294679.7527602,23.438000000000002,-20.02,-35.645,102.539,1.0
1626294679.756667,50.781000000000006,-25.879,-29.785,-105.469,1.0
1626294679.760573,-57.129,-20.996,-29.296999999999997,-152.832,1.0
1626294679.7644792,-61.523,-23.926,-33.691,-142.578,1.0
1626294679.7683854,-57.129,-5.371,-15.625,-89.844,1.0
1626294679.7722914,18.066,-6.836,-31.25,96.191,1.0
1626294679.776198,15.625,-48.828,-45.898,50.781000000000006,1.0
1626294679.7801042,-76.66,-39.062,-43.457,-155.273,1.0
1626294679.7840102,-102.539,-28.809,-44.922,-169.43400000000003,1.0
1626294679.7879167,4.883,-0.488,-31.25,40.039,1.0
1626294679.791823,33.691,-24.901999999999997,-39.551,98.145,1.0
1626294679.7957292,-58.593999999999994,-67.87100000000001,-62.988,-101.56200000000001,1.0
1626294679.7996354,-94.727,-34.18,-40.527,-185.05900000000003,1.0
1626294679.8035417,-24.414,-21.484,-26.366999999999997,-9.766,1.0
1626294679.807448,47.363,0.0,-12.695,129.395,1.0
1626294679.8113542,53.223,-3.906,-18.555,112.79299999999999,1.0
1626294679.8152604,-24.414,-3.906,-17.09,-66.895,1.0
1626294679.8191667,-95.70299999999999,-27.831999999999997,-26.855,-179.688,1.0
1626294679.823073,-29.785,-45.41,-28.809,-17.578,1.0
1626294679.8269792,72.75399999999999,-5.859,-27.831999999999997,154.297,1.0
1626294679.8308856,-19.043,-18.066,-42.48,-14.648,1.0
1626294679.8347917,-155.273,-36.621,-27.831999999999997,-226.074,1.0
1626294679.838698,-116.699,-53.223,-8.789,-119.62899999999999,1.0
1626294679.8426042,-27.831999999999997,-78.125,-3.906,63.477,1.0
1626294679.8465104,-64.453,-54.199,-8.301,-19.531,1.0
1626294679.8504167,-176.27,-52.733999999999995,-53.711000000000006,-232.422,1.0
1626294679.854323,-190.918,-64.453,-47.852,-210.938,1.0
1626294679.858229,-237.793,-123.535,29.785,0.488,1.0
1626294679.8621356,-133.30100000000002,-130.371,8.789,20.508000000000003,1.0
1626294679.8660414,-112.79299999999999,-130.859,27.344,-202.148,1.0
1626294679.8699481,-201.66,-135.254,62.012,-281.738,1.0
1626294679.873854,-222.168,-125.0,64.941,-85.449,1.0
1626294679.8777602,-108.887,-118.652,73.73,-1.953,1.0
1626294679.881667,-37.109,-93.262,58.593999999999994,-186.035,1.0
1626294679.885573,-112.305,-99.12100000000001,21.973000000000003,-308.105,1.0
1626294679.889479,-173.828,-127.441,15.625,-155.273,1.0
1626294679.8933854,-89.355,-110.84,17.578,20.508000000000003,1.0
1626294679.8972914,10.742,-90.33200000000001,25.391,-75.195,1.0
1626294679.901198,-48.34,-105.95700000000001,15.137,-251.465,1.0
1626294679.9051042,55.176,-12.207,-36.621,-65.43,1.0
1626294679.9090104,4.395,-11.719000000000001,-37.598,-171.387,1.0
1626294679.9129167,-36.133,-24.414,-24.901999999999997,-0.977,1.0
1626294679.916823,3.906,-34.668,-39.551,156.25,1.0
1626294679.9207292,52.246,-30.761999999999997,-62.5,7.812,1.0
1626294679.9246354,5.371,-21.484,-35.156,-166.016,1.0
1626294679.9285414,-88.37899999999999,-33.691,-7.324,-56.641000000000005,1.0
1626294679.932448,-60.059,-63.477,-0.977,123.04700000000001,1.0
1626294679.9363542,31.738000000000003,-46.875,-10.254000000000001,63.477,1.0
1626294679.9402604,17.578,-19.043,-16.113,-142.578,1.0
1626294679.9441667,-64.453,-8.789,-28.809,-116.211,1.0
1626294679.948073,-91.79700000000001,-35.156,-45.41,108.887,1.0
1626294679.9519792,-118.164,-55.176,-34.668,-115.723,1.0
1626294679.9558854,-16.602,-31.25,-50.293,80.566,1.0
1626294679.9597917,5.859,-45.898,-25.391,58.593999999999994,1.0
1626294679.963698,-105.469,-76.172,-31.25,-159.668,1.0
1626294679.9676042,-141.113,-56.641000000000005,-48.828,-182.61700000000002,1.0
1626294679.9715104,-24.414,-14.648,-37.598,44.922,1.0
1626294679.975417,36.133,-3.418,-26.855,107.42200000000001,1.0
1626294679.979323,-57.129,-89.844,-35.645,-108.398,1.0
1626294679.983229,-113.77,-93.75,-33.691,-191.40599999999998,1.0
1626294679.9871356,-27.831999999999997,-25.879,-13.672,9.766,1.0
1626294679.9910414,45.41,1.465,-11.23,138.184,1.0
1626294679.9949477,-17.578,-6.348,-29.785,-22.461,1.0
1626294679.998854,-32.715,-39.062,-51.758,-76.172,1.0
1626294680.0027602,-91.309,-34.668,-55.663999999999994,-169.922,1.0
1626294680.006667,-37.109,-34.668,-35.156,-9.766,1.0
1626294680.010573,42.968999999999994,-34.668,-27.344,120.605,1.0
1626294680.0144792,9.766,-20.996,-14.16,-7.812,1.0
1626294680.0183854,-89.844,-27.831999999999997,-33.203,-179.199,1.0
1626294680.0222914,-62.988,-26.366999999999997,-35.645,-77.148,1.0
1626294680.026198,31.25,-36.133,-4.883,108.887,1.0
1626294680.0301042,37.109,-42.48,15.137,55.663999999999994,1.0
1626294680.0340102,-48.34,-37.109,16.113,-132.812,1.0
1626294680.0379167,-70.801,-24.901999999999997,-13.184000000000001,-111.32799999999999,1.0
1626294680.041823,-0.488,-43.457,-42.48,78.125,1.0
1626294680.0457292,38.574,-5.371,-29.785,133.30100000000002,1.0
1626294680.0496354,45.41,12.207,-15.137,86.426,1.0
1626294680.0535417,-68.848,-28.809,-9.277000000000001,-139.648,1.0
1626294680.057448,-95.70299999999999,-26.366999999999997,-8.301,-132.812,1.0
1626294680.0613542,-8.301,-1.465,-19.531,70.312,1.0
1626294680.0652604,24.414,-10.742,-20.508000000000003,89.355,1.0
1626294680.0691667,-59.082,-37.598,-21.973000000000003,-111.32799999999999,1.0
1626294680.073073,-98.633,-46.875,-23.926,-164.551,1.0
1626294680.0769792,-4.883,-23.926,-10.254000000000001,41.992,1.0
1626294680.0808856,37.109,-37.109,-22.461,122.559,1.0
1626294680.0847917,-26.855,-40.039,-39.062,-52.733999999999995,1.0
1626294680.088698,-90.82,-36.621,-70.801,-175.293,1.0
1626294680.0926042,-112.305,-33.203,-23.438000000000002,-187.012,1.0
1626294680.0965104,-32.227,-6.348,-22.461,7.812,1.0
1626294680.1004167,41.992,-23.438000000000002,-25.879,129.88299999999998,1.0
1626294680.104323,-7.812,-44.922,-34.18,-28.809,1.0
1626294680.108229,-83.984,-15.137,-28.809,-177.24599999999998,1.0
1626294680.1121356,-44.434,0.488,-13.672,-49.316,1.0
1626294680.1160414,42.968999999999994,-19.043,-28.809,118.164,1.0
1626294680.1199481,9.766,-52.733999999999995,-58.593999999999994,7.324,1.0
1626294680.123854,-67.383,-42.968999999999994,-20.508000000000003,-166.50400000000002,1.0
1626294680.1277602,-54.199,-25.879,2.441,-97.16799999999999,1.0
1626294680.131667,30.273000000000003,-3.906,-9.766,101.56200000000001,1.0
1626294680.135573,39.062,-10.742,-31.738000000000003,74.707,1.0
1626294680.139479,39.062,-8.789,-6.348,58.593999999999994,1.0
1626294680.1433854,-49.316,-6.836,-16.113,-149.414,1.0
1626294680.1472914,-79.59,-51.758,-33.203,-123.535,1.0
1626294680.151198,15.625,-46.875,0.0,102.051,1.0
1626294680.1551042,60.059,-7.324,-16.602,118.652,1.0
1626294680.1590104,-50.293,-10.254000000000001,-59.082,-99.12100000000001,1.0
1626294680.1629167,-115.723,-28.809,-48.34,-165.52700000000002,1.0
1626294680.166823,-44.434,-83.49600000000001,-43.945,14.648,1.0
1626294680.1707292,32.227,-58.105,-18.066,119.141,1.0
1626294680.1746354,-14.16,-14.16,-11.23,-40.527,1.0
1626294680.1785414,-92.773,-21.973000000000003,-60.059,-173.828,1.0
1626294680.182448,-48.828,-35.645,-58.593999999999994,-29.785,1.0
1626294680.1863542,-17.578,-21.973000000000003,-6.836,127.93,1.0
1626294680.1902604,43.457,-16.602,-9.277000000000001,11.23,1.0
1626294680.1941667,-38.574,-70.801,-44.434,-170.41,1.0
1626294680.198073,-101.56200000000001,-63.965,-41.504,-73.73,1.0
1626294680.2019792,-23.438000000000002,-7.324,-0.488,118.164,1.0
1626294680.2058854,74.707,-7.324,16.602,54.199,1.0
1626294680.2097917,32.227,-16.113,-20.508000000000003,-146.484,1.0
1626294680.213698,-105.469,-61.035,-70.312,-125.0,1.0
1626294680.2176042,-87.402,-41.992,-47.852,71.777,1.0
1626294680.2215104,18.555,-12.207,-22.949,95.70299999999999,1.0
1626294680.225417,3.906,-24.414,-44.434,-96.68,1.0
1626294680.229323,-86.914,-32.227,-54.199,-164.551,1.0
1626294680.233229,-64.453,-13.672,-43.945,-153.809,1.0
1626294680.2371356,-58.105,-36.133,-65.918,-95.215,1.0
1626294680.2410414,24.414,-46.875,-99.12100000000001,93.75,1.0
1626294680.2449477,51.758,-15.625,-50.781000000000006,83.984,1.0
1626294680.248854,-25.879,-25.391,-0.977,-108.398,1.0
1626294680.2527602,-57.617,-22.949,3.906,-126.465,1.0
1626294680.256667,25.879,6.348,15.625,78.613,1.0
1626294680.260573,42.968999999999994,-28.32,-26.366999999999997,102.051,1.0
1626294680.2644792,-25.391,-29.296999999999997,-42.968999999999994,-87.891,1.0
1626294680.2683854,-74.219,-9.766,-25.879,-165.03900000000002,1.0
1626294680.2722914,-16.113,-14.648,-28.32,4.395,1.0
1626294680.276198,69.824,-13.184000000000001,-34.668,145.50799999999998,1.0
1626294680.2801042,35.645,-20.508000000000003,-28.809,112.305,1.0
1626294680.2840102,-27.831999999999997,-33.203,-28.32,-65.43,1.0
1626294680.2879167,-116.211,-59.082,-45.898,-192.87099999999998,1.0
1626294680.291823,-40.039,-36.621,-23.926,-12.207,1.0
1626294680.2957292,69.336,4.883,-4.883,155.273,1.0
1626294680.2996354,-5.371,-30.761999999999997,-44.922,-12.695,1.0
1626294680.3035417,-111.32799999999999,-62.012,-57.617,-212.40200000000002,1.0
1626294680.307448,-75.195,-47.852,-35.645,-94.238,1.0
1626294680.3113542,11.719000000000001,-20.02,-44.922,104.492,1.0
1626294680.3152604,11.719000000000001,-14.648,-67.87100000000001,39.062,1.0
1626294680.3191667,-63.965,-31.25,-41.992,-146.97299999999998,1.0
1626294680.323073,-72.75399999999999,-40.527,-16.602,-124.023,1.0
1626294680.3269792,-52.733999999999995,-31.25,-23.926,-59.082,1.0
1626294680.3308856,39.062,-8.301,-15.137,139.16,1.0
1626294680.3347917,-4.395,-40.039,-44.434,43.457,1.0
1626294680.338698,-114.258,-54.199,-70.312,-191.895,1.0
1626294680.3426042,-103.516,-9.277000000000001,-35.645,-159.668,1.0
1626294680.3465104,-10.254000000000001,-5.859,-20.508000000000003,54.199,1.0
1626294680.3504167,23.926,-1.953,-28.809,81.055,1.0
1626294680.354323,-69.824,-45.41,-39.062,-129.88299999999998,1.0
1626294680.358229,-102.539,-54.688,-20.508000000000003,-183.59400000000002,1.0
1626294680.3621356,-25.391,-31.738000000000003,-29.296999999999997,12.695,1.0
1626294680.3660414,34.668,-8.789,-58.593999999999994,111.816,1.0
1626294680.3699481,-22.461,-12.207,-67.383,-57.129,1.0
1626294680.373854,-38.574,-31.738000000000003,-57.129,-85.93799999999999,1.0
1626294680.3777602,-83.49600000000001,-32.227,-31.25,-166.50400000000002,1.0
1626294680.381667,-10.254000000000001,-23.926,-24.414,18.555,1.0
1626294680.385573,74.219,-1.465,-37.109,152.344,1.0
1626294680.389479,16.602,-9.766,-23.438000000000002,-9.766,1.0
1626294680.3933854,-92.285,-35.156,2.441,-188.477,1.0
1626294680.3972914,-58.593999999999994,-15.137,-2.441,-79.59,1.0
1626294680.401198,51.27,0.977,-10.254000000000001,116.699,1.0
1626294680.4051042,22.949,-14.16,-23.926,20.996,1.0
1626294680.4090104,-78.613,-37.109,-24.901999999999997,-184.57,1.0
1626294680.4129167,-73.242,-16.113,-31.738000000000003,-127.441,1.0
1626294680.416823,30.761999999999997,0.0,-41.504,86.914,1.0
1626294680.4207292,26.855,-31.25,10.254000000000001,90.33200000000001,1.0
1626294680.4246354,9.766,-46.387,1.953,-125.0,1.0
1626294680.4285414,-88.867,-70.801,-27.831999999999997,-163.086,1.0
1626294680.432448,-83.008,-43.945,-22.949,62.5,1.0
1626294680.4363542,-4.395,-22.949,-28.809,124.512,1.0
1626294680.4402604,20.02,-4.883,-64.941,-92.773,1.0
1626294680.4441667,-43.457,11.23,-47.363,-192.38299999999998,1.0
1626294680.448073,-105.95700000000001,-33.691,-18.555,-18.066,1.0
1626294680.4519792,-38.086,-55.663999999999994,-13.184000000000001,133.30100000000002,1.0
1626294680.4558854,19.043,-49.316,-20.508000000000003,-8.301,1.0
1626294680.4597917,-45.41,-32.227,-31.25,-191.40599999999998,1.0
1626294680.463698,-116.211,-32.227,-31.25,-86.914,1.0
1626294680.4676042,-84.961,-30.273000000000003,-62.988,-155.273,1.0
1626294680.4715104,-11.719000000000001,-30.273000000000003,-33.203,30.761999999999997,1.0
1626294680.475417,38.574,-52.733999999999995,-30.273000000000003,125.488,1.0
1626294680.479323,-40.527,-49.805,-44.434,-62.012,1.0
1626294680.483229,-100.098,-21.484,-27.831999999999997,-192.38299999999998,1.0
1626294680.4871356,-15.137,-8.789,-20.02,-26.855,1.0
1626294680.4910414,87.891,3.418,-31.738000000000003,157.715,1.0
1626294680.4949477,27.831999999999997,-15.625,-33.203,25.391,1.0
1626294680.498854,-69.336,-10.742,-10.254000000000001,-174.805,1.0
1626294680.5027602,-60.059,-9.766,-9.766,-97.16799999999999,1.0
1626294680.506667,39.551,-11.719000000000001,-15.137,111.32799999999999,1.0
1626294680.510573,31.25,-29.785,-35.645,68.359,1.0
1626294680.5144792,25.879,-26.855,-14.648,1.0,1.0
1626294680.5183854,-77.148,-31.25,-25.391,1.0,1.0
1626294680.5222914,-91.79700000000001,-41.016000000000005,-37.598,1.0,1.0
1626294680.526198,12.695,-43.457,-34.668,1.0,1.0
1626294680.5301042,56.641000000000005,-25.391,-18.555,1.0,1.0
1626294680.5340102,-41.504,-46.875,-26.366999999999997,1.0,1.0
1626294680.5379167,-78.125,-32.715,-30.761999999999997,1.0,1.0
1626294680.541823,-17.09,-36.133,-40.039,1.0,1.0
1626294680.5457292,35.156,-27.831999999999997,-19.531,1.0,1.0
1626294680.5496354,-28.809,-12.207,-4.395,1.0,1.0
1626294680.5535417,-95.215,-16.113,-17.578,1.0,1.0
1626294680.557448,-7.812,-8.301,-7.812,1.0,1.0
1626294680.5613542,-23.438000000000002,-16.602,-16.113,27.831999999999997,1.0
1626294680.5652604,33.691,-34.668,-28.32,112.79299999999999,1.0
1626294680.5691667,-55.663999999999994,-61.523,-54.199,-96.191,1.0
1626294680.573073,-102.539,-44.434,-19.043,-189.453,1.0
1626294680.5769792,-10.742,-15.137,32.715,10.254000000000001,1.0
1626294680.5808856,31.738000000000003,-43.457,-14.16,134.766,1.0
1626294680.5847917,-13.184000000000001,-44.434,-54.688,3.418,1.0
1626294680.588698,-96.191,-65.43,-54.199,-169.922,1.0
1626294680.5926042,-77.148,-45.41,-22.461,-80.566,1.0
1626294680.5965104,26.855,-15.625,13.672,122.559,1.0
1626294680.6004167,27.344,-23.926,21.973000000000003,70.801,1.0
1626294680.604323,-77.148,-24.901999999999997,-1.953,-141.602,1.0
1626294680.608229,-101.074,-23.926,-27.344,-188.477,1.0
1626294680.6121356,-68.359,-6.836,-20.508000000000003,-92.285,1.0
1626294680.6160414,46.387,-34.18,-21.973000000000003,131.34799999999998,1.0
1626294680.6199481,52.246,-41.016000000000005,-15.137,91.79700000000001,1.0
1626294680.623854,-41.016000000000005,-44.922,-25.879,-123.04700000000001,1.0
1626294680.6277602,-86.426,-60.059,-46.875,-149.90200000000002,1.0
1626294680.631667,-23.926,-21.484,-33.691,35.156,1.0
1626294680.635573,25.391,-13.184000000000001,-10.742,95.70299999999999,1.0
1626294680.639479,-42.48,-36.621,-10.742,-92.773,1.0
1626294680.6433854,-76.66,-6.348,-7.812,-163.57399999999998,1.0
1626294680.6472914,-8.301,-1.465,-21.973000000000003,18.066,1.0
1626294680.651198,35.645,-20.02,-43.457,126.95299999999999,1.0
1626294680.6551042,54.199,-23.926,-22.949,1.0,1.0
1626294680.6590104,-31.738000000000003,-19.531,-15.137,1.0,1.0
1626294680.6629167,-112.305,-33.203,-36.133,1.0,1.0
1626294680.666823,-41.992,-33.203,-32.715,1.0,1.0
1626294680.6707292,49.316,-19.531,-8.301,1.0,1.0
1626294680.6746354,-0.488,-48.34,-27.344,1.0,1.0
1626294680.6785414,-92.285,-55.176,-32.715,1.0,1.0
1626294680.682448,-48.828,-24.901999999999997,-13.672,1.0,1.0
1626294680.6863542,66.895,5.371,-32.227,1.0,1.0
1626294680.6902604,30.761999999999997,-13.672,-43.457,1.0,1.0
1626294680.6941667,-86.914,-28.32,-33.691,1.0,1.0
1626294680.698073,-89.355,-28.32,-27.344,1.0,1.0
1626294680.7019792,-64.453,-18.066,-39.551,-81.055,1.0
1626294680.7058854,15.137,-11.719000000000001,-5.859,96.191,1.0
1626294680.7097917,8.789,-65.918,-20.02,25.391,1.0
1626294680.713698,-67.87100000000001,-71.289,-26.855,-166.016,1.0
1626294680.7176042,-78.613,-43.457,-30.761999999999997,-129.395,1.0
1626294680.7215104,4.883,-42.968999999999994,-16.602,79.102,1.0
1626294680.725417,29.785,-18.555,-13.672,90.82,1.0
1626294680.729323,-76.66,-52.246,-54.199,-139.648,1.0
1626294680.733229,-114.74600000000001,-39.551,-60.059,-193.359,1.0
1626294680.7371356,-3.906,10.742,-50.781000000000006,38.574,1.0
1626294680.7410414,57.129,0.977,-50.293,130.859,1.0
1626294680.7449477,-15.625,-13.672,-24.901999999999997,-56.152,1.0
1626294680.748854,-29.785,-12.207,-12.695,-83.49600000000001,1.0
1626294680.7527602,-95.70299999999999,-26.855,-25.879,-173.828,1.0
1626294680.756667,-31.25,-50.293,-38.574,2.441,1.0
1626294680.760573,47.852,-53.223,-48.828,137.695,1.0
1626294680.7644792,4.395,-45.898,-53.711000000000006,-16.113,1.0
1626294680.7683854,-92.773,-52.246,-25.879,-185.05900000000003,1.0
1626294680.7722914,-77.148,-31.25,-18.066,-71.777,1.0
1626294680.776198,7.324,-40.039,-38.086,101.074,1.0
1626294680.7801042,-13.672,-42.48,-49.316,7.812,1.0
1626294680.7840102,-93.262,-16.113,-29.296999999999997,-177.24599999999998,1.0
1626294680.7879167,-72.266,-33.691,-10.254000000000001,-102.539,1.0
1626294680.791823,20.508000000000003,-43.457,-25.879,110.352,1.0
1626294680.7957292,54.688,-6.836,-14.648,85.449,1.0
1626294680.7996354,48.828,-7.324,-19.531,-131.34799999999998,1.0
1626294680.8035417,-94.727,-35.645,-52.733999999999995,-166.99200000000002,1.0
1626294680.807448,-110.84,-56.152,-57.129,55.176,1.0
1626294680.8113542,2.441,-29.785,-31.738000000000003,122.07,1.0
1626294680.8152604,11.23,-23.438000000000002,-18.555,-97.656,1.0
1626294680.8191667,-76.66,-31.738000000000003,-29.296999999999997,-187.5,1.0
1626294680.823073,-115.723,-39.551,-35.645,18.555,1.0
1626294680.8269792,-15.137,-24.901999999999997,-11.23,150.879,1.0
1626294680.8308856,42.48,-17.09,-13.672,-32.227,1.0
1626294680.8347917,-26.855,-28.32,-36.621,-203.125,1.0
1626294680.838698,-89.355,-24.414,-28.809,-57.129,1.0
1626294680.8426042,-94.727,-29.785,-23.438000000000002,-158.203,1.0
1626294680.8465104,-41.504,-10.742,-27.344,14.648,1.0
1626294680.8504167,21.484,-28.809,-22.461,118.164,1.0
1626294680.854323,-22.461,-32.715,-27.344,-43.945,1.0
1626294680.858229,-108.398,-42.968999999999994,-40.527,-195.801,1.0
1626294680.8621356,-56.152,-36.621,-30.273000000000003,-34.668,1.0
1626294680.8660414,62.988,1.953,-10.742,169.43400000000003,1.0
1626294680.8699481,3.418,-20.02,-33.203,14.16,1.0
1626294680.873854,-103.516,-35.156,-39.062,-199.21900000000002,1.0
1626294680.8777602,-70.312,-20.02,-24.414,-91.79700000000001,1.0
1626294680.881667,27.831999999999997,-14.16,-39.551,121.58200000000001,1.0
1626294680.885573,42.968999999999994,-7.812,-29.785,89.355,1.0
1626294680.889479,54.199,-19.043,2.93,1.0,1.0
1626294680.8933854,-61.523,-51.27,-13.184000000000001,1.0,1.0
1626294680.8972914,-92.773,-62.5,-44.922,1.0,1.0
1626294680.901198,12.207,-4.395,-37.109,1.0,1.0
1626294680.9051042,23.926,4.395,-43.457,1.0,1.0
1626294680.9090104,-71.777,-22.949,-43.457,1.0,1.0
1626294680.9129167,-89.355,-21.973000000000003,-29.785,1.0,1.0
1626294680.916823,-13.184000000000001,-33.691,-64.453,1.0,1.0
1626294680.9207292,64.453,-29.296999999999997,-47.363,1.0,1.0
1626294680.9246354,26.366999999999997,-46.875,-16.602,1.0,1.0
1626294680.9285414,-69.336,-51.758,-41.504,1.0,1.0
1626294680.932448,-46.387,-14.16,-45.898,1.0,1.0
1626294680.9363542,-15.137,-20.996,-26.366999999999997,23.926,1.0
1626294680.9402604,39.551,-29.296999999999997,-31.738000000000003,104.00399999999999,1.0
1626294680.9441667,-30.273000000000003,-57.617,-54.199,-82.52,1.0
1626294680.948073,-97.656,-63.477,-59.082,-196.77700000000002,1.0
1626294680.9519792,-35.156,-39.062,-42.968999999999994,-25.391,1.0
1626294680.9558854,46.387,-24.414,-19.531,130.859,1.0
1626294680.9597917,17.09,-18.066,-13.672,7.812,1.0
1626294680.963698,-72.75399999999999,-58.105,-25.879,-166.50400000000002,1.0
1626294680.9676042,-53.223,-50.781000000000006,-30.273000000000003,-65.918,1.0
1626294680.9715104,32.227,-7.324,-22.461,123.535,1.0
1626294680.975417,14.648,-15.625,-23.438000000000002,44.434,1.0
1626294680.979323,-85.449,-40.527,-39.551,-170.898,1.0
1626294680.983229,-169.922,-23.438000000000002,-17.09,-257.812,1.0
1626294680.9871356,-163.086,-27.344,-7.812,-180.66400000000002,1.0
1626294680.9910414,-79.102,9.277000000000001,13.672,3.906,1.0
1626294680.9949477,-102.539,0.977,0.0,-75.195,1.0
1626294680.998854,-202.637,-16.602,-32.715,-292.969,1.0
1626294681.0027602,-220.703,-12.207,-30.761999999999997,-287.598,1.0
1626294681.006667,-128.906,-8.789,-11.23,-83.49600000000001,1.0
1626294681.010573,-86.426,-20.02,-12.695,-34.18,1.0
1626294681.0144792,-157.715,-15.625,-33.691,-216.30900000000003,1.0
1626294681.0183854,-215.332,-5.371,-35.645,-295.89799999999997,1.0
1626294681.0222914,-136.719,13.184000000000001,0.977,-107.91,1.0
1626294681.026198,-75.684,-8.789,-10.254000000000001,0.0,1.0
1626294681.0301042,52.246,-17.578,-38.574,1.0,1.0
1626294681.0340102,-18.066,-27.831999999999997,-50.293,1.0,1.0
1626294681.0379167,-88.37899999999999,-59.57,-64.941,1.0,1.0
1626294681.041823,-15.625,-64.941,-73.73,1.0,1.0
1626294681.0457292,123.535,-24.901999999999997,-25.391,1.0,1.0
1626294681.0496354,98.145,-4.883,-4.395,1.0,1.0
1626294681.0535417,-40.039,-14.648,-58.105,1.0,1.0
1626294681.057448,-61.035,-40.039,-83.984,1.0,1.0
1626294681.0613542,47.363,-29.296999999999997,-44.922,1.0,1.0
1626294681.0652604,55.176,-27.831999999999997,-32.715,1.0,1.0
1626294681.0691667,-27.344,-56.152,-37.109,1.0,1.0
1626294681.073073,-26.366999999999997,-35.156,-30.273000000000003,1.0,1.0
1626294681.0769792,-9.277000000000001,-41.992,-20.996,-20.02,1.0
1626294681.0808856,106.445,-18.066,-9.277000000000001,192.38299999999998,1.0
1626294681.0847917,84.961,-71.289,-22.949,110.352,1.0
1626294681.088698,-37.109,-69.824,-47.852,-117.18799999999999,1.0
1626294681.0926042,-30.273000000000003,-1.465,-54.688,-66.895,1.0
1626294681.0965104,82.031,20.02,-33.691,160.645,1.0
1626294681.1004167,89.844,-27.344,-41.992,145.02,1.0
1626294681.104323,-27.831999999999997,-75.684,-63.965,-86.426,1.0
1626294681.108229,-68.848,-50.781000000000006,-43.945,-135.254,1.0
1626294681.1121356,14.16,-38.086,-52.733999999999995,60.547,1.0
1626294681.1160414,66.895,-37.109,-52.733999999999995,154.785,1.0
1626294681.1199481,0.0,-38.086,-40.039,-22.949,1.0
1626294681.123854,-29.296999999999997,-26.855,-40.527,-86.914,1.0
1626294681.1277602,-56.641000000000005,-27.344,-15.137,-124.512,1.0
1626294681.131667,5.859,-34.18,-15.137,51.758,1.0
1626294681.135573,48.34,-46.387,-29.785,135.74200000000002,1.0
1626294681.139479,-20.02,-69.336,-39.062,-34.18,1.0
1626294681.1433854,-92.285,-74.707,-44.922,-165.52700000000002,1.0
1626294681.1472914,-26.855,-27.344,-24.901999999999997,-2.93,1.0
1626294681.151198,52.246,-5.859,-28.32,159.18,1.0
1626294681.1551042,6.348,-29.785,-40.039,30.273000000000003,1.0
1626294681.1590104,-91.79700000000001,-38.574,-27.831999999999997,-169.922,1.0
1626294681.1629167,-64.941,-23.438000000000002,-5.859,-80.566,1.0
1626294681.166823,44.434,-13.672,-17.578,141.602,1.0
1626294681.1707292,31.25,-6.348,-38.574,90.82,1.0
1626294681.1746354,8.789,-13.184000000000001,-43.457,-142.578,1.0
1626294681.1785414,-111.816,-52.733999999999995,-63.965,-152.832,1.0
1626294681.182448,-100.098,-58.593999999999994,-51.758,60.547,1.0
1626294681.1863542,31.25,-12.695,-8.301,88.867,1.0
1626294681.1902604,46.387,-12.207,-23.926,-117.676,1.0
1626294681.1941667,-39.062,-21.973000000000003,-26.366999999999997,-171.875,1.0
1626294681.198073,-80.078,-39.062,-43.945,39.062,1.0
1626294681.2019792,-7.812,-53.223,-55.663999999999994,175.78099999999998,1.0
1626294681.2058854,46.387,-66.895,-32.227,-42.48,1.0
1626294681.2097917,-2.441,-34.668,-21.484,-227.53900000000002,1.0
1626294681.213698,-72.75399999999999,-5.859,-29.785,-59.57,1.0
1626294681.2176042,-76.66,-30.273000000000003,-25.879,-157.715,1.0
1626294681.2215104,-4.883,-35.645,-33.203,37.109,1.0
1626294681.225417,40.527,-52.246,-40.039,118.652,1.0
1626294681.229323,-7.812,-36.621,-38.086,-43.457,1.0
1626294681.233229,-75.195,-11.719000000000001,-26.855,-162.109,1.0
1626294681.2371356,-42.48,-19.531,-18.066,-20.02,1.0
1626294681.2410414,51.758,-0.488,-20.508000000000003,144.043,1.0
1626294681.2449477,25.391,-13.184000000000001,-12.695,23.438000000000002,1.0
1626294681.248854,-83.008,-41.016000000000005,-30.273000000000003,-178.71099999999998,1.0
1626294681.2527602,-54.688,-18.066,-32.715,-78.613,1.0
1626294681.256667,46.875,-13.184000000000001,-21.484,130.859,1.0
1626294681.260573,46.875,-28.32,-27.831999999999997,80.078,1.0
1626294681.2644792,20.996,-21.973000000000003,-9.277000000000001,1.0,1.0
1626294681.2683854,-107.42200000000001,-62.012,-20.02,1.0,1.0
1626294681.2722914,-92.773,-47.852,-28.32,1.0,1.0
1626294681.276198,13.672,-20.02,-11.719000000000001,1.0,1.0
1626294681.2801042,13.672,-13.672,-12.207,1.0,1.0
1626294681.2840102,-71.289,-18.555,-15.625,1.0,1.0
1626294681.2879167,-99.609,-38.086,-26.366999999999997,1.0,1.0
1626294681.291823,-2.441,-64.453,-14.648,1.0,1.0
1626294681.2957292,48.34,-50.293,-14.16,1.0,1.0
1626294681.2996354,-35.645,-44.922,-34.668,1.0,1.0
1626294681.3035417,-92.773,-51.27,-48.34,1.0,1.0
1626294681.307448,-24.414,-18.066,-44.922,1.0,1.0
1626294681.3113542,1.465,-38.086,-19.043,43.945,1.0
1626294681.3152604,66.895,-28.32,-10.254000000000001,121.094,1.0
1626294681.3191667,-20.508000000000003,-21.973000000000003,-40.039,-74.707,1.0
1626294681.323073,-104.00399999999999,-40.039,-51.758,-200.68400000000003,1.0
1626294681.3269792,-45.41,-17.578,-26.366999999999997,-38.086,1.0
1626294681.3308856,52.246,-3.418,-16.113,129.88299999999998,1.0
1626294681.3347917,4.395,-28.32,-46.387,-16.602,1.0
1626294681.338698,-91.79700000000001,-37.109,-37.598,-190.43,1.0
1626294681.3426042,-68.848,-35.645,-30.761999999999997,-75.195,1.0
1626294681.3465104,12.695,-20.996,-37.598,102.539,1.0
1626294681.3504167,-2.441,-18.555,-34.18,17.09,1.0
1626294681.354323,-98.145,-36.133,-44.434,-195.312,1.0
1626294681.358229,-47.852,-38.086,13.184000000000001,-145.02,1.0
1626294681.3621356,-23.438000000000002,-43.945,-0.977,-57.129,1.0
1626294681.3660414,20.996,-39.062,-66.406,98.633,1.0
1626294681.3699481,-12.695,-46.387,-84.473,21.973000000000003,1.0
1626294681.373854,-105.95700000000001,-52.733999999999995,-52.246,-178.71099999999998,1.0
1626294681.3777602,-108.398,-45.898,-49.805,-145.02,1.0
1626294681.381667,-14.16,-28.809,-41.016000000000005,62.5,1.0
1626294681.385573,10.254000000000001,-38.086,-19.043,76.66,1.0
1626294681.389479,-63.477,-46.387,-23.926,-127.93,1.0
1626294681.3933854,-93.75,-32.227,-23.438000000000002,-177.734,1.0
1626294681.3972914,-8.789,-15.137,-13.672,28.809,1.0
1626294681.401198,62.5,-14.648,-11.719000000000001,139.648,1.0
1626294681.4051042,26.366999999999997,-15.137,-39.551,1.0,1.0
1626294681.4090104,-49.316,-38.086,-56.641000000000005,1.0,1.0
1626294681.4129167,-108.398,-62.988,-20.996,1.0,1.0
1626294681.416823,-43.457,-33.691,-20.02,1.0,1.0
1626294681.4207292,26.855,-12.695,-25.391,1.0,1.0
1626294681.4246354,-14.648,-16.113,-35.156,1.0,1.0
1626294681.4285414,-67.383,-21.484,-30.273000000000003,1.0,1.0
1626294681.432448,-32.227,-32.715,-19.043,1.0,1.0
1626294681.4363542,41.016000000000005,-27.344,-15.625,1.0,1.0
1626294681.4402604,12.695,-13.672,-22.461,1.0,1.0
1626294681.4441667,-113.281,-43.457,-67.87100000000001,1.0,1.0
1626294681.448073,-106.934,-61.523,-53.223,1.0,1.0
1626294681.4519792,-64.941,-39.551,-36.621,-67.87100000000001,1.0
1626294681.4558854,35.156,-22.461,-25.391,132.32399999999998,1.0
1626294681.4597917,28.809,-30.273000000000003,-35.645,58.593999999999994,1.0
1626294681.463698,-76.172,-44.922,-42.48,-158.203,1.0
1626294681.4676042,-73.73,-22.461,-12.207,-110.352,1.0
1626294681.4715104,23.438000000000002,4.395,-4.395,105.95700000000001,1.0
1626294681.475417,31.738000000000003,-9.766,-21.973000000000003,87.891,1.0
1626294681.479323,-41.504,-17.578,-10.742,-108.887,1.0
1626294681.483229,-86.426,-13.184000000000001,-18.555,-152.344,1.0
1626294681.4871356,-11.719000000000001,-11.23,-31.25,38.086,1.0
1626294681.4910414,35.156,-21.484,-42.48,113.77,1.0
1626294681.4949477,-43.945,-34.668,-50.293,-80.078,1.0
1626294681.498854,-54.199,-13.672,-55.663999999999994,-114.74600000000001,1.0
1626294681.5027602,-108.887,-39.062,-55.176,-180.176,1.0
1626294681.506667,-23.926,-56.152,-29.296999999999997,26.855,1.0
1626294681.510573,36.621,-66.406,-44.434,121.094,1.0
1626294681.5144792,-23.926,-25.391,-28.809,-48.828,1.0
1626294681.5183854,-109.863,0.488,-10.254000000000001,-196.28900000000002,1.0
1626294681.5222914,-74.219,-16.602,-19.043,-64.941,1.0
1626294681.526198,30.273000000000003,-38.574,-15.625,121.58200000000001,1.0
1626294681.5301042,0.488,-49.805,-30.273000000000003,5.371,1.0
1626294681.5340102,-88.37899999999999,-34.18,-47.363,-183.105,1.0
1626294681.5379167,-69.336,-28.809,-48.828,-94.238,1.0
1626294681.541823,17.578,-35.645,-36.621,104.00399999999999,1.0
1626294681.5457292,21.973000000000003,-9.766,-32.227,114.74600000000001,1.0
1626294681.5496354,0.488,-24.901999999999997,-15.137,13.672,1.0
1626294681.5535417,-90.33200000000001,-68.359,-16.113,-182.12900000000002,1.0
1626294681.557448,-103.027,-54.688,-42.968999999999994,-138.184,1.0
1626294681.5613542,-4.395,-8.789,-46.875,74.707,1.0
1626294681.5652604,18.066,-11.719000000000001,-35.645,62.5,1.0
1626294681.5691667,-82.52,-35.645,-44.434,-157.715,1.0
1626294681.573073,-93.75,-55.663999999999994,-37.109,-154.785,1.0
1626294681.5769792,7.324,-38.574,-23.926,72.266,1.0
1626294681.5808856,61.523,-8.301,-12.207,139.16,1.0
1626294681.5847917,-25.391,-16.113,-27.344,-67.383,1.0
1626294681.588698,-113.77,-37.109,-57.129,-197.266,1.0
1626294681.5926042,-89.844,-5.371,-4.395,-154.297,1.0
1626294681.5965104,-16.113,-28.809,-23.438000000000002,39.551,1.0
1626294681.6004167,38.086,-25.879,-39.062,117.18799999999999,1.0
1626294681.604323,-30.761999999999997,-10.742,-40.039,-71.777,1.0
1626294681.608229,-107.42200000000001,-25.391,-42.968999999999994,-202.148,1.0
1626294681.6121356,-31.738000000000003,-9.766,-19.531,-9.277000000000001,1.0
1626294681.6160414,57.617,-7.324,-27.344,153.809,1.0
1626294681.6199481,-7.812,-41.992,-59.082,-12.207,1.0
1626294681.623854,-113.77,-63.477,-62.988,-208.984,1.0
1626294681.6277602,-86.426,-56.641000000000005,-46.875,-105.469,1.0
1626294681.631667,10.254000000000001,-48.34,-39.062,102.051,1.0
1626294681.635573,12.207,-39.551,-30.761999999999997,41.504,1.0
1626294681.639479,9.277000000000001,-32.715,-18.066,1.0,1.0
1626294681.6433854,-70.801,-37.109,-19.043,1.0,1.0
1626294681.6472914,-64.941,-42.968999999999994,-27.831999999999997,1.0,1.0
1626294681.651198,28.809,-20.508000000000003,-34.668,1.0,1.0
1626294681.6551042,39.062,-19.043,-22.949,1.0,1.0
1626294681.6590104,-65.918,-42.48,-36.621,1.0,1.0
1626294681.6629167,-77.637,-39.551,-55.663999999999994,1.0,1.0
1626294681.666823,21.484,-52.733999999999995,-44.922,1.0,1.0
1626294681.6707292,45.898,-44.922,-30.273000000000003,1.0,1.0
1626294681.6746354,-46.387,-33.203,-13.672,1.0,1.0
1626294681.6785414,-117.18799999999999,-34.668,-20.996,1.0,1.0
1626294681.682448,-34.668,-26.855,-28.32,1.0,1.0
1626294681.6863542,12.695,-30.761999999999997,-16.113,64.941,1.0
1626294681.6902604,60.059,-49.805,-31.25,121.094,1.0
1626294681.6941667,-34.18,-53.711000000000006,-57.129,-93.262,1.0
1626294681.698073,-119.141,-42.968999999999994,-58.105,-214.355,1.0
1626294681.7019792,-32.227,-13.184000000000001,-38.574,-14.648,1.0
1626294681.7058854,61.523,-3.906,-24.414,145.50799999999998,1.0
1626294681.7097917,-5.859,-35.156,-41.504,-18.555,1.0
1626294681.713698,-104.00399999999999,-60.059,-41.992,-194.824,1.0
1626294681.7176042,-58.593999999999994,-40.039,-19.531,-63.477,1.0
1626294681.7215104,54.688,-13.184000000000001,-9.277000000000001,142.09,1.0
1626294681.725417,34.18,-29.785,-9.766,48.828,1.0
1626294681.729323,-93.75,-49.316,-40.039,-181.641,1.0
1626294681.733229,-113.281,-31.25,-39.551,-188.965,1.0
1626294681.7371356,-68.359,-8.301,-42.48,-74.707,1.0
1626294681.7410414,38.574,-14.648,-35.645,125.488,1.0
1626294681.7449477,44.922,-16.602,-13.672,76.66,1.0
1626294681.748854,-65.43,-24.901999999999997,-11.23,-142.578,1.0
1626294681.7527602,-79.59,-29.785,-34.668,-120.117,1.0
1626294681.756667,35.645,-32.715,-27.344,97.656,1.0
1626294681.760573,82.52,-36.621,9.277000000000001,127.441,1.0
1626294681.7644792,-31.25,-57.129,-23.438000000000002,-101.074,1.0
1626294681.7683854,-108.398,-51.27,-51.758,-185.547,1.0
1626294681.7722914,-16.602,-20.02,-24.414,19.043,1.0
1626294681.776198,57.617,-8.789,-22.461,126.95299999999999,1.0
1626294681.7801042,45.898,-27.344,-5.371,-65.43,1.0
1626294681.7840102,-44.434,-40.039,-31.738000000000003,-208.984,1.0
1626294681.7879167,-121.58200000000001,-57.617,-70.801,-42.968999999999994,1.0
1626294681.791823,-55.176,-54.688,-60.547,144.043,1.0
1626294681.7957292,19.531,-29.296999999999997,-22.461,41.016000000000005,1.0
1626294681.7996354,-41.992,-27.831999999999997,-18.555,-162.59799999999998,1.0
1626294681.8035417,-108.398,-35.645,-42.968999999999994,-106.934,1.0
1626294681.807448,-69.824,-56.641000000000005,-64.453,97.16799999999999,1.0
1626294681.8113542,27.344,-60.547,-44.922,55.176,1.0
1626294681.8152604,12.695,-46.875,-13.184000000000001,-158.691,1.0
1626294681.8191667,-83.984,-22.949,-16.113,-145.996,1.0
1626294681.823073,-81.543,-34.18,-29.785,69.336,1.0
1626294681.8269792,-48.828,-6.348,-6.348,-39.062,1.0
1626294681.8308856,39.062,2.93,-10.254000000000001,141.113,1.0
1626294681.8347917,-4.395,-67.87100000000001,-41.992,23.926,1.0
1626294681.838698,-99.609,-86.426,-50.293,-176.27,1.0
1626294681.8426042,-65.43,-20.996,-22.949,-93.262,1.0
1626294681.8465104,31.25,4.883,-13.184000000000001,124.023,1.0
1626294681.8504167,27.831999999999997,-9.766,-35.156,94.238,1.0
1626294681.854323,-80.566,-47.852,-58.105,-140.137,1.0
1626294681.858229,-102.051,-38.574,-49.805,-150.391,1.0
1626294681.8621356,-4.395,-11.23,-45.898,70.312,1.0
1626294681.8660414,37.109,-1.953,-32.227,124.512,1.0
1626294681.8699481,-49.805,-30.273000000000003,-21.484,-85.449,1.0
1626294681.873854,-66.406,-26.855,-29.785,-118.164,1.0
1626294681.8777602,-102.539,-19.043,-24.901999999999997,-164.062,1.0
1626294681.881667,-30.273000000000003,-27.831999999999997,-23.438000000000002,26.855,1.0
1626294681.885573,32.227,-26.855,-25.391,121.58200000000001,1.0
1626294681.889479,-6.348,-15.625,-19.043,-37.109,1.0
1626294681.8933854,-87.891,-37.598,-26.855,-172.363,1.0
1626294681.8972914,-41.016000000000005,-44.922,-32.227,-22.461,1.0
1626294681.901198,41.016000000000005,-27.344,-18.555,139.16,1.0
1626294681.9051042,-4.883,-23.926,-17.09,4.395,1.0
1626294681.9090104,-108.887,-47.363,-41.504,-200.195,1.0
1626294681.9129167,-88.37899999999999,-53.223,-39.551,-112.305,1.0
1626294681.916823,15.137,-29.296999999999997,-21.973000000000003,95.215,1.0
1626294681.9207292,58.105,4.395,-27.831999999999997,135.74200000000002,1.0
1626294681.9246354,29.296999999999997,-9.766,-20.996,29.785,1.0
1626294681.9285414,-82.031,-50.293,-20.996,-176.75799999999998,1.0
1626294681.932448,-61.523,-53.711000000000006,-12.695,-93.75,1.0
1626294681.9363542,41.016000000000005,-32.715,-14.16,115.723,1.0
1626294681.9402604,40.039,-25.391,-33.203,70.801,1.0
1626294681.9441667,-62.5,-21.973000000000003,-38.574,-144.043,1.0
1626294681.948073,-105.469,-28.809,-48.828,-161.621,1.0
1626294681.9519792,-10.254000000000001,-25.879,-41.992,53.711000000000006,1.0
1626294681.9558854,38.086,-20.508000000000003,-23.438000000000002,110.84,1.0
1626294681.9597917,-50.293,-23.438000000000002,-27.344,-95.70299999999999,1.0
1626294681.963698,-108.887,-14.648,-23.926,-184.082,1.0
1626294681.9676042,-2.441,-43.945,-29.296999999999997,-158.203,1.0
1626294681.9715104,-84.961,-51.27,-38.574,62.012,1.0
1626294681.975417,-64.941,-53.223,-38.574,125.488,1.0
1626294681.979323,42.48,-39.551,-26.855,-77.637,1.0
1626294681.983229,44.922,-16.113,-41.992,-188.477,1.0
1626294681.9871356,-75.195,-18.555,-54.688,1.953,1.0
1626294681.9910414,-103.027,-22.461,-25.391,166.50400000000002,1.0
1626294681.9949477,-9.766,-27.831999999999997,-14.16,-9.766,1.0
1626294681.998854,25.391,-24.901999999999997,-15.625,-211.426,1.0
1626294682.0027602,-56.641000000000005,-18.555,-19.531,-95.70299999999999,1.0
1626294682.006667,-110.352,-24.414,-29.785,100.586,1.0
1626294682.010573,-48.828,-45.41,-38.086,35.645,1.0
1626294682.0144792,-4.883,-15.625,-36.621,60.059,1.0
1626294682.0183854,52.733999999999995,-7.812,-30.273000000000003,128.418,1.0
1626294682.0222914,-35.156,-44.434,-30.273000000000003,-83.008,1.0
1626294682.026198,-99.12100000000001,-43.945,-20.996,-176.27,1.0
1626294682.0301042,-22.461,-22.461,-19.531,20.508000000000003,1.0
1626294682.0340102,36.621,-28.32,-30.273000000000003,132.32399999999998,1.0
1626294682.0379167,-33.691,-47.363,-22.949,-38.574,1.0
1626294682.041823,-122.559,-66.895,-45.898,-197.75400000000002,1.0
1626294682.0457292,-62.012,-31.738000000000003,-62.5,-54.688,1.0
1626294682.0496354,28.32,-0.977,-40.527,119.62899999999999,1.0
1626294682.0535417,-2.441,-15.625,-23.438000000000002,14.16,1.0
1626294682.057448,-89.355,-44.434,-9.277000000000001,-176.27,1.0
1626294682.0613542,-95.70299999999999,-37.109,-57.129,-195.312,1.0
1626294682.0652604,-51.758,-10.254000000000001,-20.508000000000003,-62.988,1.0
1626294682.0691667,3.418,-42.48,-49.805,90.82,1.0
1626294682.073073,-29.785,-49.805,-62.5,-8.789,1.0
1626294682.0769792,-87.402,-11.23,-38.086,-167.48,1.0
1626294682.0808856,-83.008,-7.812,-33.203,-115.234,1.0
1626294682.0847917,7.324,-24.414,-20.508000000000003,81.543,1.0
1626294682.088698,32.227,-56.641000000000005,-19.043,82.52,1.0
1626294682.0926042,-55.663999999999994,-49.316,-36.133,-132.812,1.0
1626294682.0965104,-91.79700000000001,-22.949,-33.691,-168.945,1.0
1626294682.1004167,-9.766,-2.441,-31.25,44.922,1.0
1626294682.104323,46.875,-9.277000000000001,-35.645,125.977,1.0
1626294682.108229,35.156,-5.859,-39.551,-72.266,1.0
1626294682.1121356,-63.965,-29.785,-23.926,-183.105,1.0
1626294682.1160414,-98.145,-50.781000000000006,-18.066,-28.32,1.0
1626294682.1199481,-6.348,-44.922,-14.16,116.699,1.0
1626294682.123854,29.296999999999997,-29.296999999999997,-30.273000000000003,-2.93,1.0
1626294682.1277602,-44.434,-20.508000000000003,-44.434,-190.918,1.0
1626294682.131667,-93.262,-16.113,-46.387,-83.008,1.0
1626294682.135573,-28.32,-42.968999999999994,-34.18,135.74200000000002,1.0
1626294682.139479,53.223,-51.758,-33.203,69.336,1.0
1626294682.1433854,9.277000000000001,-43.945,-40.527,-177.24599999999998,1.0
1626294682.1472914,-81.055,-40.039,-33.691,-159.668,1.0
1626294682.151198,-61.035,-36.133,-28.809,76.172,1.0
1626294682.1551042,-62.988,-32.227,-32.227,-70.801,1.0
1626294682.1590104,24.414,-25.879,-31.738000000000003,110.352,1.0
1626294682.1629167,-22.461,-75.195,-70.801,-6.348,1.0
1626294682.166823,-120.605,-79.102,-79.102,-208.49599999999998,1.0
1626294682.1707292,-85.449,-38.086,-49.805,-111.816,1.0
1626294682.1746354,21.973000000000003,-39.062,-51.27,109.863,1.0
1626294682.1785414,38.086,-4.883,-31.738000000000003,83.984,1.0
1626294682.182448,-59.082,-43.945,-11.23,-136.719,1.0
1626294682.1863542,-91.79700000000001,-62.5,-16.602,-153.32,1.0
1626294682.1902604,12.207,-6.836,-6.836,71.777,1.0
1626294682.1941667,77.148,14.648,14.16,147.94899999999998,1.0
1626294682.198073,-32.227,-17.09,-21.973000000000003,-77.148,1.0
1626294682.2019792,-67.383,-10.254000000000001,-15.137,1.0,1.0
1626294682.2058854,-99.609,4.395,-23.438000000000002,1.0,1.0
1626294682.2097917,-30.761999999999997,-58.105,-31.25,1.0,1.0
1626294682.213698,33.691,-84.473,-15.625,1.0,1.0
1626294682.2176042,-27.831999999999997,-39.062,-54.688,1.0,1.0
1626294682.2215104,-118.164,-30.273000000000003,-69.824,1.0,1.0
1626294682.225417,-58.593999999999994,-20.02,-35.156,1.0,1.0
1626294682.229323,27.344,-57.129,-36.621,1.0,1.0
1626294682.233229,10.254000000000001,-46.875,-25.391,1.0,1.0
1626294682.2371356,-74.219,-11.23,-15.625,1.0,1.0
1626294682.2410414,-69.336,-7.812,-14.16,1.0,1.0
1626294682.2449477,21.973000000000003,-10.742,-10.742,1.0,1.0
1626294682.248854,56.152,-1.465,1.465,148.92600000000002,1.0
1626294682.2527602,5.371,-18.555,-22.949,8.789,1.0
1626294682.256667,-98.145,-52.733999999999995,-48.34,-187.012,1.0
1626294682.260573,-58.593999999999994,-51.27,-28.809,-77.637,1.0
1626294682.2644792,36.133,-10.254000000000001,-12.695,130.859,1.0
1626294682.2683854,13.184000000000001,-11.719000000000001,-32.227,62.012,1.0
1626294682.2722914,-84.961,-15.137,-44.434,-150.879,1.0
1626294682.276198,-120.117,-34.18,-46.387,-161.13299999999998,1.0
1626294682.2801042,-17.578,-20.508000000000003,-13.184000000000001,59.57,1.0
1626294682.2840102,52.246,-4.883,10.742,128.906,1.0
1626294682.2879167,-45.898,-34.18,-31.738000000000003,-91.79700000000001,1.0
1626294682.291823,-111.32799999999999,-49.805,-39.551,-177.734,1.0
1626294682.2957292,-86.914,-52.733999999999995,-23.438000000000002,-145.50799999999998,1.0
1626294682.2996354,27.831999999999997,-9.277000000000001,13.672,88.867,1.0
1626294682.3035417,48.828,-21.484,-18.066,126.95299999999999,1.0
1626294682.307448,-57.617,-50.781000000000006,-62.988,-101.074,1.0
1626294682.3113542,-112.79299999999999,-26.855,-54.688,-197.266,1.0
1626294682.3152604,-52.733999999999995,-8.301,-42.48,-21.973000000000003,1.0
1626294682.3191667,33.203,-8.789,-18.555,123.535,1.0
1626294682.323073,-18.066,-36.133,-31.738000000000003,-30.761999999999997,1.0
1626294682.3269792,-103.516,-32.715,-34.18,-196.77700000000002,1.0
1626294682.3308856,-50.781000000000006,-43.945,-12.207,-56.641000000000005,1.0
1626294682.3347917,62.5,-57.617,0.488,154.785,1.0
1626294682.338698,58.105,-18.066,7.324,75.195,1.0
1626294682.3426042,-11.23,-19.043,-25.391,-16.113,1.0
1626294682.3465104,-83.008,2.441,-15.625,-179.199,1.0
1626294682.3504167,-52.733999999999995,-29.785,-27.831999999999997,-63.965,1.0
1626294682.354323,37.598,-56.152,-38.574,121.094,1.0
1626294682.358229,36.621,-29.785,-16.602,61.523,1.0
1626294682.3621356,-70.312,-47.852,-27.831999999999997,-155.762,1.0
1626294682.3660414,-97.656,-37.109,-54.199,-144.043,1.0
1626294682.3699481,-16.113,-21.973000000000003,-57.617,58.593999999999994,1.0
1626294682.373854,21.973000000000003,-15.137,-39.062,79.59,1.0
1626294682.3777602,-46.875,-9.277000000000001,-30.273000000000003,-108.887,1.0
1626294682.381667,-82.52,-8.301,-41.992,-159.18,1.0
1626294682.385573,-0.488,4.883,-18.066,35.156,1.0
1626294682.389479,-9.766,-10.742,-28.32,54.688,1.0
1626294682.3933854,49.316,8.301,-20.508000000000003,104.98,1.0
1626294682.3972914,-30.761999999999997,-48.34,-34.18,-99.12100000000001,1.0
1626294682.401198,-104.00399999999999,-85.449,-53.711000000000006,-187.012,1.0
1626294682.4051042,-24.414,-43.457,-42.968999999999994,10.254000000000001,1.0
1626294682.4090104,47.852,-40.527,-17.578,123.04700000000001,1.0
1626294682.4129167,-15.625,-34.668,-27.344,-47.852,1.0
1626294682.416823,-103.027,-51.27,-35.645,-197.75400000000002,1.0
1626294682.4207292,-66.406,-41.504,-17.578,-57.129,1.0
1626294682.4246354,33.203,-7.324,-16.113,124.023,1.0
1626294682.4285414,3.906,-12.207,-44.434,10.254000000000001,1.0
1626294682.432448,-94.238,-31.25,-54.688,-188.965,1.0
1626294682.4363542,-94.727,-5.859,-19.531,-173.34,1.0
1626294682.4402604,-41.504,3.418,-4.883,-37.109,1.0
1626294682.4441667,42.968999999999994,-25.391,-11.23,138.184,1.0
1626294682.448073,-3.906,-41.992,-32.227,18.066,1.0
1626294682.4519792,-103.027,-27.831999999999997,-34.668,-188.477,1.0
1626294682.4558854,-95.70299999999999,-26.366999999999997,-22.461,-127.441,1.0
1626294682.4597917,16.113,-25.391,-8.789,93.262,1.0
1626294682.463698,54.199,-16.602,-4.883,106.445,1.0
1626294682.4676042,-42.968999999999994,-3.418,-24.901999999999997,-104.492,1.0
1626294682.4715104,-98.145,-24.414,-27.344,-157.715,1.0
1626294682.475417,-28.32,-49.316,-20.996,35.156,1.0
1626294682.479323,19.043,-37.598,-27.831999999999997,107.42200000000001,1.0
1626294682.483229,41.504,-36.621,-21.973000000000003,-74.707,1.0
1626294682.4871356,-45.41,-37.109,-49.805,-197.266,1.0
1626294682.4910414,-89.844,-57.617,-44.922,-27.831999999999997,1.0
1626294682.4949477,-9.277000000000001,-46.875,-30.761999999999997,141.113,1.0
1626294682.498854,52.246,-13.184000000000001,-42.968999999999994,2.93,1.0
1626294682.5027602,-9.766,-41.504,-48.828,-158.203,1.0
1626294682.506667,-85.93799999999999,-31.738000000000003,-29.785,-43.457,1.0
1626294682.510573,-48.34,-28.32,-18.555,129.88299999999998,1.0
1626294682.5144792,30.273000000000003,-30.761999999999997,-29.785,36.621,1.0
1626294682.5183854,-8.301,-23.438000000000002,-54.199,-191.895,1.0
1626294682.5222914,-87.891,-41.504,-53.711000000000006,-163.086,1.0
1626294682.526198,-54.199,-32.715,-16.602,77.148,1.0
1626294682.5301042,-65.43,-18.066,-34.18,-61.523,1.0
1626294682.5340102,31.25,9.766,-22.461,131.34799999999998,1.0
1626294682.5379167,10.742,-17.09,-36.133,24.414,1.0
1626294682.541823,-89.355,-48.34,-54.199,-179.199,1.0
1626294682.5457292,-66.895,-21.973000000000003,-23.438000000000002,-94.727,1.0
1626294682.5496354,29.785,-9.766,-17.578,116.211,1.0
1626294682.5535417,6.348,-39.062,-48.34,49.805,1.0
1626294682.557448,-70.801,-55.663999999999994,-39.062,-151.36700000000002,1.0
1626294682.5613542,-77.637,-71.777,-11.719000000000001,-137.695,1.0
1626294682.5652604,5.371,-47.852,-11.719000000000001,72.266,1.0
1626294682.5691667,57.129,21.484,-23.438000000000002,128.906,1.0
1626294682.573073,-18.555,22.461,-33.691,-76.172,1.0
1626294682.5769792,-65.918,-31.25,-29.785,1.0,1.0
1626294682.5808856,-104.492,-54.688,-46.875,1.0,1.0
1626294682.5847917,-18.555,-56.641000000000005,-28.809,1.0,1.0
1626294682.588698,46.875,-20.996,-42.48,1.0,1.0
1626294682.5926042,-29.785,-17.09,-50.781000000000006,1.0,1.0
1626294682.5965104,-89.844,-18.066,-12.207,1.0,1.0
1626294682.6004167,-18.555,-4.395,-2.93,1.0,1.0
1626294682.604323,56.152,-25.391,-12.207,1.0,1.0
1626294682.608229,-5.371,-41.016000000000005,-29.785,1.0,1.0
1626294682.6121356,-117.18799999999999,-52.246,-52.246,1.0,1.0
1626294682.6160414,-81.543,-45.898,-48.828,1.0,1.0
1626294682.6199481,34.668,-22.461,-23.926,1.0,1.0
1626294682.623854,22.461,-13.184000000000001,-20.996,104.98,1.0
1626294682.6277602,-23.438000000000002,-12.695,-42.48,-35.156,1.0
1626294682.631667,-100.586,-29.785,-34.18,-196.77700000000002,1.0
1626294682.635573,-54.688,-14.648,-17.09,-73.242,1.0
1626294682.639479,36.133,-7.324,-32.227,114.258,1.0
1626294682.6433854,15.625,-28.809,-33.691,35.156,1.0
1626294682.6472914,-83.984,-32.715,-39.062,-167.48,1.0
1626294682.651198,-76.66,-40.039,-20.508000000000003,-121.58200000000001,1.0
1626294682.6551042,24.414,-38.086,-17.578,95.70299999999999,1.0
1626294682.6590104,37.109,-64.453,-31.25,107.91,1.0
1626294682.6629167,-51.758,-79.59,-43.457,-108.398,1.0
1626294682.666823,-104.00399999999999,-36.133,-62.988,-186.523,1.0
1626294682.6707292,-128.418,-48.34,-39.551,-177.24599999999998,1.0
1626294682.6746354,-45.898,-43.457,-32.715,33.203,1.0
1626294682.6785414,26.855,-38.086,-21.973000000000003,103.027,1.0
1626294682.682448,-44.922,-62.5,-30.273000000000003,-96.191,1.0
1626294682.6863542,-121.094,-60.059,-40.527,-203.613,1.0
1626294682.6902604,-41.016000000000005,-26.855,-37.598,-13.184000000000001,1.0
1626294682.6941667,42.48,-6.348,-46.875,112.305,1.0
1626294682.698073,-8.301,-46.875,-23.926,-40.527,1.0
1626294682.7019792,-97.16799999999999,-59.57,-8.789,-195.801,1.0
1626294682.7058854,-47.852,-6.348,0.0,-58.105,1.0
1626294682.7097917,41.504,-2.441,-15.137,127.441,1.0
1626294682.713698,-6.348,-39.551,-49.805,8.301,1.0
1626294682.7176042,1.953,-26.366999999999997,-30.273000000000003,1.0,1.0
1626294682.7215104,-80.078,-15.137,-14.16,1.0,1.0
1626294682.725417,-44.434,-32.715,-8.789,1.0,1.0
1626294682.729323,41.016000000000005,-30.761999999999997,-20.02,1.0,1.0
1626294682.733229,28.32,2.93,-14.648,1.0,1.0
1626294682.7371356,-72.75399999999999,-20.508000000000003,-31.25,1.0,1.0
1626294682.7410414,-75.195,-23.438000000000002,-37.109,1.0,1.0
1626294682.7449477,34.668,-51.758,-19.043,1.0,1.0
1626294682.748854,62.988,-32.715,-18.555,1.0,1.0
1626294682.7527602,-47.363,-1.953,-22.461,1.0,1.0
1626294682.756667,-91.309,-35.156,-24.901999999999997,1.0,1.0
1626294682.760573,2.441,-40.039,-28.809,1.0,1.0
1626294682.7644792,-1.465,-36.133,-22.949,74.707,1.0
1626294682.7683854,15.625,-28.809,-37.109,88.867,1.0
1626294682.7722914,-76.172,-61.035,-43.457,-127.93,1.0
1626294682.776198,-111.32799999999999,-52.733999999999995,-30.761999999999997,-189.94099999999997,1.0
1626294682.7801042,-28.809,8.789,-23.926,14.648,1.0
1626294682.7840102,33.691,-2.441,-19.531,126.95299999999999,1.0
1626294682.7879167,-33.691,-30.273000000000003,-45.41,-54.199,1.0
1626294682.791823,-118.164,-72.75399999999999,-60.547,-199.21900000000002,1.0
1626294682.7957292,-36.621,-63.477,-10.742,-20.508000000000003,1.0
1626294682.7996354,52.733999999999995,-34.668,-10.742,149.414,1.0
1626294682.8035417,-9.766,-15.625,-52.246,0.488,1.0
1626294682.807448,-104.98,6.836,-56.641000000000005,-195.312,1.0
1626294682.8113542,-73.73,6.836,-25.391,-154.785,1.0
1626294682.8152604,-42.48,-7.324,-15.137,-31.25,1.0
1626294682.8191667,43.457,-41.016000000000005,-5.859,143.555,1.0
1626294682.823073,15.625,-52.733999999999995,-23.926,37.109,1.0
1626294682.8269792,-85.449,-38.574,-27.344,-172.852,1.0
1626294682.8308856,-76.66,-38.086,-7.324,-101.074,1.0
1626294682.8347917,40.527,-27.831999999999997,-1.465,125.0,1.0
1626294682.838698,53.223,-57.617,-23.438000000000002,100.586,1.0
1626294682.8426042,-68.359,-62.012,-57.617,-134.27700000000002,1.0
1626294682.8465104,-101.074,-22.461,-53.223,-161.621,1.0
1626294682.8504167,-1.953,-2.93,-30.273000000000003,59.57,1.0
1626294682.854323,40.039,7.812,-26.855,121.094,1.0
1626294682.858229,45.41,-8.301,-27.831999999999997,-84.961,1.0
1626294682.8621356,-57.129,-15.137,-58.593999999999994,-192.38299999999998,1.0
1626294682.8660414,-118.652,-43.945,-77.637,-15.137,1.0
1626294682.8699481,-31.738000000000003,-43.945,-47.852,127.441,1.0
1626294682.873854,58.105,-9.766,-13.672,-27.344,1.0
1626294682.8777602,-20.02,-3.418,-27.344,-200.68400000000003,1.0
1626294682.881667,-99.609,-15.625,-49.316,-85.93799999999999,1.0
1626294682.885573,-43.457,-47.363,-37.598,104.492,1.0
1626294682.889479,37.598,-36.621,-25.879,35.645,1.0
1626294682.8933854,8.301,-29.296999999999997,-33.691,-181.15200000000002,1.0
1626294682.8972914,-82.031,-23.926,-32.715,-137.207,1.0
1626294682.901198,-64.453,-8.301,-25.879,103.516,1.0
1626294682.9051042,-52.246,-14.16,-63.477,-35.156,1.0
1626294682.9090104,31.738000000000003,-3.906,-37.598,128.418,1.0
1626294682.9129167,-7.324,-46.387,-21.973000000000003,3.418,1.0
1626294682.916823,-99.609,-62.012,-22.949,-196.28900000000002,1.0
1626294682.9207292,-97.656,-18.066,-22.949,-123.04700000000001,1.0
1626294682.9246354,0.488,-21.484,-22.461,94.238,1.0
1626294682.9285414,20.508000000000003,-42.48,-22.461,60.547,1.0
1626294682.932448,-57.617,-67.383,-45.41,-138.672,1.0
1626294682.9363542,-93.262,-26.366999999999997,-85.449,-145.50799999999998,1.0
1626294682.9402604,-32.227,8.301,-60.547,44.922,1.0
1626294682.9441667,4.883,-15.137,-15.625,81.543,1.0
1626294682.948073,-70.801,-26.855,-27.831999999999997,-120.605,1.0
1626294682.9519792,-59.082,-33.691,-41.992,1.0,1.0
1626294682.9558854,-96.191,-36.133,-42.968999999999994,1.0,1.0
1626294682.9597917,-11.23,-51.758,-20.996,1.0,1.0
1626294682.963698,41.016000000000005,-44.434,-12.695,1.0,1.0
1626294682.9676042,-53.223,-20.02,-41.504,1.0,1.0
1626294682.9715104,-132.32399999999998,-33.203,-58.593999999999994,1.0,1.0
1626294682.975417,-61.523,-37.598,-42.968999999999994,1.0,1.0
1626294682.979323,32.227,-38.086,-33.691,1.0,1.0
1626294682.983229,-10.254000000000001,-40.527,-38.574,1.0,1.0
1626294682.9871356,-82.52,-38.086,-33.691,1.0,1.0
1626294682.9910414,-32.715,-32.715,-40.527,1.0,1.0
1626294682.9949477,43.945,-24.901999999999997,-30.273000000000003,1.0,1.0
1626294682.998854,51.27,-1.465,-18.066,139.648,1.0
1626294683.0027602,1.465,-22.461,-34.18,-17.578,1.0
1626294683.006667,-98.633,-55.176,-16.113,-205.56599999999997,1.0
1626294683.010573,-67.87100000000001,-50.781000000000006,-10.742,-94.727,1.0
1626294683.0144792,29.785,-20.508000000000003,-15.625,104.492,1.0
1626294683.0183854,12.695,-26.855,-28.809,35.645,1.0
1626294683.0222914,-98.633,-47.852,-67.383,-188.477,1.0
1626294683.026198,-92.285,-86.426,-56.152,-149.90200000000002,1.0
1626294683.0301042,22.949,-45.41,-26.366999999999997,81.543,1.0
1626294683.0340102,36.621,2.441,-38.574,86.426,1.0
1626294683.0379167,-77.148,-19.043,-44.922,-142.578,1.0
1626294683.041823,-117.18799999999999,-13.672,-30.761999999999997,-202.637,1.0
1626294683.0457292,-83.008,-35.156,-35.156,-137.207,1.0
1626294683.0496354,12.695,-30.273000000000003,-34.18,77.637,1.0
1626294683.0535417,59.57,-41.504,-39.551,119.141,1.0
1626294683.057448,-39.551,-63.965,-60.059,-109.863,1.0
1626294683.0613542,-107.42200000000001,-35.156,-52.246,-200.195,1.0
1626294683.0652604,-19.043,-4.883,-18.066,16.113,1.0
1626294683.0691667,44.922,9.766,-24.414,127.441,1.0
1626294683.073073,-5.371,-27.831999999999997,-20.996,-41.504,1.0
1626294683.0769792,-97.656,-75.684,-21.973000000000003,-200.68400000000003,1.0
1626294683.0808856,-76.172,-62.012,-41.016000000000005,-78.613,1.0
1626294683.0847917,39.551,-25.391,-30.273000000000003,124.512,1.0
1626294683.088698,38.086,-29.296999999999997,-23.438000000000002,45.898,1.0
1626294683.0926042,-2.441,8.301,-71.777,-172.852,1.0
1626294683.0965104,-78.613,20.02,-65.43,-126.95299999999999,1.0
1626294683.1004167,-35.156,-45.898,-66.895,105.469,1.0
1626294683.104323,46.875,-58.105,-81.543,103.027,1.0
1626294683.108229,14.16,-0.488,-79.59,-123.04700000000001,1.0
1626294683.1121356,-76.66,14.648,-84.961,-154.297,1.0
1626294683.1160414,-54.199,42.48,-77.148,54.199,1.0
1626294683.1199481,33.203,-22.461,-69.824,111.32799999999999,1.0
1626294683.123854,48.34,-23.438000000000002,-66.406,-77.148,1.0
1626294683.1277602,-32.715,21.973000000000003,-51.758,-188.477,1.0
1626294683.131667,-56.641000000000005,16.602,-31.738000000000003,-21.973000000000003,1.0
1626294683.135573,30.273000000000003,25.391,-30.761999999999997,116.211,1.0
1626294683.139479,8.789,-20.02,-33.691,78.613,1.0
1626294683.1433854,53.223,-2.441,-30.761999999999997,107.91,1.0
1626294683.1472914,-39.062,-54.688,-48.34,-109.375,1.0
1626294683.151198,-80.566,-62.988,-39.551,-152.832,1.0
1626294683.1551042,9.766,4.395,-23.926,60.059,1.0
1626294683.1590104,60.547,9.277000000000001,-40.039,144.043,1.0
1626294683.1629167,-11.719000000000001,-15.625,-40.527,-48.34,1.0
1626294683.166823,-98.145,-68.848,-53.223,-193.84799999999998,1.0
1626294683.1707292,-38.086,-56.152,-59.082,-34.18,1.0
1626294683.1746354,59.082,1.953,-50.781000000000006,137.207,1.0
1626294683.1785414,20.996,-1.953,-38.574,9.277000000000001,1.0
1626294683.182448,-76.172,-19.531,-36.621,-182.12900000000002,1.0
1626294683.1863542,-76.172,-26.366999999999997,-16.602,-169.43400000000003,1.0
1626294683.1902604,-38.574,-10.254000000000001,-25.391,-28.32,1.0
1626294683.1941667,54.688,-31.738000000000003,-20.508000000000003,138.672,1.0
1626294683.198073,16.602,-59.082,-26.855,17.578,1.0
1626294683.2019792,-86.426,-26.366999999999997,-41.504,-181.15200000000002,1.0
1626294683.2058854,-76.66,-32.715,-47.363,-113.77,1.0
1626294683.2097917,19.531,-25.391,-41.016000000000005,92.773,1.0
1626294683.213698,35.156,-50.293,-44.922,74.219,1.0
1626294683.2176042,-64.941,-86.914,-51.758,-143.555,1.0
1626294683.2215104,-83.984,-42.48,-31.25,-143.066,1.0
1626294683.225417,17.578,-1.953,-15.625,78.125,1.0
1626294683.229323,47.363,0.488,-28.32,116.699,1.0
1626294683.233229,62.988,3.906,-33.691,-88.867,1.0
1626294683.2371356,-67.383,-15.625,-59.082,-177.24599999999998,1.0
1626294683.2410414,-119.141,-75.195,-74.707,3.418,1.0
1626294683.2449477,-14.648,-85.449,-48.34,129.395,1.0
1626294683.248854,49.316,-33.691,-23.926,-41.992,1.0
1626294683.2527602,-40.527,-27.831999999999997,-34.668,-210.938,1.0
1626294683.256667,-106.934,-3.906,-27.831999999999997,-68.359,1.0
1626294683.260573,-40.527,-11.719000000000001,-13.184000000000001,117.18799999999999,1.0
1626294683.2644792,49.316,7.324,-12.207,34.18,1.0
1626294683.2683854,9.766,15.137,-15.625,-163.086,1.0
1626294683.2722914,-92.285,-32.715,-23.438000000000002,-105.95700000000001,1.0
1626294683.276198,-76.172,-40.039,-36.133,129.395,1.0
1626294683.2801042,-27.831999999999997,-26.855,-42.48,-22.461,1.0
1626294683.2840102,39.062,-40.527,-15.137,134.766,1.0
1626294683.2879167,-7.324,-34.18,-21.973000000000003,-2.441,1.0
1626294683.291823,-114.74600000000001,-38.574,-50.781000000000006,-208.984,1.0
1626294683.2957292,-92.773,-31.738000000000003,-32.715,-114.74600000000001,1.0
1626294683.2996354,20.02,-28.809,-12.695,107.42200000000001,1.0
1626294683.3035417,20.02,-11.719000000000001,-21.484,55.663999999999994,1.0
1626294683.307448,-80.078,-51.758,-35.156,-155.273,1.0
1626294683.3113542,-94.238,-54.199,-35.645,-136.719,1.0
1626294683.3152604,-6.348,-6.836,-37.109,68.848,1.0
1626294683.3191667,21.484,-9.277000000000001,-35.645,91.79700000000001,1.0
1626294683.323073,-68.359,-31.738000000000003,-43.457,-116.211,1.0
1626294683.3269792,-80.078,-50.781000000000006,-4.395,1.0,1.0
1626294683.3308856,-110.84,-47.852,-1.953,1.0,1.0
1626294683.3347917,-36.133,-100.098,14.16,1.0,1.0
1626294683.338698,9.766,-102.539,25.391,1.0,1.0
1626294683.3426042,-79.59,-54.688,16.113,1.0,1.0
1626294683.3465104,-146.484,-60.059,21.484,1.0,1.0
1626294683.3504167,-80.078,-58.105,20.508000000000003,1.0,1.0
1626294683.354323,-21.973000000000003,-85.449,-1.953,1.0,1.0
1626294683.358229,-57.129,-85.93799999999999,-3.418,1.0,1.0
1626294683.3621356,-113.281,-69.824,9.277000000000001,1.0,1.0
1626294683.3660414,-90.33200000000001,-86.426,2.93,1.0,1.0
1626294683.3699481,-17.09,-82.52,-6.348,1.0,1.0
1626294683.373854,3.418,-26.855,-9.277000000000001,126.95299999999999,1.0
1626294683.3777602,-47.852,-30.761999999999997,-20.508000000000003,-26.366999999999997,1.0
1626294683.381667,-118.652,-72.75399999999999,-20.996,-182.61700000000002,1.0
1626294683.385573,-68.359,-83.49600000000001,-1.465,-50.781000000000006,1.0
1626294683.389479,20.996,-44.922,-12.695,135.254,1.0
1626294683.3933854,9.766,-22.461,-33.203,55.663999999999994,1.0
1626294683.3972914,-83.008,-15.137,-35.645,-156.738,1.0
1626294683.401198,-92.773,-56.152,-14.648,-128.418,1.0
1626294683.4051042,16.602,-64.453,10.742,94.727,1.0
1626294683.4090104,63.477,-25.879,0.0,126.465,1.0
1626294683.4129167,-27.344,-20.02,-22.949,-83.49600000000001,1.0
1626294683.416823,-82.031,-25.879,-23.926,-143.555,1.0
1626294683.4207292,-112.79299999999999,-30.273000000000003,-23.438000000000002,-142.09,1.0
1626294683.4246354,1.465,-1.465,-15.625,89.355,1.0
1626294683.4285414,36.133,-39.062,-23.438000000000002,109.375,1.0
1626294683.432448,-75.195,-80.566,-47.363,-127.93,1.0
1626294683.4363542,-110.352,-29.785,-59.082,-171.875,1.0
1626294683.4402604,18.555,4.883,-20.02,76.66,1.0
1626294683.4441667,87.891,-7.324,6.348,183.59400000000002,1.0
1626294683.448073,-25.879,-69.824,-17.09,-39.551,1.0
1626294683.4519792,-117.18799999999999,-59.57,-28.32,-198.73,1.0
1626294683.4558854,-57.617,-32.227,-26.855,-42.48,1.0
1626294683.4597917,26.855,-35.645,-26.855,128.906,1.0
1626294683.463698,-1.953,-17.09,-32.227,16.113,1.0
1626294683.4676042,5.859,-20.996,-8.301,-179.199,1.0
1626294683.4715104,-99.12100000000001,-30.273000000000003,-26.366999999999997,-88.37899999999999,1.0
1626294683.475417,-65.43,-53.223,-53.223,132.812,1.0
1626294683.479323,41.016000000000005,-64.941,-84.961,87.402,1.0
1626294683.483229,7.324,-36.621,-62.5,-143.066,1.0
1626294683.4871356,-111.816,-34.18,-36.133,-154.785,1.0
1626294683.4910414,-83.008,-15.137,-23.438000000000002,70.312,1.0
1626294683.4949477,11.719000000000001,-27.831999999999997,-21.484,112.79299999999999,1.0
1626294683.498854,10.742,-39.551,-29.296999999999997,-108.398,1.0
1626294683.5027602,-56.152,-44.922,-26.366999999999997,-201.66,1.0
1626294683.506667,-63.965,-34.18,-20.02,-6.348,1.0
1626294683.510573,1.465,-2.93,-30.273000000000003,148.92600000000002,1.0
1626294683.5144792,32.227,-26.855,-57.129,97.16799999999999,1.0
1626294683.5183854,56.641000000000005,-22.949,-27.344,100.586,1.0
1626294683.5222914,-62.988,-69.336,-16.113,-141.113,1.0
1626294683.526198,-119.62899999999999,-73.73,-18.066,-198.24200000000002,1.0
1626294683.5301042,-26.855,-24.901999999999997,-13.184000000000001,19.531,1.0
1626294683.5340102,30.761999999999997,-28.32,-24.901999999999997,109.863,1.0
1626294683.5379167,-35.156,-14.648,-34.668,-77.637,1.0
1626294683.541823,-111.816,-47.363,-51.27,-206.055,1.0
1626294683.5457292,-37.598,-25.391,-30.761999999999997,-19.043,1.0
1626294683.5496354,55.176,0.488,-13.672,145.996,1.0
1626294683.5535417,1.465,-19.043,-24.901999999999997,-8.301,1.0
1626294683.557448,-91.309,-31.738000000000003,-39.551,-191.895,1.0
1626294683.5613542,-87.891,-18.555,-5.371,1.0,1.0
1626294683.5652604,-36.621,4.883,8.301,1.0,1.0
1626294683.5691667,20.508000000000003,-44.434,-9.277000000000001,1.0,1.0
1626294683.573073,-8.301,-51.27,-20.02,1.0,1.0
1626294683.5769792,-79.102,-22.461,-18.066,1.0,1.0
1626294683.5808856,-71.289,-37.598,-37.109,1.0,1.0
1626294683.5847917,18.555,-11.23,-31.738000000000003,1.0,1.0
1626294683.588698,20.508000000000003,-56.641000000000005,-29.785,1.0,1.0
1626294683.5926042,-68.359,-57.617,-33.691,1.0,1.0
1626294683.5965104,-92.285,-2.441,-34.668,1.0,1.0
1626294683.6004167,-4.395,18.066,-35.645,1.0,1.0
1626294683.604323,51.758,26.855,-34.18,1.0,1.0
1626294683.608229,46.875,49.316,-76.172,69.336,1.0
1626294683.6121356,-50.781000000000006,33.691,-56.152,-145.996,1.0
1626294683.6160414,-101.56200000000001,-25.879,-41.992,-177.734,1.0
1626294683.6199481,-21.973000000000003,-37.109,-38.574,29.296999999999997,1.0
1626294683.623854,36.133,3.418,-37.109,92.285,1.0
1626294683.6277602,-41.992,-0.488,-39.551,-104.98,1.0
1626294683.631667,-99.609,-0.488,-43.457,-192.87099999999998,1.0
1626294683.635573,-30.761999999999997,-22.949,-40.039,-17.09,1.0
1626294683.639479,39.062,-32.227,-44.922,122.559,1.0
1626294683.6433854,7.324,-28.809,-47.852,-18.066,1.0
1626294683.6472914,-76.66,-33.691,-42.968999999999994,-185.547,1.0
1626294683.651198,-62.5,3.906,-43.457,-73.242,1.0
1626294683.6551042,-43.457,-10.742,-38.574,-32.715,1.0
1626294683.6590104,49.805,18.555,-26.855,125.0,1.0
1626294683.6629167,10.254000000000001,5.859,-45.41,-2.93,1.0
1626294683.666823,-95.70299999999999,-35.645,-65.918,-187.012,1.0
1626294683.6707292,-85.449,-42.968999999999994,-60.547,-93.262,1.0
1626294683.6746354,20.02,-26.366999999999997,-43.457,111.32799999999999,1.0
1626294683.6785414,30.273000000000003,-6.348,-18.555,56.152,1.0
1626294683.682448,-99.12100000000001,-73.242,-54.199,-184.082,1.0
1626294683.6863542,-123.535,-80.078,-65.918,-167.96900000000002,1.0
1626294683.6902604,-4.395,-18.066,-26.855,73.73,1.0
1626294683.6941667,28.809,-1.465,-22.461,95.70299999999999,1.0
1626294683.698073,-53.223,-15.137,-30.761999999999997,-112.305,1.0
1626294683.7019792,-62.012,-9.277000000000001,-16.602,1.0,1.0
1626294683.7058854,-104.00399999999999,-12.207,-39.551,1.0,1.0
1626294683.7097917,-25.879,-77.637,-43.945,1.0,1.0
1626294683.713698,40.527,-85.449,-19.531,1.0,1.0
1626294683.7176042,-22.461,-15.625,-6.836,1.0,1.0
1626294683.7215104,-81.055,8.789,-13.672,1.0,1.0
1626294683.725417,-11.719000000000001,6.836,-35.645,1.0,1.0
1626294683.729323,45.41,-7.812,-36.133,1.0,1.0
1626294683.733229,-18.555,-22.949,-20.996,1.0,1.0
1626294683.7371356,-92.285,-22.949,-15.137,1.0,1.0
1626294683.7410414,-35.156,-7.812,-7.812,1.0,1.0
1626294683.7449477,49.805,-4.883,-23.438000000000002,1.0,1.0
1626294683.748854,27.831999999999997,-4.883,-13.184000000000001,119.141,1.0
1626294683.7527602,-10.254000000000001,-5.859,-40.039,-32.227,1.0
1626294683.756667,-90.33200000000001,-26.855,-55.176,-187.988,1.0
1626294683.760573,-71.289,-42.968999999999994,-50.293,-70.801,1.0
1626294683.7644792,23.438000000000002,-20.508000000000003,-24.901999999999997,121.094,1.0
1626294683.7683854,12.695,-19.043,0.0,46.875,1.0
1626294683.7722914,-102.539,-40.039,-2.441,-178.71099999999998,1.0
1626294683.776198,-130.859,-73.242,-26.366999999999997,-151.855,1.0
1626294683.7801042,-30.761999999999997,-68.359,-21.973000000000003,69.824,1.0
1626294683.7840102,17.09,-44.434,-5.859,87.891,1.0
1626294683.7879167,-69.824,-57.129,-29.296999999999997,-123.04700000000001,1.0
1626294683.791823,-106.445,-48.828,-21.973000000000003,-164.062,1.0
1626294683.7957292,-109.375,-56.641000000000005,-32.715,-148.92600000000002,1.0
1626294683.7996354,-20.996,-30.273000000000003,-23.438000000000002,65.43,1.0
1626294683.8035417,5.371,-49.805,-27.344,79.102,1.0
1626294683.807448,-71.289,-68.359,-34.668,-125.977,1.0
1626294683.8113542,-101.074,-51.27,-34.18,-165.03900000000002,1.0
1626294683.8152604,-14.648,-46.387,-33.203,49.805,1.0
1626294683.8191667,44.434,-41.016000000000005,-12.695,147.461,1.0
1626294683.823073,-11.23,-54.199,-24.414,-23.926,1.0
1626294683.8269792,-79.102,-30.273000000000003,-33.203,-148.92600000000002,1.0
1626294683.8308856,-27.344,-9.277000000000001,-17.09,-0.977,1.0
1626294683.8347917,48.34,-23.438000000000002,-31.738000000000003,146.97299999999998,1.0
1626294683.838698,-1.953,-38.574,-31.738000000000003,7.324,1.0
1626294683.8426042,-30.273000000000003,-24.901999999999997,-34.18,-187.5,1.0
1626294683.8465104,-124.023,-25.391,-43.945,-113.77,1.0
1626294683.8504167,-76.66,-57.617,-25.391,81.543,1.0
1626294683.854323,37.598,-54.688,-9.277000000000001,41.992,1.0
1626294683.858229,32.227,-0.488,-16.602,-170.898,1.0
1626294683.8621356,-70.801,-16.113,-39.551,-153.809,1.0
1626294683.8660414,-59.57,-14.16,-19.043,83.008,1.0
1626294683.8699481,31.25,-51.27,-6.348,143.066,1.0
1626294683.873854,20.02,-71.777,-30.273000000000003,-61.523,1.0
1626294683.8777602,-75.195,-47.363,-36.621,-172.852,1.0
1626294683.881667,-109.375,-24.414,-36.621,-16.602,1.0
1626294683.885573,-11.719000000000001,-9.766,-22.461,106.445,1.0
1626294683.889479,1.465,-30.273000000000003,-41.504,86.426,1.0
1626294683.8933854,18.555,-37.598,-31.738000000000003,79.59,1.0
1626294683.8972914,-59.57,-69.336,-39.062,-121.094,1.0
1626294683.901198,-90.33200000000001,-61.035,-44.434,-145.50799999999998,1.0
1626294683.9051042,-7.324,-9.277000000000001,-39.062,52.733999999999995,1.0
1626294683.9090104,47.852,-9.277000000000001,-21.973000000000003,133.30100000000002,1.0
1626294683.9129167,-15.625,0.0,-17.09,-49.316,1.0
1626294683.916823,-87.402,-39.551,-34.18,-172.852,1.0
1626294683.9207292,-52.733999999999995,-50.293,-42.48,-23.926,1.0
1626294683.9246354,20.02,-21.484,-23.438000000000002,114.258,1.0
1626294683.9285414,-23.438000000000002,-28.809,-15.137,-25.391,1.0
1626294683.932448,-112.305,-39.551,-39.551,-196.77700000000002,1.0
1626294683.9363542,-104.00399999999999,-22.949,-54.199,1.0,1.0
1626294683.9402604,-41.504,-41.504,-23.438000000000002,1.0,1.0
1626294683.9441667,51.758,-62.988,-10.742,1.0,1.0
1626294683.948073,-2.93,-46.875,-32.715,1.0,1.0
1626294683.9519792,-100.586,1.953,-23.438000000000002,1.0,1.0
1626294683.9558854,-71.777,8.789,0.0,1.0,1.0
1626294683.9597917,18.555,-12.695,-21.973000000000003,1.0,1.0
1626294683.963698,26.855,-52.733999999999995,-17.09,1.0,1.0
1626294683.9676042,-56.152,-49.316,-3.906,1.0,1.0
1626294683.9715104,-90.82,-28.809,-32.715,1.0,1.0
1626294683.975417,-10.254000000000001,-32.227,-33.691,1.0,1.0
1626294683.979323,23.926,-29.296999999999997,-36.621,1.0,1.0
1626294683.983229,20.996,-23.438000000000002,-43.945,67.383,1.0
1626294683.9871356,-71.777,-50.293,-33.691,-146.97299999999998,1.0
1626294683.9910414,-75.684,-60.547,0.0,-130.859,1.0
1626294683.9949477,14.648,-41.504,-10.742,76.66,1.0
1626294683.998854,46.387,-1.465,-30.761999999999997,112.305,1.0
1626294684.0027602,-42.48,-2.93,-26.366999999999997,-91.309,1.0
1626294684.006667,-116.699,-10.742,-45.898,-191.40599999999998,1.0
1626294684.010573,-37.598,-31.738000000000003,-26.855,1.953,1.0
1626294684.0144792,47.363,-35.156,-16.602,135.254,1.0
1626294684.0183854,-15.625,-26.366999999999997,-38.574,-34.668,1.0
1626294684.0222914,-115.723,-35.156,-44.434,-207.52,1.0
1626294684.026198,-59.57,-19.043,-35.645,-62.5,1.0
1626294684.0301042,-31.25,-27.344,-39.062,-10.742,1.0
1626294684.0340102,58.593999999999994,0.977,-23.438000000000002,144.043,1.0
1626294684.0379167,15.137,-16.113,-17.578,2.93,1.0
1626294684.041823,-83.984,-42.48,-20.508000000000003,-178.22299999999998,1.0
1626294684.0457292,-40.527,-16.113,6.348,-51.27,1.0
1626294684.0496354,58.105,-33.691,8.789,150.879,1.0
1626294684.0535417,31.25,-59.082,-22.949,60.547,1.0
1626294684.057448,-83.008,-58.105,-45.41,-165.52700000000002,1.0
1626294684.0613542,-109.863,-53.711000000000006,-55.176,-148.92600000000002,1.0
1626294684.0652604,-10.742,-21.973000000000003,-40.527,66.406,1.0
1626294684.0691667,26.366999999999997,-4.883,-29.785,89.844,1.0
1626294684.073073,-54.199,-12.207,-41.016000000000005,-117.18799999999999,1.0
1626294684.0769792,-88.37899999999999,-35.645,-30.273000000000003,1.0,1.0
1626294684.0808856,-120.117,-34.18,-31.738000000000003,1.0,1.0
1626294684.0847917,5.371,-50.293,-7.812,1.0,1.0
1626294684.088698,52.246,-43.457,-0.488,1.0,1.0
1626294684.0926042,-42.968999999999994,-23.438000000000002,-26.366999999999997,1.0,1.0
1626294684.0965104,-110.352,-52.246,-45.898,1.0,1.0
1626294684.1004167,-28.809,-22.461,-40.039,1.0,1.0
1626294684.104323,57.129,-18.066,-29.296999999999997,1.0,1.0
1626294684.108229,-26.855,-41.992,-35.645,1.0,1.0
1626294684.1121356,-114.74600000000001,-46.387,-31.25,1.0,1.0
1626294684.1160414,-45.898,-38.574,-25.391,1.0,1.0
1626294684.1199481,35.156,-11.719000000000001,-27.344,1.0,1.0
1626294684.123854,41.016000000000005,11.719000000000001,-20.02,130.859,1.0
1626294684.1277602,-17.578,7.812,-30.273000000000003,-35.645,1.0
1626294684.131667,-104.98,-47.852,-38.574,-193.359,1.0
1626294684.135573,-67.383,-68.848,-45.41,-59.082,1.0
1626294684.139479,40.039,-34.668,-36.621,132.812,1.0
1626294684.1433854,26.366999999999997,-25.391,-36.621,43.457,1.0
1626294684.1472914,-83.984,-15.137,-29.785,-163.57399999999998,1.0
1626294684.151198,-96.68,-52.246,-18.066,-124.023,1.0
1626294684.1551042,-2.93,-61.035,-14.16,80.566,1.0
1626294684.1590104,19.043,-36.621,-36.621,70.312,1.0
1626294684.1629167,-77.637,-39.062,-50.293,-141.113,1.0
1626294684.166823,-103.516,-27.344,-22.949,-160.156,1.0
1626294684.1707292,-91.309,-26.366999999999997,-21.484,-129.88299999999998,1.0
1626294684.1746354,1.465,-39.551,-33.691,82.52,1.0
1626294684.1785414,28.809,-31.25,-24.414,88.867,1.0
1626294684.182448,-65.918,-37.598,-29.296999999999997,-135.254,1.0
1626294684.1863542,-97.16799999999999,-14.16,-31.25,-161.13299999999998,1.0
1626294684.1902604,-22.461,-14.16,-35.645,43.457,1.0
1626294684.1941667,31.25,-19.043,-32.227,116.211,1.0
1626294684.198073,-41.016000000000005,-64.453,-19.043,-78.125,1.0
1626294684.2019792,-109.375,-72.266,-21.973000000000003,-192.87099999999998,1.0
1626294684.2058854,-20.996,-8.789,-26.366999999999997,4.395,1.0
1626294684.2097917,61.523,14.648,-20.02,153.809,1.0
1626294684.213698,-5.859,13.672,-25.879,-12.695,1.0
1626294684.2176042,-12.695,-34.18,-24.901999999999997,-217.285,1.0
1626294684.2215104,-111.32799999999999,-24.901999999999997,-39.062,-123.535,1.0
1626294684.225417,-60.059,-27.344,-31.25,66.406,1.0
1626294684.229323,42.968999999999994,-3.906,-35.156,24.414,1.0
1626294684.233229,22.461,20.02,-55.176,-176.75799999999998,1.0
1626294684.2371356,-81.543,-2.441,-54.688,-171.387,1.0
1626294684.2410414,-67.383,-14.16,-22.949,45.41,1.0
1626294684.2449477,33.691,-9.277000000000001,-11.23,66.895,1.0
1626294684.248854,45.41,13.184000000000001,-41.992,-130.859,1.0
1626294684.2527602,-43.945,10.254000000000001,-53.223,-189.94099999999997,1.0
1626294684.256667,-82.031,-14.16,-27.344,6.836,1.0
1626294684.260573,4.883,-27.831999999999997,-18.555,130.371,1.0
1626294684.2644792,14.648,-20.996,-38.574,72.75399999999999,1.0
1626294684.2683854,27.831999999999997,-7.812,-66.406,52.246,1.0
1626294684.2722914,-72.266,-61.523,-69.824,-161.13299999999998,1.0
1626294684.276198,-104.492,-84.961,-45.898,-177.734,1.0
1626294684.2801042,0.488,-9.277000000000001,-16.113,57.129,1.0
1626294684.2840102,61.035,41.992,-20.02,131.34799999999998,1.0
1626294684.2879167,-20.02,22.949,-38.574,-75.684,1.0
1626294684.291823,-120.117,-41.504,-52.246,-209.96099999999998,1.0
1626294684.2957292,-40.527,-43.945,-32.227,-16.602,1.0
1626294684.2996354,65.918,-25.391,-8.789,152.344,1.0
1626294684.3035417,-1.953,-33.203,-41.016000000000005,-14.16,1.0
1626294684.307448,-90.33200000000001,-37.598,-38.574,-187.012,1.0
1626294684.3113542,-96.191,2.441,-47.363,1.0,1.0
1626294684.3152604,-62.988,-17.578,-33.691,1.0,1.0
1626294684.3191667,58.105,-41.016000000000005,-18.555,1.0,1.0
1626294684.323073,38.574,-49.316,-14.648,1.0,1.0
1626294684.3269792,-86.914,-35.156,-9.766,1.0,1.0
1626294684.3308856,-70.801,-36.133,6.836,1.0,1.0
1626294684.3347917,20.02,-32.715,9.766,1.0,1.0
1626294684.338698,19.531,-40.527,12.695,1.0,1.0
1626294684.3426042,-91.309,-45.41,-4.883,1.0,1.0
1626294684.3465104,-125.977,-61.035,-28.32,1.0,1.0
1626294684.3504167,-22.949,-65.918,-35.645,1.0,1.0
1626294684.354323,40.039,-33.203,-6.348,1.0,1.0
1626294684.358229,35.156,-41.992,-6.836,87.891,1.0
1626294684.3621356,-60.547,-29.296999999999997,-12.207,-128.906,1.0
1626294684.3660414,-88.37899999999999,-64.941,-33.691,-140.625,1.0
1626294684.3699481,3.906,-70.801,-29.296999999999997,71.777,1.0
1626294684.373854,57.129,-29.296999999999997,4.883,118.164,1.0
1626294684.3777602,-35.156,-41.504,-1.953,-101.074,1.0
1626294684.381667,-121.094,-50.293,-27.344,-201.172,1.0
1626294684.385573,-22.949,-35.645,-8.789,15.137,1.0
1626294684.389479,59.082,-27.344,-12.207,140.625,1.0
1626294684.3933854,-10.742,-27.344,-33.691,-41.016000000000005,1.0
1626294684.3972914,-75.684,-29.785,-16.602,-173.34,1.0
1626294684.401198,-37.598,-36.133,-12.207,-33.203,1.0
1626294684.4051042,-61.035,-39.062,-37.598,-20.996,1.0
1626294684.4090104,36.621,-10.254000000000001,-12.695,131.34799999999998,1.0
1626294684.4129167,0.0,-41.016000000000005,-4.883,-5.859,1.0
1626294684.416823,-99.12100000000001,-53.223,-26.855,-181.15200000000002,1.0
1626294684.4207292,-88.37899999999999,-29.296999999999997,-54.199,-86.914,1.0
1626294684.4246354,-0.488,-25.391,-40.527,101.074,1.0
1626294684.4285414,-17.578,-18.555,-44.434,12.695,1.0
1626294684.432448,-111.816,-63.477,-50.781000000000006,-195.312,1.0
1626294684.4363542,-101.074,-73.73,-41.992,-133.30100000000002,1.0
1626294684.4402604,19.531,-34.668,-22.949,107.91,1.0
1626294684.4441667,43.945,-32.227,0.488,112.79299999999999,1.0
1626294684.448073,-80.078,-45.41,-16.113,-137.695,1.0
1626294684.4519792,-93.75,-32.227,-48.34,-169.43400000000003,1.0
1626294684.4558854,-96.68,-12.695,-37.598,-136.23,1.0
1626294684.4597917,-7.812,-36.621,-11.719000000000001,72.75399999999999,1.0
1626294684.463698,27.344,-52.733999999999995,-6.836,96.191,1.0
1626294684.4676042,-66.406,-36.621,-29.785,-122.07,1.0
1626294684.4715104,-109.375,-60.547,-35.645,-185.547,1.0
1626294684.475417,-16.602,-52.246,-26.366999999999997,32.715,1.0
1626294684.479323,49.805,-40.039,-27.344,139.648,1.0
1626294684.483229,-33.203,-48.828,-42.48,-64.941,1.0
1626294684.4871356,-111.32799999999999,-34.18,-41.016000000000005,-201.66,1.0
1626294684.4910414,-54.199,-12.695,-28.32,-42.48,1.0
1626294684.4949477,34.18,1.465,3.906,123.535,1.0
1626294684.498854,59.57,-0.488,-10.254000000000001,135.74200000000002,1.0
1626294684.5027602,-16.113,-10.254000000000001,-20.996,-51.758,1.0
1626294684.506667,-98.633,-41.016000000000005,-21.484,-196.28900000000002,1.0
1626294684.510573,-45.898,-23.438000000000002,-9.766,-43.457,1.0
1626294684.5144792,34.668,-8.301,-23.926,125.488,1.0
1626294684.5183854,2.93,-50.293,-51.27,15.137,1.0
1626294684.5222914,-86.914,-43.457,-52.246,-174.805,1.0
1626294684.526198,-77.637,-15.625,-36.133,-103.516,1.0
1626294684.5301042,14.16,-6.348,-17.09,107.42200000000001,1.0
1626294684.5340102,18.555,-15.137,-13.184000000000001,68.848,1.0
1626294684.5379167,-68.359,-35.645,-20.508000000000003,-153.809,1.0
1626294684.541823,-84.961,-50.781000000000006,-34.18,-158.203,1.0
1626294684.5457292,-93.75,-41.016000000000005,-57.617,-122.559,1.0
1626294684.5496354,-1.953,-23.926,-25.391,89.355,1.0
1626294684.5535417,16.602,-19.043,-23.926,76.66,1.0
1626294684.557448,-72.266,-46.387,-17.09,-136.719,1.0
1626294684.5613542,-109.375,-38.086,-25.879,-175.293,1.0
1626294684.5652604,-20.508000000000003,-22.461,-25.879,24.901999999999997,1.0
1626294684.5691667,47.852,-6.348,-6.348,111.816,1.0
1626294684.573073,-20.02,-18.066,-29.296999999999997,-74.707,1.0
1626294684.5769792,-85.93799999999999,-27.344,-49.316,-184.57,1.0
1626294684.5808856,-16.602,-12.207,-30.761999999999997,-8.789,1.0
1626294684.5847917,56.641000000000005,-16.113,-32.715,131.34799999999998,1.0
1626294684.588698,-20.996,-43.457,-50.293,-29.296999999999997,1.0
1626294684.5926042,-29.296999999999997,-27.344,-29.296999999999997,-217.285,1.0
1626294684.5965104,-114.258,-14.16,-33.203,-101.074,1.0
1626294684.6004167,-51.758,-43.457,-14.648,112.305,1.0
1626294684.604323,33.691,-47.363,-10.742,56.152,1.0
1626294684.608229,-1.465,-20.02,-19.531,-158.203,1.0
1626294684.6121356,-89.844,-21.484,-26.366999999999997,-139.648,1.0
1626294684.6160414,-77.637,-7.812,-48.34,90.82,1.0
1626294684.6199481,25.879,-34.18,-36.621,100.586,1.0
1626294684.623854,35.156,-49.316,-20.996,-106.445,1.0
1626294684.6277602,-51.27,-19.043,-22.949,-163.086,1.0
1626294684.631667,-76.66,-28.32,-27.831999999999997,10.254000000000001,1.0
1626294684.635573,0.488,-24.901999999999997,-20.996,113.281,1.0
1626294684.639479,19.531,-19.531,-17.578,102.051,1.0
1626294684.6433854,40.527,6.836,-27.831999999999997,79.102,1.0
1626294684.6472914,-65.43,-46.875,-58.593999999999994,-154.297,1.0
1626294684.651198,-95.215,-72.266,-70.801,-163.57399999999998,1.0
1626294684.6551042,9.277000000000001,-15.137,-38.086,65.43,1.0
1626294684.6590104,55.176,3.418,-9.766,124.023,1.0
1626294684.6629167,-37.109,-7.812,-25.391,-83.008,1.0
1626294684.666823,-117.676,-49.805,-59.082,-196.28900000000002,1.0
1626294684.6707292,-28.32,-44.922,-31.738000000000003,2.93,1.0
1626294684.6746354,67.87100000000001,-27.831999999999997,-7.324,147.94899999999998,1.0
1626294684.6785414,-4.883,-47.363,-29.785,-24.414,1.0
1626294684.682448,-97.16799999999999,-32.715,-22.949,-186.523,1.0
1626294684.6863542,-90.33200000000001,-24.414,-24.901999999999997,1.0,1.0
1626294684.6902604,-36.133,-28.32,-34.18,1.0,1.0
1626294684.6941667,22.949,-37.109,-24.901999999999997,1.0,1.0
1626294684.698073,-25.391,-24.901999999999997,-29.785,1.0,1.0
1626294684.7019792,-102.051,-8.789,-33.203,1.0,1.0
1626294684.7058854,-71.777,-26.855,-25.391,1.0,1.0
1626294684.7097917,32.227,-24.901999999999997,-15.625,1.0,1.0
1626294684.713698,12.695,-62.5,-20.508000000000003,1.0,1.0
1626294684.7176042,-74.707,-61.035,-22.949,1.0,1.0
1626294684.7215104,-68.359,-24.901999999999997,-19.043,1.0,1.0
1626294684.725417,17.578,-26.855,-20.508000000000003,1.0,1.0
1626294684.729323,35.156,-17.578,-20.508000000000003,1.0,1.0
1626294684.733229,22.461,-19.531,-31.738000000000003,56.152,1.0
1626294684.7371356,-60.547,-0.977,-26.366999999999997,-149.414,1.0
1626294684.7410414,-91.309,-56.641000000000005,-35.156,-144.043,1.0
1626294684.7449477,-5.371,-80.078,-27.831999999999997,59.57,1.0
1626294684.748854,51.27,-29.785,-16.602,105.469,1.0
1626294684.7527602,-33.691,-53.711000000000006,-29.296999999999997,-95.70299999999999,1.0
1626294684.756667,-69.336,-38.574,-16.113,-144.531,1.0
1626294684.760573,-8.301,-38.574,-35.645,32.715,1.0
1626294684.7644792,40.527,-17.578,-33.691,122.07,1.0
1626294684.7683854,-25.391,17.578,-13.672,-56.152,1.0
1626294684.7722914,-106.934,-7.324,-19.531,-202.148,1.0
1626294684.776198,-54.199,-7.812,-23.926,-50.293,1.0
1626294684.7801042,-18.066,-5.859,-13.184000000000001,12.207,1.0
1626294684.7840102,55.663999999999994,-12.695,-11.719000000000001,145.50799999999998,1.0
1626294684.7879167,-19.043,-63.477,-44.434,-37.109,1.0
1626294684.791823,-102.051,-81.543,-51.27,-202.637,1.0
1626294684.7957292,-25.391,-6.348,-19.043,-25.879,1.0
1626294684.7996354,47.363,3.418,-25.879,151.36700000000002,1.0
1626294684.8035417,5.859,-18.066,-37.109,35.156,1.0
1626294684.807448,-87.402,-60.547,-51.27,-168.945,1.0
1626294684.8113542,-98.633,-76.66,-48.34,-125.977,1.0
1626294684.8152604,-3.906,-47.852,-24.414,85.93799999999999,1.0
1626294684.8191667,14.648,-30.273000000000003,-20.996,70.312,1.0
1626294684.823073,-66.895,-23.438000000000002,-22.949,-134.27700000000002,1.0
1626294684.8269792,-61.035,-23.438000000000002,-21.484,-153.32,1.0
1626294684.8308856,-62.988,-18.066,-21.484,64.453,1.0
1626294684.8347917,8.789,-44.434,-24.901999999999997,131.836,1.0
1626294684.838698,7.324,-48.34,-37.598,-74.707,1.0
1626294684.8426042,-67.87100000000001,-9.766,-27.831999999999997,-179.688,1.0
1626294684.8465104,-116.211,-24.901999999999997,-38.574,-11.23,1.0
1626294684.8504167,-32.715,-20.508000000000003,-31.738000000000003,131.34799999999998,1.0
1626294684.854323,31.738000000000003,-60.059,-34.668,-15.625,1.0
1626294684.858229,-19.043,-58.105,-26.855,-202.148,1.0
1626294684.8621356,-83.49600000000001,-13.672,-19.531,-96.191,1.0
1626294684.8660414,-43.457,-14.16,-35.156,104.00399999999999,1.0
1626294684.8699481,57.129,-1.953,-19.531,52.733999999999995,1.0
1626294684.873854,46.875,-11.23,-7.324,129.88299999999998,1.0
1626294684.8777602,-19.531,-6.836,-13.184000000000001,-46.387,1.0
1626294684.881667,-123.535,-68.848,-50.293,-213.86700000000002,1.0
1626294684.885573,-72.75399999999999,-79.102,-60.547,-65.43,1.0
1626294684.889479,55.663999999999994,-14.648,-20.02,140.625,1.0
1626294684.8933854,18.555,-18.066,-26.366999999999997,24.414,1.0
1626294684.8972914,-91.79700000000001,-31.738000000000003,-57.617,-181.15200000000002,1.0
1626294684.901198,-92.285,-73.242,-54.199,-117.18799999999999,1.0
1626294684.9051042,24.414,-30.273000000000003,-17.578,109.375,1.0
1626294684.9090104,44.434,22.461,-19.531,83.984,1.0
1626294684.9129167,-71.777,-18.555,-44.922,-153.809,1.0
1626294684.916823,-98.145,-22.949,-33.203,-165.03900000000002,1.0
1626294684.9207292,-78.125,-37.109,-25.879,-107.42200000000001,1.0
1626294684.9246354,11.719000000000001,-10.742,-19.531,104.492,1.0
1626294684.9285414,11.719000000000001,-63.965,-53.223,66.895,1.0
1626294684.932448,-63.477,-74.219,-74.707,-131.34799999999998,1.0
1626294684.9363542,-84.961,-25.391,-28.809,-146.97299999999998,1.0
1626294684.9402604,-8.301,-34.18,3.418,57.617,1.0
1626294684.9441667,41.992,1.953,-4.395,119.141,1.0
1626294684.948073,-56.641000000000005,-34.668,-24.414,-105.469,1.0
1626294684.9519792,-133.789,-52.733999999999995,-36.133,-216.797,1.0
1626294684.9558854,-54.688,-14.16,-23.926,-23.438000000000002,1.0
1626294684.9597917,43.945,0.977,-5.371,134.766,1.0
1626294684.963698,-6.836,-10.254000000000001,-6.348,-15.625,1.0
1626294684.9676042,-10.254000000000001,-9.766,-31.25,-45.41,1.0
1626294684.9715104,-86.914,-14.16,-24.414,-173.828,1.0
1626294684.975417,-41.504,-39.062,-51.758,-22.461,1.0
1626294684.979323,36.621,-66.895,-40.039,129.395,1.0
1626294684.983229,-6.348,-45.41,-11.719000000000001,-11.23,1.0
1626294684.9871356,-110.84,-39.062,-24.901999999999997,-206.543,1.0
1626294684.9910414,-79.59,-12.695,-6.836,-93.75,1.0
1626294684.9949477,13.672,-36.133,-18.555,111.32799999999999,1.0
1626294684.998854,22.461,-43.945,-30.273000000000003,62.5,1.0
1626294685.0027602,-64.453,-13.184000000000001,-22.461,-140.137,1.0
1626294685.006667,-80.078,-21.973000000000003,-40.527,-122.07,1.0
1626294685.010573,25.391,-13.672,-28.809,105.469,1.0
1626294685.0144792,31.25,9.277000000000001,-31.738000000000003,109.375,1.0
1626294685.0183854,32.227,-5.371,-17.09,64.941,1.0
1626294685.0222914,-82.031,-74.219,-39.551,-162.59799999999998,1.0
1626294685.026198,-106.445,-73.242,-46.875,-163.57399999999998,1.0
1626294685.0301042,3.906,-8.301,-24.414,67.87100000000001,1.0
1626294685.0340102,36.621,-9.766,-25.879,104.98,1.0
1626294685.0379167,-43.457,-14.648,-27.831999999999997,-98.145,1.0
1626294685.041823,-105.95700000000001,-63.477,-39.551,-187.012,1.0
1626294685.0457292,-43.457,-57.617,-46.387,-8.789,1.0
1626294685.0496354,40.039,6.836,-17.578,125.0,1.0
1626294685.0535417,-19.043,-6.836,-13.184000000000001,-39.062,1.0
1626294685.057448,-90.33200000000001,-23.926,-10.254000000000001,-184.082,1.0
1626294685.0613542,-86.426,-33.691,-3.418,1.0,1.0
1626294685.0652604,-28.809,-12.207,-13.672,1.0,1.0
1626294685.0691667,29.785,-48.34,-28.32,1.0,1.0
1626294685.073073,-32.227,-66.406,-30.273000000000003,1.0,1.0
1626294685.0769792,-98.633,-23.438000000000002,-26.366999999999997,1.0,1.0
1626294685.0808856,-37.109,-20.02,-27.831999999999997,1.0,1.0
1626294685.0847917,55.176,3.418,-26.366999999999997,1.0,1.0
1626294685.088698,9.277000000000001,-37.109,-39.062,1.0,1.0
1626294685.0926042,-83.984,-51.758,-44.922,1.0,1.0
1626294685.0965104,-76.172,-15.137,-42.48,1.0,1.0
1626294685.1004167,15.137,-11.719000000000001,-24.414,1.0,1.0
1626294685.104323,41.504,-5.371,-10.742,1.0,1.0
1626294685.108229,16.602,-16.113,-16.602,41.504,1.0
1626294685.1121356,-79.59,-21.973000000000003,-25.879,-168.457,1.0
1626294685.1160414,-93.75,-58.593999999999994,-44.922,-145.996,1.0
1626294685.1199481,-10.742,-69.824,-48.828,58.105,1.0
1626294685.123854,34.668,-13.672,-33.691,85.449,1.0
1626294685.1277602,-50.293,-25.391,-43.945,-122.559,1.0
1626294685.131667,-86.914,-17.09,-29.785,-162.59799999999998,1.0
1626294685.135573,3.906,-36.621,-13.672,43.945,1.0
1626294685.139479,55.663999999999994,-36.621,-6.348,128.906,1.0
1626294685.1433854,-35.156,-26.855,-23.926,-70.312,1.0
1626294685.1472914,-105.469,-29.296999999999997,-34.668,-198.73,1.0
1626294685.151198,-46.387,-10.742,-24.901999999999997,-37.598,1.0
1626294685.1551042,-13.672,1.953,-35.645,34.668,1.0
1626294685.1590104,35.645,15.625,-28.32,132.32399999999998,1.0
1626294685.1629167,-32.227,-23.438000000000002,-44.434,-41.016000000000005,1.0
1626294685.166823,-107.91,-56.641000000000005,-80.566,-198.24200000000002,1.0
1626294685.1707292,-44.922,-23.926,-46.387,-46.387,1.0
1626294685.1746354,49.316,5.371,2.93,146.97299999999998,1.0
1626294685.1785414,25.391,1.953,-6.348,37.109,1.0
1626294685.182448,-82.031,-64.453,-29.785,-176.27,1.0
1626294685.1863542,-93.262,-60.547,-43.945,-121.094,1.0
1626294685.1902604,13.672,-9.766,-50.293,99.12100000000001,1.0
1626294685.1941667,37.109,0.488,-26.855,82.031,1.0
1626294685.198073,-68.359,-5.371,-50.293,-148.92600000000002,1.0
1626294685.2019792,-76.66,-5.859,-14.648,-187.988,1.0
1626294685.2058854,-77.637,-29.296999999999997,-7.812,35.645,1.0
1626294685.2097917,2.93,-58.105,-13.672,106.934,1.0
1626294685.213698,7.812,-55.663999999999994,-32.227,-78.125,1.0
1626294685.2176042,-77.148,-16.113,-52.246,-174.31599999999997,1.0
1626294685.2215104,-55.176,-21.484,-27.831999999999997,-9.766,1.0
1626294685.225417,55.663999999999994,-25.879,3.906,137.207,1.0
1626294685.229323,15.137,-40.039,-38.574,-6.836,1.0
1626294685.233229,-99.609,-26.366999999999997,-57.617,-184.082,1.0
1626294685.2371356,-97.16799999999999,-32.227,-35.156,-73.73,1.0
1626294685.2410414,17.578,-40.039,-29.785,125.0,1.0
1626294685.2449477,31.738000000000003,-44.922,-47.363,48.34,1.0
1626294685.248854,55.663999999999994,-1.465,-24.901999999999997,82.52,1.0
1626294685.2527602,-67.383,-27.831999999999997,-51.27,-158.691,1.0
1626294685.256667,-104.492,-81.055,-50.293,-161.13299999999998,1.0
1626294685.260573,15.625,-42.48,-31.738000000000003,81.055,1.0
1626294685.2644792,43.457,-29.785,-43.457,107.42200000000001,1.0
1626294685.2683854,-60.547,-24.414,-42.968999999999994,-119.141,1.0
1626294685.2722914,-111.816,-20.996,-26.855,-186.523,1.0
1626294685.276198,-38.574,-58.105,-29.785,11.23,1.0
1626294685.2801042,41.016000000000005,-28.809,-15.625,134.27700000000002,1.0
1626294685.2840102,-17.578,-0.488,-6.348,-31.25,1.0
1626294685.2879167,-107.42200000000001,-30.761999999999997,-30.761999999999997,-189.453,1.0
1626294685.291823,-61.035,-41.504,-62.012,-44.922,1.0
1626294685.2957292,-4.883,-2.93,0.488,27.344,1.0
1626294685.2996354,70.801,-0.488,-25.879,155.273,1.0
1626294685.3035417,-18.066,-78.613,-71.777,-41.504,1.0
1626294685.307448,-100.098,-47.363,-52.246,-194.824,1.0
1626294685.3113542,-44.922,-8.789,-15.137,-46.387,1.0
1626294685.3152604,25.391,-8.301,-17.09,121.094,1.0
1626294685.3191667,0.488,-15.137,-34.18,23.926,1.0
1626294685.323073,-67.87100000000001,-46.387,-26.366999999999997,-152.832,1.0
1626294685.3269792,-51.27,-41.504,-10.742,-80.078,1.0
1626294685.3308856,39.551,-24.901999999999997,-21.484,121.094,1.0
1626294685.3347917,38.574,-10.742,-37.109,87.891,1.0
1626294685.338698,-84.473,-31.25,-50.293,-148.438,1.0
1626294685.3426042,-73.73,-8.789,-50.781000000000006,-170.41,1.0
1626294685.3465104,-78.125,-18.066,-46.875,-132.812,1.0
1626294685.3504167,7.812,-68.848,-29.785,82.031,1.0
1626294685.354323,33.203,-33.691,-22.461,89.355,1.0
1626294685.358229,-60.059,-32.227,-34.18,-127.93,1.0
1626294685.3621356,-91.79700000000001,-27.831999999999997,-24.414,-159.668,1.0
1626294685.3660414,3.906,-21.484,-14.648,60.547,1.0
1626294685.3699481,38.574,-69.824,-35.156,120.117,1.0
1626294685.373854,-25.391,-28.809,-39.551,-66.406,1.0
1626294685.3777602,-85.449,-21.484,-33.691,-181.15200000000002,1.0
1626294685.381667,-31.25,-24.414,-30.761999999999997,-21.973000000000003,1.0
1626294685.385573,52.246,-9.277000000000001,-17.09,134.27700000000002,1.0
1626294685.389479,30.761999999999997,-18.066,-42.48,111.32799999999999,1.0
1626294685.3933854,-39.062,-20.508000000000003,-67.87100000000001,-67.383,1.0
1626294685.3972914,-104.98,-80.566,-60.059,-195.801,1.0
1626294685.401198,-30.273000000000003,-42.968999999999994,-32.227,-22.949,1.0
1626294685.4051042,71.777,8.301,3.906,158.691,1.0
1626294685.4090104,36.133,2.93,11.719000000000001,35.645,1.0
1626294685.4129167,-71.777,-24.414,-11.23,-166.99200000000002,1.0
1626294685.416823,-62.012,-57.617,-23.926,-91.79700000000001,1.0
1626294685.4207292,23.926,-47.363,-33.203,104.98,1.0
1626294685.4246354,8.301,-49.316,-54.688,41.016000000000005,1.0
1626294685.4285414,-80.566,-55.663999999999994,-52.733999999999995,-172.852,1.0
1626294685.432448,-97.656,-46.875,-41.992,-164.551,1.0
1626294685.4363542,-77.637,-28.32,-41.504,1.0,1.0
1626294685.4402604,11.719000000000001,-29.296999999999997,-34.18,1.0,1.0
1626294685.4441667,6.348,-75.195,-49.805,1.0,1.0
1626294685.448073,-76.66,-35.645,-29.296999999999997,1.0,1.0
1626294685.4519792,-97.16799999999999,-18.555,-13.672,1.0,1.0
1626294685.4558854,8.301,-21.973000000000003,-14.16,1.0,1.0
1626294685.4597917,46.387,-45.41,-24.901999999999997,1.0,1.0
1626294685.463698,-57.617,-85.93799999999999,-55.663999999999994,1.0,1.0
1626294685.4676042,-107.91,-42.48,-48.828,1.0,1.0
1626294685.4715104,-33.691,-16.113,-28.32,1.0,1.0
1626294685.475417,39.062,-20.508000000000003,-29.296999999999997,1.0,1.0
1626294685.479323,-4.395,-42.48,-36.621,1.0,1.0
1626294685.483229,-38.574,-43.945,-37.109,-81.055,1.0
1626294685.4871356,-112.79299999999999,-13.672,-50.781000000000006,-199.707,1.0
1626294685.4910414,-50.781000000000006,-40.039,-31.25,-21.973000000000003,1.0
1626294685.4949477,47.363,-14.16,-16.602,143.555,1.0
1626294685.498854,10.254000000000001,-8.789,-29.296999999999997,5.859,1.0
1626294685.5027602,-79.102,-27.344,-20.996,-169.43400000000003,1.0
1626294685.506667,-59.57,-28.809,-11.719000000000001,-74.707,1.0
1626294685.510573,24.414,-34.668,-17.578,114.74600000000001,1.0
1626294685.5144792,17.09,-19.531,-13.672,62.012,1.0
1626294685.5183854,-79.59,-33.203,-35.645,-152.344,1.0
1626294685.5222914,-82.52,-25.391,-68.848,-127.93,1.0
1626294685.526198,8.301,-26.855,-51.27,82.52,1.0
1626294685.5301042,43.457,-23.926,-13.184000000000001,136.23,1.0
1626294685.5340102,28.32,-27.831999999999997,-28.32,77.148,1.0
1626294685.5379167,-81.543,-63.965,-48.34,-152.832,1.0
1626294685.541823,-104.492,-44.922,-26.366999999999997,-159.668,1.0
1626294685.5457292,-14.16,-18.555,-20.02,50.293,1.0
1626294685.5496354,36.133,-14.16,-19.043,98.633,1.0
1626294685.5535417,-37.109,-50.293,-16.113,-93.262,1.0
1626294685.557448,-102.051,-101.56200000000001,-29.296999999999997,-178.22299999999998,1.0
1626294685.5613542,-31.25,-33.203,-41.016000000000005,10.254000000000001,1.0
1626294685.5652604,45.898,0.977,-56.641000000000005,129.88299999999998,1.0
1626294685.5691667,-6.348,-13.672,-42.968999999999994,-29.785,1.0
1626294685.573073,-99.609,-38.574,-34.668,-191.895,1.0
1626294685.5769792,-118.652,-33.203,-47.363,-60.059,1.0
1626294685.5808856,-41.504,-61.523,-30.761999999999997,132.32399999999998,1.0
1626294685.5847917,37.598,-89.844,-22.461,18.066,1.0
1626294685.588698,-10.254000000000001,-38.574,-29.296999999999997,-177.734,1.0
1626294685.5926042,-100.098,-13.184000000000001,-36.133,-105.95700000000001,1.0
1626294685.5965104,-60.547,5.859,-40.527,107.91,1.0
1626294685.6004167,43.457,9.766,-42.968999999999994,90.33200000000001,1.0
1626294685.604323,23.926,-46.875,-26.366999999999997,-136.719,1.0
1626294685.608229,-84.473,-41.992,-7.324,-156.738,1.0
1626294685.6121356,-89.355,-20.508000000000003,-7.812,58.593999999999994,1.0
1626294685.6160414,8.301,-12.207,-18.066,104.00399999999999,1.0
1626294685.6199481,26.855,-42.48,-21.484,-111.816,1.0
1626294685.623854,-3.418,-37.109,-41.504,38.574,1.0
1626294685.6277602,-96.191,-43.945,-65.43,-175.293,1.0
1626294685.631667,-96.68,-65.918,-28.809,-139.16,1.0
1626294685.635573,-11.23,-17.578,-23.438000000000002,71.777,1.0
1626294685.639479,16.602,-4.883,-41.992,92.285,1.0
1626294685.6433854,-61.035,-24.414,-21.973000000000003,-109.863,1.0
1626294685.6472914,-103.027,-38.086,-13.672,-159.668,1.0
1626294685.651198,-33.203,-83.49600000000001,-21.484,32.227,1.0
1626294685.6551042,33.691,-50.293,-18.066,131.34799999999998,1.0
1626294685.6590104,-23.438000000000002,-13.184000000000001,-31.738000000000003,-47.363,1.0
1626294685.6629167,-115.234,-21.484,-52.246,-205.078,1.0
1626294685.666823,-52.733999999999995,-21.973000000000003,-50.293,-41.992,1.0
1626294685.6707292,-35.645,-8.301,-19.531,1.0,1.0
1626294685.6746354,36.621,-18.555,-10.254000000000001,1.0,1.0
1626294685.6785414,-18.555,-88.37899999999999,-20.02,1.0,1.0
1626294685.682448,-97.16799999999999,-77.148,-33.203,1.0,1.0
1626294685.6863542,-51.27,-40.527,-30.273000000000003,1.0,1.0
1626294685.6902604,53.711000000000006,4.883,-20.508000000000003,1.0,1.0
1626294685.6941667,20.508000000000003,-5.859,-39.551,1.0,1.0
1626294685.698073,-86.914,-52.733999999999995,-56.641000000000005,1.0,1.0
1626294685.7019792,-74.707,-19.043,-50.293,1.0,1.0
1626294685.7058854,22.949,9.766,-28.32,1.0,1.0
1626294685.7097917,34.18,-5.859,-23.438000000000002,1.0,1.0
1626294685.713698,-63.477,-38.574,-31.25,1.0,1.0
1626294685.7176042,-81.055,-20.996,-42.48,-166.016,1.0
1626294685.7215104,-73.73,-36.133,-35.645,-116.211,1.0
1626294685.725417,25.391,-36.133,-34.18,102.051,1.0
1626294685.729323,41.016000000000005,-13.672,-35.645,99.12100000000001,1.0
1626294685.733229,-54.688,-35.156,-21.973000000000003,-120.117,1.0
1626294685.7371356,-83.49600000000001,-56.152,-19.531,-151.855,1.0
1626294685.7410414,-13.184000000000001,-42.48,-28.809,43.457,1.0
1626294685.7449477,26.366999999999997,-48.828,-19.043,102.539,1.0
1626294685.748854,-21.484,-19.043,-4.883,-66.406,1.0
1626294685.7527602,-83.49600000000001,-1.465,-24.414,-168.945,1.0
1626294685.756667,-40.527,-26.855,-33.691,-16.602,1.0
1626294685.760573,48.828,-20.508000000000003,-20.02,136.23,1.0
1626294685.7644792,47.363,-13.672,-22.949,120.605,1.0
1626294685.7683854,-7.812,-20.508000000000003,-20.02,-49.316,1.0
1626294685.7722914,-105.469,-64.941,-48.34,-194.824,1.0
1626294685.776198,-45.898,-29.296999999999997,-35.156,-32.715,1.0
1626294685.7801042,57.617,-8.301,-3.906,144.043,1.0
1626294685.7840102,8.301,-30.273000000000003,-18.066,0.977,1.0
1626294685.7879167,-105.95700000000001,-65.918,-41.992,-207.52,1.0
1626294685.791823,-85.449,-61.035,-34.668,-116.211,1.0
1626294685.7957292,30.273000000000003,-4.883,-11.23,105.469,1.0
1626294685.7996354,25.879,-4.883,-34.668,54.688,1.0
1626294685.8035417,-77.637,-15.137,-67.87100000000001,-161.13299999999998,1.0
1626294685.807448,-98.633,-28.32,-65.918,-157.715,1.0
1626294685.8113542,-72.75399999999999,-17.09,-39.062,1.0,1.0
1626294685.8152604,-7.812,-37.109,-41.016000000000005,1.0,1.0
1626294685.8191667,0.0,-100.586,-30.761999999999997,1.0,1.0
1626294685.823073,-57.617,-54.688,-17.578,1.0,1.0
1626294685.8269792,-82.52,1.465,-28.32,1.0,1.0
1626294685.8308856,-5.371,-1.465,-31.738000000000003,1.0,1.0
1626294685.8347917,26.855,-42.968999999999994,-50.293,1.0,1.0
1626294685.838698,-55.176,-79.102,-94.727,1.0,1.0
1626294685.8426042,-106.445,-63.965,-79.102,1.0,1.0
1626294685.8465104,-41.504,-42.48,-25.879,1.0,1.0
1626294685.8504167,38.574,-0.977,4.395,1.0,1.0
1626294685.854323,0.488,-2.93,7.324,1.0,1.0
1626294685.858229,-26.366999999999997,-1.953,-21.973000000000003,-57.617,1.0
1626294685.8621356,-116.699,-36.133,-30.273000000000003,-183.105,1.0
1626294685.8660414,-61.523,-96.191,-38.086,-23.926,1.0
1626294685.8699481,25.391,-61.035,-43.457,125.488,1.0
1626294685.873854,-10.742,-23.438000000000002,-61.035,-13.672,1.0
1626294685.8777602,-86.426,-10.742,-55.176,-179.199,1.0
1626294685.881667,-55.663999999999994,-35.156,-31.738000000000003,-67.383,1.0
1626294685.885573,31.738000000000003,-71.289,-23.438000000000002,122.07,1.0
1626294685.889479,24.414,-13.672,-11.23,62.5,1.0
1626294685.8933854,-77.637,-24.901999999999997,-15.137,-161.621,1.0
1626294685.8972914,-84.961,-36.621,-17.578,-136.719,1.0
1626294685.901198,12.695,-23.438000000000002,-13.184000000000001,88.37899999999999,1.0
1626294685.9051042,29.296999999999997,-9.766,-32.227,115.234,1.0
1626294685.9090104,20.996,-11.23,-23.926,61.035,1.0
1626294685.9129167,-94.727,-85.449,-64.453,-168.945,1.0
1626294685.916823,-93.75,-50.781000000000006,-62.5,-148.92600000000002,1.0
1626294685.9207292,6.348,-7.812,-41.504,74.707,1.0
1626294685.9246354,43.945,-2.441,-30.273000000000003,113.77,1.0
1626294685.9285414,-45.41,-41.016000000000005,-29.296999999999997,-101.074,1.0
1626294685.932448,-98.633,-92.773,-29.296999999999997,-182.12900000000002,1.0
1626294685.9363542,-14.16,-26.366999999999997,-6.348,18.066,1.0
1626294685.9402604,37.598,4.395,-18.555,116.211,1.0
1626294685.9441667,-18.066,-10.742,-39.062,-43.945,1.0
1626294685.948073,-84.961,-36.621,-34.668,-176.27,1.0
1626294685.9519792,-131.836,-41.992,-52.246,-41.992,1.0
1626294685.9558854,-42.968999999999994,-36.621,-45.898,122.559,1.0
1626294685.9597917,43.945,-87.891,-48.828,17.578,1.0
1626294685.963698,-6.348,-43.457,-45.41,-165.03900000000002,1.0
1626294685.9676042,-107.42200000000001,-34.18,-25.879,-82.52,1.0
1626294685.9715104,-68.359,-22.949,-13.672,121.094,1.0
1626294685.975417,41.504,11.719000000000001,-7.324,69.824,1.0
1626294685.979323,27.344,-17.09,-12.207,-150.391,1.0
1626294685.983229,-79.102,-12.207,-43.457,-166.50400000000002,1.0
1626294685.9871356,-83.008,-7.324,-45.41,33.691,1.0
1626294685.9910414,29.296999999999997,4.883,-10.254000000000001,102.539,1.0
1626294685.9949477,41.992,-20.508000000000003,-30.273000000000003,-112.79299999999999,1.0
1626294685.998854,18.066,-10.742,-56.152,41.992,1.0
1626294686.0027602,-69.336,-35.156,-37.598,-154.297,1.0
1626294686.006667,-89.355,-83.984,-34.18,-135.254,1.0
1626294686.010573,11.719000000000001,-22.461,-21.484,79.102,1.0
1626294686.0144792,56.641000000000005,6.836,-16.602,100.098,1.0
1626294686.0183854,-37.109,-25.879,-30.761999999999997,-109.863,1.0
1626294686.0222914,-99.609,-28.809,-33.203,-175.78099999999998,1.0
1626294686.026198,-11.23,-18.555,-17.578,27.831999999999997,1.0
1626294686.0301042,76.66,10.742,-23.926,141.602,1.0
1626294686.0340102,-12.207,-16.602,-55.663999999999994,-56.152,1.0
1626294686.0379167,-111.32799999999999,-49.805,-68.848,-197.75400000000002,1.0
1626294686.041823,-55.663999999999994,-39.551,-55.176,-31.738000000000003,1.0
1626294686.0457292,-32.227,-38.574,-55.176,1.0,1.0
1626294686.0496354,48.34,-27.831999999999997,-23.438000000000002,1.0,1.0
1626294686.0535417,-29.785,-79.102,-32.227,1.0,1.0
1626294686.057448,-114.258,-33.691,-41.504,1.0,1.0
1626294686.0613542,-67.87100000000001,-5.859,-20.996,1.0,1.0
1626294686.0652604,24.901999999999997,-17.09,-8.789,1.0,1.0
1626294686.0691667,3.906,-11.23,-21.973000000000003,1.0,1.0
1626294686.073073,-85.93799999999999,-29.296999999999997,-51.758,1.0,1.0
1626294686.0769792,-72.266,-37.109,-40.527,1.0,1.0
1626294686.0808856,2.441,-41.504,-26.366999999999997,1.0,1.0
1626294686.0847917,11.23,-24.414,-29.785,1.0,1.0
1626294686.088698,-69.824,-36.133,-38.574,1.0,1.0
1626294686.0926042,-63.477,-14.16,-25.391,-152.832,1.0
1626294686.0965104,-77.148,-21.973000000000003,-46.875,-115.234,1.0
1626294686.1004167,3.418,-41.992,-73.73,81.543,1.0
1626294686.104323,42.968999999999994,-24.901999999999997,-28.32,88.867,1.0
1626294686.108229,-57.129,-39.062,-13.672,-137.695,1.0
1626294686.1121356,-96.191,-52.246,-32.715,-168.945,1.0
1626294686.1160414,-5.859,-42.968999999999994,-29.785,54.199,1.0
1626294686.1199481,27.831999999999997,-53.711000000000006,-38.086,103.027,1.0
1626294686.123854,-42.968999999999994,-31.25,-43.945,-90.82,1.0
1626294686.1277602,-95.70299999999999,-11.719000000000001,-29.785,-183.105,1.0
1626294686.131667,-10.254000000000001,5.371,5.859,11.23,1.0
1626294686.135573,65.918,-1.465,0.488,149.90200000000002,1.0
1626294686.139479,34.18,-15.625,-26.855,115.234,1.0
1626294686.1433854,-39.551,-34.18,-61.523,-79.102,1.0
1626294686.1472914,-110.84,-90.82,-81.543,-197.75400000000002,1.0
1626294686.151198,-36.133,-67.383,-28.809,-17.09,1.0
1626294686.1551042,48.34,-22.949,10.254000000000001,141.602,1.0
1626294686.1590104,8.301,1.465,-0.977,12.207,1.0
1626294686.1629167,-91.309,-34.668,-25.391,-177.24599999999998,1.0
1626294686.166823,-71.777,-72.266,-30.273000000000003,-83.49600000000001,1.0
1626294686.1707292,31.25,-21.973000000000003,-31.25,122.559,1.0
1626294686.1746354,21.973000000000003,-14.16,-49.316,51.758,1.0
1626294686.1785414,-66.406,-20.02,-48.828,-155.273,1.0
1626294686.182448,-72.75399999999999,-34.18,-28.809,-123.04700000000001,1.0
1626294686.1863542,-88.867,-34.18,-40.039,95.70299999999999,1.0
1626294686.1902604,-7.324,-44.434,-40.039,113.281,1.0
1626294686.1941667,16.113,-50.781000000000006,-21.973000000000003,-109.375,1.0
1626294686.198073,-82.52,-35.645,-35.156,-177.734,1.0
1626294686.2019792,-114.258,-23.438000000000002,-41.504,36.621,1.0
1626294686.2058854,-5.859,-17.578,-18.555,144.043,1.0
1626294686.2097917,36.621,-37.109,-21.973000000000003,-30.761999999999997,1.0
1626294686.213698,-53.711000000000006,-69.336,-42.48,-166.016,1.0
1626294686.2176042,-102.539,-54.688,-38.574,-28.809,1.0
1626294686.2215104,-20.996,-28.809,-38.086,143.066,1.0
1626294686.225417,42.48,-13.672,-36.133,41.992,1.0
1626294686.229323,-36.621,-48.34,-37.109,-147.461,1.0
1626294686.233229,-35.156,-10.742,-44.922,-79.59,1.0
1626294686.2371356,-119.141,-13.184000000000001,-33.203,-203.125,1.0
1626294686.2410414,-67.87100000000001,-58.593999999999994,-25.879,-36.621,1.0
1626294686.2449477,31.738000000000003,-24.414,-19.043,120.117,1.0
1626294686.248854,-16.602,-20.996,-39.551,-30.761999999999997,1.0
1626294686.2527602,-113.281,-30.273000000000003,-53.223,-204.102,1.0
1626294686.256667,-86.426,-33.691,-27.831999999999997,-94.727,1.0
1626294686.260573,11.719000000000001,-49.316,-0.977,100.586,1.0
1626294686.2644792,25.391,-27.831999999999997,-0.488,38.574,1.0
1626294686.2683854,-93.75,-33.203,-53.711000000000006,-188.965,1.0
1626294686.2722914,-105.469,-17.578,-44.434,-144.043,1.0
1626294686.276198,-3.418,-14.648,-18.555,81.543,1.0
1626294686.2801042,28.809,-5.371,0.0,115.234,1.0
1626294686.2840102,19.531,-2.441,-12.695,49.805,1.0
1626294686.2879167,-92.773,-58.105,-32.715,-170.41,1.0
1626294686.291823,-92.285,-40.527,-20.508000000000003,-142.578,1.0
1626294686.2957292,2.93,-5.371,-15.625,75.195,1.0
1626294686.2996354,30.761999999999997,-7.812,-34.668,89.844,1.0
1626294686.3035417,-44.922,-29.296999999999997,-41.016000000000005,-111.32799999999999,1.0
1626294686.307448,-87.402,-55.176,-23.926,-167.96900000000002,1.0
1626294686.3113542,-26.855,-37.598,-37.109,13.672,1.0
1626294686.3152604,20.508000000000003,-33.691,-62.012,95.215,1.0
1626294686.3191667,-35.156,-27.831999999999997,-50.781000000000006,-80.078,1.0
1626294686.323073,-119.141,-36.133,-43.457,-220.215,1.0
1626294686.3269792,-99.609,-23.438000000000002,-24.901999999999997,-186.035,1.0
1626294686.3308856,-19.531,-13.672,-20.996,16.113,1.0
1626294686.3347917,56.641000000000005,-39.551,-3.418,145.996,1.0
1626294686.338698,-35.645,-37.598,-31.25,-56.641000000000005,1.0
1626294686.3426042,-124.512,-29.296999999999997,-37.598,-217.285,1.0
1626294686.3465104,-64.941,-26.366999999999997,-38.574,-56.641000000000005,1.0
1626294686.3504167,36.621,-23.438000000000002,-28.809,131.836,1.0
1626294686.354323,25.879,-56.152,0.977,37.109,1.0
1626294686.358229,-74.707,-41.504,-12.695,-162.109,1.0
1626294686.3621356,-89.844,-49.805,-35.156,-117.18799999999999,1.0
1626294686.3660414,16.113,-32.715,-26.855,99.609,1.0
1626294686.3699481,39.551,-8.789,-16.113,94.238,1.0
1626294686.373854,43.457,9.766,-17.578,65.43,1.0
1626294686.3777602,-85.93799999999999,-32.715,-54.199,-172.852,1.0
1626294686.381667,-130.859,-128.906,-72.266,-169.43400000000003,1.0
1626294686.385573,2.441,-71.289,-30.761999999999997,80.566,1.0
1626294686.389479,60.547,-6.836,-12.207,118.652,1.0
1626294686.3933854,-48.34,-1.953,-25.879,-106.934,1.0
1626294686.3972914,-99.609,-32.715,-40.527,-169.43400000000003,1.0
1626294686.401198,-21.973000000000003,-96.68,-58.593999999999994,34.18,1.0
1626294686.4051042,40.527,-45.41,-50.293,130.371,1.0
1626294686.4090104,-29.785,-24.414,-40.527,-67.87100000000001,1.0
1626294686.4129167,-93.262,-7.812,-21.484,-188.965,1.0
1626294686.416823,-46.387,-14.648,-19.043,-32.715,1.0
1626294686.4207292,3.906,14.648,0.977,1.0,1.0
1626294686.4246354,72.266,25.879,-11.23,1.0,1.0
1626294686.4285414,-17.578,-36.621,-46.387,1.0,1.0
1626294686.432448,-110.84,-34.18,-47.852,1.0,1.0
1626294686.4363542,-62.988,-34.18,-31.25,1.0,1.0
1626294686.4402604,25.391,-48.828,-19.043,1.0,1.0
1626294686.4441667,-1.465,-42.968999999999994,-28.809,1.0,1.0
1626294686.448073,-105.469,-102.051,-46.387,1.0,1.0
1626294686.4519792,-83.984,-41.992,-34.668,1.0,1.0
1626294686.4558854,53.711000000000006,19.043,-13.184000000000001,1.0,1.0
1626294686.4597917,65.918,6.836,2.441,1.0,1.0
1626294686.463698,-75.195,-33.203,-22.949,1.0,1.0
1626294686.4676042,-81.055,6.836,-27.344,-170.41,1.0
1626294686.4715104,-59.082,4.395,-15.625,-91.309,1.0
1626294686.475417,5.371,-111.32799999999999,-59.57,86.914,1.0
1626294686.479323,-6.348,-89.844,-64.453,40.039,1.0
1626294686.483229,-80.078,-35.156,-26.855,-153.32,1.0
1626294686.4871356,-84.961,-16.113,-16.113,-143.066,1.0
1626294686.4910414,-4.395,-24.414,-24.414,56.152,1.0
1626294686.4949477,34.668,-76.172,-52.733999999999995,97.16799999999999,1.0
1626294686.498854,-23.926,-32.227,-37.598,-85.93799999999999,1.0
1626294686.5027602,-92.285,-11.23,-18.066,-181.15200000000002,1.0
1626294686.506667,-38.574,0.488,-22.949,-5.859,1.0
1626294686.510573,50.293,-7.324,-18.555,145.02,1.0
1626294686.5144792,24.414,15.137,-35.645,105.469,1.0
1626294686.5183854,-46.875,-0.488,-24.901999999999997,-83.49600000000001,1.0
1626294686.5222914,-105.469,-85.449,-38.086,-187.012,1.0
1626294686.526198,-42.48,-41.504,-41.016000000000005,-14.16,1.0
1626294686.5301042,26.366999999999997,2.441,-35.645,114.74600000000001,1.0
1626294686.5340102,-7.812,-14.648,-23.438000000000002,-20.996,1.0
1626294686.5379167,-101.074,-45.898,-32.227,-186.523,1.0
1626294686.541823,-75.684,-97.16799999999999,-43.457,-83.984,1.0
1626294686.5457292,51.758,-30.761999999999997,-18.555,134.27700000000002,1.0
1626294686.5496354,37.109,3.418,-13.184000000000001,62.5,1.0
1626294686.5535417,-82.52,-8.301,-14.16,-168.457,1.0
1626294686.557448,-101.074,-22.461,-29.785,-148.438,1.0
1626294686.5613542,-73.242,-26.366999999999997,-29.785,-89.355,1.0
1626294686.5652604,9.766,-50.293,-27.831999999999997,104.00399999999999,1.0
1626294686.5691667,8.789,-75.684,-24.901999999999997,55.176,1.0
1626294686.573073,-79.59,-47.852,-44.922,-149.414,1.0
1626294686.5769792,-96.68,-29.296999999999997,-63.965,-147.461,1.0
1626294686.5808856,1.465,-1.953,-40.039,75.684,1.0
1626294686.5847917,29.296999999999997,-11.719000000000001,-42.968999999999994,108.398,1.0
1626294686.588698,-73.73,-61.035,-60.547,-124.512,1.0
1626294686.5926042,-106.934,-29.785,-29.296999999999997,-185.05900000000003,1.0
1626294686.5965104,-15.625,-7.812,-4.883,23.438000000000002,1.0
1626294686.6004167,61.035,-3.906,-13.672,143.555,1.0
1626294686.604323,-0.977,-28.809,-37.598,-32.227,1.0
1626294686.608229,-21.484,-18.066,-26.855,-73.73,1.0
1626294686.6121356,-81.055,-18.066,-26.366999999999997,-162.59799999999998,1.0
1626294686.6160414,-19.531,-37.598,-24.414,21.484,1.0
1626294686.6199481,52.246,-24.901999999999997,-46.875,151.855,1.0
1626294686.623854,-12.695,-31.25,-70.801,-18.555,1.0
1626294686.6277602,-95.215,-41.504,-48.34,-175.78099999999998,1.0
1626294686.631667,-49.805,-34.668,-9.766,-46.875,1.0
1626294686.635573,26.366999999999997,-34.18,-18.066,119.62899999999999,1.0
1626294686.639479,13.184000000000001,-12.207,-25.391,34.18,1.0
1626294686.6433854,-74.707,-26.366999999999997,-28.809,-162.59799999999998,1.0
1626294686.6472914,-72.266,-31.25,-30.761999999999997,-103.027,1.0
1626294686.651198,19.043,-37.109,-14.648,100.586,1.0
1626294686.6551042,34.668,-25.391,-8.789,125.488,1.0
1626294686.6590104,17.578,-43.457,-46.875,47.363,1.0
1626294686.6629167,-93.262,-135.254,-65.43,-178.22299999999998,1.0
1626294686.666823,-83.984,-71.289,-45.898,-136.23,1.0
1626294686.6707292,30.273000000000003,18.066,-24.414,100.586,1.0
1626294686.6746354,62.012,8.301,-23.926,122.559,1.0
1626294686.6785414,-24.414,-26.366999999999997,-31.738000000000003,-89.844,1.0
1626294686.682448,-94.727,-70.801,-33.203,-175.293,1.0
1626294686.6863542,-32.715,-26.366999999999997,-9.277000000000001,17.09,1.0
1626294686.6902604,23.438000000000002,-7.812,-12.695,113.281,1.0
1626294686.6941667,-41.504,-35.645,-34.18,-73.73,1.0
1626294686.698073,-103.516,-40.039,-32.715,-189.94099999999997,1.0
1626294686.7019792,-92.773,0.977,-41.992,-170.41,1.0
1626294686.7058854,-34.18,-10.742,-36.621,11.23,1.0
1626294686.7097917,27.344,-80.078,-38.574,116.211,1.0
1626294686.713698,-38.086,-62.012,-53.711000000000006,-63.965,1.0
1626294686.7176042,-114.74600000000001,-20.508000000000003,-49.316,-203.613,1.0
1626294686.7215104,-49.805,-1.953,-18.555,-39.551,1.0
1626294686.725417,42.968999999999994,-1.953,-2.441,139.648,1.0
1626294686.729323,-1.465,-60.547,-31.738000000000003,6.348,1.0
1626294686.733229,-102.051,-48.34,-46.387,-196.77700000000002,1.0
1626294686.7371356,-80.078,-24.414,-32.715,-104.492,1.0
1626294686.7410414,32.227,7.324,-27.831999999999997,120.605,1.0
1626294686.7449477,32.715,-21.973000000000003,-45.898,75.195,1.0
1626294686.748854,20.508000000000003,-19.531,-28.809,35.645,1.0
1626294686.7527602,-42.48,-17.09,-15.625,-135.254,1.0
1626294686.756667,-65.43,-104.492,-46.387,-105.469,1.0
1626294686.760573,4.883,-60.547,-51.758,85.449,1.0
1626294686.7644792,37.109,3.906,-29.296999999999997,92.773,1.0
1626294686.7683854,-57.129,-6.348,-28.809,-124.512,1.0
1626294686.7722914,-103.516,-6.348,-24.901999999999997,-165.52700000000002,1.0
1626294686.776198,-15.625,-51.27,-20.996,42.968999999999994,1.0
1626294686.7801042,48.34,-32.227,-18.066,125.488,1.0
1626294686.7840102,-21.973000000000003,-0.977,-16.602,-64.941,1.0
1626294686.7879167,-99.12100000000001,-7.324,-31.25,-195.312,1.0
1626294686.791823,-40.527,-36.621,-34.668,-35.156,1.0
1626294686.7957292,-22.461,-28.32,-28.809,1.0,1.0
1626294686.7996354,44.922,-33.691,-30.761999999999997,1.0,1.0
1626294686.8035417,-32.227,-102.539,-61.035,1.0,1.0
1626294686.807448,-102.051,-76.66,-47.363,1.0,1.0
1626294686.8113542,-48.828,-34.18,-34.18,1.0,1.0
1626294686.8152604,31.25,-26.855,-39.551,1.0,1.0
1626294686.8191667,13.672,-0.488,-20.508000000000003,1.0,1.0
1626294686.823073,-71.289,-29.785,-8.789,1.0,1.0
1626294686.8269792,-72.266,-42.968999999999994,-20.508000000000003,1.0,1.0
1626294686.8308856,27.344,-20.508000000000003,-16.602,1.0,1.0
1626294686.8347917,24.901999999999997,-22.949,-53.711000000000006,1.0,1.0
1626294686.838698,-79.59,-47.363,-71.777,1.0,1.0
1626294686.8426042,-92.773,-14.648,-16.602,-179.688,1.0
1626294686.8465104,-90.82,-31.738000000000003,-28.809,-121.094,1.0
1626294686.8504167,11.719000000000001,-44.922,-20.508000000000003,92.285,1.0
1626294686.854323,41.016000000000005,-2.93,-20.02,83.49600000000001,1.0
1626294686.858229,-60.547,-3.906,-34.668,-137.207,1.0
1626294686.8621356,-106.934,-42.968999999999994,-40.527,-166.50400000000002,1.0
1626294686.8660414,-7.324,-44.434,-16.602,62.988,1.0
1626294686.8699481,37.598,-60.547,-13.184000000000001,112.305,1.0
1626294686.873854,-57.617,-52.733999999999995,-41.504,-110.84,1.0
1626294686.8777602,-115.723,-33.203,-44.434,-194.33599999999998,1.0
1626294686.881667,-41.016000000000005,-18.066,-35.156,-4.395,1.0
1626294686.885573,36.621,-27.344,-19.043,125.488,1.0
1626294686.889479,28.809,-52.246,-20.02,93.262,1.0
1626294686.8933854,-49.805,-51.758,-24.901999999999997,-99.12100000000001,1.0
1626294686.8972914,-101.074,-60.059,-29.785,-189.94099999999997,1.0
1626294686.901198,-27.344,-20.996,-20.996,-13.672,1.0
1626294686.9051042,40.527,-11.23,-21.484,120.117,1.0
1626294686.9090104,-17.09,-8.301,-40.527,-33.203,1.0
1626294686.9129167,-92.773,-15.625,-31.25,-190.43,1.0
1626294686.916823,-56.641000000000005,-65.918,-22.461,-76.172,1.0
1626294686.9207292,23.926,-42.48,-40.527,109.375,1.0
1626294686.9246354,19.531,-44.434,-47.852,42.968999999999994,1.0
1626294686.9285414,-75.195,-62.5,-67.87100000000001,-167.48,1.0
1626294686.932448,-69.824,-30.273000000000003,-51.758,-114.74600000000001,1.0
1626294686.9363542,-60.547,-25.879,-26.366999999999997,104.98,1.0
1626294686.9402604,66.895,-32.715,-6.348,71.289,1.0
1626294686.9441667,72.266,-80.566,-3.418,-145.50799999999998,1.0
1626294686.948073,-71.289,-44.434,-32.227,-166.50400000000002,1.0
1626294686.9519792,-107.42200000000001,-1.953,-37.598,44.434,1.0
1626294686.9558854,1.953,14.16,-32.227,126.95299999999999,1.0
1626294686.9597917,37.109,-26.855,-22.461,-62.012,1.0
1626294686.963698,-52.246,-92.773,-18.555,-189.94099999999997,1.0
1626294686.9676042,-110.84,-54.688,-42.968999999999994,-33.203,1.0
1626294686.9715104,-19.531,-20.508000000000003,-31.25,139.648,1.0
1626294686.975417,54.199,7.324,-19.043,6.836,1.0
1626294686.979323,-20.996,-20.02,-53.711000000000006,-191.40599999999998,1.0
1626294686.983229,-51.758,-30.761999999999997,-38.086,-107.91,1.0
1626294686.9871356,-106.445,-23.438000000000002,-39.551,-189.94099999999997,1.0
1626294686.9910414,-19.043,-55.176,-10.254000000000001,20.02,1.0
1626294686.9949477,34.668,-53.711000000000006,-19.531,123.04700000000001,1.0
1626294686.998854,-23.926,-32.715,-40.039,-46.387,1.0
1626294687.0027602,-88.867,-19.531,-41.016000000000005,-180.66400000000002,1.0
1626294687.006667,-46.875,-20.996,-31.25,-41.504,1.0
1626294687.010573,29.296999999999997,-53.711000000000006,-10.742,126.95299999999999,1.0
1626294687.0144792,-17.09,-61.523,-21.973000000000003,9.277000000000001,1.0
1626294687.0183854,-97.16799999999999,-40.039,-41.504,-179.199,1.0
1626294687.0222914,-88.37899999999999,-35.156,-50.293,-121.58200000000001,1.0
1626294687.026198,-7.324,-50.293,-59.082,75.195,1.0
1626294687.0301042,10.742,-16.113,-40.039,103.027,1.0
1626294687.0340102,4.395,-30.761999999999997,-61.523,26.366999999999997,1.0
1626294687.0379167,-70.312,-39.062,-45.898,-148.438,1.0
1626294687.041823,-79.102,-20.02,-31.25,-107.42200000000001,1.0
1626294687.0457292,16.113,1.953,-18.555,107.42200000000001,1.0
1626294687.0496354,36.133,-15.625,-17.09,109.863,1.0
1626294687.0535417,-54.688,-57.617,-15.137,-104.00399999999999,1.0
1626294687.057448,-84.961,-83.49600000000001,-4.883,-137.695,1.0
1626294687.0613542,-2.93,-29.296999999999997,-20.02,58.105,1.0
1626294687.0652604,56.641000000000005,-12.207,-35.645,140.137,1.0
1626294687.0691667,-25.391,-21.973000000000003,-42.48,-57.617,1.0
1626294687.073073,-125.0,-34.18,-53.223,-206.055,1.0
1626294687.0769792,-93.262,-12.695,-47.852,-169.43400000000003,1.0
1626294687.0808856,-14.16,-11.719000000000001,-52.246,27.344,1.0
1626294687.0847917,48.34,-23.926,-36.133,129.88299999999998,1.0
1626294687.088698,-12.695,-20.508000000000003,-16.602,-42.968999999999994,1.0
1626294687.0926042,-71.777,-32.227,3.418,-157.715,1.0
1626294687.0965104,-37.598,-46.875,1.953,-18.066,1.0
1626294687.1004167,36.621,-28.32,-5.859,132.32399999999998,1.0
1626294687.104323,16.113,-30.761999999999997,-21.484,28.809,1.0
1626294687.108229,-104.492,-46.387,-69.824,-187.988,1.0
1626294687.1121356,-102.539,-50.781000000000006,-66.406,-124.512,1.0
1626294687.1160414,16.602,-13.672,-23.926,101.074,1.0
1626294687.1199481,18.555,-38.574,-33.691,62.988,1.0
1626294687.123854,-5.859,-17.578,-43.945,20.996,1.0
1626294687.1277602,-111.816,-36.133,-57.129,-191.895,1.0
1626294687.131667,-94.238,-79.102,-47.363,-119.62899999999999,1.0
1626294687.135573,27.831999999999997,-54.688,-15.625,111.816,1.0
1626294687.139479,55.176,-35.156,0.0,94.238,1.0
1626294687.1433854,-47.363,-55.176,-20.508000000000003,-128.418,1.0
1626294687.1472914,-95.70299999999999,-43.457,-39.551,-162.109,1.0
1626294687.151198,-22.949,-33.203,-49.805,34.668,1.0
1626294687.1551042,40.527,-5.371,-45.41,110.84,1.0
1626294687.1590104,-20.508000000000003,9.766,-36.133,-74.707,1.0
1626294687.1629167,-102.051,-14.16,-42.968999999999994,-187.5,1.0
1626294687.166823,-57.617,-56.641000000000005,-60.547,-30.273000000000003,1.0
