timestamps,TP9,AF7,AF8,TP10,Right AUX
1626202998.429139,116.699,-19.531,-5.859,132.32399999999998,1.0
1626202998.433045,-98.145,-26.855,-20.02,-134.27700000000002,1.0
1626202998.4369516,-193.84799999999998,-35.156,-28.32,-222.168,1.0
1626202998.4408574,0.0,-37.109,-22.949,20.996,1.0
1626202998.4447641,111.816,-21.973000000000003,-27.344,138.672,1.0
1626202998.44867,-56.641000000000005,-16.602,-32.715,-78.125,1.0
1626202998.4525762,-193.359,-26.855,-31.25,-225.09799999999998,1.0
1626202998.456483,-53.711000000000006,-45.898,-27.344,-37.109,1.0
1626202998.460389,108.398,-44.922,-32.715,151.855,1.0
1626202998.464295,0.0,-36.621,-49.805,5.859,1.0
1626202998.4682014,-204.59,-56.152,-59.57,-231.445,1.0
1626202998.4721074,-147.461,-56.641000000000005,-47.852,-135.74200000000002,1.0
1626202998.476014,-68.848,-41.992,-29.296999999999997,-57.129,1.0
1626202998.4799201,116.699,-42.968999999999994,-39.551,150.391,1.0
1626202998.4838264,27.831999999999997,-33.203,-47.852,23.438000000000002,1.0
1626202998.4877326,-171.387,-19.043,-30.761999999999997,-203.613,1.0
1626202998.491639,-125.977,-17.578,-25.879,-120.117,1.0
1626202998.4955451,84.473,-24.901999999999997,-28.32,125.977,1.0
1626202998.4994514,68.359,-36.133,-23.438000000000002,82.031,1.0
1626202998.5033574,-146.484,-36.621,-28.32,-179.199,1.0
1626202998.507264,-167.48,-24.901999999999997,-31.25,-191.895,1.0
1626202998.5111701,56.152,-28.32,-24.414,78.613,1.0
1626202998.5150764,116.699,-40.039,-31.25,141.602,1.0
1626202998.5189826,-91.79700000000001,-52.733999999999995,-50.781000000000006,-111.32799999999999,1.0
1626202998.522889,-120.605,-32.227,-50.781000000000006,-162.59799999999998,1.0
1626202998.5267951,-188.965,-40.527,-78.125,-214.355,1.0
1626202998.5307014,25.391,-24.901999999999997,-64.453,48.34,1.0
1626202998.5346076,122.07,-17.09,-33.203,137.695,1.0
1626202998.538514,-70.312,-46.387,-40.527,-103.027,1.0
1626202998.5424201,-172.852,-54.199,-39.062,-210.449,1.0
1626202998.5463264,-13.672,-34.668,-25.391,-0.977,1.0
1626202998.550233,119.62899999999999,-2.93,-40.039,155.762,1.0
1626202998.554139,-5.371,13.672,-49.316,-16.602,1.0
1626202998.558045,-193.359,-13.672,-45.898,-228.516,1.0
1626202998.5619516,-96.191,-58.593999999999994,-27.344,-90.82,1.0
1626202998.5658574,125.977,-47.363,-17.09,166.016,1.0
1626202998.5697637,120.117,-6.836,-32.715,157.715,1.0
1626202998.57367,10.742,-3.418,-27.831999999999997,1.465,1.0
1626202998.5775762,-162.59799999999998,-0.488,-22.461,-228.516,1.0
1626202998.581483,-68.359,-12.207,-14.16,-93.75,1.0
1626202998.585389,119.141,-41.992,-22.461,150.391,1.0
1626202998.5892951,62.012,-28.809,-25.391,68.848,1.0
1626202998.5932014,-176.27,-30.761999999999997,-31.738000000000003,-208.49599999999998,1.0
1626202998.5971074,-199.707,-47.363,-28.32,-199.707,1.0
1626202998.601014,31.25,-47.363,-9.277000000000001,82.031,1.0
1626202998.6049201,72.75399999999999,-52.246,0.0,114.258,1.0
1626202998.6088262,-153.32,-66.895,-9.766,-151.36700000000002,1.0
1626202998.6127326,-256.348,-70.801,6.348,-240.72299999999998,1.0
1626202998.616639,-249.023,-109.375,18.555,1.0,1.0
1626202998.6205451,-42.48,-104.98,26.855,1.0,1.0
1626202998.6244514,36.133,-87.891,26.855,1.0,1.0
1626202998.6283576,-139.648,-88.867,23.926,1.0,1.0
1626202998.632264,-226.074,-96.191,9.277000000000001,1.0,1.0
1626202998.6361701,-30.273000000000003,-81.543,11.23,1.0,1.0
1626202998.6400764,101.56200000000001,-68.848,13.184000000000001,1.0,1.0
1626202998.6439826,-66.895,-74.707,-9.277000000000001,1.0,1.0
1626202998.647889,-230.957,-69.336,-13.184000000000001,1.0,1.0
1626202998.6517951,-101.56200000000001,-61.523,-1.953,1.0,1.0
1626202998.6557016,93.262,-58.593999999999994,-5.371,1.0,1.0
1626202998.6596076,15.625,-54.688,-17.578,1.0,1.0
1626202998.663514,4.395,-30.273000000000003,-24.414,-5.859,1.0
1626202998.6674201,-172.363,-46.387,-23.926,-210.449,1.0
1626202998.6713264,-83.49600000000001,-52.246,-7.812,-76.66,1.0
1626202998.6752326,108.398,-32.715,-14.648,157.227,1.0
1626202998.679139,36.133,-32.715,-37.598,46.387,1.0
1626202998.683045,-156.25,-33.203,-43.945,-204.102,1.0
1626202998.6869516,-106.445,-24.901999999999997,-55.663999999999994,-128.418,1.0
1626202998.6908574,99.12100000000001,-16.602,-62.5,125.0,1.0
1626202998.6947641,83.49600000000001,-24.414,-46.387,89.844,1.0
1626202998.69867,-154.297,-59.082,-26.366999999999997,-191.895,1.0
1626202998.7025762,-206.055,-58.593999999999994,-20.02,-231.93400000000003,1.0
1626202998.706483,20.02,-33.691,-16.602,45.898,1.0
1626202998.710389,68.848,-39.551,-24.901999999999997,110.84,1.0
1626202998.714295,106.934,-22.949,-25.391,143.555,1.0
1626202998.7182014,-96.191,-12.695,-47.852,-125.0,1.0
1626202998.7221074,-174.805,-19.531,-62.012,-207.03099999999998,1.0
1626202998.726014,23.926,-35.156,-26.366999999999997,52.246,1.0
1626202998.7299201,142.578,-19.043,-2.441,180.66400000000002,1.0
1626202998.7338264,-47.852,-31.738000000000003,-37.109,-68.359,1.0
1626202998.7377326,-197.266,-51.758,-37.598,-235.84,1.0
1626202998.741639,-46.387,-31.25,-11.719000000000001,-21.973000000000003,1.0
1626202998.7455451,125.0,-23.926,-24.414,178.71099999999998,1.0
1626202998.7494514,5.859,-31.738000000000003,-32.715,6.836,1.0
1626202998.7533574,-208.49599999999998,-35.156,-24.414,-240.234,1.0
1626202998.757264,-204.59,-79.102,9.277000000000001,-244.141,1.0
1626202998.7611701,-92.285,-83.008,-4.395,-75.684,1.0
1626202998.7650764,105.95700000000001,-25.879,-18.066,159.668,1.0
1626202998.7689826,18.555,-1.465,-38.574,27.344,1.0
1626202998.772889,-196.77700000000002,-20.02,-61.523,-227.051,1.0
1626202998.7767951,-133.789,-16.113,-47.363,-128.418,1.0
1626202998.7807014,104.00399999999999,2.93,-12.695,160.156,1.0
1626202998.7846076,94.727,-8.789,-15.625,122.559,1.0
1626202998.788514,-141.602,-49.805,-32.715,-175.78099999999998,1.0
1626202998.7924201,-197.266,-48.828,-48.34,-217.773,1.0
1626202998.7963264,30.273000000000003,-18.555,-29.785,66.895,1.0
1626202998.800233,129.395,-14.648,-2.441,166.016,1.0
1626202998.804139,89.844,-11.23,-33.203,122.559,1.0
1626202998.808045,-132.32399999999998,-41.992,-38.574,-170.41,1.0
1626202998.8119516,-180.66400000000002,-38.086,-20.02,-202.148,1.0
1626202998.8158574,29.785,-41.504,10.742,77.637,1.0
1626202998.8197637,70.801,-62.988,4.395,128.418,1.0
1626202998.82367,-153.32,-65.918,-17.09,-156.25,1.0
1626202998.8275762,-295.41,-53.223,-34.18,-311.52299999999997,1.0
1626202998.831483,-112.79299999999999,-40.527,-39.551,-72.266,1.0
1626202998.835389,85.449,-45.898,-44.922,144.043,1.0
1626202998.8392951,-62.988,-60.547,-38.086,-62.5,1.0
1626202998.8432014,-270.996,-45.41,-2.441,-306.64099999999996,1.0
1626202998.8471074,-171.875,-41.992,3.906,-165.03900000000002,1.0
1626202998.851014,-49.805,-29.296999999999997,-20.02,1.0,1.0
1626202998.8549201,134.766,-13.184000000000001,-15.625,1.0,1.0
1626202998.8588262,23.438000000000002,-16.602,-20.508000000000003,1.0,1.0
1626202998.8627326,-178.22299999999998,-47.852,-33.203,1.0,1.0
1626202998.866639,-102.051,-54.199,-16.113,1.0,1.0
1626202998.8705451,109.863,-46.387,-10.742,1.0,1.0
1626202998.8744514,61.035,-55.663999999999994,-29.785,1.0,1.0
1626202998.8783576,-155.762,-58.105,-27.831999999999997,1.0,1.0
1626202998.882264,-158.691,-46.875,-24.414,1.0,1.0
1626202998.8861701,38.574,-18.066,-35.645,1.0,1.0
1626202998.8900764,85.449,-9.766,-25.391,1.0,1.0
1626202998.8939826,-104.492,-36.621,-37.109,1.0,1.0
1626202998.897889,-158.203,-25.391,-50.781000000000006,-193.84799999999998,1.0
1626202998.9017951,-155.273,-25.879,-24.414,-183.105,1.0
1626202998.9057016,64.941,-26.366999999999997,-35.156,96.68,1.0
1626202998.9096076,112.79299999999999,-9.277000000000001,-58.593999999999994,141.602,1.0
1626202998.913514,-81.543,-38.086,-54.199,-117.18799999999999,1.0
1626202998.9174201,-154.785,-67.87100000000001,-26.366999999999997,-206.055,1.0
1626202998.9213264,18.066,-47.852,-12.695,31.25,1.0
1626202998.9252326,146.484,-30.273000000000003,-18.066,186.523,1.0
1626202998.929139,2.93,-16.113,-26.366999999999997,-21.973000000000003,1.0
1626202998.933045,-181.15200000000002,-3.418,-36.621,-235.352,1.0
1626202998.9369516,-44.922,18.555,-38.086,-41.504,1.0
1626202998.9408574,141.602,0.0,-58.593999999999994,186.523,1.0
1626202998.9447641,123.04700000000001,-33.203,-29.296999999999997,165.03900000000002,1.0
1626202998.94867,9.277000000000001,-19.531,-34.668,-6.348,1.0
1626202998.9525762,-174.805,-34.18,-51.758,-230.957,1.0
1626202998.956483,-63.477,-15.625,-42.968999999999994,-73.73,1.0
1626202998.960389,128.418,-10.254000000000001,-48.34,174.31599999999997,1.0
1626202998.964295,50.781000000000006,-31.25,-40.039,60.059,1.0
1626202998.9682014,-146.97299999999998,-22.949,-43.457,-201.66,1.0
1626202998.9721074,-105.95700000000001,-13.184000000000001,-27.344,-131.34799999999998,1.0
1626202998.976014,105.469,-45.41,-12.695,143.555,1.0
1626202998.9799201,87.891,-68.359,-41.992,119.141,1.0
1626202998.9838264,-134.27700000000002,-40.527,-46.387,-168.945,1.0
1626202998.9877326,-174.31599999999997,-9.277000000000001,-23.438000000000002,-207.52,1.0
1626202998.991639,-168.457,-59.57,-57.617,1.0,1.0
1626202998.9955451,46.875,-55.663999999999994,-54.688,1.0,1.0
1626202998.9994514,103.516,-29.296999999999997,-27.831999999999997,1.0,1.0
1626202999.0033574,-97.16799999999999,-31.25,-19.043,1.0,1.0
1626202999.007264,-165.03900000000002,-77.148,-20.508000000000003,1.0,1.0
1626202999.0111701,37.598,-61.035,-5.859,1.0,1.0
1626202999.0150764,140.625,0.0,-13.184000000000001,1.0,1.0
1626202999.0189826,-44.922,2.93,-48.34,1.0,1.0
1626202999.022889,-205.078,-26.855,-59.082,1.0,1.0
1626202999.0267951,-62.012,-36.621,-46.875,1.0,1.0
1626202999.0307014,113.281,-22.461,-40.527,1.0,1.0
1626202999.0346076,27.831999999999997,-6.836,-32.715,1.0,1.0
1626202999.038514,-9.277000000000001,-36.621,-13.672,-31.25,1.0
1626202999.0424201,-192.87099999999998,-22.949,-17.09,-251.953,1.0
1626202999.0463264,-76.172,-28.32,-23.438000000000002,-82.031,1.0
1626202999.050233,119.141,-38.086,-49.316,161.13299999999998,1.0
1626202999.054139,56.152,6.836,-61.523,49.316,1.0
1626202999.058045,-154.297,-0.977,-50.293,-222.168,1.0
1626202999.0619516,-139.16,-54.199,-32.715,-170.898,1.0
1626202999.0658574,75.684,-52.733999999999995,-16.113,111.32799999999999,1.0
1626202999.0697637,83.49600000000001,-47.363,-19.531,103.516,1.0
1626202999.07367,-86.426,-6.836,-13.184000000000001,-139.16,1.0
1626202999.0775762,-125.977,0.488,-34.18,-166.99200000000002,1.0
1626202999.081483,16.602,-49.316,-62.012,56.152,1.0
1626202999.085389,45.41,-39.062,-35.645,100.098,1.0
1626202999.0892951,69.824,-41.992,-48.34,109.375,1.0
1626202999.0932014,-114.258,-37.598,-56.641000000000005,-148.438,1.0
1626202999.0971074,-176.27,-40.039,-61.035,-213.37900000000002,1.0
1626202999.101014,22.949,-52.246,-40.527,56.641000000000005,1.0
1626202999.1049201,135.74200000000002,-48.828,-16.113,184.57,1.0
1626202999.1088262,-31.25,-11.23,-26.855,-60.059,1.0
1626202999.1127326,-180.176,-3.418,-58.593999999999994,-233.398,1.0
1626202999.116639,-52.246,-21.973000000000003,-57.129,-36.133,1.0
1626202999.1205451,111.32799999999999,-28.809,-23.926,164.551,1.0
1626202999.1244514,-2.441,-53.223,-18.555,-6.836,1.0
1626202999.1283576,-190.43,-69.336,-53.223,-237.793,1.0
1626202999.132264,-171.875,-32.715,-32.227,-232.91,1.0
1626202999.1361701,-21.484,-49.316,-14.16,-23.438000000000002,1.0
1626202999.1400764,143.555,-36.133,-11.23,183.59400000000002,1.0
1626202999.1439826,45.898,2.93,-28.809,24.901999999999997,1.0
1626202999.147889,-145.02,-17.578,-41.504,-213.86700000000002,1.0
1626202999.1517951,-94.238,-16.113,-37.598,-113.77,1.0
1626202999.1557016,94.238,-17.578,-36.621,139.648,1.0
1626202999.1596076,54.199,-63.477,-36.133,74.707,1.0
1626202999.163514,-138.184,-35.156,-41.016000000000005,-185.547,1.0
1626202999.1674201,-125.0,24.414,-38.086,-157.227,1.0
1626202999.1713264,79.102,19.043,-25.391,114.74600000000001,1.0
1626202999.1752326,110.84,-33.691,-34.668,148.438,1.0
1626202999.179139,78.613,-21.973000000000003,-22.949,108.887,1.0
1626202999.183045,-145.02,-29.785,-43.457,-181.641,1.0
1626202999.1869516,-160.156,-24.414,-46.875,-188.477,1.0
1626202999.1908574,64.453,-18.555,-33.203,101.074,1.0
1626202999.1947641,108.398,-36.621,-42.48,145.996,1.0
1626202999.19867,-97.656,-53.223,-41.992,-134.27700000000002,1.0
1626202999.2025762,-204.102,-54.199,-38.086,-252.44099999999997,1.0
1626202999.206483,-22.461,-24.901999999999997,-24.414,1.465,1.0
1626202999.210389,123.04700000000001,-16.113,-17.09,177.734,1.0
1626202999.214295,-19.043,-40.527,-32.227,-30.273000000000003,1.0
1626202999.2182014,-181.641,-37.109,-39.062,-240.234,1.0
1626202999.2221074,-57.617,-32.227,-14.648,-60.059,1.0
1626202999.226014,-29.296999999999997,-50.293,-23.926,1.0,1.0
1626202999.2299201,116.699,-36.133,-50.293,1.0,1.0
1626202999.2338264,-1.465,-11.23,-57.617,1.0,1.0
1626202999.2377326,-187.5,-24.901999999999997,-40.527,1.0,1.0
1626202999.241639,-100.586,-41.992,-9.277000000000001,1.0,1.0
1626202999.2455451,112.305,-12.207,-2.441,1.0,1.0
1626202999.2494514,66.406,3.906,-39.551,1.0,1.0
1626202999.2533574,-156.738,-23.926,-40.527,1.0,1.0
1626202999.257264,-157.227,-42.48,-11.719000000000001,1.0,1.0
1626202999.2611701,57.129,-21.973000000000003,-2.93,1.0,1.0
1626202999.2650764,86.426,-18.066,-11.719000000000001,1.0,1.0
1626202999.2689826,-125.0,-48.34,-33.691,1.0,1.0
1626202999.272889,-159.668,-30.761999999999997,-44.434,-208.49599999999998,1.0
1626202999.2767951,-143.066,-42.968999999999994,-18.066,-173.828,1.0
1626202999.2807014,67.383,-50.781000000000006,12.695,114.258,1.0
1626202999.2846076,92.773,-62.012,-1.953,135.254,1.0
1626202999.288514,-119.62899999999999,-81.055,-34.18,-149.414,1.0
1626202999.2924201,-212.891,-42.48,-53.711000000000006,-245.605,1.0
1626202999.2963264,-26.855,-21.484,-56.641000000000005,17.09,1.0
1626202999.300233,115.723,-27.344,-30.273000000000003,174.805,1.0
1626202999.304139,-35.156,-3.418,-30.761999999999997,-51.27,1.0
1626202999.308045,-199.707,-23.926,-39.062,-241.699,1.0
1626202999.3119516,-68.848,-34.18,-26.855,-50.781000000000006,1.0
1626202999.3158574,115.234,-23.438000000000002,-10.254000000000001,172.363,1.0
1626202999.3197637,122.07,-64.453,-43.945,181.15200000000002,1.0
1626202999.32367,-25.879,-70.312,-5.859,-33.203,1.0
1626202999.3275762,-166.50400000000002,-22.949,12.207,-217.285,1.0
1626202999.331483,-65.43,0.488,-16.602,-54.199,1.0
1626202999.335389,91.79700000000001,6.348,-33.203,158.691,1.0
1626202999.3392951,36.133,-11.719000000000001,-18.555,47.852,1.0
1626202999.3432014,-155.273,-33.691,-38.086,-208.984,1.0
1626202999.3471074,-124.512,-21.484,-48.34,-139.648,1.0
1626202999.351014,72.266,-23.926,-42.968999999999994,126.95299999999999,1.0
1626202999.3549201,59.57,-41.504,-34.668,95.215,1.0
1626202999.3588262,-128.906,-52.733999999999995,-23.438000000000002,-172.852,1.0
1626202999.3627326,-148.92600000000002,-42.48,-21.973000000000003,-189.94099999999997,1.0
1626202999.366639,-122.559,-54.199,-23.926,1.0,1.0
1626202999.3705451,102.539,-51.758,-11.719000000000001,1.0,1.0
1626202999.3744514,110.352,-33.691,-52.733999999999995,1.0,1.0
1626202999.3783576,-96.191,-26.855,-68.359,1.0,1.0
1626202999.382264,-156.25,-19.531,-41.016000000000005,1.0,1.0
1626202999.3861701,36.133,-1.953,-7.812,1.0,1.0
1626202999.3900764,142.09,-1.953,10.742,1.0,1.0
1626202999.3939826,-44.434,-24.414,-5.859,1.0,1.0
1626202999.397889,-200.68400000000003,-35.156,-17.578,1.0,1.0
1626202999.4017951,-63.965,-36.621,-24.901999999999997,1.0,1.0
1626202999.4057016,98.145,-36.133,-35.156,1.0,1.0
1626202999.4096076,7.812,-38.086,-25.879,1.0,1.0
1626202999.413514,-41.992,-41.992,-32.715,-51.758,1.0
1626202999.4174201,-180.176,-43.945,-64.941,-224.609,1.0
1626202999.4213264,-58.105,-29.296999999999997,-43.457,-31.25,1.0
1626202999.4252326,119.141,-15.137,2.441,187.988,1.0
1626202999.429139,17.578,-30.761999999999997,-0.488,26.855,1.0
1626202999.433045,-170.898,-16.113,-3.418,-214.355,1.0
1626202999.4369516,-94.238,-3.906,-3.418,-95.215,1.0
1626202999.4408574,90.82,-34.668,-21.484,154.785,1.0
1626202999.4447641,39.551,-53.711000000000006,-40.039,77.148,1.0
1626202999.44867,-146.484,-23.926,-30.761999999999997,-187.5,1.0
1626202999.4525762,-137.207,-23.926,-18.066,-171.875,1.0
1626202999.456483,68.848,-33.691,-31.25,101.56200000000001,1.0
1626202999.460389,88.867,-15.625,-34.18,141.602,1.0
1626202999.464295,67.87100000000001,-8.301,-24.901999999999997,94.727,1.0
1626202999.4682014,-144.043,-19.531,-28.32,-185.547,1.0
1626202999.4721074,-156.738,-22.461,-27.831999999999997,-186.035,1.0
1626202999.476014,52.733999999999995,-11.23,-34.668,95.70299999999999,1.0
1626202999.4799201,120.117,-4.883,-12.207,172.363,1.0
1626202999.4838264,-73.73,-40.527,-9.766,-93.262,1.0
1626202999.4877326,-197.266,-55.663999999999994,-32.227,-236.81599999999997,1.0
1626202999.491639,-32.227,-38.086,-36.621,0.977,1.0
1626202999.4955451,126.465,-23.926,-26.855,189.94099999999997,1.0
1626202999.4994514,0.0,-40.527,-37.598,-11.719000000000001,1.0
1626202999.5033574,-173.828,-82.52,-51.27,-233.887,1.0
1626202999.507264,-204.59,-38.086,-47.363,-252.44099999999997,1.0
1626202999.5111701,-70.312,-53.711000000000006,-41.992,-42.968999999999994,1.0
1626202999.5150764,96.68,-37.109,-38.086,154.297,1.0
1626202999.5189826,-7.812,-39.062,-20.508000000000003,-17.578,1.0
1626202999.522889,-182.12900000000002,-47.363,-21.973000000000003,-246.09400000000002,1.0
1626202999.5267951,-83.984,-34.668,-31.25,-103.027,1.0
1626202999.5307014,110.352,-41.504,-32.715,144.531,1.0
1626202999.5346076,81.543,-20.996,-41.504,67.87100000000001,1.0
1626202999.538514,-123.04700000000001,-21.484,-53.711000000000006,-206.543,1.0
1626202999.5424201,-134.766,-24.901999999999997,-37.598,-179.199,1.0
1626202999.5463264,59.082,-5.371,-30.273000000000003,95.215,1.0
1626202999.550233,80.078,-35.645,-29.296999999999997,104.00399999999999,1.0
1626202999.554139,68.848,-9.277000000000001,-18.066,93.262,1.0
1626202999.558045,-151.855,-43.945,-30.761999999999997,-202.637,1.0
1626202999.5619516,-163.086,-44.922,-37.109,-193.84799999999998,1.0
1626202999.5658574,68.359,-27.344,-36.133,104.98,1.0
1626202999.5697637,127.441,-21.484,-39.062,163.57399999999998,1.0
1626202999.57367,-75.684,-24.414,-28.32,-117.676,1.0
1626202999.5775762,-202.637,-72.266,-42.968999999999994,-255.859,1.0
1626202999.581483,-17.09,-62.012,-33.691,3.906,1.0
1626202999.585389,128.418,-29.785,-15.625,169.922,1.0
1626202999.5892951,-8.301,-18.066,-28.809,-43.457,1.0
1626202999.5932014,-141.602,-15.137,-27.831999999999997,-210.938,1.0
1626202999.5971074,-44.434,-41.504,-25.879,-45.41,1.0
1626202999.601014,-5.859,-6.836,-22.461,1.0,1.0
1626202999.6049201,112.305,-27.831999999999997,-47.852,1.0,1.0
1626202999.6088262,-21.973000000000003,-38.574,-40.039,1.0,1.0
1626202999.6127326,-182.12900000000002,-22.461,-36.133,1.0,1.0
1626202999.616639,-74.707,-24.414,-30.273000000000003,1.0,1.0
1626202999.6205451,100.098,-26.855,-30.761999999999997,1.0,1.0
1626202999.6244514,21.484,-38.574,-50.781000000000006,1.0,1.0
1626202999.6283576,-154.785,-55.176,-46.387,1.0,1.0
1626202999.632264,-106.934,-38.574,-20.02,1.0,1.0
1626202999.6361701,92.773,-8.301,-13.184000000000001,1.0,1.0
1626202999.6400764,79.102,-11.23,-32.715,1.0,1.0
1626202999.6439826,-122.559,-32.715,-41.016000000000005,1.0,1.0
1626202999.647889,-187.988,-40.039,-11.23,-210.938,1.0
1626202999.6517951,-178.22299999999998,-38.574,-34.668,-175.78099999999998,1.0
1626202999.6557016,51.27,-27.831999999999997,-22.461,125.0,1.0
1626202999.6596076,93.262,-36.133,-24.414,149.414,1.0
1626202999.663514,-108.887,-34.18,-41.992,-134.766,1.0
1626202999.6674201,-177.734,-36.621,-43.457,-210.449,1.0
1626202999.6713264,16.113,-45.41,-27.344,55.176,1.0
1626202999.6752326,126.465,-27.831999999999997,-19.043,184.57,1.0
1626202999.679139,-44.922,-19.531,-35.156,-60.547,1.0
1626202999.683045,-188.477,-41.504,-23.438000000000002,-229.00400000000002,1.0
1626202999.6869516,-35.645,-33.203,-14.16,-12.207,1.0
1626202999.6908574,129.88299999999998,-4.883,-5.859,195.801,1.0
1626202999.6947641,122.559,-24.901999999999997,-48.34,182.61700000000002,1.0
1626202999.69867,-68.359,-65.43,-56.641000000000005,-71.777,1.0
1626202999.7025762,-208.49599999999998,-54.199,-28.32,-255.37099999999998,1.0
1626202999.706483,-70.801,-37.598,-19.043,-56.152,1.0
1626202999.710389,114.258,-16.602,-11.23,182.12900000000002,1.0
1626202999.714295,20.02,-16.113,-22.461,28.809,1.0
1626202999.7182014,-179.688,-51.758,-42.48,-233.887,1.0
1626202999.7221074,-117.18799999999999,-59.57,-30.761999999999997,-132.812,1.0
1626202999.726014,93.262,-27.831999999999997,-32.715,142.578,1.0
1626202999.7299201,84.473,-10.254000000000001,-26.366999999999997,101.56200000000001,1.0
1626202999.7338264,-127.441,-27.831999999999997,-20.996,-187.988,1.0
1626202999.7377326,-157.715,-22.461,-27.831999999999997,-198.73,1.0
1626202999.741639,-142.578,-16.602,-38.086,-165.03900000000002,1.0
1626202999.7455451,83.49600000000001,-11.719000000000001,-40.527,126.95299999999999,1.0
1626202999.7494514,81.543,-46.387,-33.203,99.609,1.0
1626202999.7533574,-116.211,-61.035,-27.344,-172.363,1.0
1626202999.757264,-131.34799999999998,-27.344,-11.719000000000001,-169.43400000000003,1.0
1626202999.7611701,61.035,-24.901999999999997,-9.766,102.539,1.0
1626202999.7650764,96.68,-48.34,-27.831999999999997,147.461,1.0
1626202999.7689826,-88.37899999999999,-42.48,-46.875,-121.094,1.0
1626202999.772889,-186.523,-35.156,-48.34,-242.188,1.0
1626202999.7767951,-18.555,-17.09,-32.715,-5.371,1.0
1626202999.7807014,133.789,15.625,-51.758,183.105,1.0
1626202999.7846076,17.09,18.066,-57.129,-2.441,1.0
1626202999.788514,-34.668,-24.414,-35.156,-67.383,1.0
1626202999.7924201,-197.266,-62.5,-41.504,-248.047,1.0
1626202999.7963264,-54.688,-74.219,-42.968999999999994,-41.504,1.0
1626202999.800233,140.137,-41.992,-17.578,187.012,1.0
1626202999.804139,17.578,-17.578,-28.809,6.836,1.0
1626202999.808045,-174.805,-31.738000000000003,-42.48,-232.91,1.0
1626202999.8119516,-99.12100000000001,-35.645,-48.34,-107.42200000000001,1.0
1626202999.8158574,104.00399999999999,-7.812,-34.668,157.227,1.0
1626202999.8197637,73.242,-0.488,-14.16,90.82,1.0
1626202999.82367,-147.94899999999998,-24.414,-36.621,-202.148,1.0
1626202999.8275762,-152.832,-32.227,-50.293,-188.965,1.0
1626202999.831483,62.988,-22.461,-42.968999999999994,100.098,1.0
1626202999.835389,106.934,-44.922,-45.898,160.156,1.0
1626202999.8392951,51.27,-56.152,-69.824,73.242,1.0
1626202999.8432014,-144.531,-26.855,-40.527,-198.24200000000002,1.0
1626202999.8471074,-142.578,-15.625,-28.32,-180.176,1.0
1626202999.851014,50.293,-14.16,-44.922,92.285,1.0
1626202999.8549201,82.031,-20.996,-47.852,127.93,1.0
1626202999.8588262,-111.816,-27.831999999999997,-74.219,-146.484,1.0
1626202999.8627326,-172.852,-10.254000000000001,-57.129,-224.609,1.0
1626202999.866639,9.277000000000001,-35.645,-23.926,39.551,1.0
1626202999.8705451,123.04700000000001,-50.781000000000006,-24.414,178.71099999999998,1.0
1626202999.8744514,-12.207,-29.785,-29.785,-35.156,1.0
1626202999.8783576,-164.551,-12.695,-37.598,-225.58599999999998,1.0
1626202999.882264,-211.426,-47.363,-48.34,-263.672,1.0
1626202999.8861701,-55.176,-61.523,-69.336,-37.109,1.0
1626202999.8900764,108.887,-29.785,-70.312,158.691,1.0
1626202999.8939826,-14.16,-20.996,-31.25,-27.831999999999997,1.0
1626202999.897889,-167.96900000000002,-22.461,-16.113,-237.305,1.0
1626202999.9017951,-60.547,-17.09,-29.296999999999997,-75.684,1.0
1626202999.9057016,110.84,-16.113,-23.438000000000002,159.18,1.0
1626202999.9096076,28.32,-8.789,-29.296999999999997,26.855,1.0
1626202999.913514,-176.75799999999998,-22.461,-40.039,-246.09400000000002,1.0
1626202999.9174201,-125.977,-36.621,-19.531,-156.738,1.0
1626202999.9213264,97.16799999999999,-41.992,-14.648,139.648,1.0
1626202999.9252326,85.93799999999999,-55.663999999999994,-34.18,115.723,1.0
1626202999.929139,34.18,-33.691,-20.02,56.641000000000005,1.0
1626202999.933045,-164.551,-46.875,-18.066,-203.125,1.0
1626202999.9369516,-135.254,-38.574,-14.16,-150.391,1.0
1626202999.9408574,94.238,-10.742,-20.508000000000003,147.461,1.0
1626202999.9447641,117.18799999999999,-0.977,-44.922,162.109,1.0
1626202999.94867,-81.543,-23.926,-18.555,-117.18799999999999,1.0
1626202999.9525762,-167.48,-44.434,-8.301,-210.449,1.0
1626202999.956483,16.113,-36.621,-19.531,46.387,1.0
1626202999.960389,125.0,-38.086,-18.066,174.805,1.0
1626202999.964295,-63.965,-41.504,-35.156,-91.79700000000001,1.0
1626202999.9682014,-201.66,-29.785,-35.156,-259.277,1.0
1626202999.9721074,-43.457,-25.879,-31.738000000000003,-31.25,1.0
1626202999.976014,5.859,-11.719000000000001,-1.465,40.527,1.0
1626202999.9799201,90.33200000000001,-34.668,-18.555,156.25,1.0
1626202999.9838264,-65.918,-58.105,-25.391,-67.383,1.0
1626202999.9877326,-187.5,-44.922,-18.555,-233.398,1.0
1626202999.991639,-73.242,-32.715,-34.18,-51.27,1.0
1626202999.9955451,104.00399999999999,-39.551,-31.738000000000003,174.805,1.0
1626202999.9994514,23.438000000000002,-66.406,-24.414,37.598,1.0
1626203000.0033574,-178.71099999999998,-83.008,-26.366999999999997,-221.68,1.0
1626203000.007264,-137.207,-52.246,-46.387,-138.672,1.0
1626203000.0111701,69.824,-25.391,-32.715,134.27700000000002,1.0
1626203000.0150764,55.176,-35.645,-4.395,86.914,1.0
1626203000.0189826,-151.36700000000002,-46.875,-11.719000000000001,-200.195,1.0
1626203000.022889,-172.363,-41.992,-49.316,-225.09799999999998,1.0
1626203000.0267951,-122.07,-25.879,-31.738000000000003,-142.09,1.0
1626203000.0307014,91.309,-28.809,-25.879,138.184,1.0
1626203000.0346076,99.12100000000001,-41.504,-22.949,123.04700000000001,1.0
1626203000.038514,-103.516,-20.996,-12.695,-153.809,1.0
1626203000.0424201,-158.691,-22.461,-20.02,-200.68400000000003,1.0
1626203000.0463264,27.344,-33.691,-24.414,65.43,1.0
1626203000.050233,108.398,-23.926,-25.879,157.715,1.0
1626203000.054139,-74.219,-43.945,-42.968999999999994,-108.887,1.0
1626203000.058045,-209.96099999999998,-53.223,-62.988,-269.531,1.0
1626203000.0619516,-41.992,-33.203,-38.086,-30.761999999999997,1.0
1626203000.0658574,124.023,-16.113,-24.414,172.363,1.0
1626203000.0697637,123.535,-0.488,-18.555,182.61700000000002,1.0
1626203000.07367,-62.988,-45.898,-45.41,-78.613,1.0
1626203000.0775762,-184.082,-49.316,-44.922,-227.051,1.0
1626203000.081483,-30.273000000000003,-25.391,-36.133,-10.254000000000001,1.0
1626203000.085389,113.77,-22.949,-34.668,178.71099999999998,1.0
1626203000.0892951,11.719000000000001,-15.625,-35.156,13.672,1.0
1626203000.0932014,-155.762,-41.992,-41.504,-215.332,1.0
1626203000.0971074,-75.684,-48.828,-28.32,-83.008,1.0
1626203000.101014,99.12100000000001,-23.438000000000002,-21.973000000000003,156.25,1.0
1626203000.1049201,31.738000000000003,-23.438000000000002,-33.203,52.246,1.0
1626203000.1088262,-159.668,-34.668,-37.598,-217.773,1.0
1626203000.1127326,-142.09,-20.508000000000003,-32.227,-178.71099999999998,1.0
1626203000.116639,-110.352,-36.621,-39.551,-122.559,1.0
1626203000.1205451,102.539,-37.109,-34.18,166.99200000000002,1.0
1626203000.1244514,74.219,-43.457,-32.715,104.492,1.0
1626203000.1283576,-131.34799999999998,-51.758,-43.945,-179.688,1.0
1626203000.132264,-149.90200000000002,-39.551,-35.156,-178.22299999999998,1.0
1626203000.1361701,34.18,-33.203,-31.738000000000003,83.984,1.0
1626203000.1400764,72.266,-48.828,-41.504,119.141,1.0
1626203000.1439826,-108.398,-38.574,-38.574,-138.184,1.0
1626203000.147889,-167.96900000000002,-9.277000000000001,-28.32,-210.938,1.0
1626203000.1517951,19.043,-5.371,-24.901999999999997,43.457,1.0
1626203000.1557016,132.812,-31.25,-33.691,188.477,1.0
1626203000.1596076,-31.738000000000003,-57.129,-47.363,-41.016000000000005,1.0
1626203000.163514,-76.66,-26.855,-41.504,-109.863,1.0
1626203000.1674201,-187.012,-33.691,-50.781000000000006,-240.72299999999998,1.0
1626203000.1713264,-20.508000000000003,-37.109,-49.316,-1.953,1.0
1626203000.1752326,125.0,-13.672,-27.831999999999997,183.59400000000002,1.0
1626203000.179139,0.488,-3.418,-29.296999999999997,-15.625,1.0
1626203000.183045,-173.34,-19.531,-37.598,-244.62900000000002,1.0
1626203000.1869516,-81.055,-28.809,-22.461,-88.37899999999999,1.0
1626203000.1908574,109.375,-41.504,-21.973000000000003,161.13299999999998,1.0
1626203000.1947641,53.711000000000006,-68.848,-36.621,60.059,1.0
1626203000.19867,-152.832,-44.434,-49.316,-211.426,1.0
1626203000.2025762,-120.117,-12.695,-29.785,-155.273,1.0
1626203000.206483,95.215,-31.738000000000003,-12.695,133.30100000000002,1.0
1626203000.210389,108.887,-20.02,-12.207,149.90200000000002,1.0
1626203000.214295,50.781000000000006,-40.039,-26.855,63.477,1.0
1626203000.2182014,-165.03900000000002,-47.363,-43.945,-219.727,1.0
1626203000.2221074,-144.043,-30.761999999999997,-25.879,-169.43400000000003,1.0
1626203000.226014,67.383,-23.926,-22.461,119.62899999999999,1.0
1626203000.2299201,83.49600000000001,-42.968999999999994,-51.758,116.699,1.0
1626203000.2338264,-126.95299999999999,-66.406,-74.219,-170.41,1.0
1626203000.2377326,-185.05900000000003,-44.434,-64.941,-228.02700000000002,1.0
1626203000.241639,21.484,-3.418,-23.438000000000002,60.059,1.0
1626203000.2455451,127.93,-6.836,-9.766,187.012,1.0
1626203000.2494514,-68.848,-59.57,-48.828,-87.891,1.0
1626203000.2533574,-222.168,-51.758,-46.875,-271.48400000000004,1.0
1626203000.257264,-152.344,-13.184000000000001,-17.578,-211.91400000000002,1.0
1626203000.2611701,0.977,-30.761999999999997,-32.715,23.926,1.0
1626203000.2650764,97.656,-38.086,-44.922,156.738,1.0
1626203000.2689826,-60.059,-49.316,-65.918,-63.965,1.0
1626203000.272889,-198.73,-43.945,-55.176,-245.11700000000002,1.0
1626203000.2767951,-65.43,-25.879,-14.648,-53.223,1.0
1626203000.2807014,100.586,-43.457,-14.16,169.922,1.0
1626203000.2846076,20.02,-36.133,-25.879,35.645,1.0
1626203000.288514,-143.066,-8.301,-5.371,-190.918,1.0
1626203000.2924201,-117.676,-37.598,-13.672,-118.652,1.0
1626203000.2963264,65.918,-58.105,-29.785,133.789,1.0
1626203000.300233,66.406,-37.598,-32.715,101.074,1.0
1626203000.304139,46.875,0.0,-74.219,40.039,1.0
1626203000.308045,-145.02,3.418,-74.707,-220.215,1.0
1626203000.3119516,-91.79700000000001,3.418,-58.105,-132.812,1.0
1626203000.3158574,124.023,-14.648,-39.062,156.25,1.0
1626203000.3197637,125.0,-22.461,-31.738000000000003,131.836,1.0
1626203000.32367,-85.93799999999999,-11.23,-47.852,-157.227,1.0
1626203000.3275762,-167.96900000000002,-29.785,-56.152,-224.12099999999998,1.0
1626203000.331483,11.719000000000001,-32.227,-42.968999999999994,35.645,1.0
1626203000.335389,112.79299999999999,-41.504,-49.316,145.50799999999998,1.0
1626203000.3392951,-61.523,-38.086,-59.57,-107.42200000000001,1.0
1626203000.3432014,-188.965,-26.366999999999997,-51.27,-255.859,1.0
1626203000.3471074,-26.366999999999997,-27.831999999999997,-37.109,-21.484,1.0
1626203000.351014,48.828,-22.949,-51.27,1.0,1.0
1626203000.3549201,112.305,-41.016000000000005,-58.105,1.0,1.0
1626203000.3588262,-56.641000000000005,-32.227,-48.828,1.0,1.0
1626203000.3627326,-186.523,-38.574,-49.316,1.0,1.0
1626203000.366639,-20.02,-30.273000000000003,-21.973000000000003,1.0,1.0
1626203000.3705451,127.441,-24.414,-24.901999999999997,1.0,1.0
1626203000.3744514,-12.207,-40.527,-32.715,1.0,1.0
1626203000.3783576,-187.012,-32.227,-16.602,1.0,1.0
1626203000.382264,-123.535,-30.273000000000003,-27.344,1.0,1.0
1626203000.3861701,65.918,-38.086,-35.156,1.0,1.0
1626203000.3900764,35.645,-23.926,-39.551,1.0,1.0
1626203000.3939826,-147.461,-1.465,-37.598,1.0,1.0
1626203000.397889,-160.645,19.043,-21.973000000000003,-226.562,1.0
1626203000.4017951,-107.91,12.207,-22.461,-126.465,1.0
1626203000.4057016,66.895,-40.039,-39.551,117.18799999999999,1.0
1626203000.4096076,35.156,-54.199,-54.199,53.711000000000006,1.0
1626203000.413514,-161.13299999999998,-35.156,-37.598,-216.797,1.0
1626203000.4174201,-171.387,-38.574,-27.344,-208.49599999999998,1.0
1626203000.4213264,57.129,-23.438000000000002,-23.438000000000002,91.79700000000001,1.0
1626203000.4252326,116.699,-0.488,-26.855,152.344,1.0
1626203000.429139,-85.449,-39.551,-43.945,-124.023,1.0
1626203000.433045,-198.73,-67.383,-50.781000000000006,-247.07,1.0
1626203000.4369516,-31.25,-39.062,-37.598,-7.324,1.0
1626203000.4408574,112.305,-14.16,-16.602,166.016,1.0
1626203000.4447641,145.50799999999998,-28.809,-6.348,189.453,1.0
1626203000.44867,-62.012,-37.598,-22.949,-98.633,1.0
1626203000.4525762,-204.59,-53.711000000000006,-34.18,-253.418,1.0
1626203000.456483,-50.781000000000006,-43.457,-50.781000000000006,-21.973000000000003,1.0
1626203000.460389,113.77,-23.926,-45.898,166.50400000000002,1.0
1626203000.464295,-18.066,-42.48,-41.016000000000005,-37.109,1.0
1626203000.4682014,-201.172,-71.289,-36.133,-260.742,1.0
1626203000.4721074,-89.355,-65.43,-31.738000000000003,-91.309,1.0
1626203000.476014,114.74600000000001,-52.733999999999995,-35.645,168.457,1.0
1626203000.4799201,66.406,-41.016000000000005,-17.578,68.359,1.0
1626203000.4838264,-122.559,-27.831999999999997,-9.277000000000001,-200.195,1.0
1626203000.4877326,-94.727,-3.906,-10.742,-135.254,1.0
1626203000.491639,-93.262,-44.922,-22.461,-84.473,1.0
1626203000.4955451,101.56200000000001,-53.223,-10.254000000000001,177.24599999999998,1.0
1626203000.4994514,20.02,-63.477,-21.484,59.082,1.0
1626203000.5033574,-199.21900000000002,-61.523,-19.531,-235.352,1.0
1626203000.507264,-160.156,-61.523,-8.789,-180.66400000000002,1.0
1626203000.5111701,52.246,-63.965,-6.348,110.352,1.0
1626203000.5150764,61.523,-50.781000000000006,-23.926,121.58200000000001,1.0
1626203000.5189826,-126.465,-28.809,-23.438000000000002,-145.50799999999998,1.0
1626203000.522889,-181.15200000000002,-28.809,-18.555,-208.984,1.0
1626203000.5267951,12.207,-62.012,-13.184000000000001,59.082,1.0
1626203000.5307014,117.676,-56.152,-20.996,190.43,1.0
1626203000.5346076,-41.504,-29.785,-23.926,-38.086,1.0
1626203000.538514,-95.70299999999999,-43.945,-27.831999999999997,-119.62899999999999,1.0
1626203000.5424201,-180.176,-34.18,-33.691,-212.891,1.0
1626203000.5463264,-3.906,-39.062,-37.598,41.504,1.0
1626203000.550233,132.32399999999998,-24.901999999999997,-30.273000000000003,194.824,1.0
1626203000.554139,-25.879,-43.945,-24.901999999999997,-38.574,1.0
1626203000.558045,-183.59400000000002,-54.199,-5.859,-233.398,1.0
1626203000.5619516,-74.707,-36.133,-12.695,-57.617,1.0
1626203000.5658574,96.68,-24.414,-36.621,163.57399999999998,1.0
1626203000.5697637,34.18,-17.578,-32.715,34.18,1.0
1626203000.57367,-162.59799999999998,-38.574,-29.296999999999997,-220.215,1.0
1626203000.5775762,-107.91,-36.621,-43.945,-120.117,1.0
1626203000.581483,112.305,-21.973000000000003,-44.922,162.109,1.0
1626203000.585389,122.07,-44.922,-29.785,1.0,1.0
1626203000.5892951,27.344,-43.945,-52.733999999999995,1.0,1.0
1626203000.5932014,-183.105,-38.086,-56.641000000000005,1.0,1.0
1626203000.5971074,-144.531,-29.785,-40.527,1.0,1.0
1626203000.601014,68.359,-14.648,-24.414,1.0,1.0
1626203000.6049201,75.684,-22.949,-22.461,1.0,1.0
1626203000.6088262,-115.723,-43.945,-19.531,1.0,1.0
1626203000.6127326,-168.457,-42.48,-24.414,1.0,1.0
1626203000.616639,34.18,-15.137,-23.438000000000002,1.0,1.0
1626203000.6205451,130.371,3.418,-12.695,1.0,1.0
1626203000.6244514,-73.73,-30.273000000000003,-29.785,1.0,1.0
1626203000.6283576,-196.77700000000002,-59.082,-42.48,1.0,1.0
1626203000.632264,-175.78099999999998,-36.133,-32.715,-211.91400000000002,1.0
1626203000.6361701,12.695,-25.391,-22.461,53.223,1.0
1626203000.6400764,108.398,-30.273000000000003,-27.831999999999997,159.18,1.0
1626203000.6439826,-62.988,-61.035,-42.968999999999994,-87.891,1.0
1626203000.647889,-186.035,-54.688,-39.551,-238.28099999999998,1.0
1626203000.6517951,-34.668,-19.531,-32.715,-15.137,1.0
1626203000.6557016,130.859,-10.254000000000001,-20.508000000000003,190.918,1.0
1626203000.6596076,-4.395,-24.901999999999997,-28.32,-13.672,1.0
1626203000.663514,-194.33599999999998,-48.828,-55.663999999999994,-249.023,1.0
1626203000.6674201,-105.95700000000001,-48.828,-55.663999999999994,-104.98,1.0
1626203000.6713264,99.609,-22.949,-25.391,163.086,1.0
1626203000.6752326,59.57,-25.879,-22.461,77.148,1.0
1626203000.679139,41.992,-32.227,-43.945,51.27,1.0
1626203000.683045,-167.96900000000002,-50.293,-31.25,-216.797,1.0
1626203000.6869516,-110.352,-38.086,-20.02,-117.18799999999999,1.0
1626203000.6908574,81.543,-35.645,-31.25,144.043,1.0
1626203000.6947641,53.711000000000006,-24.901999999999997,-50.293,83.49600000000001,1.0
1626203000.69867,-130.371,-8.301,-46.875,-183.105,1.0
1626203000.7025762,-148.438,-31.738000000000003,-30.273000000000003,-189.453,1.0
1626203000.706483,72.266,-29.785,-12.695,99.609,1.0
1626203000.710389,142.09,-12.695,-28.809,171.387,1.0
1626203000.714295,-49.316,-25.391,-51.27,-100.586,1.0
1626203000.7182014,-151.855,-31.738000000000003,-48.34,-218.262,1.0
1626203000.7221074,10.254000000000001,-39.062,-23.438000000000002,16.602,1.0
1626203000.726014,37.598,-54.688,-39.062,78.613,1.0
1626203000.7299201,107.91,-50.781000000000006,-60.059,151.36700000000002,1.0
1626203000.7338264,-74.707,-26.855,-70.312,-113.281,1.0
1626203000.7377326,-190.918,-30.761999999999997,-53.223,-244.141,1.0
1626203000.741639,-1.953,-9.766,-36.133,10.742,1.0
1626203000.7455451,153.32,24.414,-19.531,193.84799999999998,1.0
1626203000.7494514,5.371,-2.93,-23.438000000000002,-19.531,1.0
1626203000.7533574,-166.99200000000002,-15.137,-38.574,-240.72299999999998,1.0
1626203000.757264,-72.266,-5.371,-40.039,-86.914,1.0
1626203000.7611701,105.95700000000001,-16.602,-40.527,162.59799999999998,1.0
1626203000.7650764,60.059,-0.977,-23.926,78.613,1.0
1626203000.7689826,-145.02,-4.883,-25.879,-193.84799999999998,1.0
1626203000.772889,-193.84799999999998,-32.227,-27.344,-252.93,1.0
1626203000.7767951,-95.70299999999999,-37.598,-23.438000000000002,-107.42200000000001,1.0
1626203000.7807014,132.812,-24.901999999999997,-21.973000000000003,173.828,1.0
1626203000.7846076,77.148,-28.809,-28.809,79.59,1.0
1626203000.788514,-165.03900000000002,-27.344,-43.945,-229.98,1.0
1626203000.7924201,-162.109,-7.812,-46.875,-199.707,1.0
1626203000.7963264,52.246,-4.395,-24.901999999999997,87.891,1.0
1626203000.800233,83.49600000000001,-9.277000000000001,-19.043,105.95700000000001,1.0
1626203000.804139,-124.512,-45.898,-41.504,-174.31599999999997,1.0
1626203000.808045,-207.52,-47.363,-49.316,-259.277,1.0
1626203000.8119516,-3.906,-12.207,-27.831999999999997,16.113,1.0
1626203000.8158574,121.58200000000001,-5.859,-4.883,168.945,1.0
1626203000.8197637,100.098,-76.66,-16.113,148.438,1.0
1626203000.82367,-91.79700000000001,-43.945,-24.414,-120.117,1.0
1626203000.8275762,-188.965,0.488,-49.316,-230.957,1.0
1626203000.831483,-31.25,-5.371,-49.805,3.906,1.0
1626203000.835389,98.145,-5.371,-17.09,158.691,1.0
1626203000.8392951,-41.016000000000005,-19.531,-12.695,-51.758,1.0
1626203000.8432014,-198.73,-37.109,-8.789,-240.72299999999998,1.0
1626203000.8471074,-85.449,-49.316,-23.438000000000002,-61.523,1.0
1626203000.851014,93.262,-52.733999999999995,-19.531,168.457,1.0
1626203000.8549201,22.461,-76.172,-5.371,45.898,1.0
1626203000.8588262,-162.109,-77.637,-24.901999999999997,-198.24200000000002,1.0
1626203000.8627326,-129.395,-44.922,-37.598,-128.418,1.0
1626203000.866639,-41.504,-14.16,-2.93,-60.059,1.0
1626203000.8705451,110.84,-37.598,-29.296999999999997,149.414,1.0
1626203000.8744514,38.574,-25.391,-39.551,30.273000000000003,1.0
1626203000.8783576,-153.32,-17.578,-35.645,-224.609,1.0
1626203000.882264,-125.977,-32.227,-32.715,-153.32,1.0
1626203000.8861701,87.891,-24.901999999999997,-22.461,139.648,1.0
1626203000.8900764,103.516,-24.901999999999997,-24.901999999999997,145.02,1.0
1626203000.8939826,-103.516,-48.828,-25.391,-133.30100000000002,1.0
1626203000.897889,-155.762,-45.898,-20.996,-180.176,1.0
1626203000.9017951,49.316,-10.742,-24.414,105.95700000000001,1.0
1626203000.9057016,113.77,-32.227,-31.25,185.05900000000003,1.0
1626203000.9096076,-88.37899999999999,-48.34,-36.133,-94.238,1.0
1626203000.913514,-60.059,4.395,-9.766,-112.305,1.0
1626203000.9174201,-162.59799999999998,-28.809,-30.761999999999997,-209.47299999999998,1.0
1626203000.9213264,9.766,-48.828,-24.901999999999997,39.062,1.0
1626203000.9252326,115.723,-39.551,-24.901999999999997,161.13299999999998,1.0
1626203000.929139,-72.266,-44.922,-42.48,-101.074,1.0
1626203000.933045,-212.40200000000002,-28.809,-47.363,-270.996,1.0
1626203000.9369516,-59.57,-27.831999999999997,-44.434,-49.805,1.0
1626203000.9408574,102.539,-47.852,-31.25,162.59799999999998,1.0
1626203000.9447641,0.488,-42.48,-25.879,0.977,1.0
1626203000.94867,-172.363,-31.25,-40.039,-230.957,1.0
1626203000.9525762,-91.309,-35.645,-33.691,-104.98,1.0
1626203000.956483,92.285,-40.527,-23.926,149.414,1.0
1626203000.960389,127.441,-27.344,-11.23,1.0,1.0
1626203000.964295,22.461,-32.715,-32.715,1.0,1.0
1626203000.9682014,-176.27,-48.828,-29.785,1.0,1.0
1626203000.9721074,-126.465,-47.852,-20.02,1.0,1.0
1626203000.976014,88.867,-16.113,-15.137,1.0,1.0
1626203000.9799201,86.914,-12.207,-1.465,1.0,1.0
1626203000.9838264,-139.648,-36.621,-31.25,1.0,1.0
1626203000.9877326,-183.105,-58.593999999999994,-52.733999999999995,1.0,1.0
1626203000.991639,49.316,-46.387,-30.273000000000003,1.0,1.0
1626203000.9955451,122.07,-33.691,-17.09,1.0,1.0
1626203000.9994514,-86.914,-29.296999999999997,-28.809,1.0,1.0
1626203001.0033574,-177.734,-2.441,-33.691,1.0,1.0
1626203001.007264,-166.50400000000002,-52.733999999999995,-32.715,-208.49599999999998,1.0
1626203001.0111701,38.574,-55.663999999999994,-19.531,80.078,1.0
1626203001.0150764,121.094,-34.668,-20.996,166.99200000000002,1.0
1626203001.0189826,-69.824,-39.551,-44.922,-96.191,1.0
1626203001.022889,-186.523,-23.438000000000002,-37.109,-228.02700000000002,1.0
1626203001.0267951,-5.859,-4.883,-20.508000000000003,18.555,1.0
1626203001.0307014,118.164,-32.227,-40.039,179.688,1.0
1626203001.0346076,-24.414,-47.363,-40.527,-25.391,1.0
1626203001.038514,-173.828,-21.973000000000003,-54.688,-224.609,1.0
1626203001.0424201,-66.406,-10.254000000000001,-68.359,-63.965,1.0
1626203001.0463264,118.652,-37.109,-24.901999999999997,169.922,1.0
1626203001.050233,41.992,-48.34,-8.789,45.898,1.0
1626203001.054139,9.766,-25.879,-37.109,5.859,1.0
1626203001.058045,-170.41,-44.434,-34.668,-223.63299999999998,1.0
1626203001.0619516,-91.309,-20.508000000000003,-25.391,-94.727,1.0
1626203001.0658574,100.586,-0.488,-27.831999999999997,157.227,1.0
1626203001.0697637,50.781000000000006,-18.066,-34.668,74.707,1.0
1626203001.07367,-147.461,-37.109,-34.18,-201.66,1.0
1626203001.0775762,-135.74200000000002,-30.761999999999997,-34.668,-167.48,1.0
1626203001.081483,92.773,-10.742,-30.761999999999997,137.695,1.0
1626203001.085389,131.34799999999998,-15.137,-39.062,161.621,1.0
1626203001.0892951,-80.078,-13.672,-42.48,-125.488,1.0
1626203001.0932014,-163.57399999999998,-13.672,-33.203,-201.66,1.0
1626203001.0971074,5.859,-26.855,-33.203,48.828,1.0
1626203001.101014,48.34,-36.133,-10.742,104.00399999999999,1.0
1626203001.1049201,83.008,-23.438000000000002,-45.898,136.23,1.0
1626203001.1088262,-107.42200000000001,-33.203,-66.895,-145.02,1.0
1626203001.1127326,-189.94099999999997,-44.922,-40.527,-236.328,1.0
1626203001.116639,-6.836,-39.062,-19.043,21.973000000000003,1.0
1626203001.1205451,142.09,-13.672,-6.836,187.5,1.0
1626203001.1244514,-5.371,-16.602,-14.16,-35.156,1.0
1626203001.1283576,-173.34,-50.293,-21.973000000000003,-243.65200000000002,1.0
1626203001.132264,-55.176,-51.27,-27.344,-63.477,1.0
1626203001.1361701,109.375,-23.926,-39.062,164.062,1.0
1626203001.1400764,17.578,-34.18,-42.968999999999994,24.414,1.0
1626203001.1439826,-179.199,-51.758,-47.852,-238.77,1.0
1626203001.147889,-179.199,-44.922,-31.25,-230.957,1.0
1626203001.1517951,-67.87100000000001,-26.855,-23.926,-57.617,1.0
1626203001.1557016,121.094,-29.296999999999997,-15.137,188.477,1.0
1626203001.1596076,60.059,-41.016000000000005,-12.695,75.684,1.0
1626203001.163514,-148.438,-36.133,-15.625,-202.148,1.0
1626203001.1674201,-141.113,-44.922,-35.156,-163.086,1.0
1626203001.1713264,59.57,-48.828,-46.875,107.42200000000001,1.0
1626203001.1752326,82.031,-44.922,-35.156,110.352,1.0
1626203001.179139,-104.98,-48.828,-42.48,-153.809,1.0
1626203001.183045,-152.832,-37.598,-35.156,-203.125,1.0
1626203001.1869516,29.296999999999997,-25.391,-13.184000000000001,64.453,1.0
1626203001.1908574,97.16799999999999,-33.203,-29.296999999999997,148.92600000000002,1.0
1626203001.1947641,100.586,-25.391,-40.039,136.719,1.0
1626203001.19867,-101.074,-46.875,-36.133,-141.602,1.0
1626203001.2025762,-167.48,-63.477,-40.527,-209.96099999999998,1.0
1626203001.206483,15.625,-51.27,-46.875,52.246,1.0
1626203001.210389,121.58200000000001,-29.296999999999997,-31.25,175.293,1.0
1626203001.214295,-41.992,-22.949,-28.809,-66.406,1.0
1626203001.2182014,-173.828,-17.578,-44.434,-238.28099999999998,1.0
1626203001.2221074,-20.02,-17.578,-47.852,-27.344,1.0
1626203001.226014,125.488,-51.27,-29.785,173.34,1.0
1626203001.2299201,-4.883,-58.105,-25.391,-6.348,1.0
1626203001.2338264,-187.988,-48.34,-33.691,-238.28099999999998,1.0
1626203001.2377326,-109.863,-48.828,-27.831999999999997,-108.887,1.0
1626203001.241639,-59.082,-22.949,-16.113,-48.34,1.0
1626203001.2455451,99.609,-29.785,-32.227,169.43400000000003,1.0
1626203001.2494514,23.926,-24.901999999999997,-36.133,29.296999999999997,1.0
1626203001.2533574,-162.109,-38.574,-34.18,-224.609,1.0
1626203001.257264,-102.539,-41.504,-35.156,-120.117,1.0
1626203001.2611701,112.305,-37.598,-49.316,161.13299999999998,1.0
1626203001.2650764,74.219,-39.062,-58.105,84.961,1.0
1626203001.2689826,-129.88299999999998,-14.16,-21.484,-190.43,1.0
1626203001.272889,-152.344,-18.066,-8.301,-190.43,1.0
1626203001.2767951,49.805,-30.273000000000003,-15.137,85.93799999999999,1.0
1626203001.2807014,117.676,-12.695,-27.831999999999997,149.90200000000002,1.0
1626203001.2846076,-68.359,-11.23,-41.504,-113.281,1.0
1626203001.288514,-117.18799999999999,-12.695,-30.761999999999997,-162.109,1.0
1626203001.2924201,-156.25,-8.789,-28.809,-194.33599999999998,1.0
1626203001.2963264,47.363,-29.785,-23.438000000000002,83.49600000000001,1.0
1626203001.300233,142.09,-18.555,-14.648,179.199,1.0
1626203001.304139,-45.41,-18.066,-16.602,-82.52,1.0
1626203001.308045,-195.801,-41.992,-32.715,-247.07,1.0
1626203001.3119516,-60.059,-40.039,-44.434,-37.598,1.0
1626203001.3158574,96.68,-32.227,-20.508000000000003,157.715,1.0
1626203001.3197637,-14.648,-40.039,-14.648,-17.578,1.0
1626203001.32367,-178.22299999999998,-41.016000000000005,-22.949,-231.93400000000003,1.0
1626203001.3275762,-78.613,-25.879,-27.344,-74.219,1.0
1626203001.331483,100.586,-20.02,-32.715,161.13299999999998,1.0
1626203001.335389,121.094,-8.301,-20.996,1.0,1.0
1626203001.3392951,-0.488,-21.973000000000003,-26.855,1.0,1.0
1626203001.3432014,-187.5,-34.668,-34.668,1.0,1.0
1626203001.3471074,-99.609,-40.039,-39.551,1.0,1.0
1626203001.351014,99.12100000000001,-36.621,-30.273000000000003,1.0,1.0
1626203001.3549201,71.777,-20.996,-10.254000000000001,1.0,1.0
1626203001.3588262,-147.94899999999998,-51.27,-24.414,1.0,1.0
1626203001.3627326,-152.344,-66.895,-29.296999999999997,1.0,1.0
1626203001.366639,76.66,-32.715,-7.812,1.0,1.0
1626203001.3705451,133.30100000000002,-9.766,-3.906,1.0,1.0
1626203001.3744514,-82.52,-27.831999999999997,-41.016000000000005,1.0,1.0
1626203001.3783576,-195.801,-35.645,-62.012,1.0,1.0
1626203001.382264,-158.691,-41.504,-27.344,-172.363,1.0
1626203001.3861701,41.992,-22.949,-25.879,99.12100000000001,1.0
1626203001.3900764,115.723,-3.418,-21.973000000000003,166.50400000000002,1.0
1626203001.3939826,-65.918,-0.488,-26.366999999999997,-92.285,1.0
1626203001.397889,-167.48,-21.973000000000003,-30.761999999999997,-211.426,1.0
1626203001.4017951,-8.789,-42.48,-33.203,21.973000000000003,1.0
1626203001.4057016,111.816,-41.992,-25.879,167.48,1.0
1626203001.4096076,-15.137,-21.484,-15.625,-30.761999999999997,1.0
1626203001.413514,-166.50400000000002,-40.527,-28.32,-216.797,1.0
1626203001.4174201,-57.617,-41.992,-22.949,-58.593999999999994,1.0
1626203001.4213264,121.094,-27.831999999999997,-18.555,169.43400000000003,1.0
1626203001.4252326,32.227,-44.434,-30.273000000000003,33.203,1.0
1626203001.429139,-24.901999999999997,-16.602,-51.27,-44.434,1.0
1626203001.433045,-209.96099999999998,-44.922,-55.176,-264.64799999999997,1.0
1626203001.4369516,-86.426,-43.945,-30.273000000000003,-89.844,1.0
1626203001.4408574,131.836,-17.578,-8.301,179.199,1.0
1626203001.4447641,56.641000000000005,-22.949,-18.555,60.547,1.0
1626203001.44867,-162.109,-52.246,-38.574,-218.262,1.0
1626203001.4525762,-156.25,-63.965,-54.688,-181.15200000000002,1.0
1626203001.456483,64.941,-22.949,-43.945,106.934,1.0
1626203001.460389,79.59,-3.418,-42.968999999999994,104.492,1.0
1626203001.464295,-129.395,-23.926,-44.922,-179.688,1.0
1626203001.4682014,-168.945,-39.551,-37.598,-213.86700000000002,1.0
1626203001.4721074,34.18,-23.438000000000002,-42.48,68.359,1.0
1626203001.476014,72.266,-49.805,-10.254000000000001,122.559,1.0
1626203001.4799201,92.773,-55.663999999999994,-28.809,134.766,1.0
1626203001.4838264,-98.633,-51.27,-49.316,-137.695,1.0
1626203001.4877326,-144.043,-11.719000000000001,-43.457,-182.61700000000002,1.0
1626203001.491639,40.039,0.0,-35.645,80.566,1.0
1626203001.4955451,125.0,-7.324,-27.831999999999997,182.12900000000002,1.0
1626203001.4994514,-62.012,-23.438000000000002,-39.062,-78.613,1.0
1626203001.5033574,-192.87099999999998,-22.949,-45.41,-246.09400000000002,1.0
1626203001.507264,-40.039,-22.461,-29.296999999999997,-33.691,1.0
1626203001.5111701,137.207,-16.602,-8.301,187.5,1.0
1626203001.5150764,24.414,-22.461,-41.016000000000005,18.066,1.0
1626203001.5189826,-186.035,-51.758,-72.266,-247.07,1.0
1626203001.522889,-169.922,-25.879,-15.137,-226.074,1.0
1626203001.5267951,-68.848,-36.621,-26.855,-62.988,1.0
1626203001.5307014,118.164,-21.973000000000003,-22.461,170.41,1.0
1626203001.5346076,48.34,-22.949,-31.25,44.434,1.0
1626203001.538514,-147.94899999999998,-40.527,-38.086,-216.30900000000003,1.0
1626203001.5424201,-104.00399999999999,-49.316,-25.879,-127.93,1.0
1626203001.5463264,85.93799999999999,-41.016000000000005,-29.296999999999997,140.625,1.0
1626203001.550233,89.355,-3.906,-27.831999999999997,107.91,1.0
1626203001.554139,-110.84,-16.602,-38.086,-172.852,1.0
1626203001.558045,-130.859,-54.199,-30.273000000000003,-171.387,1.0
1626203001.5619516,86.426,-34.668,-9.766,128.418,1.0
1626203001.5658574,119.62899999999999,-18.066,-33.203,165.52700000000002,1.0
1626203001.5697637,64.453,-19.531,-33.203,99.609,1.0
1626203001.57367,-132.32399999999998,-15.137,-46.387,-177.24599999999998,1.0
1626203001.5775762,-166.016,-17.09,-52.246,-210.938,1.0
1626203001.581483,43.945,-12.695,-32.715,76.172,1.0
1626203001.585389,131.836,-24.414,-12.207,171.387,1.0
1626203001.5892951,-63.477,-44.922,-17.09,-90.33200000000001,1.0
1626203001.5932014,-197.266,-49.805,-39.551,-245.11700000000002,1.0
1626203001.5971074,-19.043,-30.761999999999997,-42.48,-3.418,1.0
1626203001.601014,120.605,-16.602,-48.34,179.688,1.0
1626203001.6049201,2.441,-13.672,-41.016000000000005,-8.301,1.0
1626203001.6088262,-160.645,-20.508000000000003,-23.926,-226.074,1.0
1626203001.6127326,-97.16799999999999,-19.043,-28.32,-98.145,1.0
1626203001.616639,-56.152,-42.48,-29.785,-33.203,1.0
1626203001.6205451,101.074,-27.831999999999997,-40.039,170.898,1.0
1626203001.6244514,3.906,-14.16,-38.574,3.906,1.0
1626203001.6283576,-166.50400000000002,-9.766,-35.645,-230.46900000000002,1.0
1626203001.632264,-75.195,-9.766,-17.578,-97.16799999999999,1.0
1626203001.6361701,130.371,-24.414,3.418,175.293,1.0
1626203001.6400764,61.523,-59.082,-17.09,80.566,1.0
1626203001.6439826,-154.297,-77.148,-22.949,-204.102,1.0
1626203001.647889,-143.555,-52.733999999999995,-12.695,-176.27,1.0
1626203001.6517951,80.566,-8.301,-11.23,123.04700000000001,1.0
1626203001.6557016,117.676,-0.488,-27.344,156.738,1.0
1626203001.6596076,-98.633,-20.996,-47.852,-139.648,1.0
1626203001.663514,-126.465,-33.691,-16.602,-173.34,1.0
1626203001.6674201,-143.555,-35.156,-21.973000000000003,-183.105,1.0
1626203001.6713264,63.477,-23.926,-20.02,99.609,1.0
1626203001.6752326,120.605,-40.039,-20.508000000000003,157.227,1.0
1626203001.679139,-57.129,-53.711000000000006,-48.34,-104.492,1.0
1626203001.683045,-160.645,-53.711000000000006,-55.176,-226.562,1.0
1626203001.6869516,-6.836,-46.875,-30.761999999999997,6.348,1.0
1626203001.6908574,150.391,2.441,-15.625,189.453,1.0
1626203001.6947641,4.883,3.418,-30.761999999999997,-18.066,1.0
1626203001.69867,-188.477,-32.227,-46.387,-246.582,1.0
1626203001.7025762,-70.312,-22.461,-32.715,-75.195,1.0
1626203001.706483,123.04700000000001,-16.602,-10.742,175.293,1.0
1626203001.710389,131.836,-7.812,-22.949,1.0,1.0
1626203001.714295,-19.531,-37.598,-43.457,1.0,1.0
1626203001.7182014,-199.21900000000002,-48.828,-41.504,1.0,1.0
1626203001.7221074,-78.613,-30.273000000000003,-24.414,1.0,1.0
1626203001.726014,117.676,-10.254000000000001,-27.344,1.0,1.0
1626203001.7299201,51.27,-31.25,-41.992,1.0,1.0
1626203001.7338264,-172.852,-55.663999999999994,-59.082,1.0,1.0
1626203001.7377326,-155.273,-34.18,-46.875,1.0,1.0
1626203001.741639,67.87100000000001,-21.484,-22.461,1.0,1.0
1626203001.7455451,95.215,-31.738000000000003,-17.578,1.0,1.0
1626203001.7494514,-119.141,-41.992,-38.086,1.0,1.0
1626203001.7533574,-194.824,-41.016000000000005,-48.34,1.0,1.0
1626203001.757264,-144.043,-31.25,-25.391,-161.13299999999998,1.0
1626203001.7611701,56.641000000000005,-26.366999999999997,-38.086,113.77,1.0
1626203001.7650764,104.00399999999999,-8.301,-33.691,146.484,1.0
1626203001.7689826,-74.707,-3.418,-21.973000000000003,-118.652,1.0
1626203001.772889,-160.156,-24.414,-28.32,-206.543,1.0
1626203001.7767951,19.531,-23.438000000000002,-29.785,51.27,1.0
1626203001.7807014,124.023,-22.461,-34.668,182.12900000000002,1.0
1626203001.7846076,-33.691,-50.293,-38.086,-51.758,1.0
1626203001.788514,-165.03900000000002,-50.781000000000006,-33.691,-225.09799999999998,1.0
1626203001.7924201,-30.273000000000003,-27.831999999999997,-16.602,-26.855,1.0
1626203001.7963264,122.559,-14.16,-13.184000000000001,176.75799999999998,1.0
1626203001.800233,5.859,-14.16,-38.086,0.0,1.0
1626203001.804139,-17.578,-30.273000000000003,-15.625,-34.18,1.0
1626203001.808045,-169.922,-37.109,-28.809,-222.65599999999998,1.0
1626203001.8119516,-43.945,-27.344,-26.366999999999997,-39.551,1.0
1626203001.8158574,148.438,-5.371,-17.578,197.75400000000002,1.0
1626203001.8197637,60.547,-11.23,-30.273000000000003,59.082,1.0
1626203001.82367,-152.344,-26.855,-37.109,-210.449,1.0
1626203001.8275762,-124.512,-38.574,-40.039,-139.16,1.0
1626203001.831483,95.215,-18.555,-16.113,146.484,1.0
1626203001.835389,101.56200000000001,-21.484,-1.465,128.906,1.0
1626203001.8392951,-122.07,-59.082,-20.02,-168.945,1.0
1626203001.8432014,-156.738,-38.086,-27.344,-199.707,1.0
1626203001.8471074,49.805,-14.648,-38.574,81.543,1.0
1626203001.851014,83.008,-46.387,-46.387,120.117,1.0
1626203001.8549201,92.285,-29.785,-35.156,106.934,1.0
1626203001.8588262,-98.145,-18.555,-20.02,-155.273,1.0
1626203001.8627326,-141.113,-32.715,-25.879,-188.965,1.0
1626203001.866639,34.668,-25.879,-45.898,65.43,1.0
1626203001.8705451,108.398,-18.555,-46.387,155.762,1.0
1626203001.8744514,-85.93799999999999,-42.48,-45.41,-111.816,1.0
1626203001.8783576,-214.84400000000002,-55.663999999999994,-36.133,-264.16,1.0
1626203001.882264,-44.434,-51.758,-15.625,-22.949,1.0
1626203001.8861701,120.605,-52.733999999999995,-18.066,185.05900000000003,1.0
1626203001.8900764,-11.719000000000001,-65.43,-38.574,-6.348,1.0
1626203001.8939826,-197.266,-50.781000000000006,-51.758,-237.305,1.0
1626203001.897889,-199.21900000000002,-36.133,-24.901999999999997,-247.55900000000003,1.0
1626203001.9017951,-55.176,-28.32,-35.156,-35.645,1.0
1626203001.9057016,133.30100000000002,-7.812,-18.066,192.87099999999998,1.0
1626203001.9096076,20.508000000000003,-17.09,-28.32,12.695,1.0
1626203001.913514,-183.105,-33.691,-48.828,-244.141,1.0
1626203001.9174201,-105.469,-29.296999999999997,-37.598,-114.74600000000001,1.0
1626203001.9213264,97.656,-25.879,-29.296999999999997,149.414,1.0
1626203001.9252326,70.801,-46.387,-29.296999999999997,87.891,1.0
1626203001.929139,-143.555,-57.617,-29.785,-194.33599999999998,1.0
1626203001.933045,-145.996,-47.363,-17.578,-172.363,1.0
1626203001.9369516,80.078,-31.25,0.977,120.117,1.0
1626203001.9408574,102.539,-31.25,-15.625,139.648,1.0
1626203001.9447641,62.5,-11.23,-10.742,1.0,1.0
1626203001.94867,-140.625,-35.645,-15.137,1.0,1.0
1626203001.9525762,-166.50400000000002,-41.016000000000005,-18.066,1.0,1.0
1626203001.956483,34.668,-36.133,-27.344,1.0,1.0
1626203001.960389,92.285,-40.527,-30.273000000000003,1.0,1.0
1626203001.964295,-94.727,-46.875,-31.738000000000003,1.0,1.0
1626203001.9682014,-188.965,-43.457,-35.156,1.0,1.0
1626203001.9721074,-0.977,-22.461,-14.648,1.0,1.0
1626203001.976014,124.023,-30.761999999999997,-12.695,1.0,1.0
1626203001.9799201,-10.254000000000001,-38.574,-19.043,1.0,1.0
1626203001.9838264,-147.94899999999998,-13.184000000000001,-3.906,1.0,1.0
1626203001.9877326,-49.316,-27.344,-3.418,1.0,1.0
1626203001.991639,-13.184000000000001,-8.301,-27.344,7.324,1.0
1626203001.9955451,121.094,-1.953,-34.668,187.5,1.0
1626203001.9994514,-22.461,-19.043,-40.527,-19.043,1.0
1626203002.0033574,-189.453,-30.761999999999997,-26.855,-239.74599999999998,1.0
1626203002.007264,-88.37899999999999,-31.738000000000003,-29.785,-87.402,1.0
1626203002.0111701,120.605,-42.48,-28.32,179.199,1.0
1626203002.0150764,59.57,-58.105,-26.366999999999997,72.266,1.0
1626203002.0189826,-154.785,-38.086,-20.508000000000003,-204.59,1.0
1626203002.022889,-121.094,-14.648,0.488,-138.672,1.0
1626203002.0267951,97.16799999999999,-17.09,3.906,146.97299999999998,1.0
1626203002.0307014,95.70299999999999,-39.551,-12.695,136.23,1.0
1626203002.0346076,-118.164,-36.133,-29.785,-152.832,1.0
1626203002.038514,-142.09,-32.227,-42.48,-184.082,1.0
1626203002.0424201,-170.898,-21.484,-53.711000000000006,-182.61700000000002,1.0
1626203002.0463264,37.109,-20.996,-43.457,101.074,1.0
1626203002.050233,97.16799999999999,-20.508000000000003,-35.645,145.996,1.0
1626203002.054139,-93.262,-34.18,-52.246,-129.395,1.0
1626203002.058045,-184.57,-56.152,-53.223,-228.02700000000002,1.0
1626203002.0619516,9.766,-35.156,-26.855,37.598,1.0
1626203002.0658574,123.535,-15.137,-11.719000000000001,170.898,1.0
1626203002.0697637,-48.34,-35.156,-22.461,-79.59,1.0
1626203002.07367,-187.988,-35.645,-32.715,-255.37099999999998,1.0
1626203002.0775762,-33.203,-25.391,-12.695,-34.18,1.0
1626203002.081483,139.16,-25.879,-2.441,190.918,1.0
1626203002.085389,111.816,-45.898,-32.227,181.15200000000002,1.0
1626203002.0892951,-44.434,-46.387,-55.663999999999994,-45.898,1.0
1626203002.0932014,-206.055,-47.363,-68.848,-256.348,1.0
1626203002.0971074,-67.383,-34.668,-28.32,-63.965,1.0
1626203002.101014,124.512,-18.555,0.0,180.66400000000002,1.0
1626203002.1049201,50.293,-3.906,1.465,49.805,1.0
1626203002.1088262,-183.59400000000002,-24.901999999999997,-30.273000000000003,-244.141,1.0
1626203002.1127326,-159.668,-36.133,-47.852,-173.828,1.0
1626203002.116639,73.73,-11.23,-48.828,122.559,1.0
1626203002.1205451,79.59,-21.973000000000003,-44.434,105.469,1.0
1626203002.1244514,-126.95299999999999,-67.87100000000001,-28.809,-181.641,1.0
1626203002.1283576,-162.109,-67.383,-24.901999999999997,-202.148,1.0
1626203002.132264,-141.602,-20.996,-24.901999999999997,-160.645,1.0
1626203002.1361701,47.852,-23.926,-20.996,101.56200000000001,1.0
1626203002.1400764,63.965,-28.809,-33.203,104.00399999999999,1.0
1626203002.1439826,-126.95299999999999,-38.086,-34.18,-163.57399999999998,1.0
1626203002.147889,-177.24599999999998,-43.945,-27.344,-211.91400000000002,1.0
1626203002.1517951,31.25,-43.457,-18.555,69.824,1.0
1626203002.1557016,114.258,-35.156,-23.438000000000002,156.25,1.0
1626203002.1596076,-77.148,-41.016000000000005,-34.668,-116.211,1.0
1626203002.163514,-202.148,-42.968999999999994,-33.691,-262.207,1.0
1626203002.1674201,-29.785,-26.366999999999997,-26.366999999999997,-13.672,1.0
1626203002.1713264,116.699,-16.113,-54.199,176.75799999999998,1.0
1626203002.1752326,-16.113,-20.02,-57.617,-19.043,1.0
1626203002.179139,-45.41,-26.366999999999997,-23.438000000000002,-67.87100000000001,1.0
1626203002.183045,-188.965,-28.809,-41.016000000000005,-241.21099999999998,1.0
1626203002.1869516,-39.062,-26.855,-50.293,-24.414,1.0
1626203002.1908574,125.488,-42.968999999999994,-35.156,185.05900000000003,1.0
1626203002.1947641,-5.371,-61.035,-32.715,-2.441,1.0
1626203002.19867,-188.965,-46.387,-39.551,-250.0,1.0
1626203002.2025762,-112.305,-16.602,-51.27,-123.535,1.0
1626203002.206483,105.469,-8.789,-24.414,160.156,1.0
1626203002.210389,86.426,-19.043,-2.93,104.00399999999999,1.0
1626203002.214295,-149.90200000000002,-32.715,-37.109,-204.102,1.0
1626203002.2182014,-173.34,-47.363,-44.434,-205.078,1.0
1626203002.2221074,43.945,-48.34,-27.831999999999997,96.191,1.0
1626203002.226014,88.37899999999999,-20.02,-32.227,128.418,1.0
1626203002.2299201,60.059,-37.109,-20.996,78.613,1.0
1626203002.2338264,-134.766,-56.641000000000005,-23.926,-196.28900000000002,1.0
1626203002.2377326,-143.555,-29.785,-22.461,-189.453,1.0
1626203002.241639,52.246,-3.906,-22.949,87.891,1.0
1626203002.2455451,108.887,-14.16,-25.391,150.391,1.0
1626203002.2494514,-75.684,-38.086,-38.086,-114.74600000000001,1.0
1626203002.2533574,-167.96900000000002,-29.296999999999997,-38.086,-219.727,1.0
1626203002.257264,-20.508000000000003,-24.414,-40.527,11.23,1.0
1626203002.2611701,107.91,-32.227,-35.156,170.41,1.0
1626203002.2650764,-17.09,-48.828,-31.738000000000003,-24.901999999999997,1.0
1626203002.2689826,-187.988,-53.711000000000006,-39.062,-239.25799999999998,1.0
1626203002.272889,-153.809,-18.066,-23.926,-208.49599999999998,1.0
1626203002.2767951,-17.578,-4.395,-31.25,-8.301,1.0
1626203002.2807014,129.88299999999998,-6.348,-33.691,167.48,1.0
1626203002.2846076,17.09,-20.02,-45.41,-10.254000000000001,1.0
1626203002.288514,-155.273,-9.766,-46.387,-228.02700000000002,1.0
1626203002.2924201,-65.43,-9.766,-38.086,-81.055,1.0
1626203002.2963264,106.445,-44.922,-45.898,158.691,1.0
1626203002.300233,61.035,-32.715,-47.363,57.617,1.0
1626203002.304139,-134.766,-21.973000000000003,-42.968999999999994,-204.59,1.0
1626203002.308045,-125.488,-14.16,-31.25,-155.762,1.0
1626203002.3119516,85.93799999999999,-4.395,-30.761999999999997,125.0,1.0
1626203002.3158574,108.887,-2.441,-50.293,132.812,1.0
1626203002.3197637,57.617,-50.293,-29.296999999999997,1.0,1.0
1626203002.32367,-148.92600000000002,-64.941,-46.387,1.0,1.0
1626203002.3275762,-145.996,-32.227,-44.434,1.0,1.0
1626203002.331483,77.148,-3.906,-13.184000000000001,1.0,1.0
1626203002.335389,105.95700000000001,-28.32,-17.09,1.0,1.0
1626203002.3392951,-107.42200000000001,-22.461,-40.039,1.0,1.0
1626203002.3432014,-186.035,-22.461,-46.387,1.0,1.0
1626203002.3471074,5.859,-19.531,-33.691,1.0,1.0
1626203002.351014,135.254,-5.371,-14.648,1.0,1.0
1626203002.3549201,-19.043,-13.672,-22.949,1.0,1.0
1626203002.3588262,-169.43400000000003,-22.949,-39.551,1.0,1.0
1626203002.3627326,-46.387,-28.809,-43.457,1.0,1.0
1626203002.366639,-27.344,-60.059,-20.508000000000003,-1.953,1.0
1626203002.3705451,117.676,-22.949,-17.09,172.363,1.0
1626203002.3744514,-12.695,-21.484,-19.043,-31.25,1.0
1626203002.3783576,-180.176,-27.831999999999997,-23.926,-239.25799999999998,1.0
1626203002.382264,-49.805,-11.719000000000001,-3.906,-51.27,1.0
1626203002.3861701,140.137,-9.766,-14.16,193.359,1.0
1626203002.3900764,36.133,-27.831999999999997,-48.828,39.551,1.0
1626203002.3939826,-167.48,-39.551,-45.898,-232.422,1.0
1626203002.397889,-119.62899999999999,-29.296999999999997,-20.508000000000003,-140.137,1.0
1626203002.4017951,96.191,-24.414,3.906,150.879,1.0
1626203002.4057016,70.801,-52.733999999999995,-25.391,104.492,1.0
1626203002.4096076,-136.23,-42.48,-52.733999999999995,-182.61700000000002,1.0
1626203002.413514,-151.36700000000002,-40.527,-22.461,-206.543,1.0
1626203002.4174201,-161.13299999999998,-58.105,-26.366999999999997,-181.641,1.0
1626203002.4213264,56.641000000000005,-33.691,-27.831999999999997,104.492,1.0
1626203002.4252326,91.309,-5.859,-50.293,120.605,1.0
1626203002.429139,-104.492,-5.371,-46.875,-156.738,1.0
1626203002.433045,-153.809,-6.348,-5.371,-194.33599999999998,1.0
1626203002.4369516,39.551,-15.137,15.137,76.172,1.0
1626203002.4408574,133.789,-30.273000000000003,11.719000000000001,175.78099999999998,1.0
1626203002.4447641,-51.758,-38.574,-12.207,-76.66,1.0
1626203002.44867,-194.824,-43.945,-26.366999999999997,-239.25799999999998,1.0
1626203002.4525762,-49.805,-37.598,-34.18,-24.901999999999997,1.0
1626203002.456483,91.79700000000001,-38.574,-43.457,162.59799999999998,1.0
1626203002.460389,122.559,-25.391,-31.738000000000003,1.0,1.0
1626203002.464295,-60.547,-33.203,-53.223,1.0,1.0
1626203002.4682014,-192.38299999999998,-42.968999999999994,-44.922,1.0,1.0
1626203002.4721074,-17.09,-43.457,-14.16,1.0,1.0
1626203002.476014,148.438,-26.855,-3.418,1.0,1.0
1626203002.4799201,12.695,-32.715,-24.901999999999997,1.0,1.0
1626203002.4838264,-187.988,-47.363,-50.293,1.0,1.0
1626203002.4877326,-122.559,-28.809,-50.293,1.0,1.0
1626203002.491639,83.984,-20.02,-27.344,1.0,1.0
1626203002.4955451,66.895,-29.785,-14.16,1.0,1.0
1626203002.4994514,-150.879,-25.879,-23.438000000000002,1.0,1.0
1626203002.5033574,-172.852,-28.32,-34.668,1.0,1.0
1626203002.507264,-124.023,-77.637,-36.133,-143.555,1.0
1626203002.5111701,81.543,-37.598,-41.504,134.766,1.0
1626203002.5150764,73.242,-13.672,-57.129,98.633,1.0
1626203002.5189826,-129.395,-10.254000000000001,-37.109,-184.082,1.0
1626203002.522889,-145.50799999999998,-2.93,-9.766,-191.40599999999998,1.0
1626203002.5267951,61.035,-22.461,-16.602,90.82,1.0
1626203002.5307014,118.652,-53.711000000000006,-26.855,154.785,1.0
1626203002.5346076,-62.5,-33.203,-22.949,-108.887,1.0
1626203002.538514,-166.99200000000002,-36.133,-24.414,-225.09799999999998,1.0
1626203002.5424201,2.441,-51.27,-29.785,20.02,1.0
1626203002.5463264,135.254,-33.203,-39.551,182.12900000000002,1.0
1626203002.550233,-33.203,-35.156,-59.57,-50.781000000000006,1.0
1626203002.554139,-63.477,-46.875,-53.711000000000006,-89.844,1.0
1626203002.558045,-188.965,-42.968999999999994,-61.035,-242.188,1.0
1626203002.5619516,-22.949,-11.23,-33.691,-15.137,1.0
1626203002.5658574,131.34799999999998,-3.418,-24.901999999999997,176.27,1.0
1626203002.5697637,-11.23,-23.926,-47.852,-28.809,1.0
1626203002.57367,-187.5,-22.461,-38.574,-248.047,1.0
1626203002.5775762,-99.12100000000001,-40.527,-47.852,-104.98,1.0
1626203002.581483,93.262,-64.941,-43.457,145.02,1.0
1626203002.585389,54.688,-53.223,-9.277000000000001,60.059,1.0
1626203002.5892951,-152.344,-37.598,-9.766,-215.332,1.0
1626203002.5932014,-163.086,-39.551,-33.203,-191.895,1.0
1626203002.5971074,47.852,-43.945,-33.691,98.145,1.0
1626203002.601014,107.91,-34.18,-14.16,164.062,1.0
1626203002.6049201,55.663999999999994,-49.805,-32.715,77.148,1.0
1626203002.6088262,-149.414,-57.617,-53.223,-196.77700000000002,1.0
1626203002.6127326,-136.719,-49.316,-60.547,-165.03900000000002,1.0
1626203002.616639,55.663999999999994,-34.18,-39.062,103.516,1.0
1626203002.6205451,88.867,-19.043,-17.09,132.32399999999998,1.0
1626203002.6244514,-109.375,-45.898,-22.461,-144.531,1.0
1626203002.6283576,-191.40599999999998,-56.152,-19.531,-238.77,1.0
1626203002.632264,-18.066,-47.363,-27.344,7.324,1.0
1626203002.6361701,108.887,-21.973000000000003,-32.715,153.809,1.0
1626203002.6400764,-45.41,-23.438000000000002,-42.968999999999994,-70.312,1.0
1626203002.6439826,-189.94099999999997,-43.945,-34.18,-242.188,1.0
1626203002.647889,-191.895,-42.48,-20.02,-240.234,1.0
1626203002.6517951,-10.254000000000001,-37.598,-22.949,18.066,1.0
1626203002.6557016,128.906,-31.25,-12.207,188.477,1.0
1626203002.6596076,-28.809,-43.945,-20.02,-28.809,1.0
1626203002.663514,-183.105,-50.781000000000006,-50.293,-226.074,1.0
1626203002.6674201,-73.242,-37.598,-49.805,-56.152,1.0
1626203002.6713264,96.191,-49.805,-48.34,166.99200000000002,1.0
1626203002.6752326,31.738000000000003,-50.781000000000006,-32.715,55.663999999999994,1.0
1626203002.679139,-188.477,-38.086,-20.508000000000003,-224.609,1.0
1626203002.683045,-159.18,-32.715,-8.301,-161.13299999999998,1.0
1626203002.6869516,73.73,-27.344,-10.742,138.672,1.0
1626203002.6908574,83.008,-44.434,-37.598,121.58200000000001,1.0
1626203002.6947641,69.336,-16.113,-9.766,1.0,1.0
1626203002.69867,-142.09,-39.062,-33.203,1.0,1.0
1626203002.7025762,-114.74600000000001,-44.922,-29.785,1.0,1.0
1626203002.706483,114.74600000000001,-20.508000000000003,1.953,1.0,1.0
1626203002.710389,128.418,-16.602,-9.277000000000001,1.0,1.0
1626203002.714295,-110.84,-36.621,-48.34,1.0,1.0
1626203002.7182014,-182.61700000000002,-46.387,-59.082,1.0,1.0
1626203002.7221074,31.738000000000003,-23.926,-40.527,1.0,1.0
1626203002.726014,121.094,-13.184000000000001,-26.855,1.0,1.0
1626203002.7299201,-51.758,-21.973000000000003,-26.366999999999997,1.0,1.0
1626203002.7338264,-179.688,-19.043,-29.296999999999997,1.0,1.0
1626203002.7377326,-37.109,-16.113,-29.296999999999997,1.0,1.0
1626203002.741639,26.366999999999997,-17.578,-34.668,57.129,1.0
1626203002.7455451,112.305,-21.484,-50.293,163.086,1.0
1626203002.7494514,-52.733999999999995,-42.968999999999994,-35.645,-73.242,1.0
1626203002.7533574,-175.293,-30.761999999999997,-32.227,-230.46900000000002,1.0
1626203002.757264,-39.062,-16.602,-25.879,-25.879,1.0
1626203002.7611701,125.0,-29.785,-17.578,185.05900000000003,1.0
1626203002.7650764,12.207,-47.363,-34.668,11.23,1.0
1626203002.7689826,-166.99200000000002,-38.574,-50.293,-230.46900000000002,1.0
1626203002.772889,-74.707,-15.625,-30.761999999999997,-91.309,1.0
1626203002.7767951,133.30100000000002,-19.043,2.441,180.176,1.0
1626203002.7807014,90.33200000000001,-32.715,-11.23,100.098,1.0
1626203002.7846076,-136.23,-49.316,-35.156,-198.73,1.0
1626203002.788514,-175.78099999999998,-19.531,-45.898,-238.28099999999998,1.0
1626203002.7924201,-113.281,-35.156,-61.523,-141.602,1.0
1626203002.7963264,97.16799999999999,-25.391,-57.129,138.672,1.0
1626203002.800233,100.586,-11.719000000000001,-19.531,123.04700000000001,1.0
1626203002.804139,-109.375,-21.973000000000003,-24.901999999999997,-158.203,1.0
1626203002.808045,-151.855,-30.273000000000003,-31.738000000000003,-183.59400000000002,1.0
1626203002.8119516,48.828,-57.617,-7.324,90.82,1.0
1626203002.8158574,111.816,-68.359,0.0,150.879,1.0
1626203002.8197637,-80.078,-46.875,-26.366999999999997,-120.117,1.0
1626203002.82367,-193.84799999999998,-18.555,-48.828,-243.65200000000002,1.0
1626203002.8275762,-30.273000000000003,-8.301,-49.316,-6.836,1.0
1626203002.831483,121.094,-13.184000000000001,-37.109,170.898,1.0
1626203002.835389,130.859,-12.695,-20.02,175.78099999999998,1.0
1626203002.8392951,-62.5,-16.602,-46.387,-79.102,1.0
1626203002.8432014,-187.5,-36.621,-48.34,-226.074,1.0
1626203002.8471074,-16.602,-41.992,-14.648,11.719000000000001,1.0
1626203002.851014,129.395,-45.898,-7.812,200.195,1.0
1626203002.8549201,-0.488,-46.875,-16.602,9.277000000000001,1.0
1626203002.8588262,-182.12900000000002,-47.852,-52.246,-222.168,1.0
1626203002.8627326,-75.684,-40.527,-48.828,-70.801,1.0
1626203002.866639,112.305,-41.504,-40.039,172.852,1.0
1626203002.8705451,42.48,-41.992,-41.992,59.57,1.0
1626203002.8744514,-149.90200000000002,-34.668,-28.809,-207.52,1.0
1626203002.8783576,-134.27700000000002,-36.133,-28.32,-162.109,1.0
1626203002.882264,-104.492,-28.32,-25.391,-111.816,1.0
1626203002.8861701,104.98,-39.062,-18.066,156.25,1.0
1626203002.8900764,74.707,-34.18,-41.504,82.52,1.0
1626203002.8939826,-137.207,-12.695,-48.828,-198.73,1.0
1626203002.897889,-162.109,-25.879,-29.785,-195.312,1.0
1626203002.9017951,53.223,-18.555,-13.184000000000001,90.33200000000001,1.0
1626203002.9057016,101.074,-29.785,-14.648,130.371,1.0
1626203002.9096076,-82.52,-46.875,-10.742,-132.32399999999998,1.0
1626203002.913514,-153.809,-37.598,-16.602,-213.37900000000002,1.0
1626203002.9174201,29.296999999999997,-28.809,-35.156,47.363,1.0
1626203002.9213264,132.32399999999998,-28.809,-43.457,172.852,1.0
1626203002.9252326,-48.828,-43.457,-52.733999999999995,-77.148,1.0
1626203002.929139,-84.961,-53.223,-58.105,-108.398,1.0
1626203002.933045,-200.195,-29.785,-52.733999999999995,-232.422,1.0
1626203002.9369516,-32.227,-25.879,-18.555,6.836,1.0
1626203002.9408574,114.258,-21.484,0.977,173.34,1.0
1626203002.9447641,-16.602,-32.715,-0.488,-33.691,1.0
1626203002.94867,-187.5,-22.461,-10.254000000000001,-236.81599999999997,1.0
1626203002.9525762,-85.93799999999999,-23.926,-28.809,-69.824,1.0
1626203002.956483,110.84,-48.34,-31.738000000000003,175.78099999999998,1.0
1626203002.960389,47.363,-30.761999999999997,-41.504,59.082,1.0
1626203002.964295,-149.90200000000002,-5.859,-47.363,-205.078,1.0
1626203002.9682014,-121.094,-20.996,-23.438000000000002,-136.23,1.0
1626203002.9721074,68.848,-43.945,-17.09,126.95299999999999,1.0
1626203002.976014,132.812,-19.531,-6.836,185.547,1.0
1626203002.9799201,43.457,-36.133,-37.598,57.617,1.0
1626203002.9838264,-160.645,-38.086,-37.598,-213.37900000000002,1.0
1626203002.9877326,-135.74200000000002,-33.203,-33.691,-160.156,1.0
1626203002.991639,71.289,-27.831999999999997,-27.831999999999997,128.418,1.0
1626203002.9955451,103.516,-32.227,-22.949,144.043,1.0
1626203002.9994514,-104.98,-70.801,-50.293,-142.578,1.0
1626203003.0033574,-166.016,-38.574,-43.457,-205.078,1.0
1626203003.007264,32.715,0.488,-17.578,62.5,1.0
1626203003.0111701,116.699,-20.996,-14.648,166.016,1.0
1626203003.0150764,-51.27,-36.621,-21.484,-75.195,1.0
1626203003.0189826,-179.199,-32.227,-25.879,-233.398,1.0
1626203003.022889,-201.172,-54.199,-39.062,-251.465,1.0
1626203003.0267951,-19.531,-40.527,-41.016000000000005,8.301,1.0
1626203003.0307014,104.98,-32.715,-39.062,155.762,1.0
1626203003.0346076,-56.641000000000005,-41.992,-47.363,-75.684,1.0
1626203003.038514,-193.359,-55.176,-38.574,-247.55900000000003,1.0
1626203003.0424201,-54.688,-34.668,-26.366999999999997,-41.504,1.0
1626203003.0463264,110.352,-3.418,-28.809,175.293,1.0
1626203003.050233,3.906,-18.066,-29.296999999999997,16.602,1.0
1626203003.054139,-201.66,-32.227,-49.316,-243.16400000000002,1.0
1626203003.058045,-115.723,-25.879,-23.926,-115.234,1.0
1626203003.0619516,91.309,-45.41,-5.859,153.809,1.0
1626203003.0658574,33.691,-60.059,-45.898,69.336,1.0
1626203003.0697637,12.695,-46.875,-37.109,1.0,1.0
1626203003.07367,-176.75799999999998,-41.504,-29.785,1.0,1.0
1626203003.0775762,-115.723,-21.973000000000003,-25.391,1.0,1.0
1626203003.081483,86.426,-29.296999999999997,-31.738000000000003,1.0,1.0
1626203003.085389,93.75,-24.414,-34.668,1.0,1.0
1626203003.0892951,-92.773,-17.09,-38.086,1.0,1.0
1626203003.0932014,-164.062,-33.691,-40.527,1.0,1.0
1626203003.0971074,24.414,-14.16,-22.949,1.0,1.0
1626203003.101014,104.492,-8.789,-20.996,1.0,1.0
1626203003.1049201,-77.637,-20.508000000000003,-33.691,1.0,1.0
1626203003.1088262,-194.33599999999998,-34.668,-41.016000000000005,1.0,1.0
1626203003.1127326,-16.602,-46.387,-26.855,1.0,1.0
1626203003.116639,43.945,-28.809,-27.344,76.66,1.0
1626203003.1205451,101.56200000000001,-23.926,-40.039,152.832,1.0
1626203003.1244514,-79.102,-34.18,-39.062,-108.398,1.0
1626203003.1283576,-195.801,-36.621,-46.387,-251.953,1.0
1626203003.132264,-43.457,-19.043,-46.875,-29.296999999999997,1.0
1626203003.1361701,118.652,-11.719000000000001,-25.391,172.363,1.0
1626203003.1400764,-8.789,-48.34,-40.039,-16.602,1.0
1626203003.1439826,-181.15200000000002,-39.062,-51.758,-239.25799999999998,1.0
1626203003.147889,-72.75399999999999,-23.438000000000002,-20.996,-79.59,1.0
1626203003.1517951,127.93,-28.32,4.883,179.688,1.0
1626203003.1557016,51.758,-34.668,-17.578,67.87100000000001,1.0
1626203003.1596076,-176.27,-62.5,-47.852,-229.49200000000002,1.0
1626203003.163514,-206.055,-46.875,-45.41,-265.137,1.0
1626203003.1674201,-129.88299999999998,-66.895,-29.296999999999997,-136.719,1.0
1626203003.1713264,102.051,-40.527,-7.812,154.297,1.0
1626203003.1752326,75.684,-12.207,-32.227,90.82,1.0
1626203003.179139,-144.531,-18.066,-47.363,-199.21900000000002,1.0
1626203003.183045,-137.695,-3.906,-25.391,-173.828,1.0
1626203003.1869516,73.73,-8.301,-20.508000000000003,113.77,1.0
1626203003.1908574,99.12100000000001,-23.926,-41.504,137.207,1.0
1626203003.1947641,-100.586,-44.922,-44.434,-140.137,1.0
1626203003.19867,-166.50400000000002,-61.035,-18.066,-221.68,1.0
1626203003.2025762,25.879,-36.133,-18.555,45.898,1.0
1626203003.206483,132.32399999999998,-38.574,-32.715,187.5,1.0
1626203003.210389,117.18799999999999,-19.531,-38.086,145.996,1.0
1626203003.214295,-82.52,-45.898,-62.988,-127.441,1.0
1626203003.2182014,-185.05900000000003,-35.156,-70.312,-247.55900000000003,1.0
1626203003.2221074,-5.859,-11.23,-56.152,2.93,1.0
1626203003.226014,146.97299999999998,-16.113,-38.086,185.05900000000003,1.0
1626203003.2299201,5.859,-21.973000000000003,-27.344,-19.043,1.0
1626203003.2338264,-198.73,-54.688,-57.129,-264.16,1.0
1626203003.2377326,-74.219,-45.41,-48.828,-90.33200000000001,1.0
1626203003.241639,138.672,-21.484,-20.02,180.66400000000002,1.0
1626203003.2455451,63.477,-10.742,-17.09,62.5,1.0
1626203003.2494514,-144.043,-14.16,-32.715,-212.40200000000002,1.0
1626203003.2533574,-111.32799999999999,-44.434,-46.387,-146.484,1.0
1626203003.257264,-69.336,-3.906,-22.461,-80.566,1.0
1626203003.2611701,96.191,-20.02,-46.387,147.94899999999998,1.0
1626203003.2650764,40.039,-24.414,-40.039,49.316,1.0
1626203003.2689826,-141.113,-20.02,-19.531,-193.84799999999998,1.0
1626203003.272889,-133.789,-37.598,-32.715,-157.715,1.0
1626203003.2767951,81.543,-41.504,-34.18,123.535,1.0
1626203003.2807014,96.68,-32.715,-43.457,127.441,1.0
1626203003.2846076,-79.102,-34.668,-34.668,-138.184,1.0
1626203003.288514,-135.254,-23.438000000000002,-21.484,-202.148,1.0
1626203003.2924201,23.438000000000002,-3.906,-28.32,44.434,1.0
1626203003.2963264,113.281,-18.555,-15.625,156.25,1.0
1626203003.300233,-58.105,-31.738000000000003,-35.645,-88.37899999999999,1.0
1626203003.304139,-81.055,-31.25,-20.996,1.0,1.0
1626203003.308045,-178.71099999999998,-58.593999999999994,-39.551,1.0,1.0
1626203003.3119516,27.344,-20.02,-36.133,1.0,1.0
1626203003.3158574,149.414,5.371,-26.366999999999997,1.0,1.0
1626203003.3197637,-20.02,-15.625,-22.949,1.0,1.0
1626203003.32367,-166.99200000000002,-43.945,-20.02,1.0,1.0
1626203003.3275762,-55.176,-62.012,-33.691,1.0,1.0
1626203003.331483,122.559,-38.574,-27.344,1.0,1.0
1626203003.335389,33.691,-20.508000000000003,-25.879,1.0,1.0
1626203003.3392951,-167.48,-18.066,-22.949,1.0,1.0
1626203003.3432014,-128.418,-24.414,-20.508000000000003,1.0,1.0
1626203003.3471074,67.87100000000001,-34.668,-25.879,1.0,1.0
1626203003.351014,133.30100000000002,-48.34,-12.207,193.359,1.0
1626203003.3549201,43.945,-48.34,-40.039,50.781000000000006,1.0
1626203003.3588262,-168.457,-39.062,-56.152,-228.516,1.0
1626203003.3627326,-121.58200000000001,-22.461,-30.273000000000003,-138.672,1.0
1626203003.366639,96.68,-14.16,-6.836,152.832,1.0
1626203003.3705451,73.73,-19.043,-27.831999999999997,111.816,1.0
1626203003.3744514,-153.32,-30.761999999999997,-52.246,-194.33599999999998,1.0
1626203003.3783576,-161.621,-24.901999999999997,-21.973000000000003,-196.77700000000002,1.0
1626203003.382264,53.223,-43.945,-14.648,88.867,1.0
1626203003.3861701,111.32799999999999,-55.663999999999994,-26.366999999999997,148.92600000000002,1.0
1626203003.3900764,-89.355,-50.781000000000006,-44.434,-123.04700000000001,1.0
1626203003.3939826,-208.49599999999998,-78.125,-55.176,-257.812,1.0
1626203003.397889,-151.36700000000002,-15.137,-27.344,-202.148,1.0
1626203003.4017951,32.715,-15.137,-33.203,58.593999999999994,1.0
1626203003.4057016,125.488,-13.184000000000001,-35.645,173.34,1.0
1626203003.4096076,-45.41,-16.113,-45.41,-74.707,1.0
1626203003.413514,-182.61700000000002,-27.831999999999997,-48.828,-242.676,1.0
1626203003.4174201,-32.227,-20.508000000000003,-27.831999999999997,-17.09,1.0
1626203003.4213264,108.887,-44.922,-36.621,168.457,1.0
1626203003.4252326,2.441,-50.293,-41.504,-5.371,1.0
1626203003.429139,-155.762,-35.645,-20.996,-221.19099999999997,1.0
1626203003.433045,-84.473,-33.691,-21.973000000000003,-96.191,1.0
1626203003.4369516,99.12100000000001,-17.578,-23.438000000000002,155.273,1.0
1626203003.4408574,63.477,-32.227,-12.695,80.078,1.0
1626203003.4447641,1.953,-18.555,-26.366999999999997,1.0,1.0
1626203003.44867,-194.33599999999998,-46.875,-55.176,1.0,1.0
1626203003.4525762,-110.352,-37.109,-43.457,1.0,1.0
1626203003.456483,126.465,-9.766,-22.461,1.0,1.0
1626203003.460389,88.867,-4.883,-34.18,1.0,1.0
1626203003.464295,-159.668,-27.831999999999997,-57.617,1.0,1.0
1626203003.4682014,-205.56599999999997,-58.105,-71.777,1.0,1.0
1626203003.4721074,24.901999999999997,-63.965,-37.109,1.0,1.0
1626203003.476014,91.309,-47.363,-15.137,1.0,1.0
1626203003.4799201,-93.75,-24.414,-14.648,1.0,1.0
1626203003.4838264,-185.05900000000003,-40.527,-30.761999999999997,1.0,1.0
1626203003.4877326,-15.137,-33.691,-46.387,1.0,1.0
1626203003.491639,35.645,-26.855,-10.254000000000001,91.79700000000001,1.0
1626203003.4955451,86.426,-52.733999999999995,-31.25,144.531,1.0
1626203003.4994514,-100.586,-41.504,-46.387,-122.559,1.0
1626203003.5033574,-180.176,-29.296999999999997,-28.809,-224.12099999999998,1.0
1626203003.507264,-19.531,-32.715,-20.996,6.348,1.0
1626203003.5111701,110.84,-23.438000000000002,-13.672,169.922,1.0
1626203003.5150764,-30.273000000000003,-28.32,-35.156,-32.227,1.0
1626203003.5189826,-199.21900000000002,-29.785,-44.434,-248.047,1.0
1626203003.522889,-84.473,-43.457,-30.761999999999997,-83.49600000000001,1.0
1626203003.5267951,125.0,-25.391,-20.508000000000003,178.71099999999998,1.0
1626203003.5307014,55.176,-3.906,-23.926,66.406,1.0
1626203003.5346076,-174.805,-48.34,-41.016000000000005,-223.145,1.0
1626203003.538514,-182.12900000000002,-22.949,-34.668,-231.445,1.0
1626203003.5424201,-100.098,-30.273000000000003,-43.945,-94.727,1.0
1626203003.5463264,92.773,-30.761999999999997,-21.973000000000003,160.156,1.0
1626203003.550233,42.48,-34.18,-13.672,71.777,1.0
1626203003.554139,-146.484,-44.922,-16.602,-187.988,1.0
1626203003.558045,-131.34799999999998,-51.27,-20.02,-148.438,1.0
1626203003.5619516,44.922,-66.406,-37.598,107.42200000000001,1.0
1626203003.5658574,72.266,-32.227,-39.062,121.58200000000001,1.0
1626203003.5697637,-102.051,-28.32,-35.645,-141.602,1.0
1626203003.57367,-167.96900000000002,-50.781000000000006,-24.901999999999997,-210.938,1.0
1626203003.5775762,23.438000000000002,-16.113,-3.906,54.688,1.0
1626203003.581483,113.77,0.0,-27.344,166.50400000000002,1.0
1626203003.585389,93.262,-19.531,-18.066,134.766,1.0
1626203003.5892951,-101.56200000000001,-34.668,-30.273000000000003,-142.09,1.0
1626203003.5932014,-166.50400000000002,-39.062,-27.344,-223.63299999999998,1.0
1626203003.5971074,10.254000000000001,-27.831999999999997,-37.598,36.621,1.0
1626203003.601014,92.773,-20.02,-63.965,150.879,1.0
1626203003.6049201,-63.477,-30.761999999999997,-56.641000000000005,-86.426,1.0
1626203003.6088262,-207.03099999999998,-53.711000000000006,-38.086,-271.973,1.0
1626203003.6127326,-67.87100000000001,-56.641000000000005,-24.901999999999997,-65.918,1.0
1626203003.616639,129.395,-44.434,-3.906,179.199,1.0
1626203003.6205451,44.922,-30.761999999999997,-7.324,35.156,1.0
1626203003.6244514,-155.273,-21.484,-24.901999999999997,-230.957,1.0
1626203003.6283576,-117.676,-38.086,-29.296999999999997,-139.648,1.0
1626203003.632264,-54.199,-35.645,-20.508000000000003,-56.641000000000005,1.0
1626203003.6361701,91.79700000000001,-38.574,-52.733999999999995,150.391,1.0
1626203003.6400764,7.812,-37.598,-57.617,13.672,1.0
1626203003.6439826,-187.012,-65.43,-35.156,-245.605,1.0
1626203003.647889,-136.23,-50.293,-13.672,-153.32,1.0
1626203003.6517951,85.93799999999999,-12.207,-10.254000000000001,142.578,1.0
1626203003.6557016,76.66,-38.574,-31.738000000000003,109.375,1.0
1626203003.6596076,-108.887,-41.016000000000005,-29.296999999999997,-167.96900000000002,1.0
1626203003.663514,-144.043,-16.113,-28.809,-194.824,1.0
1626203003.6674201,39.062,-24.901999999999997,-22.949,71.289,1.0
1626203003.6713264,109.375,-31.738000000000003,-20.996,146.484,1.0
1626203003.6752326,-96.191,-36.621,-48.828,-129.88299999999998,1.0
1626203003.679139,-80.566,-33.203,4.395,1.0,1.0
1626203003.683045,-168.457,-47.852,-34.18,1.0,1.0
1626203003.6869516,-1.465,-33.203,-41.016000000000005,1.0,1.0
1626203003.6908574,93.75,-11.719000000000001,-20.996,1.0,1.0
1626203003.6947641,-65.43,-2.93,-32.715,1.0,1.0
1626203003.69867,-188.477,-13.184000000000001,-39.062,1.0,1.0
1626203003.7025762,-41.504,-44.922,-38.086,1.0,1.0
1626203003.706483,146.97299999999998,-27.831999999999997,-22.949,1.0,1.0
1626203003.710389,32.227,-40.527,-23.438000000000002,1.0,1.0
1626203003.714295,-187.988,-66.895,-42.968999999999994,1.0,1.0
1626203003.7182014,-114.258,-36.621,-29.785,1.0,1.0
1626203003.7221074,93.262,-32.715,-26.855,1.0,1.0
1626203003.726014,148.438,-3.418,-23.438000000000002,190.918,1.0
1626203003.7299201,16.602,-23.438000000000002,-34.668,8.789,1.0
1626203003.7338264,-184.082,-41.016000000000005,-47.363,-247.07,1.0
1626203003.7377326,-81.543,-2.93,-21.484,-102.539,1.0
1626203003.741639,131.34799999999998,-5.371,-0.488,174.805,1.0
1626203003.7455451,77.148,-42.968999999999994,-19.043,92.285,1.0
1626203003.7494514,-150.391,-47.852,-52.246,-210.938,1.0
1626203003.7533574,-161.621,-28.809,-51.27,-202.148,1.0
1626203003.757264,69.336,-24.901999999999997,-26.366999999999997,108.398,1.0
1626203003.7611701,142.09,-13.184000000000001,-14.648,176.27,1.0
1626203003.7650764,-66.895,-12.695,-26.855,-110.84,1.0
1626203003.7689826,-188.477,-38.574,-37.598,-240.72299999999998,1.0
1626203003.772889,-166.016,-51.27,-41.504,-213.37900000000002,1.0
1626203003.7767951,17.09,-53.711000000000006,-44.434,48.828,1.0
1626203003.7807014,98.633,-12.695,-38.086,139.648,1.0
1626203003.7846076,-74.219,-1.953,-48.828,-109.863,1.0
1626203003.788514,-185.547,-27.344,-47.363,-239.74599999999998,1.0
1626203003.7924201,-5.371,0.0,-4.395,14.16,1.0
1626203003.7963264,105.469,-22.949,-25.391,158.691,1.0
1626203003.800233,-31.25,-77.148,-43.945,-44.922,1.0
1626203003.804139,-157.715,-59.57,-16.113,-214.355,1.0
1626203003.808045,-57.617,-39.062,-8.301,-53.223,1.0
1626203003.8119516,109.375,-24.414,-24.901999999999997,169.43400000000003,1.0
1626203003.8158574,23.438000000000002,-15.625,-52.733999999999995,42.968999999999994,1.0
1626203003.8197637,42.48,-28.809,-30.273000000000003,17.578,1.0
1626203003.82367,-180.66400000000002,-53.223,-24.901999999999997,-239.25799999999998,1.0
1626203003.8275762,-98.633,-30.273000000000003,-14.648,-99.609,1.0
1626203003.831483,107.91,-32.227,-15.137,167.96900000000002,1.0
1626203003.835389,54.199,-45.41,-11.23,71.777,1.0
1626203003.8392951,-137.207,-24.414,-17.578,-190.43,1.0
1626203003.8432014,-133.30100000000002,-11.719000000000001,-28.32,-153.809,1.0
1626203003.8471074,72.266,-11.23,-25.879,122.07,1.0
1626203003.851014,114.258,-7.324,-29.296999999999997,147.461,1.0
1626203003.8549201,-73.242,-7.812,-29.296999999999997,-120.117,1.0
1626203003.8588262,-164.062,-49.805,-31.25,-212.40200000000002,1.0
1626203003.8627326,11.23,-47.363,-17.578,41.504,1.0
1626203003.866639,61.523,-20.508000000000003,-17.09,97.656,1.0
1626203003.8705451,124.512,-18.555,-15.137,151.855,1.0
1626203003.8744514,-72.75399999999999,-35.156,-49.316,-126.95299999999999,1.0
1626203003.8783576,-152.832,-40.527,-39.551,-213.86700000000002,1.0
1626203003.882264,28.809,-18.066,-12.695,38.574,1.0
1626203003.8861701,139.648,-0.488,-20.508000000000003,173.828,1.0
1626203003.8900764,-27.831999999999997,-15.625,-47.852,-60.059,1.0
1626203003.8939826,-189.94099999999997,-32.227,-46.875,-254.88299999999998,1.0
1626203003.897889,-62.5,-43.945,-27.831999999999997,-58.105,1.0
1626203003.9017951,124.512,-50.781000000000006,-14.648,177.24599999999998,1.0
1626203003.9057016,32.715,-49.316,-16.113,24.901999999999997,1.0
1626203003.9096076,-160.156,-29.296999999999997,-27.344,-226.562,1.0
1626203003.913514,-184.082,-26.855,-41.504,-237.305,1.0
1626203003.9174201,-79.102,-61.523,-36.133,-74.219,1.0
1626203003.9213264,108.887,-47.363,-23.926,167.48,1.0
1626203003.9252326,42.48,-21.973000000000003,-15.625,51.758,1.0
1626203003.929139,-165.03900000000002,-30.761999999999997,-41.992,-222.65599999999998,1.0
1626203003.933045,-139.16,-17.09,-58.105,-158.691,1.0
1626203003.9369516,72.266,-4.883,-39.062,128.418,1.0
1626203003.9408574,98.633,-12.207,-15.137,134.27700000000002,1.0
1626203003.9447641,-108.398,-20.02,-38.086,-150.879,1.0
1626203003.94867,-160.156,-24.901999999999997,-50.781000000000006,-195.801,1.0
1626203003.9525762,42.48,-12.695,-27.344,87.891,1.0
1626203003.956483,115.234,-22.949,-49.316,166.99200000000002,1.0
1626203003.960389,102.539,-17.09,-27.344,151.36700000000002,1.0
1626203003.964295,-116.211,-27.831999999999997,-38.574,-146.97299999999998,1.0
1626203003.9682014,-182.12900000000002,-25.391,-41.504,-214.355,1.0
1626203003.9721074,28.32,-11.719000000000001,-39.062,67.383,1.0
1626203003.976014,128.906,-6.348,-30.761999999999997,184.082,1.0
1626203003.9799201,-46.387,-28.809,-27.344,-64.941,1.0
1626203003.9838264,-182.12900000000002,-45.41,-31.738000000000003,-233.398,1.0
1626203003.9877326,-21.484,-21.973000000000003,-28.809,-6.348,1.0
1626203003.991639,144.531,-9.766,-31.25,208.00799999999998,1.0
1626203003.9955451,22.461,-14.16,-31.738000000000003,29.785,1.0
1626203003.9994514,-158.691,-23.926,-19.043,-208.984,1.0
1626203004.0033574,-101.074,-46.387,-27.831999999999997,-95.70299999999999,1.0
1626203004.007264,-35.156,-34.668,-31.25,-50.781000000000006,1.0
1626203004.0111701,108.887,-44.434,-54.688,145.50799999999998,1.0
1626203004.0150764,-4.883,-42.968999999999994,-61.523,-17.09,1.0
1626203004.0189826,-183.59400000000002,-34.18,-41.992,-251.953,1.0
1626203004.022889,-119.141,-40.039,-35.156,-145.02,1.0
1626203004.0267951,77.637,-26.855,-34.668,121.58200000000001,1.0
1626203004.0307014,48.828,-22.949,-34.18,69.336,1.0
1626203004.0346076,-133.30100000000002,-19.531,-21.484,-188.965,1.0
1626203004.038514,-129.395,-17.578,-13.672,-174.31599999999997,1.0
1626203004.0424201,75.195,-21.973000000000003,-18.066,104.00399999999999,1.0
1626203004.0463264,109.863,-14.648,-24.901999999999997,139.16,1.0
1626203004.050233,-103.027,-30.273000000000003,-33.203,-140.625,1.0
1626203004.054139,-117.676,-41.016000000000005,-20.996,1.0,1.0
1626203004.058045,-177.24599999999998,-60.059,-32.227,1.0,1.0
1626203004.0619516,28.809,-35.156,-34.668,1.0,1.0
1626203004.0658574,115.723,-23.926,-35.156,1.0,1.0
1626203004.0697637,-69.824,-50.293,-30.273000000000003,1.0,1.0
1626203004.07367,-190.918,-63.965,-26.855,1.0,1.0
1626203004.0775762,-36.621,-55.663999999999994,-41.016000000000005,1.0,1.0
1626203004.081483,124.023,-29.296999999999997,-36.621,1.0,1.0
1626203004.085389,-8.789,-16.113,-8.789,1.0,1.0
1626203004.0892951,-189.453,-34.668,-4.395,1.0,1.0
1626203004.0932014,-111.32799999999999,-57.129,-23.438000000000002,1.0,1.0
1626203004.0971074,52.246,-65.918,-31.25,1.0,1.0
1626203004.101014,124.023,-46.387,-5.859,182.12900000000002,1.0
1626203004.1049201,-6.348,-40.039,-26.366999999999997,-13.184000000000001,1.0
1626203004.1088262,-183.105,-9.766,-41.992,-247.55900000000003,1.0
1626203004.1127326,-76.66,-11.719000000000001,-43.945,-100.586,1.0
1626203004.116639,115.723,-38.574,-37.109,151.855,1.0
1626203004.1205451,53.711000000000006,-33.203,-32.715,52.246,1.0
1626203004.1244514,-163.57399999999998,-48.34,-48.828,-231.445,1.0
1626203004.1283576,-143.555,-45.898,-44.922,-180.66400000000002,1.0
1626203004.132264,83.49600000000001,-20.996,-17.09,124.023,1.0
1626203004.1361701,124.023,-8.789,0.0,153.32,1.0
1626203004.1400764,-88.37899999999999,-26.855,-16.113,-141.602,1.0
1626203004.1439826,-174.805,-64.453,-35.645,-230.46900000000002,1.0
1626203004.147889,-155.273,-41.504,-15.137,-182.61700000000002,1.0
1626203004.1517951,63.965,-17.578,-15.625,113.281,1.0
1626203004.1557016,108.398,-10.254000000000001,-31.25,159.668,1.0
1626203004.1596076,-87.402,-17.578,-58.105,-125.488,1.0
1626203004.163514,-159.668,-13.672,-43.457,-216.797,1.0
1626203004.1674201,24.414,-32.227,-19.043,41.504,1.0
1626203004.1713264,97.656,-68.359,-46.875,148.92600000000002,1.0
1626203004.1752326,-50.293,-35.156,-25.391,-69.336,1.0
1626203004.179139,-189.453,-11.23,-12.695,-250.977,1.0
1626203004.183045,-83.49600000000001,-31.25,-40.527,-73.242,1.0
1626203004.1869516,104.98,-29.785,-34.668,169.43400000000003,1.0
1626203004.1908574,5.371,-49.316,-29.785,14.648,1.0
1626203004.1947641,15.625,-20.508000000000003,-7.812,-2.441,1.0
1626203004.19867,-179.688,-43.457,-43.945,-246.09400000000002,1.0
1626203004.2025762,-67.383,-24.901999999999997,-39.062,-75.684,1.0
1626203004.206483,136.719,-0.488,-20.996,182.61700000000002,1.0
1626203004.210389,66.406,-20.996,-36.621,57.617,1.0
1626203004.214295,-142.09,-33.691,-55.176,-212.40200000000002,1.0
1626203004.2182014,-135.254,-28.32,-55.176,-160.645,1.0
1626203004.2221074,83.984,-12.207,-30.761999999999997,129.395,1.0
1626203004.226014,118.164,-6.836,-8.301,147.461,1.0
1626203004.2299201,-81.543,-28.809,-7.324,-135.254,1.0
1626203004.2338264,-151.855,-40.039,-21.973000000000003,-201.66,1.0
1626203004.2377326,30.273000000000003,-40.527,-35.645,64.941,1.0
1626203004.241639,97.656,-17.09,-25.879,134.27700000000002,1.0
1626203004.2455451,100.586,-25.879,-36.133,125.0,1.0
1626203004.2494514,-107.42200000000001,-38.574,-56.641000000000005,-159.18,1.0
1626203004.2533574,-166.50400000000002,-31.25,-53.223,-216.30900000000003,1.0
1626203004.257264,19.531,-19.531,-27.344,48.34,1.0
1626203004.2611701,131.34799999999998,-23.926,-13.184000000000001,175.78099999999998,1.0
1626203004.2650764,-62.988,-65.918,-38.574,-93.75,1.0
1626203004.2689826,-208.00799999999998,-48.828,-42.48,-267.578,1.0
1626203004.272889,-20.02,-10.742,-7.324,-14.16,1.0
1626203004.2767951,138.672,-17.09,-14.16,198.24200000000002,1.0
1626203004.2807014,3.906,-11.23,-45.898,7.324,1.0
1626203004.2846076,-178.71099999999998,-25.879,-45.41,-236.328,1.0
1626203004.288514,-180.176,-50.781000000000006,-18.555,-229.49200000000002,1.0
1626203004.2924201,-56.152,-40.527,-22.949,-40.039,1.0
1626203004.2963264,124.512,-25.391,-19.043,185.547,1.0
1626203004.300233,10.742,-22.949,-40.527,24.414,1.0
1626203004.304139,-183.59400000000002,-35.645,-47.852,-231.93400000000003,1.0
1626203004.308045,-102.539,-41.992,-18.066,-116.699,1.0
1626203004.3119516,104.492,-21.484,-20.02,152.832,1.0
1626203004.3158574,97.656,-0.977,-34.18,112.79299999999999,1.0
1626203004.3197637,-112.305,-14.16,-36.133,-165.52700000000002,1.0
1626203004.32367,-149.90200000000002,-29.296999999999997,-31.738000000000003,-180.66400000000002,1.0
1626203004.3275762,43.945,-31.738000000000003,-32.227,91.79700000000001,1.0
1626203004.331483,92.773,-47.852,-36.133,140.625,1.0
1626203004.335389,86.914,-44.922,-17.09,114.258,1.0
1626203004.3392951,-127.93,-29.296999999999997,-45.898,-178.71099999999998,1.0
1626203004.3432014,-157.227,-15.137,-44.922,-199.707,1.0
1626203004.3471074,49.316,-5.859,-20.996,87.402,1.0
1626203004.351014,120.117,-8.301,-19.531,164.551,1.0
1626203004.3549201,-64.453,-35.156,-30.761999999999997,-92.285,1.0
1626203004.3588262,-199.21900000000002,-96.191,-56.152,-241.699,1.0
1626203004.3627326,-38.086,-90.33200000000001,-51.27,-15.625,1.0
1626203004.366639,120.117,-35.645,-47.363,175.293,1.0
1626203004.3705451,-2.441,-2.93,-34.18,-9.277000000000001,1.0
1626203004.3744514,-174.805,-16.113,-22.461,-229.49200000000002,1.0
1626203004.3783576,-91.79700000000001,-41.504,-26.366999999999997,-86.914,1.0
1626203004.382264,-22.461,-14.648,-30.273000000000003,-13.184000000000001,1.0
1626203004.3861701,136.23,-7.324,-13.672,195.801,1.0
1626203004.3900764,11.23,-23.926,-30.761999999999997,11.719000000000001,1.0
1626203004.3939826,-156.738,-36.621,-28.32,-214.84400000000002,1.0
1626203004.397889,-75.684,-41.504,-18.555,-81.055,1.0
1626203004.4017951,93.262,-49.316,-36.621,153.809,1.0
1626203004.4057016,37.598,-35.156,-51.758,62.012,1.0
1626203004.4096076,-163.086,-22.949,-45.41,-211.426,1.0
1626203004.413514,-167.96900000000002,-49.316,-39.551,-194.824,1.0
1626203004.4174201,53.711000000000006,-32.715,-22.949,98.633,1.0
1626203004.4213264,98.145,-7.324,-29.785,128.906,1.0
1626203004.4252326,-112.305,-24.901999999999997,-41.016000000000005,-156.25,1.0
1626203004.429139,-117.18799999999999,-20.02,-30.273000000000003,1.0,1.0
1626203004.433045,-158.691,-48.34,-36.621,1.0,1.0
1626203004.4369516,37.109,-37.109,-32.715,1.0,1.0
1626203004.4408574,116.211,-4.883,-30.761999999999997,1.0,1.0
1626203004.4447641,-92.285,-42.48,-45.898,1.0,1.0
1626203004.44867,-197.266,-46.875,-41.016000000000005,1.0,1.0
1626203004.4525762,-19.043,-35.156,-32.715,1.0,1.0
1626203004.456483,112.305,-28.809,-32.715,1.0,1.0
1626203004.460389,-25.391,-26.366999999999997,-40.527,1.0,1.0
1626203004.464295,-158.691,-18.555,-37.598,1.0,1.0
1626203004.4682014,-30.273000000000003,-20.02,-24.414,1.0,1.0
1626203004.4721074,110.84,-41.504,-33.691,1.0,1.0
1626203004.476014,129.395,-20.996,-17.578,189.94099999999997,1.0
1626203004.4799201,-19.043,-41.016000000000005,-37.598,-32.227,1.0
1626203004.4838264,-204.59,-54.199,-50.293,-262.207,1.0
1626203004.4877326,-79.59,-33.203,-40.527,-76.172,1.0
1626203004.491639,120.605,-11.23,-31.25,184.57,1.0
1626203004.4955451,52.733999999999995,-16.113,-32.227,72.75399999999999,1.0
1626203004.4994514,-165.03900000000002,-35.156,-44.434,-209.47299999999998,1.0
1626203004.5033574,-129.88299999999998,-33.691,-30.761999999999997,-144.043,1.0
1626203004.507264,76.66,-40.039,-13.184000000000001,142.09,1.0
1626203004.5111701,88.37899999999999,-36.621,-20.508000000000003,137.695,1.0
1626203004.5150764,-106.445,-31.25,-31.738000000000003,-147.94899999999998,1.0
1626203004.5189826,-181.15200000000002,-39.551,-40.527,-222.65599999999998,1.0
1626203004.522889,-144.531,-40.039,-36.621,-176.27,1.0
1626203004.5267951,77.148,-40.527,-41.016000000000005,111.816,1.0
1626203004.5307014,103.516,-36.621,-29.296999999999997,129.88299999999998,1.0
1626203004.5346076,-79.102,-30.761999999999997,-12.207,-129.395,1.0
1626203004.538514,-154.785,-28.809,-27.831999999999997,-211.426,1.0
1626203004.5424201,15.137,-16.602,-36.133,41.992,1.0
1626203004.5463264,93.262,-45.41,-52.733999999999995,148.438,1.0
1626203004.550233,-64.941,-48.34,-48.34,-84.961,1.0
1626203004.554139,-180.66400000000002,-28.809,-25.879,-230.46900000000002,1.0
1626203004.558045,-25.391,-14.16,-12.207,-10.742,1.0
1626203004.5619516,141.602,-9.277000000000001,-13.672,198.73,1.0
1626203004.5658574,15.137,-25.879,-43.457,20.02,1.0
1626203004.5697637,-45.41,-38.574,-17.09,-58.593999999999994,1.0
1626203004.57367,-207.03099999999998,-47.852,-25.879,-262.207,1.0
1626203004.5775762,-81.055,-37.109,-22.461,-66.895,1.0
1626203004.581483,106.934,-24.414,-28.32,166.50400000000002,1.0
1626203004.585389,30.761999999999997,-12.207,-29.296999999999997,29.785,1.0
1626203004.5892951,-164.551,-34.668,-27.344,-225.58599999999998,1.0
1626203004.5932014,-127.441,-60.547,-36.133,-149.90200000000002,1.0
1626203004.5971074,90.33200000000001,-30.761999999999997,-23.438000000000002,136.23,1.0
1626203004.601014,102.539,-7.324,-2.441,122.559,1.0
1626203004.6049201,-111.32799999999999,-21.484,-10.254000000000001,-169.922,1.0
1626203004.6088262,-169.43400000000003,-53.223,-31.738000000000003,-205.078,1.0
1626203004.6127326,23.438000000000002,-57.617,-54.688,74.707,1.0
1626203004.616639,104.492,1.465,-27.831999999999997,151.855,1.0
1626203004.6205451,91.309,-21.973000000000003,-20.508000000000003,120.117,1.0
1626203004.6244514,-122.559,-50.781000000000006,-13.184000000000001,-171.875,1.0
1626203004.6283576,-145.50799999999998,-49.805,-8.301,-187.988,1.0
1626203004.632264,50.781000000000006,-30.761999999999997,-21.973000000000003,85.93799999999999,1.0
1626203004.6361701,104.00399999999999,-39.062,-52.246,146.97299999999998,1.0
1626203004.6400764,-91.79700000000001,-53.711000000000006,-62.5,-123.535,1.0
1626203004.6439826,-193.84799999999998,-26.855,-39.062,-247.55900000000003,1.0
1626203004.647889,-23.438000000000002,-24.901999999999997,-24.414,-8.301,1.0
1626203004.6517951,138.672,-18.555,-18.555,186.523,1.0
1626203004.6557016,15.625,-13.184000000000001,-36.133,-3.906,1.0
1626203004.6596076,-163.086,-27.344,-40.039,-225.58599999999998,1.0
1626203004.663514,-178.22299999999998,-44.434,-11.719000000000001,-227.051,1.0
1626203004.6674201,-21.973000000000003,-46.387,-13.672,-13.184000000000001,1.0
1626203004.6713264,138.184,-13.672,-19.043,191.40599999999998,1.0
1626203004.6752326,24.901999999999997,-13.672,-16.602,22.461,1.0
1626203004.679139,-167.48,-41.504,-21.973000000000003,-219.727,1.0
1626203004.683045,-78.613,-46.875,-8.301,-81.543,1.0
1626203004.6869516,121.094,-48.34,-6.836,179.688,1.0
1626203004.6908574,72.75399999999999,-11.719000000000001,-31.25,87.891,1.0
1626203004.6947641,-147.461,-11.719000000000001,-64.453,-207.52,1.0
1626203004.69867,-162.59799999999998,-38.574,-73.73,-195.312,1.0
1626203004.7025762,66.406,-23.926,-31.25,104.492,1.0
1626203004.706483,124.512,-17.09,-5.371,155.762,1.0
1626203004.710389,83.49600000000001,-27.831999999999997,6.348,114.258,1.0
1626203004.714295,-120.117,-21.484,-17.09,-166.016,1.0
1626203004.7182014,-143.555,-36.133,-29.296999999999997,-169.43400000000003,1.0
1626203004.7221074,57.617,-12.207,-21.973000000000003,100.586,1.0
1626203004.726014,91.309,4.395,-37.598,131.34799999999998,1.0
1626203004.7299201,-110.84,-20.02,-51.27,-146.484,1.0
1626203004.7338264,-206.055,-57.129,-75.684,-258.301,1.0
1626203004.7377326,-20.02,-54.199,-49.805,2.93,1.0
1626203004.741639,119.141,-16.602,-17.09,170.41,1.0
1626203004.7455451,-28.32,-4.883,-34.18,-47.852,1.0
1626203004.7494514,-186.035,-27.344,-27.831999999999997,-239.74599999999998,1.0
1626203004.7533574,-58.593999999999994,-46.387,-9.766,-56.152,1.0
1626203004.757264,5.859,-3.418,-16.602,27.831999999999997,1.0
1626203004.7611701,125.488,-14.648,-23.926,184.082,1.0
1626203004.7650764,-37.109,-27.344,-57.617,-39.551,1.0
1626203004.7689826,-177.734,-6.836,-54.199,-230.46900000000002,1.0
1626203004.772889,-48.34,-7.324,-20.02,-51.758,1.0
1626203004.7767951,125.0,-27.344,-15.137,181.15200000000002,1.0
1626203004.7807014,21.973000000000003,-45.41,-37.109,42.48,1.0
1626203004.7846076,-172.363,-46.875,-33.691,-214.84400000000002,1.0
1626203004.788514,-114.258,-33.203,-13.184000000000001,-123.04700000000001,1.0
1626203004.7924201,103.516,-29.296999999999997,-7.324,164.551,1.0
1626203004.7963264,102.539,-23.438000000000002,-23.438000000000002,140.625,1.0
1626203004.800233,-120.605,-53.223,-30.761999999999997,-152.344,1.0
1626203004.804139,-187.5,-20.996,-46.875,1.0,1.0
1626203004.808045,-188.477,-49.805,-38.086,1.0,1.0
1626203004.8119516,49.316,-38.574,-18.066,1.0,1.0
1626203004.8158574,119.141,-4.883,-3.418,1.0,1.0
1626203004.8197637,-92.773,-23.926,-21.973000000000003,1.0,1.0
1626203004.82367,-164.062,-28.809,-29.296999999999997,1.0,1.0
1626203004.8275762,25.391,-31.25,-21.484,1.0,1.0
1626203004.831483,137.695,-21.973000000000003,-20.996,1.0,1.0
1626203004.835389,-39.551,-29.785,-38.574,1.0,1.0
1626203004.8392951,-193.84799999999998,-41.992,-44.434,1.0,1.0
1626203004.8432014,-57.617,-53.223,-34.18,1.0,1.0
1626203004.8471074,111.816,-64.941,-39.551,1.0,1.0
1626203004.851014,124.512,-16.113,-31.25,178.71099999999998,1.0
1626203004.8549201,-31.738000000000003,-29.785,-36.621,-52.246,1.0
1626203004.8588262,-166.99200000000002,-30.273000000000003,-31.25,-230.46900000000002,1.0
1626203004.8627326,-27.344,-15.625,-19.043,-28.32,1.0
1626203004.866639,135.254,-24.901999999999997,-13.184000000000001,186.523,1.0
1626203004.8705451,27.344,-44.922,-20.996,33.203,1.0
1626203004.8744514,-185.05900000000003,-57.129,-57.129,-226.562,1.0
1626203004.8783576,-109.863,-25.879,-52.733999999999995,-115.234,1.0
1626203004.882264,89.844,-19.531,-14.648,141.602,1.0
1626203004.8861701,64.941,-34.668,-0.977,88.37899999999999,1.0
1626203004.8900764,-140.137,-37.598,-17.09,-189.453,1.0
1626203004.8939826,-203.613,-52.733999999999995,-51.27,-236.328,1.0
1626203004.897889,-103.027,5.371,-5.859,-124.023,1.0
1626203004.9017951,90.82,-22.949,-7.324,146.97299999999998,1.0
1626203004.9057016,62.5,-62.988,-42.968999999999994,105.469,1.0
1626203004.9096076,-141.113,-51.758,-58.593999999999994,-176.75799999999998,1.0
1626203004.913514,-178.22299999999998,-29.785,-40.527,-211.426,1.0
1626203004.9174201,26.855,-8.789,-20.508000000000003,73.242,1.0
1626203004.9213264,91.79700000000001,-25.879,-30.761999999999997,157.227,1.0
1626203004.9252326,-72.266,-38.086,-20.996,-88.867,1.0
1626203004.929139,-178.71099999999998,-24.901999999999997,-32.715,-226.074,1.0
1626203004.933045,-17.578,-14.648,-35.645,9.277000000000001,1.0
1626203004.9369516,118.164,-31.25,-22.461,188.477,1.0
1626203004.9408574,-54.199,-54.688,-37.109,-44.922,1.0
1626203004.9447641,-54.688,-22.461,-32.227,-74.219,1.0
1626203004.94867,-224.609,-55.663999999999994,-41.504,-268.066,1.0
1626203004.9525762,-68.359,-27.344,-27.344,-45.41,1.0
1626203004.956483,113.281,-7.812,1.465,182.61700000000002,1.0
1626203004.960389,-6.836,-35.645,-22.461,7.324,1.0
1626203004.964295,-183.105,-36.621,-37.598,-226.074,1.0
1626203004.9682014,-104.00399999999999,-55.663999999999994,-37.598,-105.95700000000001,1.0
1626203004.9721074,108.398,-70.801,-20.508000000000003,168.945,1.0
1626203004.976014,61.523,-50.781000000000006,-24.414,95.70299999999999,1.0
1626203004.9799201,-149.90200000000002,-6.348,-33.203,-193.359,1.0
1626203004.9838264,-151.36700000000002,-7.324,-36.621,-178.22299999999998,1.0
1626203004.9877326,48.828,-32.715,-59.57,93.75,1.0
1626203004.991639,96.68,-5.371,-1.465,177.24599999999998,1.0
1626203004.9955451,71.777,-29.785,-13.672,121.58200000000001,1.0
1626203004.9994514,-142.578,-31.738000000000003,-31.738000000000003,-172.363,1.0
1626203005.0033574,-148.92600000000002,-4.395,-14.16,-166.016,1.0
1626203005.007264,39.551,-38.086,-25.391,101.56200000000001,1.0
1626203005.0111701,95.70299999999999,-68.848,-34.668,155.762,1.0
1626203005.0150764,-112.305,-72.266,-41.504,-143.066,1.0
1626203005.0189826,-187.012,-25.879,-19.043,-244.141,1.0
1626203005.022889,16.113,0.977,-5.859,24.901999999999997,1.0
1626203005.0267951,132.812,-3.418,-24.901999999999997,170.41,1.0
1626203005.0307014,-23.926,-5.859,-42.968999999999994,-53.711000000000006,1.0
1626203005.0346076,-198.73,-34.668,-52.246,-265.137,1.0
1626203005.038514,-186.523,-33.691,-11.23,-215.332,1.0
1626203005.0424201,-38.574,-47.363,-16.602,11.23,1.0
1626203005.0463264,113.281,-32.715,-14.648,202.148,1.0
1626203005.050233,-23.438000000000002,-46.875,-21.973000000000003,0.977,1.0
1626203005.054139,-219.238,-74.707,-40.039,-242.676,1.0
1626203005.058045,-120.117,-38.574,-23.438000000000002,-85.93799999999999,1.0
1626203005.0619516,51.27,-7.812,-28.809,148.438,1.0
1626203005.0658574,-34.18,-19.531,-55.176,18.555,1.0
1626203005.0697637,-247.07,-43.945,-69.336,-263.184,1.0
1626203005.07367,-202.637,-31.738000000000003,-58.593999999999994,-190.918,1.0
1626203005.0775762,14.16,-26.855,-48.34,98.633,1.0
1626203005.081483,14.16,-43.945,-49.316,80.078,1.0
1626203005.085389,58.593999999999994,-26.366999999999997,-50.293,67.87100000000001,1.0
1626203005.0892951,-163.086,-33.203,-62.012,-224.609,1.0
1626203005.0932014,-144.043,-31.25,-39.551,-178.71099999999998,1.0
1626203005.0971074,93.75,-17.578,-18.555,127.441,1.0
1626203005.101014,126.465,-10.742,-6.348,147.94899999999998,1.0
1626203005.1049201,-74.219,-14.648,-6.348,-126.465,1.0
1626203005.1088262,-164.551,-45.898,-51.758,-228.02700000000002,1.0
1626203005.1127326,20.508000000000003,-39.551,-58.105,26.855,1.0
1626203005.116639,127.93,-13.184000000000001,-27.831999999999997,158.691,1.0
1626203005.1205451,-15.137,-20.02,-20.508000000000003,-65.918,1.0
1626203005.1244514,-158.203,-41.016000000000005,-28.809,-238.77,1.0
1626203005.1283576,-51.758,-45.898,-61.035,-58.593999999999994,1.0
1626203005.132264,16.113,-23.926,-22.461,18.066,1.0
1626203005.1361701,144.531,-1.953,-31.25,160.645,1.0
1626203005.1400764,-16.113,-23.438000000000002,-54.688,-69.336,1.0
1626203005.1439826,-165.52700000000002,-41.504,-55.663999999999994,-249.512,1.0
1626203005.147889,-40.527,-29.785,-39.062,-64.453,1.0
1626203005.1517951,155.762,-12.207,-25.879,175.78099999999998,1.0
1626203005.1557016,58.105,-35.645,-50.781000000000006,24.414,1.0
1626203005.1596076,-129.88299999999998,-28.809,-42.968999999999994,-219.727,1.0
1626203005.163514,-60.059,-26.366999999999997,-15.625,-107.91,1.0
1626203005.1674201,145.50799999999998,-23.438000000000002,-9.766,166.016,1.0
1626203005.1713264,133.30100000000002,-16.602,-13.184000000000001,128.418,1.0
1626203005.1752326,-116.699,-52.733999999999995,-39.062,-187.012,1.0
1626203005.179139,-181.641,-29.785,-30.273000000000003,1.0,1.0
1626203005.183045,-143.555,-24.414,-49.316,1.0,1.0
1626203005.1869516,67.383,-25.391,-47.363,1.0,1.0
1626203005.1908574,92.285,-6.836,-15.137,1.0,1.0
1626203005.1947641,-101.074,-15.625,-12.207,1.0,1.0
1626203005.19867,-139.16,-28.32,-6.348,1.0,1.0
1626203005.2025762,31.738000000000003,-47.852,-33.691,1.0,1.0
1626203005.206483,122.559,-38.574,-38.086,1.0,1.0
1626203005.210389,-44.434,-10.742,-27.344,1.0,1.0
1626203005.214295,-188.477,-2.93,-25.879,1.0,1.0
1626203005.2182014,-55.176,-17.578,-40.039,1.0,1.0
1626203005.2221074,61.523,-60.547,-63.477,1.0,1.0
1626203005.226014,114.258,-26.855,-19.043,168.457,1.0
1626203005.2299201,-53.223,-34.18,-30.761999999999997,-77.148,1.0
1626203005.2338264,-197.266,-38.574,-38.574,-253.90599999999998,1.0
1626203005.2377326,-39.062,-29.785,-33.203,-28.32,1.0
1626203005.241639,119.62899999999999,-30.273000000000003,-27.831999999999997,173.34,1.0
1626203005.2455451,19.043,-28.32,-36.621,14.648,1.0
1626203005.2494514,-151.36700000000002,-13.672,-53.711000000000006,-215.332,1.0
1626203005.2533574,-86.426,-24.414,-32.227,-97.656,1.0
1626203005.257264,96.191,-44.922,-9.277000000000001,153.809,1.0
1626203005.2611701,35.645,-39.551,-14.16,48.34,1.0
1626203005.2650764,-160.156,-35.645,-46.387,-217.285,1.0
1626203005.2689826,-171.875,-50.293,-70.312,-203.125,1.0
1626203005.272889,-116.699,-50.781000000000006,-26.855,-137.207,1.0
1626203005.2767951,92.285,-33.203,-34.18,135.254,1.0
1626203005.2807014,59.57,-18.555,-47.363,77.148,1.0
1626203005.2846076,-135.74200000000002,-7.812,-39.551,-185.547,1.0
1626203005.288514,-146.97299999999998,-15.137,-26.366999999999997,-183.59400000000002,1.0
1626203005.2924201,56.152,-31.25,-27.831999999999997,90.33200000000001,1.0
1626203005.2963264,102.051,-41.016000000000005,-60.547,136.719,1.0
1626203005.300233,-79.59,-39.551,-52.246,-121.094,1.0
1626203005.304139,-169.922,-40.527,-21.973000000000003,-226.074,1.0
1626203005.308045,-6.348,-48.828,-12.695,11.23,1.0
1626203005.3119516,113.281,-37.598,-19.043,165.03900000000002,1.0
1626203005.3158574,-34.18,-44.922,-42.48,-51.27,1.0
1626203005.3197637,-53.223,-32.227,-45.41,-91.79700000000001,1.0
1626203005.32367,-186.035,-33.691,-30.761999999999997,-245.605,1.0
1626203005.3275762,-20.996,-24.901999999999997,-20.02,-13.672,1.0
1626203005.331483,141.602,-13.672,-12.207,186.523,1.0
1626203005.335389,-9.277000000000001,-38.574,-24.414,-24.901999999999997,1.0
1626203005.3392951,-181.15200000000002,-41.504,-34.668,-242.188,1.0
1626203005.3432014,-97.656,-63.477,-52.246,-101.56200000000001,1.0
1626203005.3471074,115.723,-42.968999999999994,-35.645,166.99200000000002,1.0
1626203005.351014,90.33200000000001,-5.859,-26.366999999999997,94.238,1.0
1626203005.3549201,-146.97299999999998,-37.598,-49.316,-209.47299999999998,1.0
1626203005.3588262,-143.555,-46.875,-32.715,-170.41,1.0
1626203005.3627326,77.637,-31.25,-30.273000000000003,120.117,1.0
1626203005.366639,92.773,-36.133,-0.488,155.762,1.0
1626203005.3705451,45.41,-46.387,-13.184000000000001,69.824,1.0
1626203005.3744514,-173.34,-32.227,-37.598,-223.145,1.0
1626203005.3783576,-162.109,-36.133,-34.668,-188.477,1.0
1626203005.382264,70.312,-26.366999999999997,-22.461,115.723,1.0
1626203005.3861701,129.88299999999998,0.488,-24.414,166.50400000000002,1.0
1626203005.3900764,-91.309,-22.461,-58.593999999999994,-138.672,1.0
1626203005.3939826,-168.457,-20.996,-37.598,-220.215,1.0
1626203005.397889,38.574,-8.789,-2.93,63.477,1.0
1626203005.4017951,130.859,-33.203,-12.695,177.24599999999998,1.0
1626203005.4057016,-45.41,-59.082,-32.227,-72.266,1.0
1626203005.4096076,-201.66,-50.293,-43.457,-263.672,1.0
1626203005.413514,-178.22299999999998,-36.621,-35.645,1.0,1.0
1626203005.4174201,8.789,-17.578,-12.695,1.0,1.0
1626203005.4213264,129.88299999999998,-22.461,-16.602,1.0,1.0
1626203005.4252326,-7.812,-14.16,-20.508000000000003,1.0,1.0
1626203005.429139,-150.391,-12.695,-24.414,1.0,1.0
1626203005.433045,-25.879,-12.695,-30.761999999999997,1.0,1.0
1626203005.4369516,116.699,-54.199,-52.733999999999995,1.0,1.0
1626203005.4408574,23.438000000000002,-46.387,-44.434,1.0,1.0
1626203005.4447641,-155.762,-5.371,-31.738000000000003,1.0,1.0
1626203005.44867,-106.445,-16.602,-35.645,1.0,1.0
1626203005.4525762,107.91,-26.855,-37.598,1.0,1.0
1626203005.456483,82.031,-48.828,-51.758,1.0,1.0
1626203005.460389,48.34,-26.366999999999997,-34.18,70.312,1.0
1626203005.464295,-162.59799999999998,-62.5,-48.34,-214.84400000000002,1.0
1626203005.4682014,-131.34799999999998,-58.105,-22.949,-155.273,1.0
1626203005.4721074,100.586,5.859,-6.348,145.02,1.0
1626203005.476014,108.887,2.441,-17.09,144.043,1.0
1626203005.4799201,-113.281,-37.109,-57.129,-148.438,1.0
1626203005.4838264,-183.105,-43.945,-95.70299999999999,-215.332,1.0
1626203005.4877326,39.551,-20.508000000000003,-40.039,86.426,1.0
1626203005.491639,130.859,-9.766,-0.488,198.24200000000002,1.0
1626203005.4955451,-61.035,-25.879,-9.766,-76.172,1.0
1626203005.4994514,-182.61700000000002,-60.547,-18.066,-228.02700000000002,1.0
1626203005.5033574,-44.922,-65.43,-31.25,-16.113,1.0
1626203005.507264,26.855,-13.672,-22.949,67.383,1.0
1626203005.5111701,107.42200000000001,-36.133,-33.203,164.551,1.0
1626203005.5150764,-60.059,-45.41,-34.18,-83.49600000000001,1.0
1626203005.5189826,-180.66400000000002,-22.949,-30.273000000000003,-234.863,1.0
1626203005.522889,-38.086,-17.09,-20.02,-27.831999999999997,1.0
1626203005.5267951,120.117,-25.391,-13.672,172.363,1.0
1626203005.5307014,-13.184000000000001,-70.312,-35.645,-14.16,1.0
1626203005.5346076,-193.84799999999998,-63.965,-37.109,-254.88299999999998,1.0
1626203005.538514,-99.12100000000001,-26.366999999999997,-25.879,-115.723,1.0
1626203005.5424201,97.656,-19.043,-36.133,156.738,1.0
1626203005.5463264,50.293,-20.996,-56.641000000000005,72.266,1.0
1626203005.550233,-171.387,-30.761999999999997,-50.781000000000006,-219.238,1.0
1626203005.554139,-157.227,-31.25,-20.996,-173.34,1.0
1626203005.558045,-127.93,-57.129,-23.438000000000002,119.141,1.0
1626203005.5619516,79.59,-34.18,-13.672,145.02,1.0
1626203005.5658574,84.961,-8.789,-18.066,-125.488,1.0
1626203005.5697637,-145.02,-26.855,-42.968999999999994,-221.19099999999997,1.0
1626203005.57367,-175.293,-35.156,-41.016000000000005,48.828,1.0
1626203005.5775762,28.32,-39.062,-44.922,185.05900000000003,1.0
1626203005.581483,86.426,-45.898,-36.133,-59.082,1.0
1626203005.585389,-95.70299999999999,-46.875,-29.785,-257.324,1.0
1626203005.5892951,-204.59,-47.363,-37.598,-75.195,1.0
1626203005.5932014,-28.32,-27.831999999999997,-35.156,166.50400000000002,1.0
1626203005.5971074,107.42200000000001,-14.648,-30.273000000000003,37.598,1.0
1626203005.601014,130.371,1.465,-14.16,182.61700000000002,1.0
1626203005.6049201,-65.918,-38.086,-34.668,-83.984,1.0
1626203005.6088262,-189.94099999999997,-47.363,-53.711000000000006,-229.49200000000002,1.0
1626203005.6127326,-14.648,-20.996,-31.738000000000003,12.207,1.0
1626203005.616639,130.371,-17.09,-29.296999999999997,198.73,1.0
1626203005.6205451,-16.113,-40.039,-60.547,-11.23,1.0
1626203005.6244514,-216.797,-67.383,-67.87100000000001,-265.625,1.0
1626203005.6283576,-106.934,-51.27,-23.926,-106.445,1.0
1626203005.632264,109.863,-22.949,-3.906,165.03900000000002,1.0
1626203005.6361701,45.898,-23.438000000000002,-25.391,59.57,1.0
1626203005.6400764,-159.18,-40.039,-38.574,-212.40200000000002,1.0
1626203005.6439826,-147.94899999999998,-56.641000000000005,-39.551,-175.78099999999998,1.0
1626203005.647889,-84.961,-30.761999999999997,-38.086,-89.355,1.0
1626203005.6517951,94.238,-38.086,-43.457,155.762,1.0
1626203005.6557016,41.992,-20.508000000000003,-45.898,61.523,1.0
1626203005.6596076,-137.695,-8.789,-37.109,-199.707,1.0
1626203005.663514,-120.605,-8.301,-18.066,-166.50400000000002,1.0
1626203005.6674201,93.75,-2.93,1.465,121.094,1.0
1626203005.6713264,103.516,-17.09,-24.901999999999997,128.418,1.0
1626203005.6752326,-101.56200000000001,-15.137,-50.781000000000006,-158.691,1.0
1626203005.679139,-174.805,-20.996,-38.086,-245.605,1.0
1626203005.683045,11.719000000000001,-19.531,-20.508000000000003,16.113,1.0
1626203005.6869516,129.395,-10.742,-22.949,163.086,1.0
1626203005.6908574,-41.016000000000005,-25.391,-47.852,-74.219,1.0
1626203005.6947641,-103.516,-31.738000000000003,-36.133,-144.043,1.0
1626203005.69867,-199.707,-41.992,-28.809,-250.0,1.0
1626203005.7025762,-25.879,-34.668,-33.691,-3.418,1.0
1626203005.706483,124.023,-24.901999999999997,-24.414,176.27,1.0
1626203005.710389,-22.461,-35.156,-28.809,-41.992,1.0
1626203005.714295,-188.965,-38.086,-37.598,-245.11700000000002,1.0
1626203005.7182014,-91.79700000000001,-77.148,-57.617,-81.055,1.0
1626203005.7221074,102.539,-68.359,-56.641000000000005,160.156,1.0
1626203005.726014,50.781000000000006,-30.273000000000003,-28.809,58.105,1.0
1626203005.7299201,-151.36700000000002,-28.809,-13.672,-200.68400000000003,1.0
1626203005.7338264,-124.023,-33.203,-7.812,-133.30100000000002,1.0
1626203005.7377326,67.87100000000001,-52.733999999999995,-24.901999999999997,135.254,1.0
1626203005.741639,109.863,-39.551,-0.977,178.22299999999998,1.0
1626203005.7455451,35.156,-31.25,-22.461,56.641000000000005,1.0
1626203005.7494514,-170.898,-29.785,-41.992,-224.12099999999998,1.0
1626203005.7533574,-144.043,-20.996,-32.227,-161.13299999999998,1.0
1626203005.757264,76.172,-24.414,-19.043,131.34799999999998,1.0
1626203005.7611701,106.445,-49.316,-16.113,136.23,1.0
1626203005.7650764,-106.445,-68.848,-35.645,-152.832,1.0
1626203005.7689826,-172.363,-36.621,-49.316,-215.82,1.0
1626203005.772889,25.391,-13.672,-33.691,57.617,1.0
1626203005.7767951,123.04700000000001,-16.113,-20.996,166.50400000000002,1.0
1626203005.7807014,-53.711000000000006,-20.508000000000003,-28.809,-87.402,1.0
1626203005.7846076,-198.24200000000002,-42.48,-41.504,-252.44099999999997,1.0
