timestamps,TP9,AF7,AF8,TP10,Right AUX
1626294639.4519792,-11.719000000000001,-20.02,-23.926,1.0,1.0
1626294639.4558854,57.129,-62.012,-35.645,1.0,1.0
1626294639.4597917,-45.898,-61.523,-70.312,1.0,1.0
1626294639.463698,-138.184,-35.645,-69.824,1.0,1.0
1626294639.4676042,-61.523,-21.973000000000003,-44.922,1.0,1.0
1626294639.4715104,34.18,-14.16,-36.621,1.0,1.0
1626294639.475417,-11.23,-11.23,-29.785,1.0,1.0
1626294639.479323,-114.74600000000001,-35.156,-20.996,1.0,1.0
1626294639.483229,-85.93799999999999,-47.363,-33.691,1.0,1.0
1626294639.4871356,38.086,-38.086,-54.688,1.0,1.0
1626294639.4910414,39.062,-25.879,-55.663999999999994,1.0,1.0
1626294639.4949477,-80.078,-52.246,-52.246,1.0,1.0
1626294639.498854,-106.445,-42.968999999999994,-25.879,-200.195,1.0
1626294639.5027602,-86.914,-44.922,-24.414,-118.164,1.0
1626294639.506667,30.761999999999997,-20.02,-27.344,119.62899999999999,1.0
1626294639.510573,34.668,-15.625,-36.621,81.543,1.0
1626294639.5144792,-87.402,-29.296999999999997,-47.852,-173.828,1.0
1626294639.5183854,-111.32799999999999,-32.227,-40.527,-181.15200000000002,1.0
1626294639.5222914,17.09,-22.461,-20.508000000000003,77.148,1.0
1626294639.526198,55.663999999999994,-13.672,-29.296999999999997,129.88299999999998,1.0
1626294639.5301042,-54.199,-23.438000000000002,-43.945,-111.32799999999999,1.0
1626294639.5340102,-115.234,-30.273000000000003,-38.086,-211.426,1.0
1626294639.5379167,-13.184000000000001,-20.996,-20.996,17.09,1.0
1626294639.541823,61.035,-35.156,-30.273000000000003,151.36700000000002,1.0
1626294639.5457292,51.27,-19.531,-40.527,-43.457,1.0
1626294639.5496354,-48.828,-43.945,-39.551,-222.168,1.0
1626294639.5535417,-138.184,-68.359,-41.504,-72.266,1.0
1626294639.557448,-48.828,-39.062,-26.366999999999997,155.762,1.0
1626294639.5613542,49.316,-39.551,-21.973000000000003,44.434,1.0
1626294639.5652604,-6.836,-39.062,-28.809,-192.87099999999998,1.0
1626294639.5691667,-109.863,-40.039,-31.25,-111.32799999999999,1.0
1626294639.573073,-68.359,-50.781000000000006,-20.02,135.74200000000002,1.0
1626294639.5769792,57.129,-17.09,-8.301,112.305,1.0
1626294639.5808856,28.809,-15.625,-32.715,-141.113,1.0
1626294639.5847917,-97.656,-28.809,-52.246,-192.87099999999998,1.0
1626294639.588698,-104.00399999999999,-31.25,-39.551,44.922,1.0
1626294639.5926042,17.578,-30.273000000000003,-22.461,1.0,1.0
1626294639.5965104,40.527,-31.25,-23.438000000000002,1.0,1.0
1626294639.6004167,-66.895,-41.504,-35.156,1.0,1.0
1626294639.604323,-113.281,-53.711000000000006,-46.875,1.0,1.0
1626294639.608229,-8.301,-35.156,-43.945,1.0,1.0
1626294639.6121356,72.75399999999999,-10.742,-27.831999999999997,1.0,1.0
1626294639.6160414,-30.761999999999997,-24.414,-38.574,1.0,1.0
1626294639.6199481,-122.07,-24.901999999999997,-41.504,1.0,1.0
1626294639.623854,-37.598,-9.766,-18.066,1.0,1.0
1626294639.6277602,49.316,-12.695,-21.973000000000003,1.0,1.0
1626294639.631667,-9.277000000000001,-29.785,-39.551,1.0,1.0
1626294639.635573,-110.84,-26.855,-39.062,1.0,1.0
1626294639.639479,-82.031,-23.926,-24.414,-89.844,1.0
1626294639.6433854,37.109,-37.598,-12.207,145.50799999999998,1.0
1626294639.6472914,28.32,-52.246,-20.508000000000003,75.684,1.0
1626294639.651198,-84.473,-65.918,-30.761999999999997,-168.457,1.0
1626294639.6551042,-93.262,-51.758,-32.227,-147.94899999999998,1.0
1626294639.6590104,29.785,-15.625,-31.25,112.305,1.0
1626294639.6629167,52.246,-0.488,-51.27,130.859,1.0
1626294639.666823,-76.66,-24.901999999999997,-63.965,-134.27700000000002,1.0
1626294639.6707292,-132.32399999999998,-39.062,-51.758,-216.30900000000003,1.0
1626294639.6746354,-20.996,-29.785,-43.457,9.766,1.0
1626294639.6785414,66.895,-24.414,-18.066,156.25,1.0
1626294639.682448,-22.461,-37.598,-16.602,-40.039,1.0
1626294639.6863542,-45.41,-20.996,-38.086,-114.74600000000001,1.0
1626294639.6902604,-109.863,-41.992,-21.973000000000003,-204.59,1.0
1626294639.6941667,-21.484,-49.805,-24.414,12.695,1.0
1626294639.698073,75.195,-20.996,-30.273000000000003,160.156,1.0
1626294639.7019792,-11.23,-8.789,-46.387,-35.156,1.0
1626294639.7058854,-121.094,-33.203,-64.453,-218.262,1.0
1626294639.7097917,-28.32,-35.645,-38.086,-18.555,1.0
1626294639.713698,81.543,-25.879,-16.113,195.801,1.0
1626294639.7176042,-4.395,-25.391,-21.973000000000003,28.32,1.0
1626294639.7215104,-129.395,-19.531,-21.484,-204.102,1.0
1626294639.725417,-101.56200000000001,-31.25,-28.809,-134.27700000000002,1.0
1626294639.729323,32.715,-34.18,-15.137,109.375,1.0
1626294639.733229,49.805,-21.484,-12.695,1.0,1.0
1626294639.7371356,-79.102,-30.761999999999997,-57.129,1.0,1.0
1626294639.7410414,-113.77,-28.809,-59.082,1.0,1.0
1626294639.7449477,17.09,-14.648,-21.973000000000003,1.0,1.0
1626294639.748854,102.051,7.324,0.488,1.0,1.0
1626294639.7527602,-37.598,-0.488,-19.043,1.0,1.0
1626294639.756667,-169.43400000000003,-35.156,-25.879,1.0,1.0
1626294639.760573,-79.102,-50.293,0.0,1.0,1.0
1626294639.7644792,19.531,-64.453,-5.859,1.0,1.0
1626294639.7683854,-56.641000000000005,-49.805,-8.301,1.0,1.0
1626294639.7722914,-178.22299999999998,-52.733999999999995,-8.789,1.0,1.0
1626294639.776198,-136.23,-59.57,1.465,1.0,1.0
1626294639.7801042,-31.738000000000003,-37.109,13.184000000000001,1.0,1.0
1626294639.7840102,-62.988,-46.387,17.578,1.0,1.0
1626294639.7879167,-194.33599999999998,-87.891,8.789,1.0,1.0
1626294639.791823,-209.47299999999998,-112.305,4.395,1.0,1.0
1626294639.7957292,-102.051,-122.07,20.996,1.0,1.0
1626294639.7996354,-92.285,-116.211,39.062,1.0,1.0
1626294639.8035417,-179.688,-114.74600000000001,38.086,1.0,1.0
1626294639.807448,-185.547,-111.816,40.039,1.0,1.0
1626294639.8113542,-71.289,-92.285,43.457,1.0,1.0
1626294639.8152604,-35.645,-101.56200000000001,23.926,1.0,1.0
1626294639.8191667,-148.92600000000002,-122.559,-17.09,1.0,1.0
1626294639.823073,-217.285,-126.465,-25.391,1.0,1.0
1626294639.8269792,-134.27700000000002,-117.676,-6.348,-53.711000000000006,1.0
1626294639.8308856,-14.16,-107.42200000000001,22.461,152.832,1.0
1626294639.8347917,-50.781000000000006,-120.605,22.461,4.883,1.0
1626294639.838698,-181.641,-131.836,-18.555,-232.91,1.0
1626294639.8426042,-137.695,-94.238,1.953,-102.051,1.0
1626294639.8465104,2.93,-65.918,26.366999999999997,161.13299999999998,1.0
1626294639.8504167,2.93,-67.87100000000001,10.742,97.656,1.0
1626294639.854323,-122.07,-83.008,-23.926,-169.922,1.0
1626294639.858229,-129.88299999999998,-65.918,-28.809,-144.043,1.0
1626294639.8621356,-10.742,-71.289,-10.254000000000001,112.79299999999999,1.0
1626294639.8660414,25.391,-93.262,-2.93,131.836,1.0
1626294639.8699481,-67.87100000000001,-86.426,-10.742,-109.375,1.0
1626294639.873854,-128.906,-74.707,-14.16,-196.28900000000002,1.0
1626294639.8777602,-29.296999999999997,-56.641000000000005,-10.254000000000001,36.621,1.0
1626294639.881667,46.875,-77.148,-13.184000000000001,167.48,1.0
1626294639.885573,-37.109,-83.49600000000001,-7.324,-47.852,1.0
1626294639.889479,-115.723,-77.148,-9.277000000000001,-196.77700000000002,1.0
1626294639.8933854,-44.922,-62.5,-16.113,-6.348,1.0
1626294639.8972914,56.152,-51.758,-22.461,180.176,1.0
1626294639.901198,6.836,-55.176,-47.852,23.438000000000002,1.0
1626294639.9051042,-105.95700000000001,-44.922,-64.453,-216.30900000000003,1.0
1626294639.9090104,-85.93799999999999,-46.875,-36.133,-115.234,1.0
1626294639.9129167,34.18,-30.273000000000003,-0.488,141.113,1.0
1626294639.916823,28.809,-30.273000000000003,-14.16,80.078,1.0
1626294639.9207292,24.414,-40.039,-30.273000000000003,15.137,1.0
1626294639.9246354,-115.723,-58.593999999999994,-49.316,-235.352,1.0
1626294639.9285414,-101.074,-39.551,-38.574,-144.043,1.0
1626294639.932448,36.621,-5.371,-17.09,130.371,1.0
1626294639.9363542,31.738000000000003,-24.414,-35.156,83.49600000000001,1.0
1626294639.9402604,-85.93799999999999,-27.831999999999997,-39.062,-183.59400000000002,1.0
1626294639.9441667,-120.117,-33.203,-25.879,-213.37900000000002,1.0
1626294639.948073,-16.602,-63.477,-38.574,31.738000000000003,1.0
1626294639.9519792,56.152,-38.574,-41.016000000000005,126.465,1.0
1626294639.9558854,-54.199,-34.668,-56.152,-128.418,1.0
1626294639.9597917,-144.043,-45.898,-58.105,-267.09,1.0
1626294639.963698,-62.988,-53.223,-21.973000000000003,-46.387,1.0
1626294639.9676042,40.527,-40.039,-7.324,1.0,1.0
1626294639.9715104,-7.812,-20.02,-11.23,1.0,1.0
1626294639.975417,-116.211,-12.207,-40.039,1.0,1.0
1626294639.979323,-67.87100000000001,-13.672,-57.129,1.0,1.0
1626294639.983229,53.711000000000006,-29.296999999999997,-33.203,1.0,1.0
1626294639.9871356,21.973000000000003,-21.973000000000003,-34.18,1.0,1.0
1626294639.9910414,-106.934,-23.926,-54.688,1.0,1.0
1626294639.9949477,-91.79700000000001,-18.555,-37.598,1.0,1.0
1626294639.998854,49.805,-15.137,-4.883,1.0,1.0
1626294640.0027602,41.504,-62.012,-39.551,1.0,1.0
1626294640.006667,-94.727,-52.733999999999995,-67.383,1.0,1.0
1626294640.010573,-125.0,-28.809,-34.18,1.0,1.0
1626294640.0144792,-15.137,-24.414,-21.973000000000003,31.25,1.0
1626294640.0183854,58.105,-1.953,-20.02,143.555,1.0
1626294640.0222914,-46.875,-23.438000000000002,-27.831999999999997,-98.145,1.0
1626294640.026198,-135.254,-31.738000000000003,-35.645,-250.0,1.0
1626294640.0301042,-39.551,-13.672,-21.484,-36.133,1.0
1626294640.0340102,70.312,1.465,-20.508000000000003,152.832,1.0
1626294640.0379167,14.648,-19.531,-25.879,-5.371,1.0
1626294640.041823,-101.56200000000001,-60.059,-29.296999999999997,-229.49200000000002,1.0
1626294640.0457292,-56.641000000000005,-50.781000000000006,-22.949,-90.82,1.0
1626294640.0496354,76.66,-6.836,-9.277000000000001,176.75799999999998,1.0
1626294640.0535417,53.711000000000006,19.043,-17.578,81.543,1.0
1626294640.057448,-79.59,-32.715,-33.691,-191.40599999999998,1.0
1626294640.0613542,-120.605,-19.043,-35.645,-236.328,1.0
1626294640.0652604,-94.238,-21.484,-42.968999999999994,-125.977,1.0
1626294640.0691667,19.043,-63.965,-64.453,122.07,1.0
1626294640.073073,41.992,-63.965,-21.484,87.402,1.0
1626294640.0769792,-79.102,-52.733999999999995,-9.277000000000001,-177.734,1.0
1626294640.0808856,-130.859,-55.663999999999994,-30.761999999999997,-200.195,1.0
1626294640.0847917,-5.371,-7.812,-13.184000000000001,73.73,1.0
1626294640.088698,43.945,11.23,-17.578,128.418,1.0
1626294640.0926042,-62.012,-28.32,-43.945,-128.418,1.0
1626294640.0965104,-123.04700000000001,-49.805,-54.688,-226.074,1.0
1626294640.1004167,-26.366999999999997,-35.156,-42.48,15.625,1.0
1626294640.104323,76.66,-0.977,-18.555,184.082,1.0
1626294640.108229,-23.926,-97.16799999999999,-11.719000000000001,113.281,1.0
1626294640.1121356,-128.418,-97.656,-20.508000000000003,-135.74200000000002,1.0
1626294640.1160414,-175.78099999999998,-68.848,-6.836,-240.234,1.0
1626294640.1199481,-103.027,-77.637,-0.977,-30.273000000000003,1.0
1626294640.123854,-0.488,-72.75399999999999,22.461,155.762,1.0
1626294640.1277602,-46.387,-84.961,26.366999999999997,-15.625,1.0
1626294640.131667,-188.965,-119.141,-5.371,-256.836,1.0
1626294640.135573,-143.555,-85.449,-11.23,-107.42200000000001,1.0
1626294640.139479,-17.578,-62.988,0.0,125.0,1.0
1626294640.1433854,-34.668,-67.383,13.184000000000001,24.901999999999997,1.0
1626294640.1472914,-155.762,-88.37899999999999,-6.836,-225.58599999999998,1.0
1626294640.151198,-162.59799999999998,-66.895,-41.016000000000005,-172.852,1.0
1626294640.1551042,-23.926,-39.551,-16.113,1.0,1.0
1626294640.1590104,0.977,-74.219,-0.977,1.0,1.0
1626294640.1629167,-113.281,-70.801,-16.602,1.0,1.0
1626294640.166823,-140.625,-69.336,-14.16,1.0,1.0
1626294640.1707292,0.977,-39.551,16.113,1.0,1.0
1626294640.1746354,67.383,-43.457,20.996,1.0,1.0
1626294640.1785414,-59.57,-79.59,-8.301,1.0,1.0
1626294640.182448,-164.551,-60.547,-30.761999999999997,1.0,1.0
1626294640.1863542,-92.773,-52.246,-32.227,1.0,1.0
1626294640.1902604,36.621,-27.344,-13.184000000000001,1.0,1.0
1626294640.1941667,-1.953,-40.039,-15.137,1.0,1.0
1626294640.198073,-120.117,-59.57,-36.621,1.0,1.0
1626294640.2019792,-80.078,-52.733999999999995,-29.296999999999997,-66.406,1.0
1626294640.2058854,43.945,-41.992,-4.883,183.59400000000002,1.0
1626294640.2097917,34.668,-17.09,-7.324,102.539,1.0
1626294640.213698,-82.52,-60.059,-11.23,-162.109,1.0
1626294640.2176042,-106.934,-89.355,0.488,-141.602,1.0
1626294640.2215104,13.184000000000001,-35.645,-8.301,129.88299999999998,1.0
1626294640.225417,98.145,22.461,-11.719000000000001,195.312,1.0
1626294640.229323,-11.719000000000001,-8.789,-8.301,-63.477,1.0
1626294640.233229,-136.23,-71.777,-36.133,-204.102,1.0
1626294640.2371356,-38.574,-59.082,-35.645,36.621,1.0
1626294640.2410414,54.688,-49.316,-28.809,170.898,1.0
1626294640.2449477,-6.348,-0.488,-9.277000000000001,-37.598,1.0
1626294640.248854,-51.27,-91.309,-28.32,-117.676,1.0
1626294640.2527602,-122.559,-63.965,-30.761999999999997,-214.355,1.0
1626294640.256667,-17.578,-23.438000000000002,-17.578,37.598,1.0
1626294640.260573,74.219,-32.715,-13.184000000000001,189.453,1.0
1626294640.2644792,-7.324,-21.484,-31.25,-22.949,1.0
1626294640.2683854,-116.699,-19.043,-48.34,-216.30900000000003,1.0
1626294640.2722914,-48.828,3.906,-27.831999999999997,-41.992,1.0
1626294640.276198,70.312,29.296999999999997,6.836,187.012,1.0
1626294640.2801042,12.207,-34.18,-11.719000000000001,38.574,1.0
1626294640.2840102,-103.027,-54.199,-18.066,-210.938,1.0
1626294640.2879167,-86.914,-52.246,-33.691,-134.766,1.0
1626294640.291823,45.41,-36.133,-33.203,133.789,1.0
1626294640.2957292,50.781000000000006,-38.574,-32.227,1.0,1.0
1626294640.2996354,-96.191,-66.406,-47.363,1.0,1.0
1626294640.3035417,-136.719,-44.434,-53.711000000000006,1.0,1.0
1626294640.307448,-18.555,-32.715,-56.641000000000005,1.0,1.0
1626294640.3113542,53.711000000000006,-15.137,-34.668,1.0,1.0
1626294640.3152604,-42.968999999999994,-24.414,-23.926,1.0,1.0
1626294640.3191667,-134.27700000000002,-77.148,-30.273000000000003,1.0,1.0
1626294640.323073,-38.086,-56.152,-6.836,1.0,1.0
1626294640.3269792,70.312,-21.484,11.719000000000001,1.0,1.0
1626294640.3308856,-3.418,-23.438000000000002,-5.859,1.0,1.0
1626294640.3347917,-116.699,-30.761999999999997,-28.32,1.0,1.0
1626294640.338698,-61.035,-48.828,-26.366999999999997,1.0,1.0
1626294640.3426042,52.733999999999995,-38.086,-26.855,1.0,1.0
1626294640.3465104,14.16,-18.555,-43.945,1.0,1.0
1626294640.3504167,-88.867,1.953,-39.062,1.0,1.0
1626294640.354323,-83.984,-16.113,-27.344,1.0,1.0
1626294640.358229,38.574,-53.711000000000006,-20.508000000000003,1.0,1.0
1626294640.3621356,62.988,-70.801,-34.668,1.0,1.0
1626294640.3660414,-69.824,-39.062,-34.668,1.0,1.0
1626294640.3699481,-124.512,-6.836,-26.855,1.0,1.0
1626294640.373854,-28.809,-26.366999999999997,-28.809,1.0,1.0
1626294640.3777602,47.852,-42.968999999999994,-19.043,1.0,1.0
1626294640.381667,-28.32,-57.129,-49.316,1.0,1.0
1626294640.385573,-78.125,1.953,-21.484,1.0,1.0
1626294640.389479,-3.418,22.949,9.766,1.0,1.0
1626294640.3933854,58.105,-39.062,-20.996,1.0,1.0
1626294640.3972914,-8.789,-60.059,-27.344,1.0,1.0
1626294640.401198,-119.62899999999999,-69.824,-28.809,1.0,1.0
1626294640.4051042,-69.336,-38.574,-11.719000000000001,1.0,1.0
1626294640.4090104,53.223,-24.901999999999997,-8.301,1.0,1.0
1626294640.4129167,44.922,-29.785,-26.855,1.0,1.0
1626294640.416823,-90.82,-37.109,-53.223,1.0,1.0
1626294640.4207292,-121.094,-54.688,-61.523,1.0,1.0
1626294640.4246354,18.066,-25.879,-28.809,1.0,1.0
1626294640.4285414,65.918,2.441,-30.273000000000003,1.0,1.0
1626294640.432448,-50.293,-18.555,-60.059,1.0,1.0
1626294640.4363542,-98.633,-49.805,-27.831999999999997,-195.801,1.0
1626294640.4402604,14.648,-41.016000000000005,15.137,68.848,1.0
1626294640.4441667,86.426,-11.23,5.859,192.87099999999998,1.0
1626294640.448073,-26.855,-31.25,-28.32,-63.477,1.0
1626294640.4519792,-120.117,-51.27,-33.203,-234.863,1.0
1626294640.4558854,-52.733999999999995,-53.223,-34.668,-43.945,1.0
1626294640.4597917,47.852,-18.555,-40.039,150.879,1.0
1626294640.463698,10.254000000000001,-0.488,-46.875,3.418,1.0
1626294640.4676042,-119.62899999999999,-33.203,-59.57,-237.793,1.0
1626294640.4715104,-83.49600000000001,-32.227,-39.551,-112.305,1.0
1626294640.475417,58.105,-29.296999999999997,-32.227,158.203,1.0
1626294640.479323,61.523,-25.391,-31.25,97.656,1.0
1626294640.483229,10.254000000000001,-70.312,-40.527,27.344,1.0
1626294640.4871356,-106.445,-64.453,-51.27,-222.65599999999998,1.0
1626294640.4910414,-72.266,-24.414,-20.02,-116.211,1.0
1626294640.4949477,37.598,-33.691,-16.602,143.066,1.0
1626294640.498854,57.617,-37.598,-16.113,116.211,1.0
1626294640.5027602,-43.945,-31.738000000000003,-10.254000000000001,-127.93,1.0
1626294640.506667,-103.027,-26.366999999999997,-34.18,-173.828,1.0
1626294640.510573,14.648,-2.441,-38.086,85.449,1.0
1626294640.5144792,65.918,-21.973000000000003,-33.203,152.832,1.0
1626294640.5183854,-48.34,-56.152,-48.34,-106.934,1.0
1626294640.5222914,-108.398,-63.965,-41.504,-206.055,1.0
1626294640.526198,-12.207,-26.366999999999997,-24.901999999999997,29.296999999999997,1.0
1626294640.5301042,66.406,-3.418,-28.809,1.0,1.0
1626294640.5340102,-8.789,-10.742,-29.296999999999997,1.0,1.0
1626294640.5379167,-117.676,-28.809,-28.32,1.0,1.0
1626294640.541823,-67.87100000000001,-39.062,-26.855,1.0,1.0
1626294640.5457292,50.293,-5.859,-25.391,1.0,1.0
1626294640.5496354,25.879,-1.465,-32.715,1.0,1.0
1626294640.5535417,-73.242,-33.691,-26.855,1.0,1.0
1626294640.557448,-62.988,-62.988,-28.32,1.0,1.0
1626294640.5613542,39.551,-68.848,-30.761999999999997,1.0,1.0
1626294640.5652604,64.453,-16.113,-12.695,1.0,1.0
1626294640.5691667,-62.012,-20.02,-19.531,1.0,1.0
1626294640.573073,-124.512,-45.898,-43.945,1.0,1.0
1626294640.5769792,-0.488,-12.207,-23.438000000000002,59.082,1.0
1626294640.5808856,70.312,5.859,-2.441,170.41,1.0
1626294640.5847917,-36.621,-4.395,-22.461,-83.984,1.0
1626294640.588698,-145.996,-30.761999999999997,-42.48,-252.44099999999997,1.0
1626294640.5926042,-54.199,-30.761999999999997,-33.691,-16.602,1.0
1626294640.5965104,73.73,-43.945,-8.789,200.195,1.0
1626294640.6004167,10.254000000000001,-26.366999999999997,-14.16,15.137,1.0
1626294640.604323,-108.887,5.859,-34.18,-223.63299999999998,1.0
1626294640.608229,-63.477,-36.621,-25.391,-85.449,1.0
1626294640.6121356,56.152,-54.199,-7.812,155.273,1.0
1626294640.6160414,27.831999999999997,-36.621,-25.391,56.152,1.0
1626294640.6199481,-91.79700000000001,-22.949,-42.48,-203.125,1.0
1626294640.623854,-119.141,-56.152,-35.645,-233.398,1.0
1626294640.6277602,-82.031,-67.87100000000001,-7.812,-108.887,1.0
1626294640.631667,48.828,-17.578,-1.953,151.855,1.0
1626294640.635573,27.344,1.465,-39.551,73.73,1.0
1626294640.639479,-108.887,-41.504,-62.988,-210.449,1.0
1626294640.6433854,-135.74200000000002,-64.453,-41.992,-199.21900000000002,1.0
1626294640.6472914,0.0,-44.434,-17.578,97.16799999999999,1.0
1626294640.651198,76.172,-20.02,2.93,156.25,1.0
1626294640.6551042,-38.574,-23.438000000000002,-21.973000000000003,-116.211,1.0
1626294640.6590104,-102.051,-29.296999999999997,-29.296999999999997,-197.266,1.0
1626294640.6629167,-15.625,-33.691,-18.555,41.504,1.0
1626294640.666823,73.73,-16.113,-16.602,187.012,1.0
1626294640.6707292,72.266,-13.672,-39.062,-23.438000000000002,1.0
1626294640.6746354,-37.109,-42.48,-44.434,-221.68,1.0
1626294640.6785414,-100.098,-44.922,-14.16,-49.316,1.0
1626294640.682448,-14.16,-28.32,-11.719000000000001,170.41,1.0
1626294640.6863542,71.289,-14.648,-31.25,47.852,1.0
1626294640.6902604,14.16,-34.668,-30.273000000000003,-185.05900000000003,1.0
1626294640.6941667,-80.078,-39.551,-22.949,-109.375,1.0
1626294640.698073,-44.922,0.977,-23.438000000000002,151.855,1.0
1626294640.7019792,61.523,-11.719000000000001,-18.066,145.996,1.0
1626294640.7058854,31.738000000000003,-25.391,-35.156,-125.977,1.0
1626294640.7097917,-104.492,-40.039,-70.801,-165.52700000000002,1.0
1626294640.713698,-96.191,-47.363,-46.387,85.93799999999999,1.0
1626294640.7176042,38.086,-16.113,-20.508000000000003,1.0,1.0
1626294640.7215104,54.199,-30.273000000000003,-39.551,1.0,1.0
1626294640.725417,-71.289,-56.641000000000005,-43.945,1.0,1.0
1626294640.729323,-119.141,-47.852,-43.457,1.0,1.0
1626294640.733229,-11.23,-18.555,-28.32,1.0,1.0
1626294640.7371356,50.781000000000006,-2.93,-26.366999999999997,1.0,1.0
1626294640.7410414,-42.968999999999994,-23.926,-36.621,1.0,1.0
1626294640.7449477,-115.234,-39.062,-25.879,1.0,1.0
1626294640.748854,-26.855,-34.668,2.441,1.0,1.0
1626294640.7527602,55.663999999999994,-67.87100000000001,-5.859,1.0,1.0
1626294640.756667,-7.324,-55.176,-28.809,1.0,1.0
1626294640.760573,-116.699,-23.438000000000002,-42.48,1.0,1.0
1626294640.7644792,-68.848,-22.949,-44.434,-81.055,1.0
1626294640.7683854,73.73,-21.484,-23.926,172.852,1.0
1626294640.7722914,62.988,-29.785,-32.227,107.42200000000001,1.0
1626294640.776198,-61.035,-31.25,-26.366999999999997,-155.762,1.0
1626294640.7801042,-83.984,-24.901999999999997,-7.324,-142.578,1.0
1626294640.7840102,37.598,-12.695,12.695,140.137,1.0
1626294640.7879167,81.055,-18.555,3.418,157.715,1.0
1626294640.791823,-49.805,-29.785,-43.457,-133.789,1.0
1626294640.7957292,-111.816,-11.719000000000001,-38.086,-199.707,1.0
1626294640.7996354,-4.395,-12.695,-20.508000000000003,45.41,1.0
1626294640.8035417,34.18,-24.414,-50.293,130.371,1.0
1626294640.807448,-59.57,-22.949,-64.453,-82.52,1.0
1626294640.8113542,-44.434,-35.645,-35.156,-119.141,1.0
1626294640.8152604,-112.305,-38.574,-41.016000000000005,-221.19099999999997,1.0
1626294640.8191667,-4.883,-19.043,-21.973000000000003,27.344,1.0
1626294640.823073,88.867,-11.719000000000001,-9.277000000000001,183.59400000000002,1.0
1626294640.8269792,8.789,-24.901999999999997,-21.484,-41.016000000000005,1.0
1626294640.8308856,-112.79299999999999,-42.968999999999994,-35.645,-232.91,1.0
1626294640.8347917,-62.988,-51.27,-36.621,-48.828,1.0
1626294640.838698,59.57,-14.648,-39.551,177.24599999999998,1.0
1626294640.8426042,13.184000000000001,-11.23,-51.758,24.901999999999997,1.0
1626294640.8465104,-128.906,-45.41,-54.199,-245.605,1.0
1626294640.8504167,-109.863,-30.273000000000003,-28.32,-132.812,1.0
1626294640.854323,12.695,-16.602,-25.879,127.93,1.0
1626294640.858229,30.273000000000003,-33.691,-27.344,1.0,1.0
1626294640.8621356,-83.49600000000001,-55.663999999999994,-24.901999999999997,1.0,1.0
1626294640.8660414,-130.371,-56.152,-19.043,1.0,1.0
1626294640.8699481,-13.672,-31.738000000000003,-4.395,1.0,1.0
1626294640.873854,35.645,-27.344,-27.344,1.0,1.0
1626294640.8777602,-74.707,-36.621,-41.992,1.0,1.0
1626294640.881667,-146.484,-28.809,-34.18,1.0,1.0
1626294640.885573,-59.082,-5.371,-28.809,1.0,1.0
1626294640.889479,46.387,-3.418,-22.461,1.0,1.0
1626294640.8933854,2.441,4.395,-13.184000000000001,1.0,1.0
1626294640.8972914,-124.512,-34.18,-40.527,1.0,1.0
1626294640.901198,-100.586,-66.895,-42.48,1.0,1.0
1626294640.9051042,23.438000000000002,-51.27,-4.883,166.99200000000002,1.0
1626294640.9090104,-1.953,-57.617,-24.414,43.945,1.0
1626294640.9129167,-115.234,-31.25,-39.551,-209.47299999999998,1.0
1626294640.916823,-87.891,-16.602,-13.184000000000001,-136.719,1.0
1626294640.9207292,21.484,-21.973000000000003,-5.859,130.859,1.0
1626294640.9246354,19.043,-11.719000000000001,-29.296999999999997,100.586,1.0
1626294640.9285414,-82.031,-4.883,-36.133,-161.13299999999998,1.0
1626294640.932448,-99.609,10.254000000000001,-17.09,-176.27,1.0
1626294640.9363542,7.812,-13.184000000000001,-20.02,79.102,1.0
1626294640.9402604,63.477,-38.574,-32.227,157.715,1.0
1626294640.9441667,-37.598,-37.109,-46.875,-88.867,1.0
1626294640.948073,-118.652,-47.852,-46.875,-223.145,1.0
1626294640.9519792,-34.18,-57.129,-41.992,1.0,1.0
1626294640.9558854,79.59,-29.785,-28.809,1.0,1.0
1626294640.9597917,14.16,-25.391,-20.996,1.0,1.0
1626294640.963698,-129.88299999999998,-42.968999999999994,-39.062,1.0,1.0
1626294640.9676042,-74.219,-2.441,-17.578,1.0,1.0
1626294640.9715104,58.105,18.066,-2.441,1.0,1.0
1626294640.975417,29.785,-14.648,-20.02,1.0,1.0
1626294640.979323,-98.145,-31.738000000000003,-32.715,1.0,1.0
1626294640.983229,-111.816,-40.527,-40.039,1.0,1.0
1626294640.9871356,23.438000000000002,-28.32,-30.761999999999997,1.0,1.0
1626294640.9910414,63.477,-35.645,-41.992,1.0,1.0
1626294640.9949477,-44.434,-73.73,-54.688,1.0,1.0
1626294640.998854,-78.125,-67.87100000000001,-45.898,-194.824,1.0
1626294641.0027602,45.41,-13.672,-31.738000000000003,76.172,1.0
1626294641.006667,81.055,3.906,-39.551,153.809,1.0
1626294641.010573,-35.156,-5.371,-54.199,-108.398,1.0
1626294641.0144792,-112.79299999999999,-26.366999999999997,-51.758,-261.719,1.0
1626294641.0183854,-51.27,-20.996,-44.922,-45.41,1.0
1626294641.0222914,53.223,-20.508000000000003,-29.785,160.645,1.0
1626294641.026198,24.414,-29.785,-32.227,6.836,1.0
1626294641.0301042,-86.914,-9.766,-58.593999999999994,-224.609,1.0
1626294641.0340102,-62.988,-19.531,-38.574,-100.098,1.0
1626294641.0379167,44.434,-34.668,-17.09,144.043,1.0
1626294641.041823,64.941,-39.062,-2.93,89.844,1.0
1626294641.0457292,32.715,-57.617,-22.461,-155.273,1.0
1626294641.0496354,-69.336,-58.105,-35.645,-172.363,1.0
1626294641.0535417,-71.777,-21.484,-43.457,79.102,1.0
1626294641.057448,51.758,21.484,-20.02,118.164,1.0
1626294641.0613542,51.27,-24.414,-38.574,-123.04700000000001,1.0
1626294641.0652604,-78.125,-46.875,-61.523,-208.49599999999998,1.0
1626294641.0691667,-118.652,-15.625,-41.016000000000005,37.109,1.0
1626294641.073073,-4.395,-26.855,-24.901999999999997,196.28900000000002,1.0
1626294641.0769792,83.008,-16.602,0.488,-48.828,1.0
1626294641.0808856,-22.949,-14.16,-13.184000000000001,-213.37900000000002,1.0
1626294641.0847917,-105.95700000000001,-39.551,-25.391,-5.371,1.0
1626294641.088698,-40.039,-36.133,-41.992,168.945,1.0
1626294641.0926042,42.48,-25.391,-49.316,146.97299999999998,1.0
1626294641.0965104,-8.301,-27.831999999999997,-29.296999999999997,-41.992,1.0
1626294641.1004167,-108.398,-25.391,-19.043,-230.46900000000002,1.0
1626294641.104323,-74.219,-27.831999999999997,-19.531,-67.87100000000001,1.0
1626294641.108229,31.25,-14.16,-27.344,151.855,1.0
1626294641.1121356,-8.301,-32.227,-42.968999999999994,31.738000000000003,1.0
1626294641.1160414,-120.117,-67.383,-58.105,-224.12099999999998,1.0
1626294641.1199481,-108.887,-61.035,-38.086,-118.652,1.0
1626294641.123854,22.949,-17.578,-25.879,179.199,1.0
1626294641.1277602,42.48,-13.672,-56.152,128.418,1.0
1626294641.131667,-103.516,-46.875,-70.801,-178.71099999999998,1.0
1626294641.135573,-140.137,-48.828,-49.316,-217.285,1.0
1626294641.139479,-14.648,-26.366999999999997,-27.344,58.105,1.0
1626294641.1433854,44.922,-28.809,-14.16,171.875,1.0
1626294641.1472914,-49.316,-55.176,-26.366999999999997,-74.219,1.0
1626294641.151198,-130.371,-63.965,-44.922,-234.863,1.0
1626294641.1551042,-47.852,-25.879,-35.156,-32.227,1.0
1626294641.1590104,35.156,-8.789,-25.879,150.391,1.0
1626294641.1629167,-14.648,-17.09,-36.133,-41.504,1.0
1626294641.166823,-115.234,-26.855,-40.039,-276.855,1.0
1626294641.1707292,-84.961,-52.246,-28.32,-116.699,1.0
1626294641.1746354,35.156,-38.574,-21.973000000000003,179.688,1.0
1626294641.1785414,24.414,-24.414,-37.109,83.49600000000001,1.0
1626294641.182448,-86.914,-40.039,-28.809,-190.43,1.0
1626294641.1863542,-124.023,-27.344,-38.086,-240.72299999999998,1.0
1626294641.1902604,-83.49600000000001,-31.25,-18.555,-104.98,1.0
1626294641.1941667,40.039,-24.414,-9.277000000000001,136.719,1.0
1626294641.198073,33.203,-18.066,-23.926,53.223,1.0
1626294641.2019792,-86.914,-48.34,-25.879,-211.426,1.0
1626294641.2058854,-98.145,-51.758,-29.785,-178.22299999999998,1.0
1626294641.2097917,26.366999999999997,-5.371,-23.926,109.863,1.0
1626294641.213698,51.27,-0.488,-28.809,127.93,1.0
1626294641.2176042,-70.312,-16.113,-48.34,-167.96900000000002,1.0
1626294641.2215104,-113.281,-4.395,-33.691,-233.887,1.0
1626294641.225417,9.277000000000001,-9.277000000000001,-18.555,33.203,1.0
1626294641.229323,84.961,-18.555,-16.602,157.715,1.0
1626294641.233229,57.129,-28.809,-15.137,-75.684,1.0
1626294641.2371356,-38.086,-29.296999999999997,-29.785,-246.582,1.0
1626294641.2410414,-114.258,-37.109,-59.082,-37.109,1.0
1626294641.2449477,-9.766,-3.906,-51.758,185.547,1.0
1626294641.248854,88.867,17.09,-34.668,20.508000000000003,1.0
1626294641.2527602,1.953,-40.527,-44.922,-193.359,1.0
1626294641.256667,-127.93,-79.59,-43.945,-65.918,1.0
1626294641.260573,-84.961,-57.129,-25.391,154.297,1.0
1626294641.2644792,61.523,-2.441,8.301,104.492,1.0
1626294641.2683854,25.879,9.766,1.465,-199.707,1.0
1626294641.2722914,-117.676,-27.344,-39.062,-231.445,1.0
1626294641.276198,-102.051,-61.035,-42.968999999999994,62.5,1.0
1626294641.2801042,45.898,-44.922,-18.555,1.0,1.0
1626294641.2840102,63.477,-26.855,-17.09,1.0,1.0
1626294641.2879167,-67.383,-35.156,-35.645,1.0,1.0
1626294641.291823,-93.262,-28.32,-35.156,1.0,1.0
1626294641.2957292,29.296999999999997,2.93,-33.203,1.0,1.0
1626294641.2996354,88.867,-5.371,-23.438000000000002,1.0,1.0
1626294641.3035417,-25.391,-38.086,-24.414,1.0,1.0
1626294641.307448,-80.078,-49.805,-32.227,1.0,1.0
1626294641.3113542,41.504,-38.574,-25.879,1.0,1.0
1626294641.3152604,55.176,-19.043,-37.109,1.0,1.0
1626294641.3191667,-72.266,-31.738000000000003,-43.945,1.0,1.0
1626294641.323073,-111.32799999999999,-29.296999999999997,-43.457,1.0,1.0
1626294641.3269792,8.789,-18.555,-40.527,95.70299999999999,1.0
1626294641.3308856,86.914,-4.883,-32.715,189.94099999999997,1.0
1626294641.3347917,-3.418,-12.695,-22.461,-64.453,1.0
1626294641.338698,-95.70299999999999,-44.434,-20.02,-219.238,1.0
1626294641.3426042,-12.695,-44.922,-13.184000000000001,0.977,1.0
1626294641.3465104,75.195,-23.926,-16.602,185.05900000000003,1.0
1626294641.3504167,-4.883,-35.645,-40.039,-20.508000000000003,1.0
1626294641.354323,-91.79700000000001,-57.129,-43.945,-234.375,1.0
1626294641.358229,-36.621,-40.527,-34.18,-67.87100000000001,1.0
1626294641.3621356,60.059,-13.184000000000001,-16.602,167.96900000000002,1.0
1626294641.3660414,23.438000000000002,-15.137,-33.203,48.828,1.0
1626294641.3699481,-114.258,-60.059,-59.57,-229.98,1.0
1626294641.373854,-12.207,-19.531,-20.508000000000003,-244.141,1.0
1626294641.3777602,-133.30100000000002,-17.578,-30.273000000000003,-140.625,1.0
1626294641.381667,-100.586,-31.738000000000003,-32.227,139.16,1.0
1626294641.385573,20.508000000000003,-13.672,-20.02,97.656,1.0
1626294641.389479,-7.812,-24.414,-39.062,-194.33599999999998,1.0
1626294641.3933854,-140.625,-54.688,-48.34,-177.24599999999998,1.0
1626294641.3972914,-122.07,-64.941,-41.016000000000005,115.723,1.0
1626294641.401198,13.672,-57.617,-30.761999999999997,152.832,1.0
1626294641.4051042,25.391,-40.039,-17.578,-130.859,1.0
1626294641.4090104,-73.73,-32.227,-21.973000000000003,-235.84,1.0
1626294641.4129167,-89.844,-13.672,-32.227,12.207,1.0
1626294641.416823,7.812,9.277000000000001,-44.434,157.227,1.0
1626294641.4207292,29.296999999999997,-22.461,-54.688,126.95299999999999,1.0
1626294641.4246354,-92.285,-70.801,-60.059,-159.668,1.0
1626294641.4285414,-160.156,-49.805,-40.039,-262.207,1.0
1626294641.432448,-44.434,-7.324,-2.441,9.766,1.0
1626294641.4363542,57.129,-20.996,6.348,162.59799999999998,1.0
1626294641.4402604,-9.277000000000001,-37.109,-11.23,-25.879,1.0
1626294641.4441667,-134.27700000000002,-28.809,-40.039,-231.93400000000003,1.0
1626294641.448073,-79.59,-22.461,-23.438000000000002,-70.312,1.0
1626294641.4519792,61.035,-20.996,-7.812,180.66400000000002,1.0
1626294641.4558854,26.366999999999997,-29.785,-33.203,44.434,1.0
1626294641.4597917,-107.42200000000001,-36.621,-49.316,-222.65599999999998,1.0
1626294641.463698,-104.98,-25.391,-43.945,-143.555,1.0
1626294641.4676042,26.855,-32.715,-27.344,1.0,1.0
1626294641.4715104,51.27,-46.875,-32.715,1.0,1.0
1626294641.475417,-77.148,-42.48,-54.199,1.0,1.0
1626294641.479323,-120.117,-14.16,-51.758,1.0,1.0
1626294641.483229,6.836,7.324,-34.668,1.0,1.0
1626294641.4871356,59.57,-21.973000000000003,-35.645,1.0,1.0
1626294641.4910414,-42.48,-55.663999999999994,-28.809,1.0,1.0
1626294641.4949477,-106.445,-43.945,-11.719000000000001,1.0,1.0
1626294641.498854,-24.901999999999997,-33.691,-7.324,1.0,1.0
1626294641.5027602,60.059,-41.016000000000005,-18.066,1.0,1.0
1626294641.506667,12.695,-31.738000000000003,-35.156,1.0,1.0
1626294641.510573,-90.33200000000001,-44.922,-40.527,1.0,1.0
1626294641.5144792,-52.733999999999995,-37.109,-14.16,-74.219,1.0
1626294641.5183854,48.34,-40.039,-6.348,156.738,1.0
1626294641.5222914,13.184000000000001,-55.663999999999994,-42.48,40.039,1.0
1626294641.526198,-92.285,-15.137,-61.523,-209.96099999999998,1.0
1626294641.5301042,-83.984,7.812,-44.922,-150.879,1.0
1626294641.5340102,27.831999999999997,-6.348,-37.109,114.258,1.0
1626294641.5379167,47.852,-34.668,-36.133,107.42200000000001,1.0
1626294641.541823,-58.105,-44.434,-28.32,-153.809,1.0
1626294641.5457292,-101.56200000000001,-41.016000000000005,-23.926,-201.172,1.0
1626294641.5496354,20.996,-17.09,-5.859,78.125,1.0
1626294641.5535417,99.12100000000001,0.0,-8.789,190.918,1.0
1626294641.557448,-8.301,-32.715,-27.831999999999997,-66.895,1.0
1626294641.5613542,-61.523,-29.296999999999997,-34.668,-232.91,1.0
1626294641.5652604,-119.62899999999999,-44.922,-26.366999999999997,-26.855,1.0
1626294641.5691667,-22.461,-60.059,-34.18,176.75799999999998,1.0
1626294641.573073,67.87100000000001,-51.27,-34.668,4.883,1.0
1626294641.5769792,-4.395,-35.156,-33.691,-236.81599999999997,1.0
1626294641.5808856,-112.79299999999999,-39.062,-55.663999999999994,-104.98,1.0
1626294641.5847917,-64.941,-22.949,-52.733999999999995,172.852,1.0
1626294641.588698,49.805,-3.906,-24.414,93.262,1.0
1626294641.5926042,12.207,-6.348,-29.296999999999997,-208.49599999999998,1.0
1626294641.5965104,-98.145,-8.789,-32.715,-181.15200000000002,1.0
1626294641.6004167,-74.219,-2.93,-19.043,119.141,1.0
1626294641.604323,24.414,-7.812,-26.855,134.766,1.0
1626294641.608229,36.621,-20.508000000000003,-29.785,1.0,1.0
1626294641.6121356,-81.543,-40.039,-21.484,1.0,1.0
1626294641.6160414,-110.84,-43.457,-8.789,1.0,1.0
1626294641.6199481,21.484,-31.25,-5.859,1.0,1.0
1626294641.623854,59.57,-45.41,-26.366999999999997,1.0,1.0
1626294641.6277602,-48.34,-41.504,-37.109,1.0,1.0
1626294641.631667,-111.32799999999999,-26.366999999999997,-48.828,1.0,1.0
1626294641.635573,-26.366999999999997,-16.602,-62.988,1.0,1.0
1626294641.639479,54.199,-5.371,-49.805,1.0,1.0
1626294641.6433854,-9.766,-15.625,-24.414,1.0,1.0
1626294641.6472914,-97.656,-15.625,-18.066,1.0,1.0
1626294641.651198,-45.41,-15.137,-29.296999999999997,1.0,1.0
1626294641.6551042,64.453,-23.926,-34.18,167.96900000000002,1.0
1626294641.6590104,19.531,-40.527,-44.434,41.504,1.0
1626294641.6629167,-105.95700000000001,-59.57,-43.457,-218.75,1.0
1626294641.666823,-77.148,-47.852,-20.996,-121.094,1.0
1626294641.6707292,39.062,-23.438000000000002,-22.949,149.90200000000002,1.0
1626294641.6746354,50.781000000000006,-21.484,-26.366999999999997,119.141,1.0
1626294641.6785414,-71.777,-21.973000000000003,-32.715,-152.832,1.0
1626294641.682448,-104.98,-12.207,-38.574,-167.96900000000002,1.0
1626294641.6863542,37.109,-7.812,-35.645,113.281,1.0
1626294641.6902604,84.961,-33.691,-24.901999999999997,180.176,1.0
1626294641.6941667,-42.48,-54.199,-22.949,-83.984,1.0
1626294641.698073,-125.977,-22.461,-28.32,-214.355,1.0
1626294641.7019792,-118.652,-27.831999999999997,-36.133,-210.449,1.0
1626294641.7058854,-10.742,-20.508000000000003,-17.578,55.176,1.0
1626294641.7097917,57.129,-24.414,-13.184000000000001,161.621,1.0
1626294641.713698,-28.809,-29.785,-27.831999999999997,-68.848,1.0
1626294641.7176042,-112.79299999999999,-49.316,-29.785,-218.262,1.0
1626294641.7215104,-20.508000000000003,-27.831999999999997,-2.93,8.789,1.0
1626294641.725417,75.195,-41.016000000000005,-11.719000000000001,190.918,1.0
1626294641.729323,5.371,-70.801,-40.527,-3.418,1.0
1626294641.733229,-85.93799999999999,-66.895,-40.527,-211.426,1.0
1626294641.7371356,-46.387,-39.062,-51.758,-79.102,1.0
1626294641.7410414,41.016000000000005,0.977,-56.641000000000005,150.391,1.0
1626294641.7449477,22.949,-19.043,-26.366999999999997,67.383,1.0
1626294641.748854,30.761999999999997,-24.901999999999997,-13.184000000000001,-182.61700000000002,1.0
1626294641.7527602,-101.56200000000001,-34.18,-46.875,-148.92600000000002,1.0
1626294641.756667,-71.289,-24.414,-36.133,119.141,1.0
1626294641.760573,63.965,-6.836,-20.996,121.094,1.0
1626294641.7644792,61.523,-15.625,-21.484,-157.715,1.0
1626294641.7683854,-68.359,-53.223,-28.32,-199.21900000000002,1.0
1626294641.7722914,-115.723,-84.473,-46.875,48.34,1.0
1626294641.776198,-0.488,-35.156,-40.527,175.78099999999998,1.0
1626294641.7801042,55.176,6.348,-30.273000000000003,-40.039,1.0
1626294641.7840102,-39.551,-17.578,-25.879,-222.65599999999998,1.0
1626294641.7879167,-117.676,-33.203,-48.34,-41.992,1.0
1626294641.791823,-44.434,-50.293,-75.195,172.852,1.0
1626294641.7957292,61.523,-32.715,-35.156,1.0,1.0
1626294641.7996354,-10.254000000000001,-41.016000000000005,-18.555,1.0,1.0
1626294641.8035417,-110.84,-38.574,-40.527,1.0,1.0
1626294641.807448,-60.547,-23.926,-32.715,1.0,1.0
1626294641.8113542,32.715,-41.992,-29.785,1.0,1.0
1626294641.8152604,7.324,-17.09,-30.761999999999997,1.0,1.0
1626294641.8191667,-100.098,-10.254000000000001,-31.25,1.0,1.0
1626294641.823073,-77.148,-23.438000000000002,-14.16,1.0,1.0
1626294641.8269792,31.25,-33.203,-16.113,1.0,1.0
1626294641.8308856,11.719000000000001,-45.898,-40.527,1.0,1.0
1626294641.8347917,-89.355,-29.296999999999997,-28.809,1.0,1.0
1626294641.838698,-110.84,-17.09,-9.766,1.0,1.0
1626294641.8426042,4.395,-9.277000000000001,8.789,107.91,1.0
1626294641.8465104,47.852,-21.484,-3.418,168.457,1.0
1626294641.8504167,-71.289,-57.129,-25.391,-111.816,1.0
1626294641.854323,-135.254,-52.733999999999995,-21.973000000000003,-221.68,1.0
1626294641.858229,-29.296999999999997,-24.901999999999997,-27.831999999999997,18.555,1.0
1626294641.8621356,61.523,-9.766,-31.738000000000003,177.24599999999998,1.0
1626294641.8660414,-21.973000000000003,-33.203,-37.598,-40.039,1.0
1626294641.8699481,-106.445,-44.434,-27.344,-238.77,1.0
1626294641.873854,-50.293,-47.852,-13.184000000000001,-71.777,1.0
1626294641.8777602,47.363,-46.875,-32.715,145.50799999999998,1.0
1626294641.881667,37.109,-20.996,-54.688,42.968999999999994,1.0
1626294641.885573,-90.33200000000001,-32.227,-56.641000000000005,-207.52,1.0
1626294641.889479,-113.77,-15.625,-39.062,-234.375,1.0
1626294641.8933854,-96.191,-20.508000000000003,-46.875,-111.32799999999999,1.0
1626294641.8972914,18.066,-38.086,-50.781000000000006,123.535,1.0
1626294641.901198,35.645,-32.715,-37.109,62.988,1.0
1626294641.9051042,-77.637,-36.621,-40.527,-193.84799999999998,1.0
1626294641.9090104,-97.656,-36.621,-42.48,-168.457,1.0
1626294641.9129167,20.996,-25.879,-34.18,107.42200000000001,1.0
1626294641.916823,60.059,-39.551,-28.809,137.695,1.0
1626294641.9207292,-39.551,-40.039,-19.531,-124.512,1.0
1626294641.9246354,-102.539,-25.879,-28.809,-207.03099999999998,1.0
1626294641.9285414,-18.555,-20.996,-31.738000000000003,44.434,1.0
1626294641.932448,76.172,0.0,-15.625,181.641,1.0
1626294641.9363542,-19.043,-10.742,-30.761999999999997,1.0,1.0
1626294641.9402604,-133.789,-25.391,-50.781000000000006,1.0,1.0
1626294641.9441667,-59.082,-35.645,-52.733999999999995,1.0,1.0
1626294641.948073,58.105,-30.761999999999997,-22.949,1.0,1.0
1626294641.9519792,37.598,0.488,-0.488,1.0,1.0
1626294641.9558854,-82.52,-18.555,-22.949,1.0,1.0
1626294641.9597917,-76.66,-18.066,-39.551,1.0,1.0
1626294641.963698,18.066,-28.809,-43.457,1.0,1.0
1626294641.9676042,20.508000000000003,-41.992,-27.831999999999997,1.0,1.0
1626294641.9715104,-87.891,-16.602,-39.062,1.0,1.0
1626294641.975417,-130.371,-21.484,-59.57,1.0,1.0
1626294641.979323,-3.906,-32.715,-39.551,1.0,1.0
1626294641.983229,51.758,-42.968999999999994,-34.18,126.95299999999999,1.0
1626294641.9871356,-61.035,-43.457,-35.645,-146.97299999999998,1.0
1626294641.9910414,-119.62899999999999,-21.973000000000003,-35.156,-244.62900000000002,1.0
1626294641.9949477,-33.203,-36.133,-42.968999999999994,-4.395,1.0
1626294641.998854,43.457,-25.879,-22.949,138.672,1.0
1626294642.0027602,-20.02,-34.18,-36.133,-66.406,1.0
1626294642.006667,-119.62899999999999,-54.688,-77.148,-256.836,1.0
1626294642.010573,-58.593999999999994,-12.207,-41.992,-65.43,1.0
1626294642.0144792,56.641000000000005,21.973000000000003,-2.441,168.457,1.0
1626294642.0183854,3.906,-6.836,-25.391,7.324,1.0
1626294642.0222914,-101.56200000000001,-40.527,-32.715,-220.703,1.0
1626294642.026198,-64.941,-31.738000000000003,-19.043,-118.652,1.0
1626294642.0301042,-60.547,-32.715,-43.457,-64.941,1.0
1626294642.0340102,57.617,-11.719000000000001,-33.203,173.34,1.0
1626294642.0379167,32.715,-15.625,-16.113,65.43,1.0
1626294642.041823,-99.609,-47.852,-7.324,-209.96099999999998,1.0
1626294642.0457292,-123.04700000000001,-35.156,-9.766,-169.43400000000003,1.0
1626294642.0496354,-9.766,-13.672,-11.23,105.95700000000001,1.0
1626294642.0535417,25.879,-20.996,-16.113,107.42200000000001,1.0
1626294642.057448,-71.777,-24.901999999999997,-54.688,-165.52700000000002,1.0
1626294642.0613542,-102.539,-11.23,-57.617,-199.707,1.0
1626294642.0652604,2.93,-22.461,-26.855,74.219,1.0
1626294642.0691667,58.593999999999994,-39.551,-39.062,156.25,1.0
1626294642.073073,-31.738000000000003,-48.828,-43.457,-96.191,1.0
1626294642.0769792,-87.402,-35.156,-44.434,-226.562,1.0
1626294642.0808856,-142.578,-49.805,-34.18,-3.906,1.0
1626294642.0847917,-53.223,-56.641000000000005,-8.789,178.22299999999998,1.0
1626294642.088698,49.805,-33.203,-8.789,-1.465,1.0
1626294642.0926042,-20.508000000000003,-30.761999999999997,-29.785,-231.445,1.0
1626294642.0965104,-121.094,-41.504,-37.109,-99.609,1.0
1626294642.1004167,-52.733999999999995,-42.968999999999994,-17.578,143.555,1.0
1626294642.104323,68.848,-21.484,-0.977,91.309,1.0
1626294642.108229,22.949,-20.996,-17.09,-157.715,1.0
1626294642.1121356,-110.352,-51.27,-34.18,-164.551,1.0
1626294642.1160414,-74.707,-53.223,-24.414,90.82,1.0
1626294642.1199481,56.152,-35.645,-24.901999999999997,91.309,1.0
1626294642.123854,49.316,-21.973000000000003,-31.25,1.0,1.0
1626294642.1277602,-80.078,-21.484,-33.691,1.0,1.0
1626294642.131667,-96.191,-15.137,-34.18,1.0,1.0
1626294642.135573,24.901999999999997,-27.344,-31.25,1.0,1.0
1626294642.139479,74.707,-39.551,-40.039,1.0,1.0
1626294642.1433854,-19.043,-18.555,-25.879,1.0,1.0
1626294642.1472914,-99.12100000000001,-16.113,-32.715,1.0,1.0
1626294642.151198,-13.672,-22.461,-58.593999999999994,1.0,1.0
1626294642.1551042,83.49600000000001,-31.25,-34.18,1.0,1.0
1626294642.1590104,19.043,-36.621,-19.531,1.0,1.0
1626294642.1629167,-90.33200000000001,-30.273000000000003,-35.645,1.0,1.0
1626294642.166823,-40.527,-14.16,-38.086,1.0,1.0
1626294642.1707292,65.43,-19.043,-6.348,167.48,1.0
1626294642.1746354,1.465,-61.523,-20.508000000000003,0.488,1.0
1626294642.1785414,-116.211,-64.453,-49.316,-227.53900000000002,1.0
1626294642.182448,-65.918,-45.41,-0.488,-106.934,1.0
1626294642.1863542,42.48,-55.663999999999994,-0.488,150.879,1.0
1626294642.1902604,27.831999999999997,-35.645,-34.18,94.727,1.0
1626294642.1941667,-81.543,-45.41,-55.663999999999994,-187.012,1.0
1626294642.198073,-100.098,-42.48,-63.477,-202.637,1.0
1626294642.2019792,3.906,-6.836,-27.831999999999997,85.93799999999999,1.0
1626294642.2058854,58.105,-17.09,-28.809,151.855,1.0
1626294642.2097917,-43.945,-37.109,-50.781000000000006,-113.77,1.0
1626294642.213698,-123.535,-48.828,-37.598,-216.30900000000003,1.0
1626294642.2176042,-125.0,-44.922,-44.922,-210.449,1.0
1626294642.2215104,1.465,-16.602,-13.672,63.965,1.0
1626294642.225417,46.387,-5.859,-32.715,159.18,1.0
1626294642.229323,-61.523,-62.012,-53.223,-90.33200000000001,1.0
1626294642.233229,-94.727,-54.688,-28.809,-219.727,1.0
1626294642.2371356,-4.395,-2.93,0.977,24.901999999999997,1.0
1626294642.2410414,85.93799999999999,-10.742,-28.32,223.63299999999998,1.0
1626294642.2449477,20.02,-47.852,-46.387,11.23,1.0
1626294642.248854,-111.816,-52.733999999999995,-17.578,-233.398,1.0
1626294642.2527602,-98.145,-22.949,-20.508000000000003,-106.934,1.0
1626294642.256667,6.836,-3.906,-25.391,144.043,1.0
1626294642.260573,23.438000000000002,-4.395,-18.066,76.66,1.0
1626294642.2644792,-7.324,-29.296999999999997,-13.672,-218.75,1.0
1626294642.2683854,-111.816,-48.828,-26.855,-187.012,1.0
1626294642.2722914,-65.43,-57.129,-28.809,117.676,1.0
1626294642.276198,47.852,-32.227,-23.926,154.785,1.0
1626294642.2801042,38.574,-16.602,-19.531,-126.465,1.0
1626294642.2840102,-84.961,-36.621,-34.18,-234.375,1.0
1626294642.2879167,-121.58200000000001,-77.148,-61.523,66.895,1.0
1626294642.291823,-8.301,-70.801,-55.663999999999994,166.50400000000002,1.0
1626294642.2957292,49.805,-31.738000000000003,-28.32,-108.887,1.0
1626294642.2996354,-56.152,-43.945,-33.691,-241.21099999999998,1.0
1626294642.3035417,-122.559,-61.035,-50.293,-20.02,1.0
1626294642.307448,-32.227,-60.547,-60.059,183.59400000000002,1.0
1626294642.3113542,64.941,-37.598,-35.645,1.0,1.0
1626294642.3152604,-4.395,-22.949,-21.484,1.0,1.0
1626294642.3191667,-96.191,-21.973000000000003,-24.901999999999997,1.0,1.0
1626294642.323073,-42.48,-14.16,-22.461,1.0,1.0
1626294642.3269792,51.27,-18.555,-20.508000000000003,1.0,1.0
1626294642.3308856,22.461,-8.789,-24.901999999999997,1.0,1.0
1626294642.3347917,-113.281,-25.391,-52.733999999999995,1.0,1.0
1626294642.338698,-106.934,-38.086,-39.062,1.0,1.0
1626294642.3426042,43.945,-30.273000000000003,-8.301,1.0,1.0
1626294642.3465104,53.711000000000006,-53.711000000000006,-25.879,1.0,1.0
1626294642.3504167,-90.33200000000001,-39.551,-21.484,1.0,1.0
1626294642.354323,-118.652,-12.695,-17.578,1.0,1.0
1626294642.358229,0.0,-20.508000000000003,-35.645,95.215,1.0
1626294642.3621356,34.18,-44.434,-40.527,134.27700000000002,1.0
1626294642.3660414,-66.895,-62.5,-40.527,-136.719,1.0
1626294642.3699481,-128.906,-56.152,-37.109,-224.609,1.0
1626294642.373854,-40.527,-30.273000000000003,-27.831999999999997,14.648,1.0
1626294642.3777602,57.617,-2.441,-34.668,168.945,1.0
1626294642.381667,-22.949,-45.898,-57.617,-41.992,1.0
1626294642.385573,-123.04700000000001,-50.293,-55.176,-233.398,1.0
1626294642.389479,-49.805,-4.883,-36.133,-53.223,1.0
1626294642.3933854,64.941,-7.812,-24.414,175.78099999999998,1.0
1626294642.3972914,39.551,-26.855,-19.531,54.688,1.0
1626294642.401198,-86.426,-88.867,-33.691,-198.24200000000002,1.0
1626294642.4051042,-84.473,-34.18,-40.039,-204.102,1.0
1626294642.4090104,-65.43,-59.082,-40.527,-69.336,1.0
1626294642.4129167,46.387,-62.5,-15.137,169.922,1.0
1626294642.416823,44.434,-22.949,3.418,82.031,1.0
1626294642.4207292,-95.215,-23.926,-29.785,-197.266,1.0
1626294642.4246354,-116.699,-16.602,-40.527,-164.062,1.0
1626294642.4285414,14.16,-2.93,-32.227,106.934,1.0
1626294642.432448,47.852,-12.695,-46.875,104.00399999999999,1.0
1626294642.4363542,-67.87100000000001,-25.391,-44.922,-163.086,1.0
1626294642.4402604,-120.117,-36.133,-28.32,-209.47299999999998,1.0
1626294642.4441667,-8.789,-33.203,-26.855,63.477,1.0
1626294642.448073,50.293,-36.133,-34.668,156.738,1.0
1626294642.4519792,-39.062,-40.039,-37.109,1.0,1.0
1626294642.4558854,-105.469,-41.992,-41.992,1.0,1.0
1626294642.4597917,-20.996,-33.691,-28.32,1.0,1.0
1626294642.463698,77.148,-32.715,-16.602,1.0,1.0
1626294642.4676042,23.438000000000002,-58.105,-28.809,1.0,1.0
1626294642.4715104,-82.52,-42.968999999999994,-51.758,1.0,1.0
1626294642.475417,-68.848,-13.672,-53.711000000000006,1.0,1.0
1626294642.479323,20.508000000000003,-1.465,-30.273000000000003,1.0,1.0
1626294642.483229,25.391,-2.93,-19.531,1.0,1.0
1626294642.4871356,-74.707,-23.926,-13.672,1.0,1.0
1626294642.4910414,-95.70299999999999,-20.508000000000003,-13.184000000000001,1.0,1.0
1626294642.4949477,27.831999999999997,-12.695,-4.883,1.0,1.0
1626294642.498854,74.707,-16.602,4.883,167.48,1.0
1626294642.5027602,-34.668,-36.621,-17.09,-100.098,1.0
1626294642.506667,-105.469,-39.551,-31.25,-198.24200000000002,1.0
1626294642.510573,-13.184000000000001,-26.366999999999997,-14.648,39.551,1.0
1626294642.5144792,46.875,-26.855,-14.16,158.691,1.0
1626294642.5183854,-35.156,-41.016000000000005,-30.761999999999997,-58.105,1.0
1626294642.5222914,-122.559,-60.059,-31.738000000000003,-224.609,1.0
1626294642.526198,-60.547,-48.34,-23.438000000000002,-41.504,1.0
1626294642.5301042,62.988,-15.137,-13.672,179.688,1.0
1626294642.5340102,11.23,-12.207,-51.758,24.414,1.0
1626294642.5379167,-120.117,-35.645,-73.242,-235.352,1.0
1626294642.541823,-81.055,-45.898,-24.901999999999997,-124.512,1.0
1626294642.5457292,-63.965,-12.207,-34.668,-61.035,1.0
1626294642.5496354,59.57,-7.812,-31.738000000000003,177.734,1.0
1626294642.5535417,41.016000000000005,-11.719000000000001,-4.395,76.172,1.0
1626294642.557448,-74.219,-30.273000000000003,0.0,-178.22299999999998,1.0
1626294642.5613542,-92.773,-43.457,-15.137,-138.672,1.0
1626294642.5652604,33.203,-43.457,-24.414,127.441,1.0
1626294642.5691667,64.453,-18.555,-12.207,124.023,1.0
1626294642.573073,-82.031,-22.949,-24.901999999999997,-164.062,1.0
1626294642.5769792,-124.023,-45.41,-43.945,-200.195,1.0
1626294642.5808856,-6.836,-32.715,-18.066,71.777,1.0
1626294642.5847917,54.199,-24.901999999999997,-6.348,145.50799999999998,1.0
1626294642.588698,-44.434,-30.273000000000003,-37.109,-108.887,1.0
1626294642.5926042,-72.75399999999999,-59.57,-59.082,-229.98,1.0
1626294642.5965104,-89.844,-38.086,-20.508000000000003,1.465,1.0
1626294642.6004167,29.785,-8.789,-8.301,183.105,1.0
1626294642.604323,77.148,0.977,-21.973000000000003,10.254000000000001,1.0
1626294642.608229,-19.043,-23.926,-9.277000000000001,-218.262,1.0
1626294642.6121356,-121.094,-59.082,-18.066,-97.656,1.0
1626294642.6160414,-44.434,-10.254000000000001,-21.973000000000003,155.273,1.0
1626294642.6199481,55.176,16.602,-18.066,66.895,1.0
1626294642.623854,-12.207,-27.344,-30.761999999999997,-217.773,1.0
1626294642.6277602,-121.094,-50.781000000000006,-41.016000000000005,-182.12900000000002,1.0
1626294642.631667,-75.684,-50.781000000000006,-30.273000000000003,112.79299999999999,1.0
1626294642.635573,62.5,-21.973000000000003,-1.465,129.395,1.0
1626294642.639479,56.641000000000005,-6.836,-10.254000000000001,1.0,1.0
1626294642.6433854,-79.102,-40.039,-27.344,1.0,1.0
1626294642.6472914,-97.656,-33.203,-19.043,1.0,1.0
1626294642.651198,26.366999999999997,4.883,-19.531,1.0,1.0
1626294642.6551042,62.988,5.859,-23.926,1.0,1.0
1626294642.6590104,-48.34,-25.391,-52.733999999999995,1.0,1.0
1626294642.6629167,-99.609,-43.457,-65.43,1.0,1.0
1626294642.666823,-9.766,-37.598,-33.691,1.0,1.0
1626294642.6707292,74.707,-38.574,0.977,1.0,1.0
1626294642.6746354,-1.953,-42.48,-1.465,1.0,1.0
1626294642.6785414,-116.699,-30.761999999999997,-28.809,1.0,1.0
1626294642.682448,-56.641000000000005,-27.831999999999997,-26.366999999999997,1.0,1.0
1626294642.6863542,49.316,-42.48,-35.645,160.645,1.0
1626294642.6902604,19.531,-33.203,-37.109,18.066,1.0
1626294642.6941667,-88.867,-5.371,-31.25,-208.984,1.0
1626294642.698073,-78.613,-6.836,-42.48,-113.281,1.0
1626294642.7019792,43.945,6.836,-48.34,140.625,1.0
1626294642.7058854,40.039,-6.348,-47.852,82.52,1.0
1626294642.7097917,-83.984,-25.391,-39.062,-187.012,1.0
1626294642.713698,-94.238,-36.621,-7.324,-168.945,1.0
1626294642.7176042,24.901999999999997,-32.227,0.0,114.258,1.0
1626294642.7215104,45.898,-35.156,-35.645,140.625,1.0
1626294642.725417,-73.242,-45.41,-40.039,-136.719,1.0
1626294642.729323,-130.371,-29.785,-27.344,-213.86700000000002,1.0
1626294642.733229,-117.18799999999999,-33.203,-38.574,-193.359,1.0
1626294642.7371356,0.0,-25.879,-34.668,77.637,1.0
1626294642.7410414,76.172,4.395,-25.391,172.852,1.0
1626294642.7449477,-25.391,-10.742,-34.18,-81.055,1.0
1626294642.748854,-118.652,-52.246,-40.527,-226.562,1.0
1626294642.7527602,-39.062,-46.387,-25.391,6.348,1.0
1626294642.756667,48.34,-13.672,-42.968999999999994,168.457,1.0
1626294642.760573,-5.859,-24.901999999999997,-52.733999999999995,-15.137,1.0
1626294642.7644792,-91.309,-26.366999999999997,-32.227,-194.824,1.0
1626294642.7683854,-63.477,-18.555,-28.809,-58.593999999999994,1.0
1626294642.7722914,29.785,-20.02,-18.555,150.391,1.0
1626294642.776198,3.418,-36.133,-33.691,38.086,1.0
1626294642.7801042,-107.42200000000001,-38.086,-41.992,1.0,1.0
1626294642.7840102,-99.609,-19.043,-21.973000000000003,1.0,1.0
1626294642.7879167,22.949,-6.348,-38.574,1.0,1.0
1626294642.791823,53.711000000000006,-11.23,-41.504,1.0,1.0
1626294642.7957292,-64.941,-39.551,-32.227,1.0,1.0
1626294642.7996354,-120.605,-58.593999999999994,-30.273000000000003,1.0,1.0
1626294642.8035417,-16.602,-52.246,-20.508000000000003,1.0,1.0
1626294642.807448,56.152,-40.527,-22.949,1.0,1.0
1626294642.8113542,-29.785,-26.855,-41.992,1.0,1.0
1626294642.8152604,-112.79299999999999,-27.831999999999997,-62.988,1.0,1.0
1626294642.8191667,-37.109,-29.785,-40.039,1.0,1.0
1626294642.823073,58.593999999999994,-25.391,-12.695,1.0,1.0
1626294642.8269792,20.02,-14.648,-13.672,15.625,1.0
1626294642.8308856,-103.027,-34.668,-29.785,-217.285,1.0
1626294642.8347917,-76.66,-48.828,-25.879,-94.727,1.0
1626294642.838698,71.289,-28.32,-14.16,178.71099999999998,1.0
1626294642.8426042,48.828,-30.273000000000003,-28.32,92.773,1.0
1626294642.8465104,-89.844,-19.531,-46.387,-188.477,1.0
1626294642.8504167,-94.238,-22.461,-51.758,-161.621,1.0
1626294642.854323,46.875,-15.625,-39.551,124.512,1.0
1626294642.858229,92.773,-17.09,-33.691,150.391,1.0
1626294642.8621356,-40.527,-47.852,-39.551,-143.066,1.0
1626294642.8660414,-113.281,-60.059,-21.973000000000003,-216.797,1.0
1626294642.8699481,-10.254000000000001,-59.082,-7.812,49.316,1.0
1626294642.873854,70.801,-42.968999999999994,-26.366999999999997,162.109,1.0
1626294642.8777602,-19.043,-27.344,-40.527,-77.637,1.0
1626294642.881667,-126.465,-13.672,-52.733999999999995,-242.188,1.0
1626294642.885573,-66.406,-22.461,-43.945,-50.293,1.0
1626294642.889479,40.527,-40.039,-25.879,157.715,1.0
1626294642.8933854,22.461,-30.761999999999997,-18.555,35.645,1.0
1626294642.8972914,-76.66,-17.09,-16.113,-187.5,1.0
1626294642.901198,-70.801,-25.391,-27.831999999999997,-104.98,1.0
1626294642.9051042,34.18,-42.968999999999994,-50.293,131.836,1.0
1626294642.9090104,29.785,-41.016000000000005,-30.273000000000003,67.87100000000001,1.0
1626294642.9129167,-78.613,-50.781000000000006,-15.625,-200.68400000000003,1.0
1626294642.916823,-99.12100000000001,-59.57,-24.901999999999997,-187.988,1.0
1626294642.9207292,7.812,-23.438000000000002,-25.879,91.309,1.0
1626294642.9246354,53.711000000000006,-9.277000000000001,-37.598,138.672,1.0
1626294642.9285414,-48.34,-29.785,-56.152,-116.699,1.0
1626294642.932448,-108.887,-31.25,-49.316,-205.078,1.0
1626294642.9363542,-22.461,-8.789,-20.996,34.18,1.0
1626294642.9402604,55.176,5.859,-15.625,167.48,1.0
1626294642.9441667,-18.066,-21.973000000000003,-38.086,-50.781000000000006,1.0
1626294642.948073,-113.281,-44.434,-38.574,-235.352,1.0
1626294642.9519792,-58.593999999999994,-37.109,-18.066,-49.805,1.0
1626294642.9558854,61.035,-44.434,-19.531,174.805,1.0
1626294642.9597917,35.156,-51.27,-42.968999999999994,49.316,1.0
1626294642.963698,-109.863,-67.383,-65.918,-212.40200000000002,1.0
1626294642.9676042,-115.723,-40.527,-49.316,-234.375,1.0
1626294642.9715104,-73.242,-35.156,-61.523,-83.984,1.0
1626294642.975417,35.156,-31.738000000000003,-41.504,148.438,1.0
1626294642.979323,29.296999999999997,-32.715,-24.414,51.758,1.0
1626294642.983229,-93.75,-54.199,-33.691,-213.86700000000002,1.0
1626294642.9871356,-97.16799999999999,-27.831999999999997,-45.41,-151.855,1.0
1626294642.9910414,27.344,7.812,-31.25,139.16,1.0
1626294642.9949477,34.668,-30.273000000000003,-25.879,123.535,1.0
1626294642.998854,-86.426,-63.965,-32.715,-160.645,1.0
1626294643.0027602,-131.34799999999998,-46.875,-35.645,-216.30900000000003,1.0
1626294643.006667,-21.484,-14.648,-25.879,38.086,1.0
1626294643.010573,47.852,-3.906,-21.484,141.113,1.0
1626294643.0144792,-57.617,-18.555,-52.733999999999995,1.0,1.0
1626294643.0183854,-124.023,-11.23,-60.547,1.0,1.0
1626294643.0222914,-22.949,-23.438000000000002,-44.434,1.0,1.0
1626294643.026198,56.641000000000005,-30.761999999999997,-21.484,1.0,1.0
1626294643.0301042,3.906,-14.16,-2.441,1.0,1.0
1626294643.0340102,-103.516,-15.625,-13.184000000000001,1.0,1.0
1626294643.0379167,-54.688,-16.602,-26.366999999999997,1.0,1.0
1626294643.041823,58.593999999999994,-28.809,-46.875,1.0,1.0
1626294643.0457292,24.901999999999997,-45.41,-53.711000000000006,1.0,1.0
1626294643.0496354,-87.891,-28.32,-24.901999999999997,1.0,1.0
1626294643.0535417,-105.469,-15.625,-23.438000000000002,1.0,1.0
1626294643.057448,3.906,-9.277000000000001,-44.434,1.0,1.0
1626294643.0613542,40.527,-1.953,-36.133,109.863,1.0
1626294643.0652604,-69.336,-26.366999999999997,-36.133,-155.762,1.0
1626294643.0691667,-109.863,-42.968999999999994,-22.461,-203.613,1.0
1626294643.073073,8.789,-26.855,-13.672,63.477,1.0
1626294643.0769792,91.309,-13.184000000000001,-23.926,175.78099999999998,1.0
1626294643.0808856,-5.371,-40.527,-22.461,-49.316,1.0
1626294643.0847917,-88.37899999999999,-33.203,-7.812,-195.312,1.0
1626294643.088698,-23.438000000000002,-16.602,-8.301,-11.719000000000001,1.0
1626294643.0926042,51.758,-15.137,-42.968999999999994,151.855,1.0
1626294643.0965104,-6.348,-13.672,-91.309,-5.371,1.0
1626294643.1004167,-126.465,-27.831999999999997,-88.37899999999999,-232.422,1.0
1626294643.104323,-97.16799999999999,-23.926,-36.621,-119.62899999999999,1.0
1626294643.108229,-67.383,-45.898,-28.32,-64.941,1.0
1626294643.1121356,41.992,-33.691,-27.344,160.645,1.0
1626294643.1160414,-7.812,-41.504,-45.41,5.371,1.0
1626294643.1199481,-130.371,-57.129,-53.711000000000006,-241.699,1.0
1626294643.123854,-104.98,-50.781000000000006,-43.457,-126.95299999999999,1.0
1626294643.1277602,27.831999999999997,-15.625,-31.25,143.066,1.0
1626294643.131667,40.039,-25.879,-31.738000000000003,106.445,1.0
1626294643.135573,-79.59,-37.598,-30.273000000000003,-162.109,1.0
1626294643.139479,-105.95700000000001,-12.695,-24.414,-167.96900000000002,1.0
1626294643.1433854,-0.488,-7.324,-37.598,91.309,1.0
1626294643.1472914,45.41,-26.366999999999997,-62.988,130.371,1.0
1626294643.151198,-72.75399999999999,-56.641000000000005,-58.105,-141.602,1.0
1626294643.1551042,-66.406,-37.598,-36.621,-162.59799999999998,1.0
1626294643.1590104,-92.773,-38.086,-59.57,-205.56599999999997,1.0
1626294643.1629167,9.766,-35.156,-54.688,79.102,1.0
1626294643.166823,83.49600000000001,-42.48,-29.785,191.40599999999998,1.0
1626294643.1707292,-0.977,-36.621,-36.621,-69.336,1.0
1626294643.1746354,-110.84,-36.133,-45.898,-230.46900000000002,1.0
1626294643.1785414,-41.504,10.254000000000001,-6.348,10.742,1.0
1626294643.182448,63.965,15.137,17.578,207.03099999999998,1.0
1626294643.1863542,-12.695,-38.574,-8.301,3.906,1.0
1626294643.1902604,-113.77,-34.668,-32.227,-222.65599999999998,1.0
1626294643.1941667,-45.898,-3.906,-34.18,-72.266,1.0
1626294643.198073,53.711000000000006,1.465,-30.761999999999997,168.945,1.0
1626294643.2019792,59.082,-34.18,-19.043,1.0,1.0
1626294643.2058854,-42.48,-56.152,-14.648,1.0,1.0
1626294643.2097917,-94.727,-31.25,-39.551,1.0,1.0
1626294643.213698,-8.789,-24.414,-53.711000000000006,1.0,1.0
1626294643.2176042,31.738000000000003,-33.203,-51.758,1.0,1.0
1626294643.2215104,-60.059,-22.949,-66.406,1.0,1.0
1626294643.225417,-112.305,-15.625,-61.523,1.0,1.0
1626294643.229323,-6.836,-15.625,-18.555,1.0,1.0
1626294643.233229,75.195,-38.086,0.0,1.0,1.0
1626294643.2371356,-14.648,-59.082,-14.648,1.0,1.0
1626294643.2410414,-123.535,-43.945,-31.738000000000003,1.0,1.0
1626294643.2449477,-38.574,-22.461,-30.273000000000003,1.0,1.0
1626294643.248854,83.984,-15.137,-19.531,184.57,1.0
1626294643.2527602,3.418,-41.504,-42.48,12.695,1.0
1626294643.256667,-123.04700000000001,-58.593999999999994,-68.359,-230.46900000000002,1.0
1626294643.260573,-78.613,-40.527,-45.41,-99.609,1.0
1626294643.2644792,64.453,-31.738000000000003,-12.695,161.621,1.0
1626294643.2683854,71.289,-31.25,-11.23,102.051,1.0
1626294643.2722914,-84.961,-40.039,-47.852,-184.57,1.0
1626294643.276198,-116.699,-41.504,-63.965,-175.293,1.0
1626294643.2801042,3.906,-41.504,-43.945,98.145,1.0
1626294643.2840102,56.641000000000005,-18.555,-21.484,132.812,1.0
1626294643.2879167,-30.761999999999997,-21.484,-20.996,-123.535,1.0
1626294643.291823,-129.395,-98.145,-47.852,-236.328,1.0
1626294643.2957292,-135.254,-49.805,-29.296999999999997,-194.824,1.0
1626294643.2996354,-8.789,-40.039,-24.901999999999997,82.52,1.0
1626294643.3035417,49.316,-30.273000000000003,-30.761999999999997,159.18,1.0
1626294643.307448,-67.383,-36.621,-46.875,-114.258,1.0
1626294643.3113542,-150.879,-49.805,-58.593999999999994,-242.676,1.0
1626294643.3152604,-45.41,-29.296999999999997,-35.645,16.602,1.0
1626294643.3191667,77.148,0.488,-3.418,197.266,1.0
1626294643.323073,15.137,-16.602,-20.508000000000003,-15.137,1.0
1626294643.3269792,-125.0,-15.625,-55.176,-234.863,1.0
1626294643.3308856,-80.566,-5.371,-27.831999999999997,-75.195,1.0
1626294643.3347917,30.761999999999997,-34.18,0.488,157.227,1.0
1626294643.338698,3.906,-32.227,-20.02,41.992,1.0
1626294643.3426042,-125.0,-26.855,-42.968999999999994,1.0,1.0
1626294643.3465104,-134.27700000000002,-37.109,-33.203,1.0,1.0
1626294643.3504167,7.812,-23.926,-7.324,1.0,1.0
1626294643.354323,49.316,-29.296999999999997,-9.766,1.0,1.0
1626294643.358229,-74.219,-38.086,-31.25,1.0,1.0
1626294643.3621356,-117.676,-10.254000000000001,-44.922,1.0,1.0
1626294643.3660414,12.695,15.137,-26.366999999999997,1.0,1.0
1626294643.3699481,55.176,7.324,-6.836,1.0,1.0
1626294643.373854,-55.663999999999994,-39.551,-28.32,1.0,1.0
1626294643.3777602,-144.531,-58.593999999999994,-47.363,1.0,1.0
1626294643.381667,-65.918,-35.156,-35.156,1.0,1.0
1626294643.385573,39.062,-25.391,-35.156,1.0,1.0
1626294643.389479,-16.113,-35.156,-44.922,-15.137,1.0
1626294643.3933854,-105.469,-29.785,-42.48,-211.91400000000002,1.0
1626294643.3972914,-64.453,-23.926,-28.809,-77.148,1.0
1626294643.401198,41.504,-42.48,-9.277000000000001,155.273,1.0
1626294643.4051042,24.414,-51.758,-22.949,52.733999999999995,1.0
1626294643.4090104,-96.191,-48.34,-37.109,-207.03099999999998,1.0
1626294643.4129167,-101.56200000000001,-25.879,-16.602,-147.461,1.0
1626294643.416823,17.578,-17.578,-13.184000000000001,123.535,1.0
1626294643.4207292,54.199,-30.761999999999997,-22.949,131.836,1.0
1626294643.4246354,-52.733999999999995,-46.387,-29.296999999999997,-134.766,1.0
1626294643.4285414,-102.539,-31.25,-42.48,-189.94099999999997,1.0
1626294643.432448,12.207,-13.672,-20.508000000000003,81.055,1.0
1626294643.4363542,62.5,-31.738000000000003,-19.531,1.0,1.0
1626294643.4402604,-39.551,-47.852,-32.715,1.0,1.0
1626294643.4441667,-125.977,-39.062,-25.879,1.0,1.0
1626294643.448073,-66.406,-41.016000000000005,-24.414,1.0,1.0
1626294643.4519792,35.645,-47.363,-47.852,1.0,1.0
1626294643.4558854,6.348,-27.831999999999997,-62.988,1.0,1.0
1626294643.4597917,-106.934,-34.668,-56.641000000000005,1.0,1.0
1626294643.463698,-79.59,-32.227,-31.738000000000003,1.0,1.0
1626294643.4676042,48.34,-19.043,-7.324,1.0,1.0
1626294643.4715104,50.293,-18.066,-14.648,1.0,1.0
1626294643.475417,-70.801,-31.738000000000003,-19.531,1.0,1.0
1626294643.479323,-110.352,-47.363,-20.02,1.0,1.0
1626294643.483229,5.859,-23.926,-16.113,103.027,1.0
1626294643.4871356,75.684,-9.277000000000001,-24.901999999999997,152.344,1.0
1626294643.4910414,-22.461,-46.875,-35.645,-118.652,1.0
1626294643.4949477,-110.84,-43.457,-34.18,-213.37900000000002,1.0
1626294643.498854,-24.901999999999997,-29.785,-24.414,37.109,1.0
1626294643.5027602,65.918,-40.527,-24.901999999999997,169.43400000000003,1.0
1626294643.506667,12.207,-11.719000000000001,-33.203,-27.344,1.0
1626294643.510573,-89.355,-7.812,-41.016000000000005,-207.52,1.0
1626294643.5144792,-36.133,-20.996,-24.901999999999997,-29.785,1.0
1626294643.5183854,67.87100000000001,-22.461,-11.23,182.61700000000002,1.0
1626294643.5222914,9.277000000000001,-50.293,-37.109,21.973000000000003,1.0
1626294643.526198,-108.887,-85.449,-67.383,-231.445,1.0
1626294643.5301042,-111.816,-65.43,-25.391,-121.094,1.0
1626294643.5340102,-49.805,-60.547,-29.296999999999997,157.227,1.0
1626294643.5379167,57.617,-30.273000000000003,-36.133,108.887,1.0
1626294643.541823,34.668,-17.578,-30.761999999999997,-175.293,1.0
1626294643.5457292,-81.055,-29.785,-37.598,-180.66400000000002,1.0
1626294643.5496354,-90.82,-34.18,-49.316,97.16799999999999,1.0
1626294643.5535417,26.366999999999997,-14.648,-40.527,170.898,1.0
1626294643.557448,52.246,-4.883,-24.414,-95.215,1.0
1626294643.5613542,-61.523,-45.41,-36.133,-216.797,1.0
1626294643.5652604,-114.74600000000001,-57.617,-40.527,31.25,1.0
1626294643.5691667,1.465,-35.156,-25.879,179.199,1.0
1626294643.573073,69.824,-59.57,-22.949,-40.039,1.0
1626294643.5769792,-35.645,-55.663999999999994,-32.715,1.0,1.0
1626294643.5808856,-116.211,-27.831999999999997,-46.387,1.0,1.0
1626294643.5847917,-19.043,-12.695,-40.527,1.0,1.0
1626294643.588698,82.031,-14.648,-29.296999999999997,1.0,1.0
1626294643.5926042,7.812,-34.668,-28.32,1.0,1.0
1626294643.5965104,-113.77,-43.457,-31.25,1.0,1.0
1626294643.6004167,-67.87100000000001,-21.484,-32.227,1.0,1.0
1626294643.604323,63.477,-5.859,-13.184000000000001,1.0,1.0
1626294643.608229,48.828,-18.555,-3.418,1.0,1.0
1626294643.6121356,-70.801,-31.25,-17.09,1.0,1.0
1626294643.6160414,-82.031,-16.113,-34.18,1.0,1.0
1626294643.6199481,42.48,-0.488,-17.09,1.0,1.0
1626294643.623854,61.035,-15.625,-28.809,136.719,1.0
1626294643.6277602,-55.176,-19.043,-47.852,-136.23,1.0
1626294643.631667,-86.426,-28.809,-14.648,-177.24599999999998,1.0
1626294643.635573,11.719000000000001,-27.831999999999997,-2.93,75.684,1.0
1626294643.639479,82.031,5.371,-10.742,177.734,1.0
1626294643.6433854,-9.766,-2.441,-34.18,-63.477,1.0
1626294643.6472914,-109.375,-28.809,-47.363,-223.145,1.0
1626294643.651198,-46.875,-20.508000000000003,-38.086,-18.066,1.0
1626294643.6551042,59.082,-9.766,-26.366999999999997,179.199,1.0
1626294643.6590104,15.625,-12.695,-14.648,12.207,1.0
1626294643.6629167,-105.95700000000001,-28.809,-33.203,-222.168,1.0
1626294643.666823,-86.426,-77.148,-49.316,-106.445,1.0
1626294643.6707292,-40.527,-21.973000000000003,-17.09,-22.461,1.0
1626294643.6746354,56.152,-33.691,-30.761999999999997,167.48,1.0
1626294643.6785414,8.301,-38.086,-39.551,11.23,1.0
1626294643.682448,-101.56200000000001,-26.855,-38.086,-219.238,1.0
1626294643.6863542,-92.285,-25.391,-58.593999999999994,-128.906,1.0
1626294643.6902604,33.203,-8.789,-44.434,133.789,1.0
1626294643.6941667,46.875,-26.366999999999997,-11.23,96.68,1.0
1626294643.698073,-84.473,-62.988,-17.09,-183.59400000000002,1.0
1626294643.7019792,-119.62899999999999,-54.688,-29.785,-190.43,1.0
1626294643.7058854,7.812,-27.831999999999997,-20.508000000000003,87.891,1.0
1626294643.7097917,65.918,-14.648,-12.695,147.94899999999998,1.0
1626294643.713698,-62.012,-47.852,-38.574,-128.906,1.0
1626294643.7176042,-85.93799999999999,-27.344,-39.551,-241.699,1.0
1626294643.7215104,-135.254,-43.457,-41.504,19.043,1.0
1626294643.725417,-18.555,-24.901999999999997,-26.366999999999997,176.27,1.0
1626294643.729323,47.852,-12.695,-30.273000000000003,-49.316,1.0
1626294643.733229,-52.733999999999995,-25.879,-33.691,-244.141,1.0
1626294643.7371356,-127.93,-37.109,-26.855,-46.875,1.0
1626294643.7410414,-41.016000000000005,-26.366999999999997,-20.02,178.22299999999998,1.0
1626294643.7449477,49.805,-15.137,-11.719000000000001,42.968999999999994,1.0
1626294643.748854,-18.555,-41.504,-28.809,-195.801,1.0
1626294643.7527602,-134.27700000000002,-61.523,-56.152,-104.492,1.0
1626294643.756667,-92.773,-54.688,-39.551,153.809,1.0
1626294643.760573,24.901999999999997,-31.25,-23.926,118.164,1.0
1626294643.7644792,26.855,-6.348,-26.855,1.0,1.0
1626294643.7683854,-96.68,-27.344,-41.504,1.0,1.0
1626294643.7722914,-123.535,-43.945,-38.086,1.0,1.0
1626294643.776198,6.836,-15.625,-11.719000000000001,1.0,1.0
1626294643.7801042,31.25,-24.901999999999997,-20.996,1.0,1.0
1626294643.7840102,-79.102,-36.621,-32.715,1.0,1.0
1626294643.7879167,-111.816,-26.855,-26.366999999999997,1.0,1.0
1626294643.791823,-8.301,-25.391,-24.414,1.0,1.0
1626294643.7957292,52.733999999999995,-18.066,-31.738000000000003,1.0,1.0
1626294643.7996354,-52.246,-42.48,-52.246,1.0,1.0
1626294643.8035417,-124.023,-84.473,-55.176,1.0,1.0
1626294643.807448,-16.602,-30.761999999999997,-23.926,1.0,1.0
1626294643.8113542,78.125,8.301,-8.789,200.195,1.0
1626294643.8152604,5.371,-12.695,-29.296999999999997,5.371,1.0
1626294643.8191667,-119.62899999999999,-16.113,-49.316,-232.422,1.0
1626294643.823073,-88.37899999999999,-29.296999999999997,-43.457,-101.56200000000001,1.0
1626294643.8269792,46.387,-24.414,-31.738000000000003,151.855,1.0
1626294643.8308856,54.199,-23.926,-30.761999999999997,87.402,1.0
1626294643.8347917,-68.848,-57.617,-35.156,-183.59400000000002,1.0
1626294643.838698,-98.633,-73.73,-42.48,-167.96900000000002,1.0
1626294643.8426042,24.414,-27.344,-24.901999999999997,119.62899999999999,1.0
1626294643.8465104,70.801,10.742,-9.277000000000001,153.809,1.0
1626294643.8504167,-52.733999999999995,-2.93,-36.621,-128.418,1.0
1626294643.854323,-123.04700000000001,-9.277000000000001,-61.523,-216.30900000000003,1.0
1626294643.858229,-100.586,-35.645,-26.366999999999997,-183.59400000000002,1.0
1626294643.8621356,4.883,-27.831999999999997,-26.366999999999997,88.37899999999999,1.0
1626294643.8660414,55.663999999999994,-28.32,-42.48,140.137,1.0
1626294643.8699481,-44.434,-26.855,-48.34,-119.141,1.0
1626294643.873854,-125.488,-50.293,-33.203,-208.00799999999998,1.0
1626294643.8777602,-8.301,-28.809,4.395,53.223,1.0
1626294643.881667,68.848,-23.926,-8.301,177.734,1.0
1626294643.885573,-18.066,-41.992,-41.504,-52.733999999999995,1.0
1626294643.889479,-111.32799999999999,-38.086,-60.547,-235.352,1.0
1626294643.8933854,-63.477,-31.738000000000003,-58.593999999999994,-61.035,1.0
1626294643.8972914,56.152,-18.066,-23.438000000000002,171.875,1.0
1626294643.901198,24.901999999999997,-17.09,-27.831999999999997,37.109,1.0
1626294643.9051042,-103.516,-39.062,-51.27,1.0,1.0
1626294643.9090104,-80.078,-55.663999999999994,-29.296999999999997,1.0,1.0
1626294643.9129167,36.621,-33.691,-1.465,1.0,1.0
1626294643.916823,34.18,-17.09,-5.859,1.0,1.0
1626294643.9207292,-83.984,-42.48,-22.461,1.0,1.0
1626294643.9246354,-114.258,-41.016000000000005,-22.949,1.0,1.0
1626294643.9285414,3.906,-14.648,-11.23,1.0,1.0
1626294643.932448,69.336,-12.695,-19.043,1.0,1.0
1626294643.9363542,-19.043,-22.949,-32.715,1.0,1.0
1626294643.9402604,-88.867,-24.901999999999997,-12.207,1.0,1.0
1626294643.9441667,-13.672,-17.578,-12.695,1.0,1.0
1626294643.948073,86.914,2.441,-18.555,1.0,1.0
1626294643.9519792,26.855,1.953,-26.855,-6.348,1.0
1626294643.9558854,-110.352,-34.668,-40.527,-229.98,1.0
1626294643.9597917,-75.195,-40.039,-33.203,-77.148,1.0
1626294643.963698,52.733999999999995,-25.391,-23.438000000000002,169.43400000000003,1.0
1626294643.9676042,40.527,-19.531,-22.461,72.75399999999999,1.0
1626294643.9715104,-65.43,-35.645,-42.48,-176.27,1.0
1626294643.975417,-75.684,-62.012,-54.199,-134.27700000000002,1.0
1626294643.979323,20.02,-64.453,-38.086,116.699,1.0
1626294643.983229,49.805,-40.527,-30.273000000000003,119.141,1.0
1626294643.9871356,-68.848,-46.875,-32.715,-159.18,1.0
1626294643.9910414,-115.723,-59.57,-14.16,-203.125,1.0
1626294643.9949477,15.625,-9.766,14.648,89.844,1.0
1626294643.998854,80.078,7.324,8.301,183.59400000000002,1.0
1626294644.0027602,-27.831999999999997,-14.648,-29.785,-82.031,1.0
1626294644.006667,-120.605,-21.484,-43.457,-235.352,1.0
1626294644.010573,-45.898,-16.113,-33.203,-24.414,1.0
1626294644.0144792,56.152,-9.766,-24.414,163.086,1.0
1626294644.0183854,5.859,-32.227,-23.438000000000002,-7.324,1.0
1626294644.0222914,-107.42200000000001,-58.105,-37.598,-221.19099999999997,1.0
1626294644.026198,-80.078,-64.453,-40.527,-92.285,1.0
1626294644.0301042,41.504,-42.968999999999994,-31.25,147.461,1.0
1626294644.0340102,21.973000000000003,-20.02,-45.41,58.593999999999994,1.0
1626294644.0379167,-104.00399999999999,-24.901999999999997,-57.617,-208.49599999999998,1.0
1626294644.041823,-117.18799999999999,-31.738000000000003,-44.434,-174.805,1.0
1626294644.0457292,-129.88299999999998,-40.039,-49.805,-130.371,1.0
1626294644.0496354,-63.965,-25.391,-25.391,136.719,1.0
1626294644.0535417,42.48,-20.996,-23.438000000000002,93.262,1.0
1626294644.057448,0.488,-36.133,-31.25,-185.547,1.0
1626294644.0613542,-107.42200000000001,-32.715,-26.855,-178.22299999999998,1.0
1626294644.0652604,-75.684,-25.391,-9.277000000000001,115.234,1.0
1626294644.0691667,30.273000000000003,-25.391,-20.508000000000003,165.03900000000002,1.0
1626294644.073073,29.296999999999997,-29.296999999999997,-38.086,-118.164,1.0
1626294644.0769792,-85.93799999999999,-39.062,-45.898,-227.051,1.0
1626294644.0808856,-118.652,-49.316,-43.457,26.366999999999997,1.0
1626294644.0847917,9.277000000000001,-42.968999999999994,-20.996,163.086,1.0
1626294644.088698,59.082,-24.414,-24.901999999999997,-63.477,1.0
1626294644.0926042,-57.617,-44.922,-48.828,-116.699,1.0
1626294644.0965104,-133.30100000000002,-66.895,-54.688,-228.516,1.0
1626294644.1004167,-31.25,-55.176,-41.992,18.555,1.0
1626294644.104323,73.73,-20.02,-10.742,189.453,1.0
1626294644.108229,3.418,-11.719000000000001,-5.371,-2.441,1.0
1626294644.1121356,-111.32799999999999,-50.781000000000006,-30.273000000000003,-203.613,1.0
1626294644.1160414,-79.59,-50.293,-38.086,-69.824,1.0
1626294644.1199481,29.296999999999997,-30.273000000000003,-34.668,146.97299999999998,1.0
1626294644.123854,20.02,-15.137,-43.945,49.805,1.0
1626294644.1277602,-104.98,-26.855,-57.617,-200.195,1.0
1626294644.131667,-99.12100000000001,-40.039,-33.691,-136.719,1.0
1626294644.135573,36.621,-22.949,-6.348,139.16,1.0
1626294644.139479,52.733999999999995,-27.344,-13.672,126.465,1.0
1626294644.1433854,-76.66,-42.968999999999994,-31.738000000000003,-156.25,1.0
1626294644.1472914,-113.281,-34.668,-16.113,-189.453,1.0
1626294644.151198,-1.465,-30.761999999999997,-6.836,75.195,1.0
1626294644.1551042,65.918,-35.156,-15.137,159.18,1.0
1626294644.1590104,-24.414,-37.598,-27.831999999999997,-69.824,1.0
1626294644.1629167,-127.93,-36.621,-44.434,-223.145,1.0
1626294644.166823,-55.176,-29.785,-47.363,-11.23,1.0
1626294644.1707292,54.199,-7.324,-22.461,181.641,1.0
1626294644.1746354,-14.16,-9.766,-21.973000000000003,-12.695,1.0
1626294644.1785414,-130.371,-34.668,-36.621,-244.62900000000002,1.0
1626294644.182448,-86.426,-34.668,-39.062,-94.238,1.0
1626294644.1863542,-40.527,-25.879,-32.227,-28.32,1.0
1626294644.1902604,69.824,-26.366999999999997,-35.156,179.199,1.0
1626294644.1941667,17.578,-31.738000000000003,-59.082,32.715,1.0
1626294644.198073,-89.355,-35.645,-48.828,-196.28900000000002,1.0
1626294644.2019792,-71.289,-48.828,-41.504,-106.445,1.0
1626294644.2058854,55.663999999999994,-41.016000000000005,-21.484,160.156,1.0
1626294644.2097917,47.363,-42.968999999999994,-5.371,93.262,1.0
1626294644.213698,-87.402,-46.875,-26.855,-197.75400000000002,1.0
1626294644.2176042,-100.098,-24.414,-36.133,-171.387,1.0
1626294644.2215104,18.066,-26.855,-25.391,104.98,1.0
1626294644.225417,46.387,-41.016000000000005,-30.761999999999997,131.836,1.0
1626294644.229323,-67.87100000000001,-28.809,-36.133,-131.836,1.0
1626294644.233229,-80.566,-30.273000000000003,-33.691,-210.938,1.0
1626294644.2371356,-110.352,-47.852,-39.062,40.527,1.0
1626294644.2410414,6.348,-50.781000000000006,-34.668,167.96900000000002,1.0
1626294644.2449477,72.75399999999999,-54.688,-24.901999999999997,-58.105,1.0
1626294644.248854,-20.996,-53.711000000000006,-23.926,-232.91,1.0
1626294644.2527602,-94.238,-41.016000000000005,-36.133,-64.941,1.0
1626294644.256667,-24.901999999999997,-20.508000000000003,-32.715,145.50799999999998,1.0
1626294644.260573,46.387,2.93,-17.578,19.531,1.0
1626294644.2644792,-17.09,-3.418,-37.109,-215.332,1.0
1626294644.2683854,-112.305,-21.484,-53.223,-128.418,1.0
1626294644.2722914,-68.359,-24.901999999999997,-27.344,141.113,1.0
1626294644.276198,30.761999999999997,-44.922,-15.137,100.586,1.0
1626294644.2801042,16.602,-45.41,-12.207,1.0,1.0
1626294644.2840102,-85.93799999999999,-25.879,-27.831999999999997,1.0,1.0
1626294644.2879167,-79.102,-36.621,-42.968999999999994,1.0,1.0
1626294644.291823,53.223,-44.922,-9.766,1.0,1.0
1626294644.2957292,44.434,-49.805,-31.25,1.0,1.0
1626294644.2996354,-87.891,-59.082,-54.199,1.0,1.0
1626294644.3035417,-125.977,-42.48,-46.387,1.0,1.0
1626294644.307448,-19.531,-2.441,-48.828,1.0,1.0
1626294644.3113542,42.968999999999994,-12.695,-32.715,1.0,1.0
1626294644.3152604,-58.593999999999994,-49.805,-40.039,1.0,1.0
1626294644.3191667,-138.672,-36.621,-44.922,1.0,1.0
1626294644.323073,-54.199,-58.105,-27.831999999999997,1.0,1.0
1626294644.3269792,59.082,-57.617,-7.812,176.27,1.0
1626294644.3308856,-17.578,-59.57,-40.527,-39.062,1.0
1626294644.3347917,-134.27700000000002,-51.27,-65.918,-265.137,1.0
1626294644.338698,-65.918,1.465,-34.668,-79.59,1.0
1626294644.3426042,45.898,-14.648,-21.484,168.945,1.0
1626294644.3465104,40.039,-22.949,-28.32,80.566,1.0
1626294644.3504167,-83.49600000000001,-44.434,-39.551,-177.24599999999998,1.0
1626294644.354323,-97.656,-47.363,-47.852,-135.74200000000002,1.0
1626294644.358229,37.598,-4.883,-32.227,141.602,1.0
1626294644.3621356,53.711000000000006,-13.184000000000001,-15.625,131.836,1.0
1626294644.3660414,-80.566,-45.41,-28.809,-147.461,1.0
1626294644.3699481,-134.27700000000002,-60.059,-48.34,-214.84400000000002,1.0
1626294644.373854,-99.609,-23.438000000000002,-36.133,-154.785,1.0
1626294644.3777602,8.301,-33.691,-36.621,108.887,1.0
1626294644.381667,51.27,-39.062,-45.41,133.789,1.0
1626294644.385573,-50.781000000000006,-47.852,-39.551,-121.58200000000001,1.0
1626294644.389479,-107.91,-44.434,-21.973000000000003,-202.637,1.0
1626294644.3933854,-5.859,-13.184000000000001,-14.648,47.852,1.0
1626294644.3972914,44.922,-26.366999999999997,-35.645,158.691,1.0
1626294644.401198,-37.109,-33.203,-49.316,-73.73,1.0
1626294644.4051042,-113.77,-20.508000000000003,-41.504,-227.53900000000002,1.0
1626294644.4090104,-47.852,-33.691,-38.086,-32.227,1.0
1626294644.4129167,63.477,-15.625,-38.574,171.387,1.0
1626294644.416823,-11.719000000000001,-45.898,-59.57,2.441,1.0
1626294644.4207292,-133.30100000000002,-83.008,-52.246,1.0,1.0
1626294644.4246354,-85.449,-61.035,-31.738000000000003,1.0,1.0
1626294644.4285414,41.016000000000005,-19.043,-17.09,1.0,1.0
1626294644.432448,44.922,4.395,-21.973000000000003,1.0,1.0
1626294644.4363542,-101.074,-36.133,-48.34,1.0,1.0
1626294644.4402604,-98.633,-19.531,-31.738000000000003,1.0,1.0
1626294644.4441667,26.366999999999997,3.906,-7.324,1.0,1.0
1626294644.448073,48.34,-20.02,-12.207,1.0,1.0
1626294644.4519792,-49.805,-26.366999999999997,-40.527,1.0,1.0
1626294644.4558854,-140.625,-35.645,-57.129,1.0,1.0
1626294644.4597917,-43.945,-28.32,-39.062,1.0,1.0
1626294644.463698,67.383,-19.043,-17.09,1.0,1.0
1626294644.4676042,-6.836,-34.18,-20.02,-24.414,1.0
1626294644.4715104,-113.281,-49.316,-31.25,-241.699,1.0
1626294644.475417,-73.73,-40.527,-18.555,-73.242,1.0
1626294644.479323,41.504,-10.254000000000001,-0.488,166.50400000000002,1.0
1626294644.483229,23.438000000000002,-13.184000000000001,-12.207,45.41,1.0
1626294644.4871356,-89.844,-23.438000000000002,-41.992,-202.637,1.0
1626294644.4910414,-119.141,-41.016000000000005,-50.293,-144.043,1.0
1626294644.4949477,12.695,-26.366999999999997,-16.602,136.719,1.0
1626294644.498854,57.617,-33.691,-16.113,129.395,1.0
1626294644.5027602,-70.312,-55.176,-50.293,-158.691,1.0
1626294644.506667,-108.398,-33.203,-46.875,-190.918,1.0
1626294644.510573,-25.879,-53.223,-44.922,48.34,1.0
1626294644.5144792,20.02,-24.414,-48.34,136.719,1.0
1626294644.5183854,40.527,-18.555,-58.593999999999994,124.512,1.0
1626294644.5222914,-86.914,-31.738000000000003,-37.598,-171.875,1.0
1626294644.526198,-131.836,-41.016000000000005,-18.555,-221.19099999999997,1.0
1626294644.5301042,-14.16,-36.133,-13.184000000000001,50.781000000000006,1.0
1626294644.5340102,64.941,-27.831999999999997,-27.344,166.99200000000002,1.0
1626294644.5379167,-38.086,-29.296999999999997,-47.852,-82.52,1.0
1626294644.541823,-130.859,-41.504,-41.992,-239.25799999999998,1.0
1626294644.5457292,-50.781000000000006,-41.504,-16.602,-27.344,1.0
1626294644.5496354,52.246,-28.32,-4.395,163.086,1.0
1626294644.5535417,7.812,-49.316,-23.438000000000002,-6.836,1.0
1626294644.557448,-127.441,-61.523,-65.43,-255.37099999999998,1.0
1626294644.5613542,-105.469,-28.32,-46.387,-126.465,1.0
1626294644.5652604,-40.039,0.488,-28.809,148.438,1.0
1626294644.5691667,54.688,-12.207,-27.831999999999997,101.56200000000001,1.0
1626294644.573073,16.113,-28.32,-50.293,-176.27,1.0
1626294644.5769792,-76.66,-18.555,-48.828,-167.96900000000002,1.0
1626294644.5808856,-51.758,-11.23,-19.531,118.652,1.0
1626294644.5847917,41.992,-36.133,-16.602,149.90200000000002,1.0
1626294644.588698,40.039,-40.039,-31.25,-122.07,1.0
1626294644.5926042,-72.75399999999999,-44.922,-30.761999999999997,-208.00799999999998,1.0
1626294644.5965104,-99.609,-45.41,-30.273000000000003,48.828,1.0
1626294644.6004167,25.391,-10.254000000000001,-33.691,178.71099999999998,1.0
1626294644.604323,84.473,-23.926,-17.578,-57.129,1.0
1626294644.608229,-35.156,-37.109,-29.296999999999997,1.0,1.0
1626294644.6121356,-103.516,-14.648,-56.152,1.0,1.0
1626294644.6160414,7.324,-20.02,-36.621,1.0,1.0
1626294644.6199481,92.773,-27.831999999999997,-20.996,1.0,1.0
1626294644.623854,3.418,-29.296999999999997,-42.968999999999994,1.0,1.0
1626294644.6277602,-109.375,-21.484,-67.87100000000001,1.0,1.0
1626294644.631667,-41.504,-3.906,-30.273000000000003,1.0,1.0
1626294644.635573,74.707,-7.812,0.0,1.0,1.0
1626294644.639479,37.109,-33.691,-3.906,1.0,1.0
1626294644.6433854,-110.84,-56.641000000000005,-25.391,1.0,1.0
1626294644.6472914,-127.93,-48.34,-44.434,1.0,1.0
1626294644.651198,14.16,-31.25,-34.18,1.0,1.0
1626294644.6551042,50.293,-40.039,-35.156,104.98,1.0
1626294644.6590104,-73.242,-53.711000000000006,-39.062,-171.387,1.0
1626294644.6629167,-113.281,-55.663999999999994,-24.901999999999997,-193.84799999999998,1.0
1626294644.666823,11.719000000000001,-39.551,-18.066,87.891,1.0
1626294644.6707292,68.848,-19.531,-21.973000000000003,163.086,1.0
1626294644.6746354,-39.062,-17.578,-40.527,-95.70299999999999,1.0
1626294644.6785414,-114.258,-24.414,-50.781000000000006,-215.82,1.0
1626294644.682448,-17.578,-27.344,-24.901999999999997,16.602,1.0
1626294644.6863542,75.684,-36.621,-27.344,181.641,1.0
1626294644.6902604,1.465,-37.109,-35.156,-11.719000000000001,1.0
1626294644.6941667,-133.30100000000002,-39.551,-42.48,-242.188,1.0
1626294644.698073,-97.16799999999999,-43.457,-41.992,-104.492,1.0
1626294644.7019792,-11.23,-27.831999999999997,-12.207,13.672,1.0
1626294644.7058854,76.66,-38.574,-11.719000000000001,187.012,1.0
1626294644.7097917,-13.672,-55.663999999999994,-32.227,-24.414,1.0
1626294644.713698,-130.371,-27.831999999999997,-36.133,-250.977,1.0
1626294644.7176042,-95.215,-18.555,-38.086,-114.74600000000001,1.0
1626294644.7215104,31.738000000000003,-29.296999999999997,-31.738000000000003,140.625,1.0
1626294644.725417,18.066,-50.293,-57.129,57.617,1.0
1626294644.729323,-99.12100000000001,-51.758,-54.199,-203.125,1.0
1626294644.733229,-74.707,-34.18,-18.066,-147.94899999999998,1.0
1626294644.7371356,45.898,-24.901999999999997,-13.672,118.164,1.0
1626294644.7410414,48.34,-20.02,-5.859,127.93,1.0
1626294644.7449477,-78.613,-46.387,-26.366999999999997,-157.715,1.0
1626294644.748854,-132.32399999999998,-46.387,-52.246,1.0,1.0
1626294644.7527602,-14.648,-18.555,-41.504,1.0,1.0
1626294644.756667,79.59,2.441,-25.391,1.0,1.0
1626294644.760573,-39.062,-26.366999999999997,-37.109,1.0,1.0
1626294644.7644792,-164.551,-98.145,-41.992,1.0,1.0
1626294644.7683854,-66.406,-51.758,-25.879,1.0,1.0
1626294644.7722914,65.43,2.441,-8.789,1.0,1.0
1626294644.776198,20.02,-40.039,-1.465,1.0,1.0
1626294644.7801042,-99.12100000000001,-74.707,-13.184000000000001,1.0,1.0
1626294644.7840102,-87.891,-55.663999999999994,-32.715,1.0,1.0
1626294644.7879167,41.504,-9.277000000000001,-24.414,1.0,1.0
1626294644.791823,37.598,-19.531,-29.785,1.0,1.0
1626294644.7957292,-69.824,-18.066,-41.016000000000005,1.0,1.0
1626294644.7996354,-94.238,-19.043,-33.691,1.0,1.0
1626294644.8035417,-6.836,-35.156,-35.156,1.0,1.0
1626294644.807448,62.988,-10.742,-36.621,1.0,1.0
1626294644.8113542,-39.062,-26.855,-46.875,1.0,1.0
1626294644.8152604,-113.281,-58.593999999999994,-31.738000000000003,1.0,1.0
1626294644.8191667,-20.996,-81.543,-18.555,1.0,1.0
1626294644.823073,58.105,-47.852,-26.366999999999997,1.0,1.0
1626294644.8269792,-8.301,-20.02,-23.926,1.0,1.0
1626294644.8308856,-103.027,-18.066,-21.484,1.0,1.0
1626294644.8347917,-61.523,-11.719000000000001,-24.414,1.0,1.0
1626294644.838698,45.898,-26.366999999999997,-24.414,1.0,1.0
1626294644.8426042,28.32,-18.555,-36.133,1.0,1.0
1626294644.8465104,-100.586,-33.203,-50.781000000000006,1.0,1.0
1626294644.8504167,-94.727,-38.086,-19.043,1.0,1.0
1626294644.854323,18.066,-7.812,-18.066,1.0,1.0
1626294644.858229,26.366999999999997,-26.855,-48.828,1.0,1.0
1626294644.8621356,-81.055,-63.477,-22.461,1.0,1.0
1626294644.8660414,-122.559,-50.781000000000006,-20.996,1.0,1.0
1626294644.8699481,10.742,-10.742,-15.625,1.0,1.0
1626294644.873854,84.473,17.09,0.977,1.0,1.0
1626294644.8777602,-41.992,13.672,-37.598,1.0,1.0
1626294644.881667,-124.023,-36.133,-39.551,1.0,1.0
1626294644.885573,-30.273000000000003,-49.316,-9.277000000000001,1.0,1.0
1626294644.889479,50.781000000000006,-23.926,-20.02,170.41,1.0
1626294644.8933854,-28.809,-31.25,-47.852,-42.48,1.0
1626294644.8972914,-124.512,-37.598,-49.316,-238.77,1.0
1626294644.901198,-76.66,-36.133,-49.316,-67.87100000000001,1.0
1626294644.9051042,41.992,-33.691,-33.691,164.551,1.0
1626294644.9090104,47.852,-27.831999999999997,-10.254000000000001,68.848,1.0
1626294644.9129167,-83.008,-26.366999999999997,-18.066,-190.918,1.0
1626294644.916823,-105.469,-35.156,-27.344,-156.25,1.0
1626294644.9207292,14.648,-29.296999999999997,-23.438000000000002,105.95700000000001,1.0
1626294644.9246354,47.363,-24.414,-25.879,107.91,1.0
1626294644.9285414,-66.895,-24.901999999999997,-28.32,-147.94899999999998,1.0
1626294644.932448,-130.859,-21.484,-37.598,-190.43,1.0
1626294644.9363542,-88.867,-18.555,-7.324,-131.836,1.0
1626294644.9402604,38.086,-38.574,-15.625,125.488,1.0
1626294644.9441667,59.57,-63.477,-54.688,134.766,1.0
1626294644.948073,-41.992,-38.086,-65.918,-114.74600000000001,1.0
1626294644.9519792,-104.492,-52.246,-53.711000000000006,-179.199,1.0
1626294644.9558854,5.371,-41.992,-8.789,83.49600000000001,1.0
1626294644.9597917,99.12100000000001,-44.434,2.93,202.637,1.0
1626294644.963698,-15.137,-86.426,-30.273000000000003,-59.082,1.0
1626294644.9676042,-106.445,-43.945,-38.574,-215.82,1.0
1626294644.9715104,-17.578,1.953,-36.621,-1.465,1.0
1626294644.975417,74.219,-4.883,-28.809,183.105,1.0
1626294644.979323,-2.441,-94.238,-31.25,0.488,1.0
1626294644.983229,-110.84,-85.93799999999999,-24.414,1.0,1.0
1626294644.9871356,-71.289,-44.434,-36.133,1.0,1.0
1626294644.9910414,48.828,-9.277000000000001,-30.273000000000003,1.0,1.0
1626294644.9949477,27.344,-8.301,-20.02,1.0,1.0
1626294644.998854,-99.609,-78.125,-52.246,1.0,1.0
1626294645.0027602,-108.887,-44.434,-52.246,1.0,1.0
1626294645.006667,6.348,-19.043,-24.414,1.0,1.0
1626294645.010573,43.457,-24.414,-30.273000000000003,1.0,1.0
1626294645.0144792,-71.777,-58.105,-54.199,1.0,1.0
1626294645.0183854,-116.211,-104.98,-41.016000000000005,1.0,1.0
1626294645.0222914,-1.465,-24.901999999999997,-2.441,1.0,1.0
1626294645.026198,48.828,-11.23,-3.906,1.0,1.0
1626294645.0301042,-51.758,-33.691,-34.668,-66.406,1.0
1626294645.0340102,-142.09,-52.733999999999995,-67.383,-242.188,1.0
1626294645.0379167,-71.777,-62.988,-40.527,-41.016000000000005,1.0
1626294645.041823,48.34,-21.973000000000003,6.348,186.035,1.0
1626294645.0457292,-6.348,-45.898,-20.508000000000003,18.555,1.0
1626294645.0496354,-138.672,-72.266,-48.828,-234.863,1.0
1626294645.0535417,-123.535,-83.008,-45.898,-142.09,1.0
1626294645.057448,12.695,-43.945,-43.457,129.88299999999998,1.0
1626294645.0613542,29.785,-15.137,-53.223,90.82,1.0
1626294645.0652604,-101.074,-30.761999999999997,-58.593999999999994,-189.94099999999997,1.0
1626294645.0691667,-128.418,-20.996,-48.828,-202.148,1.0
1626294645.073073,-8.789,-65.43,-33.203,65.918,1.0
1626294645.0769792,34.668,5.371,-22.949,137.695,1.0
1626294645.0808856,45.898,-13.184000000000001,-49.805,107.91,1.0
1626294645.0847917,-91.79700000000001,-45.41,-67.383,-192.87099999999998,1.0
1626294645.088698,-117.676,-31.25,-42.968999999999994,-218.262,1.0
1626294645.0926042,2.441,-17.578,-27.831999999999997,59.57,1.0
1626294645.0965104,68.359,-19.043,-22.461,152.832,1.0
1626294645.1004167,-53.223,-53.223,-44.434,-117.676,1.0
1626294645.104323,-144.531,-61.035,-39.551,-251.953,1.0
1626294645.108229,-19.531,-14.648,6.836,9.277000000000001,1.0
1626294645.1121356,93.75,14.16,19.043,201.66,1.0
1626294645.1160414,24.414,9.766,-12.695,21.973000000000003,1.0
1626294645.1199481,-124.512,-31.25,-70.312,-228.516,1.0
1626294645.123854,-107.91,-45.41,-44.434,-107.91,1.0
1626294645.1277602,-49.316,-29.785,-40.527,141.602,1.0
1626294645.131667,29.785,-28.809,-41.016000000000005,44.434,1.0
1626294645.135573,1.953,-26.366999999999997,-42.48,-227.53900000000002,1.0
1626294645.139479,-104.492,-42.48,-52.733999999999995,-194.33599999999998,1.0
1626294645.1433854,-68.359,-42.968999999999994,-21.973000000000003,107.91,1.0
1626294645.1472914,51.758,-56.641000000000005,-24.414,131.34799999999998,1.0
1626294645.151198,32.227,-58.105,-41.016000000000005,-142.578,1.0
1626294645.1551042,-82.031,-37.109,-32.227,-212.891,1.0
1626294645.1590104,-103.027,-26.855,-41.016000000000005,31.738000000000003,1.0
1626294645.1629167,27.344,-15.137,-12.695,160.156,1.0
1626294645.166823,56.641000000000005,-49.805,-30.273000000000003,-67.87100000000001,1.0
1626294645.1707292,-74.707,-42.968999999999994,-46.875,1.0,1.0
1626294645.1746354,-129.395,-27.344,-31.738000000000003,1.0,1.0
1626294645.1785414,-5.859,-14.16,-16.602,1.0,1.0
1626294645.182448,66.406,-7.324,-19.043,1.0,1.0
1626294645.1863542,-55.663999999999994,-63.965,-59.082,1.0,1.0
1626294645.1902604,-147.461,-55.663999999999994,-55.663999999999994,1.0,1.0
1626294645.1941667,-52.246,-24.901999999999997,-18.555,1.0,1.0
1626294645.198073,79.102,7.812,6.836,1.0,1.0
1626294645.2019792,13.184000000000001,-20.02,-24.901999999999997,1.0,1.0
1626294645.2058854,-146.97299999999998,-86.426,-61.523,1.0,1.0
1626294645.2097917,-106.445,-50.293,-50.781000000000006,1.0,1.0
1626294645.213698,42.48,-25.879,-47.852,1.0,1.0
1626294645.2176042,40.527,-31.25,-46.875,95.215,1.0
1626294645.2215104,-95.215,-46.875,-27.831999999999997,-185.05900000000003,1.0
1626294645.225417,-146.97299999999998,-58.593999999999994,-25.391,-209.96099999999998,1.0
1626294645.229323,-2.441,-15.137,-18.555,74.219,1.0
1626294645.233229,63.965,-10.742,-10.742,125.977,1.0
1626294645.2371356,-42.968999999999994,-34.668,-14.648,-109.375,1.0
1626294645.2410414,-131.836,-50.293,-40.527,-214.355,1.0
1626294645.2449477,-52.246,-35.645,-36.621,-3.906,1.0
1626294645.248854,52.246,5.859,-11.719000000000001,167.48,1.0
1626294645.2527602,3.906,-0.977,-15.625,-14.16,1.0
1626294645.256667,-100.586,-30.761999999999997,-21.973000000000003,-224.12099999999998,1.0
1626294645.260573,-92.285,-74.707,-42.968999999999994,-99.12100000000001,1.0
1626294645.2644792,-39.551,-17.09,-19.531,4.395,1.0
1626294645.2683854,59.57,-24.414,-20.996,176.75799999999998,1.0
1626294645.2722914,-13.672,-63.477,-35.645,-17.578,1.0
1626294645.276198,-116.211,-48.828,-40.527,-220.215,1.0
1626294645.2801042,-59.57,-16.602,-23.926,-59.082,1.0
1626294645.2840102,75.684,-0.977,-7.324,210.938,1.0
1626294645.2879167,52.733999999999995,-21.973000000000003,-21.973000000000003,104.492,1.0
1626294645.291823,-82.031,-44.922,-36.133,-184.082,1.0
1626294645.2957292,-103.516,-45.41,-34.18,-154.785,1.0
1626294645.2996354,18.555,-18.066,-17.578,115.234,1.0
1626294645.3035417,61.035,-12.207,-14.16,138.184,1.0
1626294645.307448,-46.875,-20.508000000000003,-28.32,-120.117,1.0
1626294645.3113542,-100.586,-49.805,-40.527,-199.707,1.0
1626294645.3152604,-124.512,-49.316,-47.363,-177.734,1.0
1626294645.3191667,17.578,-31.25,-45.898,101.56200000000001,1.0
1626294645.323073,69.824,-21.484,-35.156,150.391,1.0
1626294645.3269792,-35.156,-35.645,-36.621,-113.77,1.0
1626294645.3308856,-87.891,-40.039,-41.016000000000005,-188.477,1.0
1626294645.3347917,16.113,-12.207,-37.109,71.777,1.0
1626294645.338698,71.777,-7.812,-35.156,173.34,1.0
1626294645.3426042,-27.344,-29.785,-20.508000000000003,-61.523,1.0
1626294645.3465104,-121.094,-43.945,-22.949,-230.46900000000002,1.0
1626294645.3504167,-57.617,-36.133,-27.344,-50.781000000000006,1.0
1626294645.354323,45.898,-61.523,-39.062,162.109,1.0
1626294645.358229,2.93,-72.75399999999999,-63.965,1.0,1.0
1626294645.3621356,-94.238,-54.688,-46.875,1.0,1.0
1626294645.3660414,-51.758,-19.043,-29.296999999999997,1.0,1.0
1626294645.3699481,58.593999999999994,2.93,-33.203,1.0,1.0
1626294645.373854,34.18,-43.457,-32.715,1.0,1.0
1626294645.3777602,-80.566,-41.504,-17.578,1.0,1.0
1626294645.381667,-126.95299999999999,-36.133,-20.02,1.0,1.0
1626294645.385573,-21.484,-29.785,-28.809,1.0,1.0
1626294645.389479,45.41,-31.738000000000003,-30.273000000000003,1.0,1.0
1626294645.3933854,-73.73,-60.059,-45.41,1.0,1.0
1626294645.3972914,-144.531,-56.641000000000005,-38.574,1.0,1.0
1626294645.401198,-36.133,-35.645,-25.391,1.0,1.0
1626294645.4051042,68.359,-25.391,-32.715,162.109,1.0
1626294645.4090104,-12.695,-52.733999999999995,-51.27,-56.641000000000005,1.0
1626294645.4129167,-131.34799999999998,-70.312,-46.387,-245.11700000000002,1.0
1626294645.416823,-74.219,-48.34,-29.296999999999997,-62.5,1.0
1626294645.4207292,39.062,-28.32,-20.02,142.578,1.0
1626294645.4246354,5.371,-20.508000000000003,-34.668,15.625,1.0
1626294645.4285414,-106.934,-37.109,-47.852,-219.727,1.0
1626294645.432448,-78.613,-22.461,-22.949,-126.95299999999999,1.0
1626294645.4363542,32.227,-16.113,-10.254000000000001,137.207,1.0
1626294645.4402604,28.32,-29.785,-18.066,87.402,1.0
1626294645.4441667,-81.543,-22.949,-20.996,-173.34,1.0
1626294645.448073,-101.56200000000001,-29.785,-19.531,-176.27,1.0
1626294645.4519792,-113.77,-22.949,-44.922,-157.715,1.0
1626294645.4558854,2.93,-28.32,-34.18,112.305,1.0
1626294645.4597917,40.039,-45.898,-32.715,125.0,1.0
1626294645.463698,-72.266,-43.945,-66.895,-162.59799999999998,1.0
1626294645.4676042,-116.211,-24.901999999999997,-62.5,-217.285,1.0
1626294645.4715104,-2.93,-8.789,-31.25,62.988,1.0
1626294645.475417,45.41,-36.621,-31.25,150.391,1.0
1626294645.479323,-55.176,-46.387,-35.156,-105.95700000000001,1.0
1626294645.483229,-122.559,-25.391,-46.387,-239.74599999999998,1.0
1626294645.4871356,-48.828,-38.086,-49.805,-33.691,1.0
1626294645.4910414,42.48,-44.434,-41.992,151.36700000000002,1.0
1626294645.4949477,-18.066,-85.449,-58.593999999999994,-18.066,1.0
1626294645.498854,-129.395,-69.336,-51.758,1.0,1.0
1626294645.5027602,-88.37899999999999,-22.461,-32.715,1.0,1.0
1626294645.506667,30.761999999999997,-8.789,-33.203,1.0,1.0
1626294645.510573,12.695,-24.414,-47.363,1.0,1.0
1626294645.5144792,-97.656,-62.012,-63.477,1.0,1.0
1626294645.5183854,-82.031,-45.898,-15.625,1.0,1.0
1626294645.5222914,42.968999999999994,-13.672,5.371,1.0,1.0
1626294645.526198,51.27,-19.531,-20.996,1.0,1.0
1626294645.5301042,-75.195,-46.387,-48.34,1.0,1.0
1626294645.5340102,-133.30100000000002,-55.176,-61.523,1.0,1.0
1626294645.5379167,-12.695,-21.484,-23.438000000000002,1.0,1.0
1626294645.541823,79.59,-10.742,-13.184000000000001,1.0,1.0
1626294645.5457292,-9.766,-36.621,-40.039,-34.18,1.0
1626294645.5496354,-104.00399999999999,-31.25,-46.875,-215.332,1.0
1626294645.5535417,-43.457,-21.973000000000003,-33.203,7.812,1.0
1626294645.557448,59.082,-30.761999999999997,-31.25,197.75400000000002,1.0
1626294645.5613542,6.348,-30.761999999999997,-45.41,33.203,1.0
1626294645.5652604,-104.98,-32.227,-47.852,-194.33599999999998,1.0
1626294645.5691667,-71.289,-33.691,-37.598,-94.727,1.0
1626294645.573073,31.738000000000003,-20.996,-15.625,130.371,1.0
1626294645.5769792,15.625,6.348,-16.113,49.316,1.0
1626294645.5808856,-92.773,-4.395,-34.18,-218.262,1.0
1626294645.5847917,-105.469,-17.578,-26.855,-187.5,1.0
1626294645.588698,20.508000000000003,-25.879,-20.02,104.00399999999999,1.0
1626294645.5926042,16.602,-50.781000000000006,-31.25,116.211,1.0
1626294645.5965104,14.648,-62.988,-24.901999999999997,73.73,1.0
1626294645.6004167,-104.98,-58.593999999999994,-36.133,-197.75400000000002,1.0
1626294645.604323,-111.816,-41.504,-36.133,-207.52,1.0
1626294645.608229,-16.602,-24.901999999999997,-16.602,64.941,1.0
1626294645.6121356,36.133,-10.254000000000001,-28.809,145.02,1.0
1626294645.6160414,-78.125,-52.733999999999995,-48.34,-117.18799999999999,1.0
1626294645.6199481,-155.273,-70.801,-30.273000000000003,-249.512,1.0
1626294645.623854,-35.156,-36.133,-4.395,-12.207,1.0
1626294645.6277602,55.176,-29.785,-7.812,160.156,1.0
1626294645.631667,-32.715,-42.968999999999994,-44.922,-46.875,1.0
1626294645.635573,-157.715,-75.684,-85.449,-268.555,1.0
1626294645.639479,-108.398,-32.715,-26.855,-101.56200000000001,1.0
1626294645.6433854,-30.273000000000003,-36.133,-11.23,156.25,1.0
1626294645.6472914,53.711000000000006,-28.809,-14.648,40.527,1.0
1626294645.651198,-2.93,-19.043,-20.996,-247.55900000000003,1.0
1626294645.6551042,-101.56200000000001,-38.086,-19.043,-208.49599999999998,1.0
1626294645.6590104,-57.617,-51.758,-2.93,94.727,1.0
1626294645.6629167,55.663999999999994,-43.945,-16.602,119.62899999999999,1.0
1626294645.666823,41.016000000000005,-23.926,-43.457,-139.16,1.0
1626294645.6707292,-89.844,-41.992,-62.012,-194.33599999999998,1.0
1626294645.6746354,-105.469,-43.457,-61.523,43.457,1.0
1626294645.6785414,34.18,-7.324,-43.945,145.50799999999998,1.0
1626294645.682448,52.733999999999995,-19.043,-35.156,-86.426,1.0
1626294645.6863542,-75.195,-36.133,-13.672,1.0,1.0
1626294645.6902604,-116.699,-38.086,-11.23,1.0,1.0
1626294645.6941667,2.93,-48.34,-12.695,1.0,1.0
1626294645.698073,75.684,-39.062,-7.812,1.0,1.0
1626294645.7019792,-33.691,-20.508000000000003,-28.32,1.0,1.0
1626294645.7058854,-116.211,-21.973000000000003,-32.715,1.0,1.0
1626294645.7097917,-21.484,-18.555,-19.043,1.0,1.0
1626294645.713698,92.285,-8.789,-24.414,1.0,1.0
1626294645.7176042,18.066,-20.508000000000003,-46.387,1.0,1.0
1626294645.7215104,-117.676,-41.992,-59.082,1.0,1.0
1626294645.725417,-77.637,-59.082,-44.434,1.0,1.0
1626294645.729323,53.711000000000006,-27.344,-24.414,1.0,1.0
1626294645.733229,46.387,1.465,-41.016000000000005,83.49600000000001,1.0
1626294645.7371356,-97.656,-38.086,-66.895,-207.03099999999998,1.0
1626294645.7410414,-135.74200000000002,-59.082,-71.777,-210.938,1.0
1626294645.7449477,4.883,-33.203,-46.387,79.102,1.0
1626294645.748854,62.5,-10.254000000000001,-38.086,132.812,1.0
1626294645.7527602,-48.34,-11.23,-42.968999999999994,-125.488,1.0
1626294645.756667,-108.398,-30.761999999999997,-37.598,-210.449,1.0
1626294645.760573,-3.906,-28.809,-21.973000000000003,31.738000000000003,1.0
1626294645.7644792,85.449,-20.508000000000003,-11.23,173.34,1.0
1626294645.7683854,10.742,-20.996,-27.344,-32.715,1.0
1626294645.7722914,-107.42200000000001,-52.733999999999995,-30.761999999999997,-228.02700000000002,1.0
1626294645.776198,-80.078,-73.242,-28.32,-81.543,1.0
1626294645.7801042,-48.34,14.648,-32.715,-19.043,1.0
1626294645.7840102,31.738000000000003,-1.953,-29.296999999999997,150.879,1.0
1626294645.7879167,-41.992,-31.25,-29.296999999999997,-59.082,1.0
1626294645.791823,-153.809,-12.207,-31.738000000000003,-279.297,1.0
1626294645.7957292,-124.023,2.441,-30.273000000000003,-131.836,1.0
1626294645.7996354,-2.93,17.09,-15.625,112.79299999999999,1.0
1626294645.8035417,-40.039,-7.324,-19.043,-5.371,1.0
1626294645.807448,-194.33599999999998,-41.504,-33.691,-297.363,1.0
1626294645.8113542,-172.363,-29.785,-16.602,-222.168,1.0
1626294645.8152604,-33.203,5.371,1.465,65.918,1.0
1626294645.8191667,-46.387,3.418,-7.324,28.32,1.0
1626294645.823073,-200.195,-40.039,-31.25,-278.809,1.0
1626294645.8269792,-250.488,-15.625,-31.738000000000003,1.0,1.0
1626294645.8308856,-140.625,18.066,-24.414,1.0,1.0
1626294645.8347917,-79.102,16.602,-17.578,1.0,1.0
1626294645.838698,-176.75799999999998,7.812,-25.391,1.0,1.0
1626294645.8426042,-251.465,-24.901999999999997,-24.414,1.0,1.0
1626294645.8465104,-157.715,-19.531,-9.766,1.0,1.0
1626294645.8504167,-68.848,-0.977,-12.207,1.0,1.0
1626294645.854323,-142.09,0.977,-43.457,1.0,1.0
1626294645.858229,-253.90599999999998,11.23,-41.016000000000005,1.0,1.0
1626294645.8621356,-200.68400000000003,5.371,-2.93,1.0,1.0
1626294645.8660414,-76.66,-8.789,13.672,1.0,1.0
1626294645.8699481,-110.84,-22.949,-10.254000000000001,1.0,1.0
1626294645.873854,-242.188,-30.761999999999997,-26.855,-329.102,1.0
1626294645.8777602,-229.98,-41.992,-16.113,-271.973,1.0
1626294645.881667,-90.33200000000001,-47.363,-19.531,19.043,1.0
1626294645.885573,-47.363,-0.977,-38.574,43.945,1.0
1626294645.889479,-166.99200000000002,-1.953,-24.901999999999997,-231.93400000000003,1.0
1626294645.8933854,-213.86700000000002,-21.973000000000003,4.395,-291.01599999999996,1.0
1626294645.8972914,-99.12100000000001,-18.555,-16.602,-30.273000000000003,1.0
1626294645.901198,-23.438000000000002,-13.672,-39.551,78.613,1.0
1626294645.9051042,-96.191,-2.93,-36.133,-142.09,1.0
1626294645.9090104,-165.52700000000002,-10.742,-35.645,-279.785,1.0
1626294645.9129167,-83.984,-48.34,-22.461,-62.988,1.0
1626294645.916823,25.879,-39.551,-12.695,138.672,1.0
1626294645.9207292,0.977,-15.137,-17.09,-5.859,1.0
1626294645.9246354,-85.449,-23.926,-20.508000000000003,-216.797,1.0
1626294645.9285414,-45.41,-33.691,0.488,-83.008,1.0
1626294645.932448,70.801,-29.296999999999997,-20.02,171.875,1.0
1626294645.9363542,29.296999999999997,-45.898,-95.70299999999999,66.895,1.0
1626294645.9402604,-83.49600000000001,-48.828,-74.219,-188.965,1.0
1626294645.9441667,-71.289,-32.715,-24.414,-143.555,1.0
1626294645.948073,43.457,-26.366999999999997,-32.227,118.164,1.0
1626294645.9519792,75.195,-29.785,-47.852,142.578,1.0
1626294645.9558854,-32.227,-41.504,-51.27,-120.605,1.0
1626294645.9597917,-78.125,-53.711000000000006,-41.992,-187.5,1.0
1626294645.963698,33.691,-54.688,-25.879,81.055,1.0
1626294645.9676042,115.234,-36.621,-20.02,216.30900000000003,1.0
1626294645.9715104,31.25,-43.945,-36.621,-9.277000000000001,1.0
1626294645.975417,-48.828,-51.758,-46.875,-171.875,1.0
1626294645.979323,17.09,-41.504,-38.086,19.531,1.0
1626294645.983229,108.887,-39.551,-35.645,219.727,1.0
1626294645.9871356,64.453,-49.316,-42.968999999999994,68.848,1.0
1626294645.9910414,-50.293,-76.66,-45.41,-170.41,1.0
1626294645.9949477,-28.32,-65.918,-33.691,-62.988,1.0
1626294645.998854,106.445,-14.648,-32.227,208.00799999999998,1.0
1626294646.0027602,118.652,-7.324,-64.453,165.03900000000002,1.0
1626294646.006667,-7.812,-48.828,-76.172,-113.281,1.0
1626294646.010573,-41.504,-96.191,-55.663999999999994,-125.488,1.0
1626294646.0144792,-27.831999999999997,-64.941,-41.992,143.066,1.0
1626294646.0183854,102.051,-38.086,-16.113,202.637,1.0
1626294646.0222914,112.79299999999999,-27.831999999999997,-28.809,-55.663999999999994,1.0
1626294646.026198,-7.812,-30.273000000000003,-43.457,-181.15200000000002,1.0
1626294646.0301042,-57.617,-39.062,-39.062,54.199,1.0
1626294646.0340102,46.387,-43.945,-20.996,215.332,1.0
1626294646.0379167,115.234,-34.668,-10.742,22.461,1.0
1626294646.041823,17.578,-47.852,-30.273000000000003,-167.96900000000002,1.0
1626294646.0457292,-63.477,-54.688,-33.203,8.789,1.0
1626294646.0496354,24.901999999999997,-34.668,-10.254000000000001,235.84,1.0
1626294646.0535417,125.977,-4.395,-8.301,113.281,1.0
1626294646.057448,36.621,-16.113,-54.199,-135.254,1.0
1626294646.0613542,-99.12100000000001,-48.828,-73.73,1.0,1.0
1626294646.0652604,-54.199,-52.246,-46.875,1.0,1.0
1626294646.0691667,83.984,-25.879,-25.879,1.0,1.0
1626294646.073073,72.75399999999999,-18.555,-20.02,1.0,1.0
1626294646.0769792,-75.195,-60.059,-40.039,1.0,1.0
1626294646.0808856,-90.82,-66.406,-61.035,1.0,1.0
1626294646.0847917,30.761999999999997,-44.922,-55.176,1.0,1.0
1626294646.088698,73.73,-22.461,-31.738000000000003,1.0,1.0
1626294646.0926042,-33.691,-39.062,-19.043,1.0,1.0
1626294646.0965104,-104.492,-70.801,-37.109,1.0,1.0
1626294646.1004167,0.0,-45.41,-37.598,1.0,1.0
1626294646.104323,74.219,-28.32,-28.32,1.0,1.0
1626294646.108229,-17.09,-38.086,-44.922,-59.57,1.0
1626294646.1121356,-106.934,-44.922,-66.406,-216.797,1.0
1626294646.1160414,-24.901999999999997,-39.062,-36.621,-1.465,1.0
1626294646.1199481,83.49600000000001,-34.18,-11.23,196.77700000000002,1.0
1626294646.123854,18.066,-43.457,-32.715,16.113,1.0
1626294646.1277602,-95.215,-40.527,-37.598,-209.47299999999998,1.0
1626294646.131667,-63.965,-29.296999999999997,-36.133,-82.52,1.0
1626294646.135573,46.875,-26.366999999999997,-33.203,155.273,1.0
1626294646.139479,37.109,-20.508000000000003,-32.715,76.172,1.0
1626294646.1433854,-81.055,-37.598,-40.527,-198.24200000000002,1.0
1626294646.1472914,-85.449,-62.5,-34.18,-167.96900000000002,1.0
1626294646.151198,40.039,-35.645,-20.02,135.254,1.0
1626294646.1551042,69.336,-34.18,7.812,181.641,1.0
1626294646.1590104,85.93799999999999,-43.945,4.395,133.30100000000002,1.0
1626294646.1629167,-38.574,-19.531,-17.09,-145.50799999999998,1.0
1626294646.166823,-89.844,-16.602,-37.109,-164.062,1.0
1626294646.1707292,28.809,-26.855,-26.855,108.887,1.0
1626294646.1746354,103.516,-19.043,-9.766,184.57,1.0
1626294646.1785414,-1.465,-31.738000000000003,-37.109,-76.172,1.0
1626294646.182448,-104.492,-54.199,-70.801,-209.96099999999998,1.0
1626294646.1863542,-22.949,-35.156,-52.733999999999995,21.484,1.0
1626294646.1902604,73.73,-23.926,-23.438000000000002,181.15200000000002,1.0
1626294646.1941667,-26.366999999999997,-41.504,-32.715,-33.691,1.0
1626294646.198073,-123.535,-30.273000000000003,-31.738000000000003,-224.609,1.0
1626294646.2019792,-122.559,-42.968999999999994,-29.785,-237.793,1.0
1626294646.2058854,-40.039,-22.461,-28.809,-5.859,1.0
1626294646.2097917,66.406,-14.648,-39.551,172.363,1.0
1626294646.213698,-22.461,-61.523,-58.105,-42.968999999999994,1.0
1626294646.2176042,-136.23,-61.523,-46.387,-236.328,1.0
1626294646.2215104,-66.406,-38.086,-43.945,-60.547,1.0
1626294646.225417,57.129,-28.809,-51.27,161.13299999999998,1.0
1626294646.229323,13.672,-46.387,-45.898,33.203,1.0
1626294646.233229,-126.465,-58.593999999999994,-38.574,-230.957,1.0
1626294646.2371356,-111.816,-36.133,-22.949,-166.99200000000002,1.0
1626294646.2410414,7.324,-23.438000000000002,-27.344,91.309,1.0
1626294646.2449477,30.273000000000003,-49.316,-44.434,103.516,1.0
1626294646.248854,-69.824,-54.688,-54.688,1.0,1.0
1626294646.2527602,-118.164,-34.668,-43.457,1.0,1.0
1626294646.256667,-12.207,-39.551,-32.227,1.0,1.0
1626294646.260573,65.43,-47.363,-26.366999999999997,1.0,1.0
1626294646.2644792,-32.227,-29.785,-25.879,1.0,1.0
1626294646.2683854,-117.18799999999999,-30.761999999999997,-28.809,1.0,1.0
1626294646.2722914,-19.531,-32.715,-16.113,1.0,1.0
1626294646.276198,74.707,-50.293,-18.555,1.0,1.0
1626294646.2801042,6.836,-55.176,-35.645,1.0,1.0
1626294646.2840102,-94.727,-13.184000000000001,-31.738000000000003,1.0,1.0
1626294646.2879167,-63.477,-13.672,-28.32,1.0,1.0
1626294646.291823,66.406,-13.672,-16.602,1.0,1.0
1626294646.2957292,60.059,-16.113,-13.672,85.449,1.0
1626294646.2996354,-67.87100000000001,-36.621,-22.461,-176.27,1.0
1626294646.3035417,-63.965,-24.901999999999997,-38.574,-133.30100000000002,1.0
1626294646.307448,49.316,-25.879,-56.641000000000005,130.371,1.0
1626294646.3113542,62.988,-37.109,-38.086,134.27700000000002,1.0
1626294646.3152604,-62.012,-34.18,-25.391,-124.023,1.0
1626294646.3191667,-128.906,-31.25,-41.992,-221.68,1.0
1626294646.323073,-17.09,-47.852,-34.18,15.137,1.0
1626294646.3269792,74.707,-49.805,-14.648,155.762,1.0
1626294646.3308856,-14.648,-34.18,-25.879,-60.547,1.0
1626294646.3347917,-103.516,-20.996,-33.691,-212.40200000000002,1.0
1626294646.338698,-30.761999999999997,-9.277000000000001,-13.184000000000001,-14.648,1.0
1626294646.3426042,-19.531,-27.344,-31.738000000000003,34.668,1.0
1626294646.3465104,79.59,-12.695,-18.066,186.523,1.0
1626294646.3504167,-6.836,-32.715,-30.761999999999997,-36.621,1.0
1626294646.354323,-113.281,-56.641000000000005,-41.016000000000005,-222.168,1.0
1626294646.358229,-41.016000000000005,-45.41,-22.461,-33.203,1.0
1626294646.3621356,68.359,-22.461,-20.508000000000003,191.40599999999998,1.0
1626294646.3660414,24.901999999999997,-70.312,-31.25,53.223,1.0
1626294646.3699481,-81.543,-62.012,-20.02,-196.28900000000002,1.0
1626294646.373854,-96.191,-22.949,-35.645,-143.066,1.0
1626294646.3777602,-3.418,-9.277000000000001,-43.945,98.145,1.0
1626294646.381667,0.977,-12.695,-43.457,77.637,1.0
1626294646.385573,-128.906,-47.852,-68.359,-214.355,1.0
1626294646.389479,-135.254,-48.34,-52.733999999999995,1.0,1.0
1626294646.3933854,0.977,-45.41,-34.668,1.0,1.0
1626294646.3972914,79.59,-37.109,-9.277000000000001,1.0,1.0
1626294646.401198,-8.789,-37.109,-10.254000000000001,1.0,1.0
1626294646.4051042,-126.465,-66.406,-43.945,1.0,1.0
1626294646.4090104,-57.129,-41.504,-32.227,1.0,1.0
1626294646.4129167,42.968999999999994,-15.625,-29.785,1.0,1.0
1626294646.416823,-22.461,-18.066,-51.758,1.0,1.0
1626294646.4207292,-130.859,-41.992,-52.246,1.0,1.0
1626294646.4246354,-69.336,-68.848,-40.527,1.0,1.0
1626294646.4285414,71.289,-33.691,-26.366999999999997,1.0,1.0
1626294646.432448,38.574,-26.855,-26.366999999999997,1.0,1.0
1626294646.4363542,-99.609,-28.32,-53.223,-215.332,1.0
1626294646.4402604,-94.238,-20.508000000000003,-48.828,-136.23,1.0
1626294646.4441667,25.879,-37.109,-20.02,131.34799999999998,1.0
1626294646.448073,46.875,-45.898,-27.344,111.32799999999999,1.0
1626294646.4519792,-79.59,-37.598,-45.41,-164.062,1.0
1626294646.4558854,-115.723,-13.672,-41.016000000000005,-187.5,1.0
1626294646.4597917,0.0,-18.066,-33.203,92.773,1.0
1626294646.463698,62.5,-23.438000000000002,-22.461,184.57,1.0
1626294646.4676042,-37.109,-30.761999999999997,-25.391,-79.102,1.0
1626294646.4715104,-128.906,-47.363,-28.32,-233.398,1.0
1626294646.475417,-40.039,-27.831999999999997,-11.719000000000001,-6.836,1.0
1626294646.479323,45.41,-48.34,-33.691,169.43400000000003,1.0
1626294646.483229,-12.695,-53.711000000000006,-43.945,-14.648,1.0
1626294646.4871356,-110.84,-50.781000000000006,-33.203,-232.422,1.0
1626294646.4910414,-78.613,-37.109,-39.551,-92.773,1.0
1626294646.4949477,27.344,-13.672,-47.363,145.996,1.0
1626294646.498854,15.137,-46.387,-59.57,48.828,1.0
1626294646.5027602,-96.191,-51.758,-50.781000000000006,-205.56599999999997,1.0
1626294646.506667,-108.398,-34.668,-24.414,-175.78099999999998,1.0
1626294646.510573,22.461,-7.324,-10.742,112.305,1.0
1626294646.5144792,58.105,-34.18,-35.645,136.23,1.0
1626294646.5183854,-73.242,-88.867,-55.176,-158.691,1.0
1626294646.5222914,-129.395,-49.316,-26.366999999999997,-214.355,1.0
1626294646.526198,-7.324,-6.348,-10.742,58.593999999999994,1.0
1626294646.5301042,87.891,7.812,-14.648,195.312,1.0
1626294646.5340102,-19.043,-29.296999999999997,-23.438000000000002,-65.43,1.0
1626294646.5379167,-130.859,-70.801,-39.551,-252.93,1.0
1626294646.541823,-45.41,-51.27,-38.086,-20.996,1.0
1626294646.5457292,68.848,-29.785,-33.691,184.57,1.0
1626294646.5496354,24.414,-13.184000000000001,-16.602,21.484,1.0
1626294646.5535417,-112.305,-47.852,-14.16,-221.19099999999997,1.0
1626294646.557448,-89.844,-51.758,-18.066,-108.398,1.0
1626294646.5613542,48.34,-2.441,-16.602,161.621,1.0
1626294646.5652604,40.039,2.441,-20.02,95.70299999999999,1.0
1626294646.5691667,-89.844,-17.09,-29.785,-179.688,1.0
1626294646.573073,-129.88299999999998,-46.875,-56.641000000000005,-178.22299999999998,1.0
1626294646.5769792,-74.219,-18.066,-34.668,108.887,1.0
1626294646.5808856,56.152,-17.09,-30.761999999999997,156.738,1.0
1626294646.5847917,56.152,-23.438000000000002,-24.901999999999997,-130.859,1.0
1626294646.588698,-68.359,-31.738000000000003,-33.691,-219.727,1.0
1626294646.5926042,-92.773,-43.945,-35.156,30.761999999999997,1.0
1626294646.5965104,26.855,-31.738000000000003,-24.901999999999997,132.32399999999998,1.0
1626294646.6004167,72.266,-32.227,-30.273000000000003,-62.5,1.0
1626294646.604323,-38.574,-61.523,-43.457,-222.65599999999998,1.0
1626294646.608229,-114.74600000000001,-32.227,-60.059,-68.359,1.0
1626294646.6121356,-9.277000000000001,15.625,-52.246,145.02,1.0
1626294646.6160414,86.426,12.695,-33.691,20.996,1.0
1626294646.6199481,0.488,-10.742,-35.156,-215.332,1.0
1626294646.623854,-110.84,-28.32,-38.574,1.0,1.0
1626294646.6277602,-54.688,-10.254000000000001,-33.691,1.0,1.0
1626294646.631667,68.359,4.395,-14.648,1.0,1.0
1626294646.635573,40.039,-22.461,-32.715,1.0,1.0
1626294646.639479,-99.609,-45.898,-60.059,1.0,1.0
1626294646.6433854,-99.12100000000001,-41.016000000000005,-38.086,1.0,1.0
1626294646.6472914,28.809,-36.621,-26.366999999999997,1.0,1.0
1626294646.651198,46.875,-51.27,-39.551,1.0,1.0
1626294646.6551042,-83.984,-60.547,-59.57,1.0,1.0
1626294646.6590104,-134.27700000000002,-54.199,-59.57,1.0,1.0
1626294646.6629167,-14.648,-20.508000000000003,-34.668,1.0,1.0
1626294646.666823,60.059,-12.207,-21.484,1.0,1.0
1626294646.6707292,-43.945,-29.296999999999997,-39.551,-90.82,1.0
1626294646.6746354,-137.207,-36.621,-48.34,-245.11700000000002,1.0
1626294646.6785414,-44.434,-31.738000000000003,-22.949,-0.488,1.0
1626294646.682448,71.289,-4.883,-10.742,203.613,1.0
1626294646.6863542,20.508000000000003,-14.648,-19.043,26.366999999999997,1.0
1626294646.6902604,-110.352,-57.129,-44.922,-216.797,1.0
1626294646.6941667,-83.49600000000001,-69.336,-49.805,-95.215,1.0
1626294646.698073,40.527,-32.715,-36.621,177.734,1.0
1626294646.7019792,25.391,-15.137,-48.34,104.00399999999999,1.0
1626294646.7058854,-104.00399999999999,-41.016000000000005,-75.684,-203.125,1.0
1626294646.7097917,-123.535,-50.781000000000006,-65.43,-171.875,1.0
1626294646.713698,-16.113,-59.082,-24.901999999999997,126.465,1.0
1626294646.7176042,41.016000000000005,-7.324,-52.246,158.691,1.0
1626294646.7215104,33.203,-13.184000000000001,-61.523,64.941,1.0
1626294646.725417,-115.723,-55.176,-64.453,-205.56599999999997,1.0
1626294646.729323,-112.305,-37.598,-36.133,-160.156,1.0
1626294646.733229,23.438000000000002,-26.855,2.93,129.395,1.0
1626294646.7371356,63.477,-28.809,-8.301,167.48,1.0
1626294646.7410414,-51.27,-52.246,-41.016000000000005,-128.418,1.0
1626294646.7449477,-128.418,-45.898,-43.945,-217.773,1.0
1626294646.748854,-23.926,-17.09,-33.203,49.316,1.0
1626294646.7527602,53.711000000000006,-20.508000000000003,-27.344,169.922,1.0
1626294646.756667,-41.016000000000005,-36.133,-28.809,-76.66,1.0
1626294646.760573,-139.648,-87.891,-44.434,-264.16,1.0
1626294646.7644792,-117.18799999999999,-43.457,-34.18,-48.828,1.0
1626294646.7683854,-4.883,-19.531,-31.25,185.547,1.0
1626294646.7722914,72.266,1.953,-16.602,41.016000000000005,1.0
1626294646.776198,-17.09,-20.02,-29.296999999999997,-198.73,1.0
1626294646.7801042,-135.74200000000002,-40.039,-44.434,-128.906,1.0
1626294646.7840102,-78.613,-9.277000000000001,-39.062,145.996,1.0
1626294646.7879167,41.016000000000005,5.371,-21.484,136.23,1.0
1626294646.791823,23.926,-16.602,-12.207,-159.668,1.0
1626294646.7957292,-102.051,-24.414,-11.719000000000001,-205.078,1.0
1626294646.7996354,-114.258,-29.296999999999997,-8.789,68.359,1.0
1626294646.8035417,33.203,-36.621,0.488,138.672,1.0
1626294646.807448,56.641000000000005,-61.035,-1.953,-112.305,1.0
1626294646.8113542,-70.801,-39.062,-16.602,1.0,1.0
1626294646.8152604,-115.723,-25.879,-41.504,1.0,1.0
1626294646.8191667,-10.254000000000001,-35.645,-40.527,1.0,1.0
1626294646.823073,52.733999999999995,-18.555,-44.922,1.0,1.0
1626294646.8269792,-71.289,-53.711000000000006,-65.918,1.0,1.0
1626294646.8308856,-143.066,-57.617,-50.293,1.0,1.0
1626294646.8347917,-37.109,-29.296999999999997,-35.156,1.0,1.0
1626294646.838698,63.965,-19.043,-20.996,1.0,1.0
1626294646.8426042,2.93,-33.691,-37.109,1.0,1.0
1626294646.8465104,-114.258,-94.238,-62.5,1.0,1.0
1626294646.8504167,-63.477,-68.848,-18.066,1.0,1.0
1626294646.854323,50.293,-30.273000000000003,-8.789,1.0,1.0
1626294646.858229,21.973000000000003,-35.156,-46.387,51.758,1.0
1626294646.8621356,-125.977,-43.457,-55.176,-228.02700000000002,1.0
1626294646.8660414,-128.418,-48.828,-39.062,-188.965,1.0
1626294646.8699481,38.574,-41.992,-11.23,119.141,1.0
1626294646.873854,70.801,-27.344,-10.254000000000001,125.977,1.0
1626294646.8777602,-62.012,-18.066,-34.18,-158.203,1.0
1626294646.881667,-131.836,-41.016000000000005,-53.711000000000006,-225.09799999999998,1.0
1626294646.885573,-14.648,-35.645,-33.691,41.992,1.0
1626294646.889479,83.49600000000001,-1.465,-7.812,173.828,1.0
1626294646.8933854,-24.414,-9.277000000000001,-24.901999999999997,-86.914,1.0
1626294646.8972914,-116.211,-33.203,-28.32,-236.328,1.0
1626294646.901198,-51.758,-85.93799999999999,-41.504,-26.855,1.0
1626294646.9051042,29.296999999999997,-4.395,-15.625,54.688,1.0
1626294646.9090104,103.027,-36.621,-14.16,197.75400000000002,1.0
1626294646.9129167,-25.879,-90.33200000000001,-58.593999999999994,-58.105,1.0
1626294646.916823,-109.375,-26.855,-37.109,-220.215,1.0
1626294646.9207292,-20.02,14.648,-3.418,-8.301,1.0
1626294646.9246354,68.359,2.93,-19.531,182.12900000000002,1.0
1626294646.9285414,11.23,-41.992,-30.273000000000003,8.789,1.0
1626294646.932448,-92.285,-58.105,-35.645,-226.562,1.0
1626294646.9363542,-61.523,-17.09,-34.18,-111.816,1.0
1626294646.9402604,66.406,-15.625,-20.996,152.832,1.0
1626294646.9441667,65.43,-31.738000000000003,-33.203,103.516,1.0
1626294646.948073,-59.082,-55.663999999999994,-41.016000000000005,-171.387,1.0
1626294646.9519792,-75.684,-29.785,-23.926,1.0,1.0
1626294646.9558854,46.875,-20.996,-12.695,1.0,1.0
1626294646.9597917,98.145,-32.715,-38.574,1.0,1.0
1626294646.963698,-10.742,-39.062,-42.48,1.0,1.0
1626294646.9676042,-104.98,-71.289,-29.296999999999997,1.0,1.0
1626294646.9715104,-22.461,-26.855,-17.09,1.0,1.0
1626294646.975417,71.289,-4.883,-4.883,1.0,1.0
1626294646.979323,-14.648,-28.32,-26.855,1.0,1.0
1626294646.983229,-119.141,-37.598,-61.523,1.0,1.0
1626294646.9871356,-53.711000000000006,-62.988,-47.852,1.0,1.0
1626294646.9910414,62.988,-30.273000000000003,-25.879,1.0,1.0
1626294646.9949477,28.809,-12.695,-46.875,1.0,1.0
1626294646.998854,-95.70299999999999,-20.996,-48.34,-212.40200000000002,1.0
1626294647.0027602,-83.984,-30.273000000000003,-28.32,-127.441,1.0
1626294647.006667,38.574,-53.711000000000006,-37.109,134.766,1.0
1626294647.010573,52.733999999999995,-39.062,-32.227,106.934,1.0
1626294647.0144792,-62.012,-40.039,-29.785,-160.645,1.0
1626294647.0183854,-97.656,-37.109,-43.457,-175.293,1.0
