timestamps,TP9,AF7,AF8,TP10,Right AUX
1626062523.5651696,35.156,-25.879,-24.901999999999997,134.27700000000002,1.0
1626062523.5690758,-61.523,-33.691,-42.968999999999994,-314.453,1.0
1626062523.572982,-56.641000000000005,-23.926,-29.296999999999997,-214.355,1.0
1626062523.5768883,37.598,-33.203,-17.578,255.37099999999998,1.0
1626062523.580795,46.875,-25.879,-18.555,238.77,1.0
1626062523.584701,-60.547,-38.574,-32.227,-239.25799999999998,1.0
1626062523.5886073,-89.844,-66.406,-59.082,-321.289,1.0
1626062523.5925136,12.695,-44.922,-58.105,137.207,1.0
1626062523.5964196,59.082,-22.461,-18.066,306.64099999999996,1.0
1626062523.600326,-24.414,-6.348,-20.02,-108.398,1.0
1626062523.6042323,-89.844,13.672,-58.593999999999994,-378.906,1.0
1626062523.6081383,-26.366999999999997,-8.301,-36.133,-13.184000000000001,1.0
1626062523.6120448,56.152,-29.296999999999997,-22.949,1.0,1.0
1626062523.615951,22.461,-52.246,-25.391,1.0,1.0
1626062523.6198573,-60.059,-94.727,-39.551,1.0,1.0
1626062523.6237636,-54.688,-59.57,-55.663999999999994,1.0,1.0
1626062523.6276698,28.32,-8.789,-26.366999999999997,1.0,1.0
1626062523.631576,16.113,-14.648,-14.648,1.0,1.0
1626062523.6354823,-70.312,-15.625,-15.625,1.0,1.0
1626062523.6393886,-53.711000000000006,6.836,-3.418,1.0,1.0
1626062523.6432948,28.809,2.93,-12.207,1.0,1.0
1626062523.647201,22.949,-18.066,-31.25,1.0,1.0
1626062523.6511073,-72.266,-31.25,-46.875,1.0,1.0
1626062523.6550138,-102.539,-43.945,-54.688,1.0,1.0
1626062523.6589198,0.977,-60.547,-38.086,1.0,1.0
1626062523.662826,62.5,-64.941,-38.574,1.0,1.0
1626062523.6667323,-26.366999999999997,-67.383,-61.523,1.0,1.0
1626062523.6706386,-106.934,-43.457,-39.062,1.0,1.0
1626062523.6745448,-48.34,-1.953,-9.766,1.0,1.0
1626062523.678451,39.062,-1.953,-12.207,1.0,1.0
1626062523.682357,-4.883,-5.371,-34.18,1.0,1.0
1626062523.6862638,-115.234,-5.371,-51.27,1.0,1.0
1626062523.6901696,-103.027,-25.879,-51.27,1.0,1.0
1626062523.6940763,1.465,-46.875,-50.293,1.0,1.0
1626062523.697982,0.0,-70.312,-56.641000000000005,1.0,1.0
1626062523.7018883,-81.543,-60.547,-58.105,1.0,1.0
1626062523.705795,-108.398,-20.508000000000003,-27.344,-344.23800000000006,1.0
1626062523.709701,-86.426,-0.488,-9.766,-209.96099999999998,1.0
1626062523.713607,16.113,-9.766,-4.395,253.90599999999998,1.0
1626062523.7175136,17.578,-41.992,-24.414,215.82,1.0
1626062523.7214196,-74.707,-25.879,-45.41,-253.418,1.0
1626062523.725326,-91.79700000000001,-0.977,-37.598,-302.246,1.0
1626062523.7292323,2.441,-13.672,-25.879,159.668,1.0
1626062523.7331386,40.527,-26.855,-27.344,290.527,1.0
1626062523.7370448,-52.733999999999995,-53.711000000000006,-24.414,-146.97299999999998,1.0
1626062523.740951,-105.469,-50.293,-17.09,-361.32800000000003,1.0
1626062523.7448573,-36.133,-38.574,-29.785,20.996,1.0
1626062523.7487636,21.484,-37.598,-31.738000000000003,308.594,1.0
1626062523.7526696,-43.457,-24.901999999999997,-24.901999999999997,1.0,1.0
1626062523.756576,-119.62899999999999,-19.043,-33.691,1.0,1.0
1626062523.7604823,-71.777,-18.555,-34.668,1.0,1.0
1626062523.7643886,18.555,-36.133,-25.879,1.0,1.0
1626062523.7682948,2.441,-31.738000000000003,-25.391,1.0,1.0
1626062523.772201,-104.00399999999999,-36.621,-29.785,1.0,1.0
1626062523.7761073,-108.398,-43.457,-29.785,1.0,1.0
1626062523.7800136,-10.742,-22.949,-38.086,1.0,1.0
1626062523.7839198,-4.883,-32.715,-45.898,1.0,1.0
1626062523.787826,-100.098,-54.199,-39.551,1.0,1.0
1626062523.7917323,-147.461,-40.527,-38.086,1.0,1.0
1626062523.7956386,-54.199,-20.996,-32.715,1.0,1.0
1626062523.799545,24.414,-6.348,-20.02,1.0,1.0
1626062523.803451,-51.27,-21.484,-33.203,1.0,1.0
1626062523.807357,-127.93,-46.387,-37.109,1.0,1.0
1626062523.8112638,-69.824,-40.527,-33.691,1.0,1.0
1626062523.8151696,22.949,-21.973000000000003,-51.27,1.0,1.0
1626062523.8190758,-15.137,-28.32,-60.059,1.0,1.0
1626062523.822982,-121.58200000000001,-51.758,-37.109,1.0,1.0
1626062523.8268883,-89.355,-60.547,-34.668,1.0,1.0
1626062523.830795,5.859,-69.336,-45.41,1.0,1.0
1626062523.834701,1.465,-62.5,-12.207,1.0,1.0
1626062523.8386073,-86.914,-39.062,-10.254000000000001,1.0,1.0
1626062523.8425136,-83.49600000000001,-32.227,-17.578,1.0,1.0
1626062523.8464196,-123.535,-58.593999999999994,-21.973000000000003,200.195,1.0
1626062523.850326,-55.663999999999994,-58.593999999999994,-24.414,242.676,1.0
1626062523.8542323,43.457,-58.105,-17.09,-211.91400000000002,1.0
1626062523.8581383,13.184000000000001,-44.434,-18.555,-357.91,1.0
1626062523.8620448,-69.824,-56.152,-32.715,83.984,1.0
1626062523.865951,-68.848,-65.43,-50.293,322.754,1.0
1626062523.8698573,15.137,-31.25,-30.761999999999997,-69.824,1.0
1626062523.8737636,17.578,-6.348,-14.16,-386.719,1.0
1626062523.8776698,-95.215,-11.719000000000001,-27.344,-54.199,1.0
1626062523.881576,-128.418,-24.901999999999997,-26.366999999999997,328.61300000000006,1.0
1626062523.8854823,-29.785,-29.785,-18.066,66.895,1.0
1626062523.8893886,21.973000000000003,-24.901999999999997,-23.926,-351.56199999999995,1.0
1626062523.8932948,-56.641000000000005,-30.761999999999997,-31.25,1.0,1.0
1626062523.897201,-123.04700000000001,-26.855,-25.879,1.0,1.0
1626062523.9011073,-58.593999999999994,-19.043,-22.949,1.0,1.0
1626062523.9050138,5.859,-25.391,-23.438000000000002,1.0,1.0
1626062523.9089198,-66.406,-36.133,-35.645,1.0,1.0
1626062523.912826,-164.551,-39.062,-45.41,1.0,1.0
1626062523.9167323,-146.484,-28.809,-36.621,1.0,1.0
1626062523.9206386,-74.219,-10.254000000000001,-36.621,1.0,1.0
1626062523.9245448,-126.465,-17.09,-41.504,1.0,1.0
1626062523.928451,-248.535,-37.109,-43.457,1.0,1.0
1626062523.932357,-258.301,-40.527,-38.574,1.0,1.0
1626062523.9362638,-181.15200000000002,-27.344,-31.25,1.0,1.0
1626062523.9401696,-182.61700000000002,-33.691,-38.574,39.062,1.0
1626062523.9440763,-275.879,-41.992,-48.828,-435.059,1.0
1626062523.947982,-309.082,-27.831999999999997,-43.945,-553.711,1.0
1626062523.9518883,-217.773,-23.926,-33.203,-100.586,1.0
1626062523.955795,-146.97299999999998,-38.086,-23.438000000000002,115.234,1.0
1626062523.959701,-228.02700000000002,-56.152,-32.227,-298.828,1.0
1626062523.963607,-300.293,-39.062,-43.945,-583.984,1.0
1626062523.9675136,-213.86700000000002,-33.203,-38.086,-212.40200000000002,1.0
1626062523.9714196,-129.88299999999998,-44.434,-33.691,157.227,1.0
1626062523.975326,-175.78099999999998,-22.461,-37.598,-132.32399999999998,1.0
1626062523.9792323,-262.207,-19.043,-57.129,-545.41,1.0
1626062523.9831386,-216.30900000000003,-15.625,-66.895,-316.406,1.0
1626062523.9870448,-105.469,8.301,-63.477,1.0,1.0
1626062523.990951,-122.559,-4.883,-50.781000000000006,1.0,1.0
1626062523.9948573,-220.703,-38.574,-48.34,1.0,1.0
1626062523.9987636,-237.305,-49.316,-57.129,1.0,1.0
1626062524.0026696,-127.441,-28.32,-36.621,1.0,1.0
1626062524.006576,-84.473,-36.133,-35.645,1.0,1.0
1626062524.0104823,-175.293,-56.152,-53.223,1.0,1.0
1626062524.0143886,-199.21900000000002,-60.547,-45.41,1.0,1.0
1626062524.0182948,-103.027,-76.172,-32.715,1.0,1.0
1626062524.022201,-19.043,-55.663999999999994,-27.831999999999997,1.0,1.0
1626062524.0261073,-64.941,-39.551,-36.621,1.0,1.0
1626062524.0300136,-132.32399999999998,-41.992,-50.293,1.0,1.0
1626062524.0339198,-66.406,-22.461,-41.016000000000005,-86.426,1.0
1626062524.037826,36.133,-19.531,-20.996,319.336,1.0
1626062524.0417323,20.996,-27.831999999999997,-17.09,100.098,1.0
1626062524.0456386,-55.176,-36.133,-12.207,-315.43,1.0
1626062524.049545,-33.203,-56.641000000000005,-6.836,-161.13299999999998,1.0
1626062524.053451,59.082,-47.852,-22.949,292.48,1.0
1626062524.057357,57.129,-31.25,-37.109,227.53900000000002,1.0
1626062524.0612638,-40.039,-60.059,-48.828,-244.62900000000002,1.0
1626062524.0651696,-49.316,-60.547,-45.898,-265.625,1.0
1626062524.0690758,62.988,-22.949,-30.273000000000003,217.285,1.0
1626062524.072982,115.723,-26.855,-39.062,351.56199999999995,1.0
1626062524.0768883,25.879,-24.901999999999997,-70.312,-93.262,1.0
1626062524.080795,-2.93,-15.137,-56.641000000000005,-193.359,1.0
1626062524.084701,-21.973000000000003,-41.016000000000005,-54.199,-271.973,1.0
1626062524.0886073,93.75,-35.645,-28.809,209.47299999999998,1.0
1626062524.0925136,143.066,-23.438000000000002,-24.414,381.836,1.0
1626062524.0964196,35.645,-37.598,-29.296999999999997,-61.035,1.0
1626062524.100326,-29.785,-58.593999999999994,-21.973000000000003,-313.965,1.0
1626062524.1042323,54.199,-57.129,-4.395,73.242,1.0
1626062524.1081383,118.652,-30.761999999999997,-9.277000000000001,399.414,1.0
1626062524.1120448,51.758,-20.02,-39.062,77.637,1.0
1626062524.115951,-30.273000000000003,-27.344,-45.41,-314.453,1.0
1626062524.1198573,-3.418,-28.809,-34.668,-89.844,1.0
1626062524.1237636,85.449,-14.648,-24.414,342.285,1.0
1626062524.1276698,74.707,-15.625,-25.391,199.21900000000002,1.0
1626062524.131576,-18.555,-26.366999999999997,-30.761999999999997,-265.625,1.0
1626062524.1354823,-20.508000000000003,-23.438000000000002,-21.484,-212.40200000000002,1.0
1626062524.1393886,66.406,-28.32,-15.625,253.90599999999998,1.0
1626062524.1432948,87.402,-39.551,-24.901999999999997,302.246,1.0
1626062524.147201,-7.324,-45.898,-45.41,-152.832,1.0
1626062524.1511073,-54.688,-48.34,-54.688,-291.992,1.0
1626062524.1550138,38.086,-36.621,-33.691,154.297,1.0
1626062524.1589198,86.914,-36.133,-10.742,372.559,1.0
1626062524.162826,-0.977,-36.133,-10.742,-42.48,1.0
1626062524.1667323,-75.684,-30.761999999999997,-11.719000000000001,-338.86699999999996,1.0
1626062524.1706386,-13.672,-24.901999999999997,-16.602,4.395,1.0
1626062524.1745448,65.43,-29.785,-26.855,1.0,1.0
1626062524.178451,20.508000000000003,-44.922,-29.296999999999997,1.0,1.0
1626062524.182357,-66.406,-41.504,-18.555,1.0,1.0
1626062524.1862638,-42.968999999999994,-49.805,-19.531,1.0,1.0
1626062524.1901696,66.895,-63.965,-22.461,1.0,1.0
1626062524.1940763,57.617,-36.133,-27.831999999999997,1.0,1.0
1626062524.197982,-58.105,-6.348,-28.809,1.0,1.0
1626062524.2018883,-53.711000000000006,-8.301,-17.578,1.0,1.0
1626062524.205795,50.293,-21.484,-40.527,1.0,1.0
1626062524.209701,64.941,-16.602,-45.898,1.0,1.0
1626062524.213607,-34.668,-8.301,-22.461,1.0,1.0
1626062524.2175136,-84.961,-13.184000000000001,-13.672,1.0,1.0
1626062524.2214196,-89.844,-16.602,-35.645,-307.617,1.0
1626062524.225326,1.953,-16.113,-29.296999999999997,149.414,1.0
1626062524.2292323,52.733999999999995,-15.625,-21.973000000000003,292.969,1.0
1626062524.2331386,-26.366999999999997,-17.09,-22.949,-133.789,1.0
1626062524.2370448,-93.262,-21.973000000000003,-24.901999999999997,-371.094,1.0
1626062524.240951,-23.438000000000002,-12.207,-24.901999999999997,15.137,1.0
1626062524.2448573,55.663999999999994,-3.906,-16.113,322.754,1.0
1626062524.2487636,-4.395,-10.254000000000001,-19.531,-15.137,1.0
1626062524.2526696,-107.91,-29.296999999999997,-27.831999999999997,-401.855,1.0
1626062524.256576,-79.102,-31.25,-23.926,-148.92600000000002,1.0
1626062524.2604823,-6.348,-29.785,-26.366999999999997,255.37099999999998,1.0
1626062524.2643886,-52.733999999999995,-27.344,-28.809,53.711000000000006,1.0
1626062524.2682948,-162.59799999999998,-17.578,-32.715,1.0,1.0
1626062524.272201,-177.24599999999998,-30.273000000000003,-42.48,1.0,1.0
1626062524.2761073,-92.773,-31.25,-41.016000000000005,1.0,1.0
1626062524.2800136,-83.008,-18.555,-29.296999999999997,1.0,1.0
1626062524.2839198,-189.453,-23.438000000000002,-27.344,1.0,1.0
1626062524.287826,-243.65200000000002,-24.414,-36.621,1.0,1.0
1626062524.2917323,-178.22299999999998,-28.32,-36.621,1.0,1.0
1626062524.2956386,-129.395,-27.831999999999997,-28.809,1.0,1.0
1626062524.299545,-198.73,-26.366999999999997,-31.738000000000003,1.0,1.0
1626062524.303451,-268.066,-36.133,-37.598,1.0,1.0
1626062524.307357,-198.73,-50.293,-27.831999999999997,1.0,1.0
1626062524.3112638,-114.74600000000001,-57.129,-27.831999999999997,1.0,1.0
1626062524.3151696,-155.273,-56.152,-52.733999999999995,1.0,1.0
1626062524.3190758,-238.77,-44.922,-65.43,1.0,1.0
1626062524.322982,-207.03099999999998,-20.996,-34.668,1.0,1.0
1626062524.3268883,-106.934,-30.273000000000003,-24.414,1.0,1.0
1626062524.330795,-124.512,-19.043,-49.805,1.0,1.0
1626062524.334701,-236.81599999999997,9.277000000000001,-47.852,1.0,1.0
1626062524.3386073,-239.25799999999998,0.977,-29.296999999999997,1.0,1.0
1626062524.3425136,-128.418,-13.184000000000001,-13.184000000000001,1.0,1.0
1626062524.3464196,-94.727,-21.484,-13.184000000000001,1.0,1.0
1626062524.350326,-178.71099999999998,-45.898,-26.855,1.0,1.0
1626062524.3542323,-213.37900000000002,-67.87100000000001,-34.18,1.0,1.0
1626062524.3581383,-121.58200000000001,-42.48,-52.246,1.0,1.0
1626062524.3620448,-32.715,-51.758,-35.156,1.0,1.0
1626062524.365951,-72.266,-79.102,-4.395,1.0,1.0
1626062524.3698573,-160.645,-46.387,-4.395,1.0,1.0
1626062524.3737636,-125.488,-22.461,-16.602,1.0,1.0
1626062524.3776698,-40.527,-28.32,-35.645,1.0,1.0
1626062524.381576,-63.477,-27.344,-27.831999999999997,1.0,1.0
1626062524.3854823,-150.879,-17.578,-27.344,1.0,1.0
1626062524.3893886,-114.74600000000001,-12.695,-39.062,1.0,1.0
1626062524.3932948,6.348,-27.831999999999997,-34.18,1.0,1.0
1626062524.397201,15.625,-42.48,-32.227,1.0,1.0
1626062524.4011073,-66.406,-51.758,-41.016000000000005,1.0,1.0
1626062524.4050138,-65.918,-55.663999999999994,-39.062,1.0,1.0
1626062524.4089198,-41.016000000000005,-41.016000000000005,-35.645,-313.47700000000003,1.0
1626062524.412826,-13.672,-43.945,-20.02,-83.008,1.0
1626062524.4167323,83.008,-5.371,-20.508000000000003,351.56199999999995,1.0
1626062524.4206386,79.102,-2.93,-14.16,210.938,1.0
1626062524.4245448,-21.973000000000003,-51.27,-16.602,-254.88299999999998,1.0
1626062524.428451,-24.414,-56.152,-16.602,-191.40599999999998,1.0
1626062524.432357,83.49600000000001,-9.766,-12.207,291.01599999999996,1.0
1626062524.4362638,115.234,9.277000000000001,-9.766,325.195,1.0
1626062524.4401696,25.879,4.395,-22.461,-133.789,1.0
1626062524.4440763,-24.414,-22.461,-35.645,-266.113,1.0
1626062524.447982,54.688,-20.02,-28.32,159.18,1.0
1626062524.4518883,105.469,-24.414,-24.414,363.281,1.0
1626062524.455795,34.668,-39.551,-25.879,1.0,1.0
1626062524.459701,-32.227,-38.574,-22.949,1.0,1.0
1626062524.463607,16.113,-64.453,-34.18,1.0,1.0
1626062524.4675136,83.984,-51.758,-45.898,1.0,1.0
1626062524.4714196,53.711000000000006,-5.859,-41.016000000000005,1.0,1.0
1626062524.475326,-39.062,-5.371,-39.551,1.0,1.0
1626062524.4792323,-30.273000000000003,-23.438000000000002,-37.109,1.0,1.0
1626062524.4831386,82.031,-1.953,-20.508000000000003,1.0,1.0
1626062524.4870448,76.172,-8.301,-29.296999999999997,1.0,1.0
1626062524.490951,-33.691,-31.738000000000003,-44.434,1.0,1.0
1626062524.4948573,-33.203,-32.715,-36.621,1.0,1.0
1626062524.4987636,64.941,-34.668,-29.296999999999997,1.0,1.0
1626062524.5026696,84.961,-39.551,-31.738000000000003,1.0,1.0
1626062524.506576,-5.371,-42.48,-35.645,1.0,1.0
1626062524.5104823,-39.062,-14.16,-29.296999999999997,1.0,1.0
1626062524.5143886,41.016000000000005,-11.719000000000001,-31.25,1.0,1.0
1626062524.5182948,91.79700000000001,-59.57,-30.761999999999997,1.0,1.0
1626062524.522201,20.02,-62.5,-31.738000000000003,1.0,1.0
1626062524.5261073,-63.477,-27.831999999999997,-34.668,1.0,1.0
1626062524.5300136,-13.672,-12.695,-34.18,1.0,1.0
1626062524.5339198,70.801,7.324,-36.133,1.0,1.0
1626062524.537826,34.18,-1.465,-37.598,1.0,1.0
1626062524.5417323,-64.453,-51.27,-30.761999999999997,1.0,1.0
1626062524.5456386,-43.457,-59.082,-23.926,1.0,1.0
1626062524.549545,48.828,-28.32,-43.457,1.0,1.0
1626062524.553451,43.457,-18.555,-47.852,1.0,1.0
1626062524.557357,-44.434,-31.25,-36.621,1.0,1.0
1626062524.5612638,-59.082,-28.809,-38.086,1.0,1.0
1626062524.5651696,36.133,-21.484,-24.901999999999997,1.0,1.0
1626062524.5690758,76.172,-11.23,-15.625,1.0,1.0
1626062524.572982,-9.277000000000001,-18.066,-18.066,1.0,1.0
1626062524.5768883,-64.941,-27.344,-20.996,1.0,1.0
1626062524.580795,2.93,-21.973000000000003,-26.366999999999997,1.0,1.0
1626062524.584701,76.66,-49.805,-7.812,1.0,1.0
1626062524.5886073,30.273000000000003,-59.082,4.395,1.0,1.0
1626062524.5925136,-68.359,-37.109,-30.273000000000003,1.0,1.0
1626062524.5964196,-98.633,-47.363,-30.273000000000003,-362.305,1.0
1626062524.600326,-13.672,-33.691,-8.301,21.973000000000003,1.0
1626062524.6042323,61.523,-22.949,-21.484,344.23800000000006,1.0
1626062524.6081383,-5.859,-28.32,-45.41,27.344,1.0
1626062524.6120448,-74.219,-45.898,-47.852,-344.727,1.0
1626062524.615951,-23.438000000000002,-34.668,-48.34,-101.56200000000001,1.0
1626062524.6198573,57.617,-5.371,-60.547,308.105,1.0
1626062524.6237636,27.831999999999997,-2.441,-62.012,140.625,1.0
1626062524.6276698,-70.312,-13.672,-39.062,-315.43,1.0
1626062524.631576,-63.965,-22.949,-15.137,-249.512,1.0
1626062524.6354823,33.203,-21.484,-0.977,228.02700000000002,1.0
1626062524.6393886,48.34,-32.715,-10.254000000000001,269.531,1.0
1626062524.6432948,-48.828,-48.828,-32.715,1.0,1.0
1626062524.647201,-83.49600000000001,-38.574,-41.992,1.0,1.0
1626062524.6511073,6.836,-12.207,-33.203,1.0,1.0
1626062524.6550138,40.527,-29.785,-41.992,1.0,1.0
1626062524.6589198,-51.758,-93.75,-54.688,1.0,1.0
1626062524.662826,-114.74600000000001,-94.727,-62.012,1.0,1.0
1626062524.6667323,-39.551,-24.901999999999997,-37.109,1.0,1.0
1626062524.6706386,39.062,-2.93,-5.371,1.0,1.0
1626062524.6745448,-4.395,-11.23,-13.184000000000001,1.0,1.0
1626062524.678451,-82.031,-7.324,-27.831999999999997,1.0,1.0
1626062524.682357,-67.383,-17.578,-30.761999999999997,1.0,1.0
1626062524.6862638,21.484,-47.852,-29.296999999999997,1.0,1.0
1626062524.6901696,25.391,-55.176,-31.25,1.0,1.0
1626062524.6940763,-69.336,-36.133,-24.901999999999997,1.0,1.0
1626062524.697982,-86.426,-50.293,-48.34,1.0,1.0
1626062524.7018883,25.879,-56.152,-68.359,1.0,1.0
1626062524.705795,69.824,-32.227,-39.062,1.0,1.0
1626062524.709701,-32.227,-18.555,-17.578,1.0,1.0
1626062524.713607,-96.191,-39.062,-8.789,1.0,1.0
1626062524.7175136,-29.296999999999997,-34.18,-14.648,1.0,1.0
1626062524.7214196,39.062,-14.648,-19.043,1.0,1.0
1626062524.725326,-16.113,-5.859,-23.438000000000002,1.0,1.0
1626062524.7292323,-94.238,-35.156,-36.133,1.0,1.0
1626062524.7331386,-26.855,-70.801,-14.16,1.0,1.0
1626062524.7370448,-83.008,-66.895,-43.457,-331.055,1.0
1626062524.740951,-16.113,-45.41,-32.715,104.492,1.0
1626062524.7448573,62.988,4.395,4.395,321.289,1.0
1626062524.7487636,-7.812,4.883,-12.695,-85.449,1.0
1626062524.7526696,-106.445,-19.043,-35.645,-382.81199999999995,1.0
1626062524.756576,-53.711000000000006,-28.809,-31.738000000000003,-29.296999999999997,1.0
1626062524.7604823,27.831999999999997,-19.531,-28.32,318.35900000000004,1.0
1626062524.7643886,-17.09,-42.968999999999994,-40.527,23.438000000000002,1.0
1626062524.7682948,-95.70299999999999,-69.824,-48.34,-371.582,1.0
1626062524.772201,-43.945,-46.875,-24.414,-132.32399999999998,1.0
1626062524.7761073,43.457,-33.691,-25.879,296.875,1.0
1626062524.7800136,23.926,-30.273000000000003,-40.527,162.109,1.0
1626062524.7839198,-0.488,-17.578,-14.648,65.918,1.0
1626062524.787826,-112.79299999999999,-56.641000000000005,-51.758,-379.395,1.0
1626062524.7917323,-87.891,-54.199,-53.223,-207.03099999999998,1.0
1626062524.7956386,18.066,-13.672,-31.738000000000003,264.64799999999997,1.0
1626062524.799545,11.23,8.301,-36.133,183.59400000000002,1.0
1626062524.803451,-97.656,-12.207,-47.852,-293.457,1.0
1626062524.807357,-97.656,-42.48,-30.273000000000003,-291.01599999999996,1.0
1626062524.8112638,8.789,-46.875,-9.277000000000001,187.988,1.0
1626062524.8151696,47.363,-42.48,-16.113,295.41,1.0
1626062524.8190758,-41.016000000000005,-36.133,-37.109,-160.156,1.0
1626062524.822982,-110.352,-46.875,-43.457,-371.582,1.0
1626062524.8268883,-13.672,-42.968999999999994,-15.137,55.663999999999994,1.0
1626062524.830795,62.012,-31.25,-12.207,1.0,1.0
1626062524.834701,-27.344,-31.25,-35.156,1.0,1.0
1626062524.8386073,-104.00399999999999,-27.344,-21.484,1.0,1.0
1626062524.8425136,-44.434,-16.602,-28.809,1.0,1.0
1626062524.8464196,47.852,4.395,-40.527,1.0,1.0
1626062524.850326,12.207,-18.066,-23.438000000000002,1.0,1.0
1626062524.8542323,-93.262,-36.133,-10.742,1.0,1.0
1626062524.8581383,-81.055,-26.855,-16.113,1.0,1.0
1626062524.8620448,13.184000000000001,-35.156,-30.273000000000003,1.0,1.0
1626062524.865951,30.761999999999997,-77.637,-26.366999999999997,1.0,1.0
1626062524.8698573,-45.41,-68.359,-17.578,1.0,1.0
1626062524.8737636,-64.453,-3.906,-33.691,1.0,1.0
1626062524.8776698,-109.375,-33.691,-38.086,161.621,1.0
1626062524.881576,-79.59,-26.366999999999997,-49.316,288.086,1.0
1626062524.8854823,29.785,-20.996,-45.898,-142.09,1.0
1626062524.8893886,29.785,-21.973000000000003,-21.484,-371.094,1.0
1626062524.8932948,-83.984,-24.414,-38.086,13.672,1.0
1626062524.897201,-104.492,-29.785,-56.152,328.125,1.0
1626062524.9011073,0.488,-26.366999999999997,-18.555,-1.465,1.0
1626062524.9050138,36.133,-37.109,0.488,-383.789,1.0
1626062524.9089198,-52.246,-48.34,-4.395,-122.07,1.0
1626062524.912826,-94.727,-44.922,-6.348,318.35900000000004,1.0
1626062524.9167323,-18.555,-45.41,-37.598,155.273,1.0
1626062524.9206386,46.387,-46.387,-42.48,-311.035,1.0
1626062524.9245448,45.41,-31.25,-40.039,299.805,1.0
1626062524.928451,-41.016000000000005,-37.109,-57.617,-149.414,1.0
1626062524.932357,-102.539,-28.32,-24.901999999999997,-374.51199999999994,1.0
1626062524.9362638,-37.598,-28.32,3.418,23.438000000000002,1.0
1626062524.9401696,37.109,-18.066,3.418,323.242,1.0
1626062524.9440763,-17.578,-15.625,-13.672,-16.113,1.0
1626062524.947982,-101.074,-38.574,-38.086,-380.371,1.0
1626062524.9518883,-53.223,-44.434,-27.344,-104.00399999999999,1.0
1626062524.955795,35.156,-27.831999999999997,-12.695,308.594,1.0
1626062524.959701,-1.465,-22.949,-19.531,106.445,1.0
1626062524.963607,-85.449,-26.366999999999997,-22.461,-333.496,1.0
1626062524.9675136,-63.477,-37.598,-24.901999999999997,-224.12099999999998,1.0
1626062524.9714196,-63.477,-42.968999999999994,-22.949,-136.23,1.0
1626062524.975326,31.738000000000003,-57.129,-27.831999999999997,299.316,1.0
1626062524.9792323,24.414,-50.781000000000006,-18.066,158.203,1.0
1626062524.9831386,-68.359,-41.992,-16.602,-308.105,1.0
1626062524.9870448,-69.336,-20.02,-23.438000000000002,-261.23,1.0
1626062524.990951,20.996,-18.066,-32.715,213.86700000000002,1.0
1626062524.9948573,33.691,-36.133,-45.898,252.93,1.0
1626062524.9987636,-48.828,-12.207,-35.156,-208.00799999999998,1.0
1626062525.0026696,-88.37899999999999,-2.93,-30.761999999999997,-333.98400000000004,1.0
1626062525.006576,0.0,-33.203,-41.992,113.281,1.0
1626062525.0104823,58.593999999999994,-45.898,-31.738000000000003,323.242,1.0
1626062525.0143886,-29.296999999999997,-66.406,-14.16,-91.79700000000001,1.0
1626062525.0182948,-71.289,-32.715,-46.387,-194.33599999999998,1.0
1626062525.022201,-116.211,-26.855,-51.758,-366.699,1.0
1626062525.0261073,-14.16,-20.996,-39.551,72.266,1.0
1626062525.0300136,62.5,-23.926,-22.949,339.355,1.0
1626062525.0339198,-15.137,-29.785,-24.901999999999997,-39.062,1.0
1626062525.037826,-92.285,-38.086,-35.156,-367.676,1.0
1626062525.0417323,-33.691,-41.504,-24.414,-63.965,1.0
1626062525.0456386,50.781000000000006,-37.109,-38.086,311.52299999999997,1.0
1626062525.049545,7.812,-22.949,-60.547,79.102,1.0
1626062525.053451,-86.426,-31.25,-39.551,-351.074,1.0
1626062525.057357,-80.078,-59.57,-41.504,-216.30900000000003,1.0
1626062525.0612638,17.09,-45.41,-39.551,245.11700000000002,1.0
1626062525.0651696,53.223,-24.414,-44.922,307.129,1.0
1626062525.0690758,16.602,-25.391,-48.828,114.74600000000001,1.0
1626062525.072982,-81.543,-17.09,-28.32,-341.79699999999997,1.0
1626062525.0768883,-68.359,-15.137,-21.484,-241.21099999999998,1.0
1626062525.080795,40.527,-6.836,-9.277000000000001,243.65200000000002,1.0
1626062525.084701,54.199,-5.859,-14.16,253.418,1.0
1626062525.0886073,-49.805,-24.901999999999997,-54.199,-228.02700000000002,1.0
1626062525.0925136,-83.984,-21.973000000000003,-60.059,-324.707,1.0
1626062525.0964196,13.184000000000001,-46.387,-39.551,142.578,1.0
1626062525.100326,60.059,-61.523,-35.156,325.684,1.0
1626062525.1042323,-40.039,-45.41,-43.457,-114.74600000000001,1.0
1626062525.1081383,-120.605,-39.062,-41.992,-397.461,1.0
1626062525.1120448,-89.844,-26.366999999999997,-9.766,-333.98400000000004,1.0
1626062525.115951,-21.973000000000003,-26.855,-26.366999999999997,78.125,1.0
1626062525.1198573,26.855,-19.043,-27.831999999999997,302.246,1.0
1626062525.1237636,-36.133,-26.855,-37.598,-74.219,1.0
1626062525.1276698,-98.633,-32.227,-30.761999999999997,-374.023,1.0
1626062525.131576,-36.621,-30.761999999999997,-11.23,-40.039,1.0
1626062525.1354823,43.457,-20.508000000000003,-8.789,325.195,1.0
1626062525.1393886,-1.465,-39.551,-7.812,66.895,1.0
1626062525.1432948,-93.262,-60.059,-36.621,-358.88699999999994,1.0
1626062525.147201,-65.918,-58.105,-44.922,-179.688,1.0
1626062525.1511073,38.574,-46.875,-14.648,287.10900000000004,1.0
1626062525.1550138,37.109,-33.691,-3.418,192.87099999999998,1.0
1626062525.1589198,-65.918,-9.766,-10.254000000000001,1.0,1.0
1626062525.162826,-78.125,-6.836,-29.296999999999997,1.0,1.0
1626062525.1667323,33.691,-13.184000000000001,-43.457,1.0,1.0
1626062525.1706386,44.434,-24.901999999999997,-39.551,1.0,1.0
1626062525.1745448,-67.87100000000001,-64.941,-30.761999999999997,1.0,1.0
1626062525.178451,-110.352,-57.129,-31.738000000000003,1.0,1.0
1626062525.182357,-40.527,-28.32,-30.273000000000003,1.0,1.0
1626062525.1862638,15.625,-29.296999999999997,-19.043,1.0,1.0
1626062525.1901696,-58.105,-45.898,-26.855,1.0,1.0
1626062525.1940763,-128.906,-41.504,-38.574,1.0,1.0
1626062525.197982,-60.059,-30.273000000000003,-40.039,1.0,1.0
1626062525.2018883,40.527,-14.16,-31.738000000000003,1.0,1.0
1626062525.205795,15.137,-8.301,-24.901999999999997,1.0,1.0
1626062525.209701,-85.449,-25.391,-30.273000000000003,1.0,1.0
1626062525.213607,-80.078,-26.366999999999997,-42.48,1.0,1.0
1626062525.2175136,8.301,-50.293,-46.387,1.0,1.0
1626062525.2214196,22.949,-49.805,-20.996,1.0,1.0
1626062525.225326,-58.593999999999994,-36.621,-6.836,1.0,1.0
1626062525.2292323,-97.16799999999999,-43.945,-25.391,1.0,1.0
1626062525.2331386,-21.484,-31.25,-31.25,1.0,1.0
1626062525.2370448,25.391,-14.16,-25.879,1.0,1.0
1626062525.240951,-59.082,-13.184000000000001,-31.738000000000003,1.0,1.0
1626062525.2448573,-104.00399999999999,-10.254000000000001,-29.785,1.0,1.0
1626062525.2487636,-15.137,-1.465,-30.761999999999997,1.0,1.0
1626062525.2526696,57.617,-18.066,-38.086,1.0,1.0
1626062525.256576,-18.066,-70.801,-27.831999999999997,1.0,1.0
1626062525.2604823,-102.051,-85.93799999999999,-17.578,1.0,1.0
1626062525.2643886,-52.246,-34.18,-18.066,1.0,1.0
1626062525.2682948,24.414,-11.23,-19.043,1.0,1.0
1626062525.272201,4.395,-20.996,-35.156,1.0,1.0
1626062525.2761073,-86.914,-21.973000000000003,-46.387,1.0,1.0
1626062525.2800136,-80.078,-11.23,-30.761999999999997,1.0,1.0
1626062525.2839198,20.996,0.0,-16.602,1.0,1.0
1626062525.287826,19.531,8.301,-30.273000000000003,1.0,1.0
1626062525.2917323,-78.125,0.488,-45.898,1.0,1.0
1626062525.2956386,-113.77,-24.414,-62.012,1.0,1.0
1626062525.299545,-92.285,-49.805,-24.901999999999997,-352.051,1.0
1626062525.303451,-71.289,-19.531,-31.25,-199.707,1.0
1626062525.307357,27.344,-16.602,-43.457,264.64799999999997,1.0
1626062525.3112638,23.438000000000002,-55.663999999999994,-41.992,191.895,1.0
1626062525.3151696,-64.453,-35.645,-24.414,-272.949,1.0
1626062525.3190758,-81.055,3.418,-10.254000000000001,-289.551,1.0
1626062525.322982,-0.488,7.324,-1.953,171.875,1.0
1626062525.3268883,32.227,3.418,-4.883,290.039,1.0
1626062525.330795,-44.434,-14.648,-20.508000000000003,-150.391,1.0
1626062525.334701,-85.93799999999999,-29.296999999999997,-25.879,-355.957,1.0
1626062525.3386073,-13.184000000000001,-46.387,-28.809,43.945,1.0
1626062525.3425136,33.691,-46.875,-34.668,315.43,1.0
1626062525.3464196,-43.457,-27.831999999999997,-36.621,1.0,1.0
1626062525.350326,-119.62899999999999,-27.344,-33.691,1.0,1.0
1626062525.3542323,-51.27,-27.831999999999997,-21.484,1.0,1.0
1626062525.3581383,37.109,-66.895,-33.203,1.0,1.0
1626062525.3620448,-0.488,-61.035,-34.668,1.0,1.0
1626062525.365951,-92.773,-23.926,-23.926,1.0,1.0
1626062525.3698573,-83.008,-22.461,-32.715,1.0,1.0
1626062525.3737636,11.23,-17.09,-42.48,1.0,1.0
1626062525.3776698,18.555,-17.578,-27.831999999999997,1.0,1.0
1626062525.381576,-69.824,-22.461,-8.789,1.0,1.0
1626062525.3854823,-102.051,-25.391,-25.391,1.0,1.0
1626062525.3893886,-20.996,-22.461,-40.527,1.0,1.0
1626062525.3932948,17.09,-22.949,-35.645,1.0,1.0
1626062525.397201,-60.059,-33.691,-49.316,1.0,1.0
1626062525.4011073,-106.445,-26.366999999999997,-60.059,1.0,1.0
1626062525.4050138,-35.156,-10.742,-44.434,1.0,1.0
1626062525.4089198,33.203,-35.645,-30.761999999999997,1.0,1.0
1626062525.412826,-19.043,-72.75399999999999,-40.039,1.0,1.0
1626062525.4167323,-94.727,-80.566,-42.48,1.0,1.0
1626062525.4206386,-50.293,-53.711000000000006,-33.691,1.0,1.0
1626062525.4245448,48.828,-15.625,-47.363,1.0,1.0
1626062525.428451,26.366999999999997,-12.207,-59.57,1.0,1.0
1626062525.432357,-90.82,-29.296999999999997,-51.758,1.0,1.0
1626062525.4362638,-96.191,-19.043,-30.273000000000003,1.0,1.0
1626062525.4401696,5.859,4.395,-9.277000000000001,1.0,1.0
1626062525.4440763,21.484,-16.113,-21.973000000000003,1.0,1.0
1626062525.447982,-76.172,-52.246,-36.133,1.0,1.0
1626062525.4518883,-106.445,-63.477,-29.296999999999997,1.0,1.0
1626062525.455795,-7.324,-49.316,-32.715,1.0,1.0
1626062525.459701,43.945,-28.809,-42.968999999999994,1.0,1.0
1626062525.463607,-34.668,-13.672,-52.246,1.0,1.0
1626062525.4675136,-90.33200000000001,-2.93,-42.48,1.0,1.0
1626062525.4714196,-40.527,-30.761999999999997,-38.086,1.0,1.0
1626062525.475326,31.738000000000003,-57.129,-40.527,1.0,1.0
1626062525.4792323,-12.695,-43.457,-29.785,1.0,1.0
1626062525.4831386,-113.281,-19.531,-18.066,1.0,1.0
1626062525.4870448,-45.41,-73.242,-0.488,-125.488,1.0
1626062525.490951,-93.262,-58.105,-0.488,-343.26199999999994,1.0
1626062525.4948573,-13.184000000000001,-37.598,-3.906,58.593999999999994,1.0
1626062525.4987636,46.387,-13.184000000000001,-3.906,348.145,1.0
1626062525.5026696,-29.296999999999997,-26.366999999999997,-9.277000000000001,-2.441,1.0
1626062525.506576,-104.492,-50.781000000000006,-10.742,-359.86300000000006,1.0
1626062525.5104823,-41.016000000000005,-46.387,-5.859,-82.52,1.0
1626062525.5143886,52.733999999999995,-43.945,0.977,332.52,1.0
1626062525.5182948,7.812,-76.66,-2.93,139.648,1.0
1626062525.522201,-83.008,-83.008,-21.484,-313.47700000000003,1.0
1626062525.5261073,-70.312,-63.965,-21.973000000000003,-220.215,1.0
1626062525.5300136,19.043,-52.733999999999995,-6.348,249.023,1.0
1626062525.5339198,27.344,-53.223,-11.23,1.0,1.0
1626062525.537826,-74.219,-49.316,-32.227,1.0,1.0
1626062525.5417323,-94.727,-25.879,-25.879,1.0,1.0
1626062525.5456386,9.277000000000001,-13.672,-20.996,1.0,1.0
1626062525.549545,47.363,-22.949,-37.598,1.0,1.0
1626062525.553451,-43.457,-41.504,-24.414,1.0,1.0
1626062525.557357,-99.609,-45.41,-9.766,1.0,1.0
1626062525.5612638,-31.25,-37.109,-6.348,1.0,1.0
1626062525.5651696,49.805,-31.25,-9.766,1.0,1.0
1626062525.5690758,0.977,-20.02,-30.761999999999997,1.0,1.0
1626062525.572982,-93.262,-34.668,-29.785,1.0,1.0
1626062525.5768883,-56.152,-46.387,-19.531,1.0,1.0
1626062525.580795,-85.93799999999999,-29.296999999999997,-30.273000000000003,309.082,1.0
1626062525.584701,-16.602,-19.531,-20.508000000000003,186.035,1.0
1626062525.5886073,43.945,-8.789,-9.766,-287.10900000000004,1.0
1626062525.5925136,-20.02,-21.973000000000003,-27.344,-272.949,1.0
1626062525.5964196,-88.867,-44.434,-44.922,215.82,1.0
1626062525.600326,-23.926,-23.926,-34.668,284.18,1.0
1626062525.6042323,67.383,-9.766,-8.789,-183.105,1.0
1626062525.6081383,8.301,-27.344,-6.348,-338.86699999999996,1.0
1626062525.6120448,-116.211,-47.852,-22.461,87.402,1.0
1626062525.615951,-99.12100000000001,-57.617,-27.344,314.941,1.0
1626062525.6198573,20.02,-42.48,-26.855,-75.195,1.0
1626062525.6237636,43.945,-21.973000000000003,-22.949,-382.81199999999995,1.0
1626062525.6276698,5.371,-37.598,-17.09,125.977,1.0
1626062525.631576,-84.961,-55.663999999999994,-22.949,-327.637,1.0
1626062525.6354823,-80.078,-42.968999999999994,-24.414,-247.55900000000003,1.0
1626062525.6393886,10.254000000000001,-39.551,-30.761999999999997,217.285,1.0
1626062525.6432948,33.691,-52.733999999999995,-28.809,243.65200000000002,1.0
1626062525.647201,-50.781000000000006,-54.199,-28.32,-214.84400000000002,1.0
1626062525.6511073,-93.75,-34.668,-28.809,-341.79699999999997,1.0
1626062525.6550138,-15.137,-31.738000000000003,-44.434,85.93799999999999,1.0
1626062525.6589198,40.039,-23.926,-52.733999999999995,291.992,1.0
1626062525.662826,-25.391,-7.812,-34.668,-103.516,1.0
1626062525.6667323,-99.609,-7.812,-21.973000000000003,-388.67199999999997,1.0
1626062525.6706386,-45.898,-21.484,-18.555,-37.109,1.0
1626062525.6745448,40.527,-41.016000000000005,-38.086,1.0,1.0
1626062525.678451,-21.484,-44.434,-66.406,1.0,1.0
1626062525.682357,-102.539,-35.645,-41.016000000000005,1.0,1.0
1626062525.6862638,-48.828,-38.086,-5.371,1.0,1.0
1626062525.6901696,18.555,-31.738000000000003,-33.203,1.0,1.0
1626062525.6940763,-7.812,-26.855,-66.406,1.0,1.0
1626062525.697982,-79.102,-26.855,-39.062,1.0,1.0
1626062525.7018883,-80.566,-27.344,-19.531,1.0,1.0
1626062525.705795,13.184000000000001,-21.973000000000003,-29.785,1.0,1.0
1626062525.709701,32.227,-25.391,-37.598,1.0,1.0
1626062525.713607,-55.663999999999994,-34.668,-30.761999999999997,1.0,1.0
1626062525.7175136,-95.215,-37.598,-24.414,1.0,1.0
1626062525.7214196,-74.219,-21.973000000000003,-41.992,-337.402,1.0
1626062525.725326,-60.547,-39.551,-39.551,-223.145,1.0
1626062525.7292323,17.578,-65.918,-56.152,234.863,1.0
1626062525.7331386,21.973000000000003,-47.363,-74.707,216.797,1.0
1626062525.7370448,-75.195,-24.901999999999997,-75.684,-252.44099999999997,1.0
1626062525.740951,-98.633,-41.992,-49.805,-326.172,1.0
1626062525.7448573,8.301,-47.363,-16.113,145.50799999999998,1.0
1626062525.7487636,59.082,-18.066,8.789,326.172,1.0
1626062525.7526696,-43.457,-16.113,6.836,-118.164,1.0
1626062525.756576,-122.07,-25.391,-7.324,-386.719,1.0
1626062525.7604823,-42.968999999999994,-11.23,-20.996,-4.883,1.0
1626062525.7643886,42.48,-7.324,-27.344,323.73,1.0
1626062525.7682948,-7.812,-27.831999999999997,-25.391,1.0,1.0
1626062525.772201,-104.00399999999999,-38.574,-25.879,1.0,1.0
1626062525.7761073,-72.266,-35.645,-28.809,1.0,1.0
1626062525.7800136,34.668,-30.273000000000003,-27.831999999999997,1.0,1.0
1626062525.7839198,12.207,-31.738000000000003,-34.18,1.0,1.0
1626062525.787826,-90.33200000000001,-44.434,-42.968999999999994,1.0,1.0
1626062525.7917323,-80.566,-49.316,-37.598,1.0,1.0
1626062525.7956386,25.391,-27.344,-27.831999999999997,1.0,1.0
1626062525.799545,49.805,-22.461,-17.09,1.0,1.0
1626062525.803451,-49.316,-59.57,-21.484,1.0,1.0
1626062525.807357,-100.586,-63.477,-23.438000000000002,1.0,1.0
1626062525.8112638,-25.391,-35.645,-26.366999999999997,1.0,1.0
1626062525.8151696,31.738000000000003,-25.879,-41.504,1.0,1.0
1626062525.8190758,-32.227,-13.672,-44.434,1.0,1.0
1626062525.822982,-98.633,-6.348,-41.504,1.0,1.0
1626062525.8268883,-35.645,-7.812,-41.504,1.0,1.0
1626062525.830795,43.945,-18.555,-39.062,1.0,1.0
1626062525.834701,5.859,-36.133,-31.25,1.0,1.0
1626062525.8386073,-83.49600000000001,-39.551,-32.227,1.0,1.0
1626062525.8425136,-54.199,-29.785,-25.879,1.0,1.0
1626062525.8464196,40.039,-28.809,-9.277000000000001,1.0,1.0
1626062525.850326,17.578,-39.062,-10.742,1.0,1.0
1626062525.8542323,-72.266,-49.805,-31.738000000000003,1.0,1.0
1626062525.8581383,-83.008,-55.663999999999994,-41.504,1.0,1.0
1626062525.8620448,-58.593999999999994,-41.504,-20.996,-208.984,1.0
1626062525.865951,20.996,-24.414,-61.035,243.16400000000002,1.0
1626062525.8698573,27.344,-17.578,-61.035,204.102,1.0
1626062525.8737636,-49.316,-26.366999999999997,-10.254000000000001,-247.07,1.0
1626062525.8776698,-93.262,-37.109,-14.648,-315.918,1.0
1626062525.881576,-13.672,-25.879,-27.344,137.695,1.0
1626062525.8854823,36.133,-10.254000000000001,-29.785,288.574,1.0
1626062525.8893886,-50.293,-36.133,-60.059,-157.715,1.0
1626062525.8932948,-107.42200000000001,-48.828,-41.016000000000005,-375.977,1.0
1626062525.897201,-27.344,-29.785,-11.23,32.715,1.0
1626062525.9011073,47.852,-27.344,-14.648,333.00800000000004,1.0
1626062525.9050138,-9.277000000000001,-47.363,-20.02,-4.883,1.0
1626062525.9089198,-103.516,-48.828,-34.668,1.0,1.0
1626062525.912826,-48.34,-21.484,-46.387,1.0,1.0
1626062525.9167323,55.176,-19.043,-51.758,1.0,1.0
1626062525.9206386,11.719000000000001,-22.949,-57.617,1.0,1.0
1626062525.9245448,-90.82,-15.625,-43.945,1.0,1.0
1626062525.928451,-83.008,-22.461,-36.133,1.0,1.0
1626062525.932357,13.672,-25.391,-46.387,1.0,1.0
1626062525.9362638,30.273000000000003,-25.879,-36.133,1.0,1.0
1626062525.9401696,-45.898,-47.363,-13.184000000000001,1.0,1.0
1626062525.9440763,-71.289,-50.781000000000006,-5.371,1.0,1.0
1626062525.947982,-9.766,-34.668,-15.137,1.0,1.0
1626062525.9518883,38.086,-25.879,-33.691,1.0,1.0
1626062525.955795,-29.296999999999997,-28.809,-44.434,1.0,1.0
1626062525.959701,-105.469,-38.574,-31.738000000000003,1.0,1.0
1626062525.963607,-48.828,-34.668,-24.901999999999997,1.0,1.0
1626062525.9675136,30.273000000000003,-15.625,-38.574,1.0,1.0
1626062525.9714196,-6.348,-14.16,-25.879,1.0,1.0
1626062525.975326,-86.914,-28.809,-5.371,1.0,1.0
1626062525.9792323,-62.012,-27.344,-12.695,1.0,1.0
1626062525.9831386,18.555,-39.062,-18.555,1.0,1.0
1626062525.9870448,11.23,-65.43,-12.695,1.0,1.0
1626062525.990951,-80.078,-60.547,-35.645,1.0,1.0
1626062525.9948573,-91.79700000000001,-34.668,-53.223,1.0,1.0
1626062525.9987636,12.207,-12.695,-19.043,1.0,1.0
1626062526.0026696,29.296999999999997,-17.578,-16.113,1.0,1.0
1626062526.006576,-80.078,-35.645,-32.227,1.0,1.0
1626062526.0104823,-124.023,-24.414,-28.32,1.0,1.0
1626062526.0143886,-24.414,-13.672,-2.93,1.0,1.0
1626062526.0182948,37.109,-36.621,-8.301,1.0,1.0
1626062526.022201,-34.18,-38.574,-39.551,1.0,1.0
1626062526.0261073,-98.145,-41.992,-44.922,1.0,1.0
1626062526.0300136,-47.363,-41.016000000000005,-32.715,1.0,1.0
1626062526.0339198,44.922,-26.855,-10.742,1.0,1.0
1626062526.037826,6.348,-37.109,-20.508000000000003,1.0,1.0
1626062526.0417323,-100.586,-32.715,-44.922,1.0,1.0
1626062526.0456386,-76.66,-50.293,-31.25,1.0,1.0
1626062526.049545,-105.469,-32.715,-27.344,-387.695,1.0
1626062526.053451,-0.488,-18.555,-10.742,34.18,1.0
1626062526.057357,66.895,-20.02,-14.16,352.539,1.0
1626062526.0612638,-16.113,-28.32,-39.551,5.371,1.0
1626062526.0651696,-123.04700000000001,-41.016000000000005,-50.293,-395.02,1.0
1626062526.0690758,-66.895,-28.32,-30.273000000000003,-121.58200000000001,1.0
1626062526.072982,55.663999999999994,-20.508000000000003,-24.901999999999997,334.473,1.0
1626062526.0768883,9.766,-41.992,-41.016000000000005,139.648,1.0
1626062526.080795,-104.98,-50.781000000000006,-43.457,-336.426,1.0
1626062526.084701,-92.773,-47.363,-35.156,-251.465,1.0
1626062526.0886073,4.883,-24.414,-26.366999999999997,227.051,1.0
1626062526.0925136,16.602,-5.859,-16.602,245.605,1.0
1626062526.0964196,-65.43,-18.555,-10.742,1.0,1.0
1626062526.100326,-92.285,-43.457,-20.508000000000003,1.0,1.0
1626062526.1042323,-19.043,-51.758,-46.387,1.0,1.0
1626062526.1081383,36.621,-18.555,-29.296999999999997,1.0,1.0
1626062526.1120448,-37.109,2.93,-15.137,1.0,1.0
1626062526.115951,-110.352,-10.742,-22.949,1.0,1.0
1626062526.1198573,-41.016000000000005,-13.672,-24.901999999999997,1.0,1.0
1626062526.1237636,45.898,-45.41,-34.668,1.0,1.0
1626062526.1276698,12.207,-64.453,-35.156,1.0,1.0
1626062526.131576,-86.914,-35.156,-46.387,1.0,1.0
1626062526.1354823,-77.637,-17.09,-51.758,1.0,1.0
1626062526.1393886,14.16,-4.883,-41.504,1.0,1.0
1626062526.1432948,6.348,-9.766,-18.555,1.0,1.0
1626062526.147201,-90.33200000000001,-32.715,-27.344,1.0,1.0
1626062526.1511073,-88.37899999999999,-54.688,-33.203,1.0,1.0
1626062526.1550138,18.066,-44.434,-22.461,1.0,1.0
1626062526.1589198,32.227,-18.555,-22.949,1.0,1.0
1626062526.162826,-53.223,-26.366999999999997,-20.996,1.0,1.0
1626062526.1667323,-91.79700000000001,-38.086,-43.945,1.0,1.0
1626062526.1706386,-22.461,-26.855,-51.758,1.0,1.0
1626062526.1745448,48.828,-13.184000000000001,-18.555,1.0,1.0
1626062526.178451,-13.672,-18.066,-2.93,1.0,1.0
1626062526.182357,-111.32799999999999,-35.156,-27.831999999999997,1.0,1.0
1626062526.1862638,-74.707,-48.828,-38.574,1.0,1.0
1626062526.1901696,14.648,-38.086,-27.344,1.0,1.0
1626062526.1940763,-20.508000000000003,-41.016000000000005,-58.105,1.0,1.0
1626062526.197982,-117.676,-61.035,-71.777,1.0,1.0
1626062526.2018883,-83.008,-34.668,-35.645,1.0,1.0
1626062526.205795,30.761999999999997,-20.02,-23.438000000000002,1.0,1.0
1626062526.209701,20.996,-28.32,-28.809,1.0,1.0
1626062526.213607,-79.59,-42.968999999999994,-37.109,1.0,1.0
1626062526.2175136,-74.707,-28.32,-43.457,1.0,1.0
1626062526.2214196,33.203,-20.508000000000003,-37.109,1.0,1.0
1626062526.225326,69.824,-34.668,-23.926,1.0,1.0
1626062526.2292323,-30.273000000000003,-28.809,-35.645,1.0,1.0
1626062526.2331386,-96.191,-30.273000000000003,-29.296999999999997,1.0,1.0
1626062526.2370448,-97.656,-39.551,-31.738000000000003,-321.289,1.0
1626062526.240951,-86.426,-37.598,-24.901999999999997,-250.488,1.0
1626062526.2448573,14.648,-31.738000000000003,-38.086,226.562,1.0
1626062526.2487636,25.391,-28.809,-51.27,250.0,1.0
1626062526.2526696,-63.965,-37.109,-37.598,-209.47299999999998,1.0
1626062526.256576,-96.191,-58.593999999999994,-37.109,-325.684,1.0
1626062526.2604823,5.371,-41.504,-34.668,132.32399999999998,1.0
1626062526.2643886,55.663999999999994,-24.901999999999997,-29.785,333.98400000000004,1.0
1626062526.2682948,-29.296999999999997,-32.715,-37.109,-81.543,1.0
1626062526.272201,-87.402,-32.227,-35.645,-366.699,1.0
1626062526.2761073,-34.18,-31.738000000000003,-36.133,-33.203,1.0
1626062526.2800136,29.785,-31.25,-39.551,312.012,1.0
1626062526.2839198,-16.113,-46.387,-38.086,30.273000000000003,1.0
1626062526.287826,-97.16799999999999,-44.922,-25.879,-373.535,1.0
1626062526.2917323,-61.035,-32.227,-23.926,-168.945,1.0
1626062526.2956386,30.273000000000003,-47.363,-31.25,280.27299999999997,1.0
1626062526.299545,13.184000000000001,-46.387,-36.621,172.363,1.0
1626062526.303451,-91.79700000000001,-43.457,-50.293,-305.664,1.0
1626062526.307357,-89.844,-30.273000000000003,-59.57,-290.039,1.0
1626062526.3112638,18.066,1.465,-47.852,192.87099999999998,1.0
1626062526.3151696,36.133,-8.789,-33.203,274.414,1.0
1626062526.3190758,-46.387,-27.831999999999997,-32.227,-177.734,1.0
1626062526.322982,-83.008,-35.156,-20.996,-344.23800000000006,1.0
1626062526.3268883,2.441,-35.156,-4.395,83.008,1.0
1626062526.330795,50.781000000000006,-27.831999999999997,-17.578,326.172,1.0
1626062526.334701,-32.715,-19.531,-38.574,-61.523,1.0
1626062526.3386073,-102.051,-19.043,-43.457,-395.02,1.0
1626062526.3425136,-36.133,-17.578,-37.109,-78.613,1.0
1626062526.3464196,43.457,-27.831999999999997,-36.133,315.918,1.0
1626062526.350326,8.301,-43.945,-23.438000000000002,89.844,1.0
1626062526.3542323,-76.172,-49.316,-24.414,-346.68,1.0
1626062526.3581383,-60.547,-37.109,-31.738000000000003,-207.03099999999998,1.0
1626062526.3620448,34.18,-38.086,-25.391,267.578,1.0
1626062526.365951,23.926,-54.688,-41.504,201.66,1.0
1626062526.3698573,-77.148,-43.945,-47.852,-284.668,1.0
1626062526.3737636,-89.355,-27.344,-17.09,-310.059,1.0
1626062526.3776698,-103.027,-37.109,-12.695,-254.88299999999998,1.0
1626062526.381576,1.465,-45.898,-11.719000000000001,218.262,1.0
1626062526.3854823,28.809,-26.366999999999997,-8.301,225.09799999999998,1.0
1626062526.3893886,-73.73,-45.898,-18.555,-252.44099999999997,1.0
1626062526.3932948,-111.816,-57.129,-36.133,-349.60900000000004,1.0
1626062526.397201,-16.602,-20.02,-29.785,111.816,1.0
1626062526.4011073,28.32,-21.484,-33.691,295.89799999999997,1.0
1626062526.4050138,-44.434,-31.25,-56.152,-119.141,1.0
1626062526.4089198,-93.262,-20.02,-63.965,-378.418,1.0
1626062526.412826,-23.438000000000002,-13.672,-28.32,-4.395,1.0
1626062526.4167323,53.223,-10.742,-14.16,336.426,1.0
1626062526.4206386,4.395,-6.836,-31.738000000000003,37.109,1.0
1626062526.4245448,-1.465,-41.992,-30.761999999999997,-46.875,1.0
1626062526.428451,-82.52,-67.383,-25.879,-374.023,1.0
1626062526.432357,-44.434,-53.223,-33.203,-58.105,1.0
1626062526.4362638,28.809,-45.898,-29.785,309.57,1.0
1626062526.4401696,-6.836,-31.738000000000003,-26.366999999999997,56.641000000000005,1.0
1626062526.4440763,-97.656,-18.555,-40.039,-370.605,1.0
1626062526.447982,-72.75399999999999,-30.761999999999997,-38.086,-196.28900000000002,1.0
1626062526.4518883,26.855,-23.926,-33.203,266.113,1.0
1626062526.455795,16.113,-9.277000000000001,-30.761999999999997,174.805,1.0
1626062526.459701,-85.93799999999999,-21.973000000000003,-22.949,-301.758,1.0
1626062526.463607,-107.91,-35.645,-30.761999999999997,-316.895,1.0
1626062526.4675136,-1.465,-26.366999999999997,-26.366999999999997,166.016,1.0
1626062526.4714196,54.199,-13.672,-22.949,1.0,1.0
1626062526.475326,-46.875,-37.109,-33.691,1.0,1.0
1626062526.4792323,-106.934,-65.43,-40.039,1.0,1.0
1626062526.4831386,-18.066,-51.27,-47.852,1.0,1.0
1626062526.4870448,42.968999999999994,-27.831999999999997,-46.387,1.0,1.0
1626062526.490951,-22.949,-25.391,-43.945,1.0,1.0
1626062526.4948573,-103.516,-17.578,-37.598,1.0,1.0
1626062526.4987636,-68.848,-27.344,-36.133,1.0,1.0
1626062526.5026696,17.578,-28.32,-41.504,1.0,1.0
1626062526.506576,-4.883,-21.973000000000003,-29.296999999999997,1.0,1.0
1626062526.5104823,-83.49600000000001,-32.715,-10.254000000000001,1.0,1.0
1626062526.5143886,-72.266,-15.137,-16.113,1.0,1.0
1626062526.5182948,-77.637,-38.086,-34.18,239.74599999999998,1.0
1626062526.522201,-26.366999999999997,-30.273000000000003,-52.246,194.824,1.0
1626062526.5261073,40.527,-19.043,-36.133,-279.785,1.0
1626062526.5300136,-25.391,-31.738000000000003,-33.203,-319.824,1.0
1626062526.5339198,-113.77,-53.711000000000006,-39.062,168.945,1.0
1626062526.537826,-64.453,-35.645,-34.668,304.688,1.0
1626062526.5417323,38.574,-34.18,-32.715,-145.50799999999998,1.0
1626062526.5456386,30.273000000000003,-50.781000000000006,-41.992,-383.301,1.0
1626062526.549545,-73.73,-36.621,-41.504,21.484,1.0
1626062526.553451,-100.098,-37.598,-33.203,335.93800000000005,1.0
1626062526.557357,-1.465,-28.809,-28.32,-2.93,1.0
1626062526.5612638,26.366999999999997,-30.273000000000003,-30.273000000000003,-371.094,1.0
1626062526.5651696,-69.824,-38.086,-23.926,1.0,1.0
1626062526.5690758,-98.633,-27.831999999999997,-26.855,1.0,1.0
1626062526.572982,-6.836,-17.09,-53.711000000000006,1.0,1.0
1626062526.5768883,54.688,-2.93,-49.316,1.0,1.0
1626062526.580795,-24.414,-25.391,-31.25,1.0,1.0
1626062526.584701,-122.07,-47.852,-32.227,1.0,1.0
1626062526.5886073,-66.895,-36.133,-24.414,1.0,1.0
1626062526.5925136,16.602,-30.761999999999997,-20.02,1.0,1.0
1626062526.5964196,-22.461,-43.457,-20.508000000000003,1.0,1.0
1626062526.600326,-105.95700000000001,-44.434,-20.508000000000003,1.0,1.0
1626062526.6042323,-74.707,-36.133,-24.414,1.0,1.0
1626062526.6081383,19.531,-22.949,-49.316,1.0,1.0
1626062526.6120448,14.16,-38.574,-56.641000000000005,204.59,1.0
1626062526.615951,-81.055,-69.336,-42.968999999999994,-271.48400000000004,1.0
1626062526.6198573,-98.145,-41.016000000000005,-36.133,-305.176,1.0
1626062526.6237636,-0.488,-22.949,-35.156,164.551,1.0
1626062526.6276698,38.086,-29.296999999999997,-39.062,284.18,1.0
1626062526.631576,-53.223,-21.484,-39.062,-165.03900000000002,1.0
1626062526.6354823,-113.281,-10.254000000000001,-39.062,-384.277,1.0
1626062526.6393886,-35.645,-0.977,-30.273000000000003,18.066,1.0
1626062526.6432948,61.523,0.0,-14.16,337.402,1.0
1626062526.647201,7.812,-30.761999999999997,-29.296999999999997,-10.742,1.0
1626062526.6511073,-96.68,-59.57,-41.504,-396.973,1.0
1626062526.6550138,-46.875,-41.992,-18.555,-111.32799999999999,1.0
1626062526.6589198,48.34,-27.344,-22.949,1.0,1.0
1626062526.662826,4.883,-36.621,-62.988,1.0,1.0
1626062526.6667323,-95.215,-24.414,-63.477,1.0,1.0
1626062526.6706386,-81.543,-42.968999999999994,-36.621,1.0,1.0
1626062526.6745448,14.648,-46.875,-26.855,1.0,1.0
1626062526.678451,15.137,-16.602,-24.901999999999997,1.0,1.0
1626062526.682357,-79.102,-22.461,-35.156,1.0,1.0
1626062526.6862638,-86.914,-32.227,-27.344,1.0,1.0
1626062526.6901696,4.883,-44.922,-22.949,1.0,1.0
1626062526.6940763,30.273000000000003,-44.922,-42.48,1.0,1.0
1626062526.697982,-56.641000000000005,-55.176,-38.574,1.0,1.0
1626062526.7018883,-115.723,-58.593999999999994,-30.761999999999997,1.0,1.0
1626062526.705795,-85.449,-30.273000000000003,-38.574,-331.543,1.0
1626062526.709701,8.301,-28.809,-37.598,117.676,1.0
1626062526.713607,55.176,-19.531,-11.23,328.61300000000006,1.0
1626062526.7175136,-23.438000000000002,-33.203,-12.207,-77.637,1.0
1626062526.7214196,-96.68,-34.18,-23.926,-376.95300000000003,1.0
1626062526.725326,-36.621,-22.949,-10.742,-28.32,1.0
1626062526.7292323,31.738000000000003,-26.855,-18.066,325.195,1.0
1626062526.7331386,-24.414,-38.574,-26.855,35.645,1.0
1626062526.7370448,-111.816,-51.758,-20.02,-376.465,1.0
1626062526.740951,-64.941,-50.293,-24.901999999999997,-169.43400000000003,1.0
1626062526.7448573,41.504,-51.758,-21.484,274.414,1.0
1626062526.7487636,30.761999999999997,-24.414,-16.113,171.875,1.0
1626062526.7526696,-64.453,-20.508000000000003,-27.831999999999997,1.0,1.0
1626062526.756576,-95.215,-41.504,-59.082,1.0,1.0
1626062526.7604823,-10.254000000000001,-38.086,-59.082,1.0,1.0
1626062526.7643886,31.738000000000003,-31.25,-22.461,1.0,1.0
1626062526.7682948,-62.988,-27.831999999999997,-12.207,1.0,1.0
1626062526.772201,-106.934,-19.043,-8.789,1.0,1.0
1626062526.7761073,-24.414,-14.16,-8.301,1.0,1.0
1626062526.7800136,25.391,-33.691,-8.789,1.0,1.0
1626062526.7839198,-36.621,-36.621,-13.184000000000001,1.0,1.0
1626062526.787826,-105.469,-31.25,-21.973000000000003,1.0,1.0
1626062526.7917323,-55.176,-38.574,-34.18,1.0,1.0
1626062526.7956386,36.133,-52.733999999999995,-36.133,1.0,1.0
1626062526.799545,16.113,-40.527,-39.551,1.0,1.0
1626062526.803451,-80.566,-33.203,-58.105,1.0,1.0
1626062526.807357,-70.312,-55.663999999999994,-43.945,1.0,1.0
1626062526.8112638,12.695,-35.645,-13.184000000000001,1.0,1.0
1626062526.8151696,5.859,1.465,-16.602,1.0,1.0
1626062526.8190758,-69.824,20.508000000000003,-21.973000000000003,1.0,1.0
1626062526.822982,-98.145,-6.836,-36.133,1.0,1.0
1626062526.8268883,-20.508000000000003,-23.926,-34.668,1.0,1.0
1626062526.830795,34.18,-15.625,-20.996,1.0,1.0
1626062526.834701,-46.387,-55.663999999999994,-21.973000000000003,1.0,1.0
1626062526.8386073,-104.98,-70.312,-24.414,1.0,1.0
1626062526.8425136,-28.809,-24.414,-34.668,1.0,1.0
1626062526.8464196,-69.336,-42.48,-55.176,-268.066,1.0
1626062526.850326,30.273000000000003,-20.508000000000003,-29.296999999999997,213.86700000000002,1.0
1626062526.8542323,42.48,-46.387,-11.23,258.301,1.0
1626062526.8581383,-60.059,-68.359,-12.695,-212.891,1.0
1626062526.8620448,-108.398,-42.968999999999994,-21.973000000000003,-357.91,1.0
1626062526.865951,-20.996,-37.109,-23.438000000000002,80.078,1.0
1626062526.8698573,35.645,-31.25,-23.926,305.664,1.0
1626062526.8737636,-36.621,-26.366999999999997,-37.109,-90.33200000000001,1.0
1626062526.8776698,-112.305,-31.25,-49.316,-401.855,1.0
1626062526.881576,-59.57,-27.344,-37.598,-74.707,1.0
1626062526.8854823,21.973000000000003,-16.602,-30.761999999999997,297.85200000000003,1.0
1626062526.8893886,-20.508000000000003,-29.785,-45.898,35.645,1.0
1626062526.8932948,-105.469,-49.805,-40.527,1.0,1.0
1626062526.897201,-78.125,-52.733999999999995,-16.602,1.0,1.0
1626062526.9011073,17.09,-61.523,-13.672,1.0,1.0
1626062526.9050138,25.391,-78.613,-24.414,1.0,1.0
1626062526.9089198,-64.941,-63.965,-39.551,1.0,1.0
1626062526.912826,-89.355,-24.414,-42.968999999999994,1.0,1.0
1626062526.9167323,-5.371,-24.414,-24.901999999999997,1.0,1.0
1626062526.9206386,22.949,-31.738000000000003,-12.695,1.0,1.0
1626062526.9245448,-68.848,-30.761999999999997,-24.901999999999997,1.0,1.0
1626062526.928451,-115.234,-33.203,-43.457,1.0,1.0
1626062526.932357,-38.086,-38.574,-53.223,1.0,1.0
1626062526.9362638,33.203,-12.207,-39.062,1.0,1.0
1626062526.9401696,-2.441,-19.043,-21.484,1.0,1.0
1626062526.9440763,-89.355,-61.523,-31.738000000000003,1.0,1.0
1626062526.947982,-55.663999999999994,-53.711000000000006,-35.645,1.0,1.0
1626062526.9518883,37.109,-41.992,-25.879,1.0,1.0
1626062526.955795,7.324,-20.996,-32.227,1.0,1.0
1626062526.959701,-95.70299999999999,-5.371,-38.574,1.0,1.0
1626062526.963607,-75.195,-24.414,-36.621,1.0,1.0
1626062526.9675136,43.457,-29.785,-38.574,1.0,1.0
1626062526.9714196,43.945,-35.645,-42.48,1.0,1.0
1626062526.975326,-59.57,-36.621,-32.715,1.0,1.0
1626062526.9792323,-73.242,-24.414,-12.207,1.0,1.0
1626062526.9831386,31.738000000000003,-30.761999999999997,-9.766,1.0,1.0
1626062526.9870448,56.152,-36.133,-31.738000000000003,1.0,1.0
1626062526.990951,-57.617,-38.086,-49.805,1.0,1.0
1626062526.9948573,-119.141,-27.344,-47.852,1.0,1.0
1626062526.9987636,-30.761999999999997,-25.879,-34.18,1.0,1.0
1626062527.0026696,55.176,-27.831999999999997,-44.434,1.0,1.0
1626062527.006576,1.465,-31.25,-72.266,1.0,1.0
1626062527.0104823,-85.93799999999999,-31.25,-51.27,1.0,1.0
1626062527.0143886,-57.617,-26.855,-5.859,1.0,1.0
1626062527.0182948,23.438000000000002,-36.133,2.441,1.0,1.0
1626062527.022201,1.953,-24.414,-11.719000000000001,1.0,1.0
1626062527.0261073,-95.70299999999999,-10.742,-31.25,1.0,1.0
1626062527.0300136,-81.543,-10.742,-31.25,1.0,1.0
1626062527.0339198,-115.723,-28.809,-46.875,-405.273,1.0
1626062527.037826,-51.758,-23.438000000000002,-52.733999999999995,-79.102,1.0
1626062527.0417323,48.34,-19.531,-29.296999999999997,308.594,1.0
1626062527.0456386,12.207,-44.434,-12.695,64.453,1.0
1626062527.049545,-97.16799999999999,-46.875,-29.785,-357.91,1.0
1626062527.053451,-80.566,-32.227,-46.875,-204.102,1.0
1626062527.057357,35.156,-8.789,-33.203,263.672,1.0
1626062527.0612638,42.48,2.441,-29.296999999999997,195.801,1.0
1626062527.0651696,-62.012,-33.203,-58.593999999999994,-282.715,1.0
1626062527.0690758,-87.402,-39.062,-57.129,-307.617,1.0
1626062527.072982,-0.977,-30.761999999999997,-28.809,154.297,1.0
1626062527.0768883,34.18,-44.922,-8.301,263.672,1.0
1626062527.080795,-45.41,-49.805,-11.23,1.0,1.0
1626062527.084701,-104.98,-38.086,-21.484,1.0,1.0
1626062527.0886073,-33.203,-21.973000000000003,-14.648,1.0,1.0
1626062527.0925136,41.504,-26.855,-12.695,1.0,1.0
1626062527.0964196,-2.93,-28.809,-13.672,1.0,1.0
1626062527.100326,-71.777,-15.625,-19.531,1.0,1.0
1626062527.1042323,-37.109,-7.812,-27.831999999999997,1.0,1.0
1626062527.1081383,35.645,-31.738000000000003,-39.551,1.0,1.0
1626062527.1120448,-4.395,-47.363,-42.968999999999994,1.0,1.0
1626062527.115951,-96.68,-17.578,-33.691,1.0,1.0
1626062527.1198573,-79.102,-10.742,-31.25,1.0,1.0
1626062527.1237636,18.555,-25.391,-37.109,1.0,1.0
1626062527.1276698,29.296999999999997,-33.691,-38.086,1.0,1.0
1626062527.131576,-62.012,-33.691,-29.785,1.0,1.0
1626062527.1354823,-81.055,-26.366999999999997,-10.254000000000001,1.0,1.0
1626062527.1393886,2.441,-27.344,-14.648,1.0,1.0
1626062527.1432948,37.598,-37.598,-37.598,1.0,1.0
1626062527.147201,-28.32,-44.922,-21.484,1.0,1.0
1626062527.1511073,-93.262,-38.574,-27.344,1.0,1.0
1626062527.1550138,-32.715,-19.043,-47.363,1.0,1.0
1626062527.1589198,44.434,-18.555,-40.039,1.0,1.0
1626062527.162826,-18.066,-21.484,-38.574,1.0,1.0
1626062527.1667323,-102.539,-39.551,-48.34,1.0,1.0
1626062527.1706386,-57.617,-46.875,-52.733999999999995,1.0,1.0
1626062527.1745448,-62.012,-38.574,-34.18,-57.617,1.0
1626062527.178451,27.344,-39.551,-22.461,307.617,1.0
1626062527.182357,2.93,-47.363,-35.156,52.733999999999995,1.0
1626062527.1862638,-80.566,-31.738000000000003,-37.109,-355.469,1.0
1626062527.1901696,-54.688,-20.02,-29.785,-165.03900000000002,1.0
1626062527.1940763,52.246,-28.32,-33.691,294.922,1.0
1626062527.197982,51.27,-26.366999999999997,-31.738000000000003,195.312,1.0
1626062527.2018883,-56.641000000000005,-27.831999999999997,-24.414,-283.691,1.0
1626062527.205795,-85.449,-38.574,-29.296999999999997,-290.039,1.0
1626062527.209701,9.277000000000001,-24.901999999999997,-24.901999999999997,181.15200000000002,1.0
1626062527.213607,44.434,-20.996,-24.901999999999997,259.76599999999996,1.0
1626062527.2175136,-31.25,-28.32,-28.809,-182.12900000000002,1.0
1626062527.2214196,-85.449,-23.926,-26.855,1.0,1.0
1626062527.225326,-17.09,-13.184000000000001,-25.879,1.0,1.0
1626062527.2292323,47.363,-9.277000000000001,-30.761999999999997,1.0,1.0
1626062527.2331386,-19.531,-35.156,-33.203,1.0,1.0
1626062527.2370448,-105.469,-62.012,-37.598,1.0,1.0
1626062527.240951,-62.5,-77.637,-35.156,1.0,1.0
1626062527.2448573,23.926,-58.105,-31.738000000000003,1.0,1.0
1626062527.2487636,-4.395,-23.438000000000002,-50.293,1.0,1.0
1626062527.2526696,-87.402,-11.719000000000001,-48.34,1.0,1.0
1626062527.256576,-66.406,-14.648,-26.855,1.0,1.0
1626062527.2604823,13.672,-17.578,-21.484,1.0,1.0
1626062527.2643886,26.855,-16.113,-15.625,1.0,1.0
1626062527.2682948,-52.246,-37.109,-16.602,1.0,1.0
1626062527.272201,-105.95700000000001,-47.852,-34.18,1.0,1.0
1626062527.2761073,-23.438000000000002,-39.062,-48.828,1.0,1.0
1626062527.2800136,25.879,-40.527,-56.641000000000005,1.0,1.0
1626062527.2839198,-39.551,-43.945,-52.246,1.0,1.0
1626062527.287826,-95.70299999999999,-52.733999999999995,-49.316,1.0,1.0
1626062527.2917323,-33.203,-44.922,-48.828,1.0,1.0
1626062527.2956386,46.387,-25.879,-46.387,1.0,1.0
1626062527.299545,-17.578,-22.461,-35.645,1.0,1.0
1626062527.303451,-101.074,-29.296999999999997,-8.301,1.0,1.0
1626062527.307357,-46.387,-46.387,-4.883,1.0,1.0
1626062527.3112638,33.691,-36.621,-25.391,1.0,1.0
1626062527.3151696,-1.465,-28.809,-28.809,1.0,1.0
1626062527.3190758,-105.469,-60.547,-25.879,1.0,1.0
1626062527.322982,-102.539,-47.363,-37.598,1.0,1.0
1626062527.3268883,1.465,-6.836,-54.688,1.0,1.0
1626062527.330795,12.207,-17.578,-67.383,1.0,1.0
1626062527.334701,-57.617,-33.203,-58.105,1.0,1.0
1626062527.3386073,-61.523,-24.901999999999997,-38.574,1.0,1.0
1626062527.3425136,9.277000000000001,-24.414,-30.273000000000003,1.0,1.0
1626062527.3464196,20.508000000000003,-49.805,-21.973000000000003,1.0,1.0
1626062527.350326,-69.824,-62.012,-30.273000000000003,1.0,1.0
1626062527.3542323,-116.211,-31.738000000000003,-35.645,1.0,1.0
1626062527.3581383,-30.761999999999997,-22.949,-25.879,1.0,1.0
1626062527.3620448,-92.773,-22.949,-26.855,324.707,1.0
1626062527.365951,-0.488,-22.949,-35.645,13.672,1.0
1626062527.3698573,44.434,-36.133,-15.137,-377.441,1.0
1626062527.3737636,-32.715,-61.035,-7.324,-145.02,1.0
1626062527.3776698,-82.52,-61.035,-23.926,295.41,1.0
1626062527.381576,-3.906,-32.715,-20.02,147.461,1.0
1626062527.3854823,45.41,-15.625,-26.366999999999997,-312.5,1.0
1626062527.3893886,-35.156,-24.901999999999997,-50.781000000000006,-262.695,1.0
1626062527.3932948,-103.027,-19.043,-40.039,205.56599999999997,1.0
1626062527.397201,-40.039,-17.578,-33.691,246.582,1.0
1626062527.4011073,34.668,-25.391,-46.875,-228.02700000000002,1.0
1626062527.4050138,-5.859,-24.901999999999997,-24.414,-359.86300000000006,1.0
1626062527.4089198,-18.066,-42.48,-22.949,-8.789,1.0
1626062527.412826,-110.352,-41.992,-42.968999999999994,-403.32,1.0
1626062527.4167323,-56.641000000000005,-30.273000000000003,-26.366999999999997,-128.418,1.0
1626062527.4206386,34.668,-26.855,-19.043,299.805,1.0
1626062527.4245448,-0.488,-39.062,-30.273000000000003,115.234,1.0
1626062527.428451,-90.33200000000001,-53.223,-44.922,-338.86699999999996,1.0
1626062527.432357,-61.035,-38.086,-33.691,-230.46900000000002,1.0
1626062527.4362638,44.434,-17.09,-34.668,250.488,1.0
1626062527.4401696,37.109,-32.227,-52.733999999999995,234.375,1.0
1626062527.4440763,-57.617,-34.18,-25.879,-231.445,1.0
1626062527.447982,-70.801,-6.836,-6.836,-312.5,1.0
1626062527.4518883,3.906,-6.836,-15.137,126.95299999999999,1.0
1626062527.455795,48.828,-6.836,-17.578,1.0,1.0
1626062527.459701,-18.555,-0.488,-37.598,1.0,1.0
1626062527.463607,-101.074,-22.949,-59.57,1.0,1.0
1626062527.4675136,-45.898,-54.199,-41.016000000000005,1.0,1.0
1626062527.4714196,35.645,-53.223,-32.715,1.0,1.0
1626062527.475326,-14.16,-43.457,-40.527,1.0,1.0
1626062527.4792323,-103.516,-54.199,-59.082,1.0,1.0
1626062527.4831386,-65.43,-60.059,-61.035,1.0,1.0
1626062527.4870448,44.434,-23.438000000000002,-34.18,1.0,1.0
1626062527.490951,37.598,-6.836,-22.461,1.0,1.0
1626062527.4948573,-74.219,-28.809,-24.414,1.0,1.0
1626062527.4987636,-92.285,-27.344,-20.996,1.0,1.0
1626062527.5026696,-113.281,-39.551,-39.551,-402.344,1.0
1626062527.506576,-52.733999999999995,-37.598,-24.901999999999997,-99.12100000000001,1.0
1626062527.5104823,53.223,-28.809,-25.879,328.61300000000006,1.0
1626062527.5143886,10.742,-38.574,-45.41,107.91,1.0
1626062527.5182948,-103.516,-37.598,-39.551,-360.352,1.0
1626062527.522201,-88.867,-38.574,-19.531,-232.422,1.0
1626062527.5261073,16.602,-48.34,-15.137,240.72299999999998,1.0
1626062527.5300136,26.366999999999997,-44.434,-39.062,212.891,1.0
1626062527.5339198,-69.824,-37.598,-57.617,-260.742,1.0
1626062527.537826,-96.191,-46.875,-43.945,-333.00800000000004,1.0
1626062527.5417323,3.906,-41.992,-30.273000000000003,140.625,1.0
1626062527.5456386,61.523,-29.785,-23.926,311.035,1.0
1626062527.549545,-9.277000000000001,-10.742,-17.09,1.0,1.0
1626062527.553451,-86.426,-8.789,-47.363,1.0,1.0
1626062527.557357,-32.227,-21.973000000000003,-60.547,1.0,1.0
1626062527.5612638,43.945,-8.789,-35.645,1.0,1.0
1626062527.5651696,-9.277000000000001,-6.348,-20.996,1.0,1.0
1626062527.5690758,-87.891,-14.648,-9.277000000000001,1.0,1.0
1626062527.572982,-42.48,-23.438000000000002,-6.348,1.0,1.0
1626062527.5768883,36.133,-41.504,-36.621,1.0,1.0
1626062527.580795,-2.93,-55.176,-64.941,1.0,1.0
1626062527.584701,-88.37899999999999,-52.733999999999995,-71.289,1.0,1.0
1626062527.5886073,-79.102,-31.738000000000003,-68.359,1.0,1.0
1626062527.5925136,6.348,-18.555,-16.602,1.0,1.0
1626062527.5964196,14.16,-34.668,-0.977,1.0,1.0
1626062527.600326,-77.148,-44.434,-11.719000000000001,1.0,1.0
1626062527.6042323,-97.16799999999999,-38.086,-1.953,1.0,1.0
1626062527.6081383,-16.602,-42.48,-29.785,1.0,1.0
1626062527.6120448,9.766,-47.852,-51.758,1.0,1.0
1626062527.615951,-73.242,-38.574,-41.504,1.0,1.0
1626062527.6198573,-117.676,-36.621,-26.855,1.0,1.0
1626062527.6237636,-31.738000000000003,-23.438000000000002,-24.901999999999997,1.0,1.0
1626062527.6276698,34.668,-13.672,-43.945,1.0,1.0
1626062527.631576,-16.113,-33.203,-54.199,1.0,1.0
1626062527.6354823,-104.00399999999999,-45.898,-62.988,1.0,1.0
1626062527.6393886,-79.59,-39.062,-40.527,1.0,1.0
1626062527.6432948,-45.898,-18.555,-10.742,-61.523,1.0
1626062527.647201,37.598,-3.906,-12.207,315.918,1.0
1626062527.6511073,-9.766,-17.578,-20.996,67.87100000000001,1.0
1626062527.6550138,-103.027,-39.551,-25.391,-366.211,1.0
1626062527.6589198,-67.87100000000001,-42.968999999999994,-20.02,-196.28900000000002,1.0
1626062527.662826,48.828,-47.852,-17.09,286.621,1.0
1626062527.6667323,37.598,-53.711000000000006,-36.621,206.055,1.0
1626062527.6706386,-80.078,-34.668,-44.434,-293.457,1.0
1626062527.6745448,-95.70299999999999,-20.508000000000003,-26.366999999999997,-309.57,1.0
1626062527.678451,-9.766,-16.113,-29.296999999999997,160.156,1.0
1626062527.682357,20.996,-26.366999999999997,-38.086,272.461,1.0
1626062527.6862638,-48.34,-29.296999999999997,-27.831999999999997,-159.18,1.0
1626062527.6901696,-99.609,-33.691,-28.809,1.0,1.0
1626062527.6940763,-26.855,-38.574,-27.831999999999997,1.0,1.0
1626062527.697982,41.992,-20.996,-4.883,1.0,1.0
1626062527.7018883,-27.831999999999997,-44.434,-13.672,1.0,1.0
1626062527.705795,-101.56200000000001,-65.43,-36.133,1.0,1.0
1626062527.709701,-41.504,-32.715,-27.831999999999997,1.0,1.0
1626062527.713607,41.016000000000005,2.93,-24.901999999999997,1.0,1.0
1626062527.7175136,-2.93,5.859,-38.086,1.0,1.0
1626062527.7214196,-104.492,-7.812,-57.617,1.0,1.0
1626062527.725326,-78.125,-5.371,-51.27,1.0,1.0
1626062527.7292323,19.043,-5.371,-33.691,1.0,1.0
1626062527.7331386,11.719000000000001,-26.855,-49.316,1.0,1.0
1626062527.7370448,-82.52,-21.973000000000003,-57.617,-283.691,1.0
1626062527.740951,-94.727,-14.648,-45.41,-348.145,1.0
1626062527.7448573,-3.906,-12.695,-54.199,120.117,1.0
1626062527.7487636,27.344,-6.348,-60.547,281.25,1.0
1626062527.7526696,-55.663999999999994,-22.461,-70.312,-152.832,1.0
1626062527.756576,-121.094,-35.645,-87.891,-407.715,1.0
1626062527.7604823,-42.968999999999994,-34.18,-82.031,-21.484,1.0
1626062527.7643886,45.898,-28.809,-58.105,321.777,1.0
1626062527.7682948,-15.625,-15.137,-33.203,6.348,1.0
1626062527.772201,-110.352,-5.859,-30.273000000000003,-395.02,1.0
1626062527.7761073,-65.43,-16.113,-28.809,-157.715,1.0
1626062527.7800136,25.391,-21.973000000000003,-25.879,274.414,1.0
1626062527.7839198,5.371,-23.438000000000002,-28.809,1.0,1.0
1626062527.787826,-97.16799999999999,-35.156,-46.387,1.0,1.0
1626062527.7917323,-110.352,-27.344,-71.289,1.0,1.0
1626062527.7956386,3.906,-15.625,-52.246,1.0,1.0
1626062527.799545,21.484,-29.296999999999997,-45.41,1.0,1.0
1626062527.803451,-94.727,-31.25,-63.477,1.0,1.0
1626062527.807357,-131.34799999999998,-16.113,-60.059,1.0,1.0
1626062527.8112638,-24.901999999999997,-19.043,-62.988,1.0,1.0
1626062527.8151696,38.086,-17.578,-54.688,1.0,1.0
1626062527.8190758,-29.296999999999997,-14.16,-24.414,1.0,1.0
1626062527.822982,-93.262,-39.062,-8.789,1.0,1.0
1626062527.8268883,-46.875,-48.34,-24.414,1.0,1.0
1626062527.830795,-87.891,-33.691,-45.41,332.52,1.0
1626062527.834701,-1.953,-47.852,-29.785,69.336,1.0
1626062527.8386073,30.273000000000003,-35.156,-28.32,-362.305,1.0
1626062527.8425136,-43.457,-15.625,-34.668,-171.875,1.0
1626062527.8464196,-103.027,-19.043,-50.293,281.738,1.0
1626062527.850326,-25.391,-33.691,-40.039,175.78099999999998,1.0
1626062527.8542323,60.547,-36.621,-22.461,-290.527,1.0
1626062527.8581383,5.371,-34.18,-25.391,-292.48,1.0
1626062527.8620448,-91.79700000000001,-43.457,-34.18,166.99200000000002,1.0
1626062527.865951,-58.593999999999994,-49.805,-34.668,253.418,1.0
1626062527.8698573,35.156,-20.996,-27.831999999999997,-198.24200000000002,1.0
1626062527.8737636,7.324,-16.113,-37.109,-365.723,1.0
1626062527.8776698,-7.812,-17.09,-20.508000000000003,21.973000000000003,1.0
1626062527.881576,-94.727,-35.156,-5.859,-375.48800000000006,1.0
1626062527.8854823,-59.082,-28.32,-12.695,-146.484,1.0
1626062527.8893886,34.18,-13.672,-20.996,305.176,1.0
1626062527.8932948,10.742,-34.668,-30.273000000000003,155.273,1.0
1626062527.897201,-85.449,-43.945,-50.293,-317.871,1.0
1626062527.9011073,-68.359,-41.504,-51.27,-250.488,1.0
1626062527.9050138,40.527,-62.5,-35.156,236.81599999999997,1.0
1626062527.9089198,47.852,-64.453,-32.227,271.48400000000004,1.0
1626062527.912826,-65.918,-35.645,-37.109,-219.238,1.0
1626062527.9167323,-105.95700000000001,-5.371,-31.738000000000003,-355.957,1.0
1626062527.9206386,-6.836,-4.395,-20.02,100.098,1.0
1626062527.9245448,9.766,-32.715,-16.602,189.94099999999997,1.0
1626062527.928451,45.41,-50.781000000000006,-13.184000000000001,280.27299999999997,1.0
1626062527.932357,-49.316,-56.641000000000005,-27.831999999999997,-171.875,1.0
1626062527.9362638,-116.699,-45.41,-40.527,-370.11699999999996,1.0
1626062527.9401696,-28.32,-19.531,-32.715,49.805,1.0
1626062527.9440763,44.434,-3.418,-28.809,327.14799999999997,1.0
1626062527.947982,-23.926,-9.766,-26.855,-36.133,1.0
1626062527.9518883,-90.82,-39.062,-18.066,-377.93,1.0
1626062527.955795,-34.18,-56.641000000000005,-20.508000000000003,-81.055,1.0
1626062527.959701,56.641000000000005,-27.831999999999997,-20.508000000000003,320.801,1.0
1626062527.963607,22.949,-2.441,-46.875,98.633,1.0
1626062527.9675136,-83.49600000000001,-12.695,-59.082,-347.168,1.0
1626062527.9714196,1.0,-18.555,1.0,1.0,1.0
1626062527.975326,1.0,-17.09,1.0,1.0,1.0
1626062527.9792323,1.0,-31.25,1.0,1.0,1.0
1626062527.9831386,1.0,-52.246,1.0,1.0,1.0
1626062527.9870448,1.0,-27.344,1.0,1.0,1.0
1626062527.990951,1.0,-9.277000000000001,1.0,1.0,1.0
1626062527.9948573,1.0,-31.738000000000003,1.0,1.0,1.0
1626062527.9987636,1.0,-33.691,1.0,1.0,1.0
1626062528.0026696,1.0,-40.527,1.0,1.0,1.0
1626062528.006576,1.0,-48.34,1.0,1.0,1.0
1626062528.0104823,1.0,-31.25,1.0,1.0,1.0
1626062528.0143886,1.0,-28.809,1.0,1.0,1.0
1626062528.0182948,-100.098,-26.855,-68.359,-386.719,1.0
1626062528.022201,-61.035,-8.301,-53.223,-141.602,1.0
1626062528.0261073,29.785,-4.883,-27.831999999999997,281.25,1.0
1626062528.0300136,1.953,-25.879,-40.039,118.164,1.0
1626062528.0339198,-93.262,-45.898,-41.992,-335.449,1.0
1626062528.037826,-83.008,-44.922,-27.831999999999997,-249.023,1.0
1626062528.0417323,12.695,-61.035,-28.809,220.703,1.0
1626062528.0456386,37.598,-76.172,-24.901999999999997,240.234,1.0
1626062528.049545,-50.293,-64.453,-17.09,-217.285,1.0
1626062528.053451,-83.984,-34.668,-12.695,-323.242,1.0
1626062528.057357,3.906,-27.831999999999997,-20.508000000000003,120.117,1.0
1626062528.0612638,40.039,-24.414,-28.809,298.34,1.0
1626062528.0651696,18.066,-37.598,-37.598,253.418,1.0
1626062528.0690758,-81.055,-39.062,-57.617,-221.19099999999997,1.0
1626062528.072982,-104.98,-35.645,-37.598,-357.42199999999997,1.0
1626062528.0768883,-23.926,-52.246,-24.901999999999997,76.172,1.0
1626062528.080795,16.602,-41.992,-41.504,296.875,1.0
1626062528.084701,-58.105,-14.648,-55.663999999999994,-95.70299999999999,1.0
1626062528.0886073,-116.211,-10.254000000000001,-38.086,-399.414,1.0
1626062528.0925136,-35.156,-16.113,-2.441,-54.199,1.0
1626062528.0964196,46.875,-28.32,-16.113,318.35900000000004,1.0
1626062528.100326,-4.883,-25.879,-46.387,64.941,1.0
1626062528.1042323,-103.516,-36.621,-47.852,-362.793,1.0
1626062528.1081383,-73.242,-26.366999999999997,-37.109,-186.035,1.0
1626062528.1120448,-30.273000000000003,-60.059,-25.879,-80.566,1.0
1626062528.115951,44.922,-58.593999999999994,-8.301,322.26599999999996,1.0
1626062528.1198573,-10.254000000000001,-35.645,-26.855,96.191,1.0
1626062528.1237636,-111.32799999999999,-31.25,-49.316,-371.582,1.0
1626062528.1276698,-85.449,-4.395,-44.922,-234.375,1.0
1626062528.131576,28.32,3.418,-25.879,260.742,1.0
1626062528.1354823,32.227,-23.438000000000002,-19.043,222.65599999999998,1.0
1626062528.1393886,-63.477,-49.316,-25.391,-255.859,1.0
1626062528.1432948,-78.125,-46.875,-33.203,-302.246,1.0
1626062528.147201,24.414,-26.855,-15.625,173.34,1.0
1626062528.1511073,53.711000000000006,-16.113,-14.648,318.35900000000004,1.0
1626062528.1550138,-55.176,-20.996,-36.133,-132.32399999999998,1.0
1626062528.1589198,-124.023,-39.551,-36.133,1.0,1.0
1626062528.162826,-47.363,-35.156,-30.761999999999997,1.0,1.0
1626062528.1667323,60.059,-42.48,-49.805,1.0,1.0
1626062528.1706386,16.113,-69.824,-47.852,1.0,1.0
1626062528.1745448,-101.56200000000001,-39.551,-23.438000000000002,1.0,1.0
1626062528.178451,-65.43,2.441,-9.277000000000001,1.0,1.0
1626062528.182357,42.968999999999994,9.766,0.0,1.0,1.0
1626062528.1862638,19.531,-14.648,-8.789,1.0,1.0
1626062528.1901696,-99.609,-57.617,-31.738000000000003,1.0,1.0
1626062528.1940763,-98.145,-41.016000000000005,-40.527,1.0,1.0
1626062528.197982,8.789,-8.301,-34.18,1.0,1.0
1626062528.2018883,21.484,-8.301,-31.738000000000003,1.0,1.0
1626062528.205795,-67.87100000000001,-21.484,-35.156,1.0,1.0
1626062528.209701,-114.258,-45.898,-37.109,1.0,1.0
1626062528.213607,-27.344,-63.477,-34.668,1.0,1.0
1626062528.2175136,50.781000000000006,-54.688,-18.555,1.0,1.0
1626062528.2214196,0.977,-21.973000000000003,-8.301,1.0,1.0
1626062528.225326,-82.52,-9.277000000000001,-32.715,1.0,1.0
1626062528.2292323,-38.086,-12.695,-52.733999999999995,1.0,1.0
1626062528.2331386,37.109,-28.809,-41.992,1.0,1.0
1626062528.2370448,-24.414,-44.434,-45.898,1.0,1.0
1626062528.240951,-104.492,-37.109,-48.34,1.0,1.0
1626062528.2448573,-59.57,-32.227,-36.133,1.0,1.0
1626062528.2487636,22.949,-28.809,-31.738000000000003,1.0,1.0
1626062528.2526696,7.812,-23.438000000000002,-21.973000000000003,1.0,1.0
1626062528.256576,-83.008,-35.156,-24.414,1.0,1.0
1626062528.2604823,-78.613,-47.852,-25.879,1.0,1.0
1626062528.2643886,34.18,-48.34,-20.02,1.0,1.0
1626062528.2682948,70.801,-39.551,-27.831999999999997,1.0,1.0
1626062528.272201,-16.602,-27.344,-36.621,1.0,1.0
1626062528.2761073,-81.543,-17.578,-46.875,1.0,1.0
1626062528.2800136,-25.391,-13.672,-45.898,1.0,1.0
1626062528.2839198,33.203,-28.32,-34.18,1.0,1.0
1626062528.287826,-20.508000000000003,-34.18,-32.227,1.0,1.0
1626062528.2917323,-90.82,-21.973000000000003,-33.691,1.0,1.0
1626062528.2956386,-34.668,-29.296999999999997,-36.621,1.0,1.0
1626062528.299545,-110.352,-7.324,-43.945,-351.074,1.0
1626062528.303451,-36.621,-17.578,-29.296999999999997,86.426,1.0
1626062528.307357,18.555,-34.668,-14.648,271.48400000000004,1.0
1626062528.3112638,-44.434,-45.898,-11.719000000000001,-133.789,1.0
1626062528.3151696,-107.42200000000001,-41.992,-20.508000000000003,-389.16,1.0
1626062528.3190758,-26.855,-33.203,-24.414,-15.137,1.0
1626062528.322982,52.733999999999995,-42.48,-31.25,318.848,1.0
1626062528.3268883,8.301,-41.504,-38.086,18.555,1.0
1626062528.330795,-67.87100000000001,-29.785,-23.438000000000002,-351.074,1.0
1626062528.334701,-54.688,-37.109,-20.996,-134.766,1.0
1626062528.3386073,22.949,-14.648,-21.484,282.22700000000003,1.0
1626062528.3425136,8.789,-10.254000000000001,-39.551,140.137,1.0
1626062528.3464196,-76.66,-23.438000000000002,-33.691,1.0,1.0
1626062528.350326,-61.035,-18.066,-15.137,1.0,1.0
1626062528.3542323,25.391,-40.527,-21.973000000000003,1.0,1.0
1626062528.3581383,25.391,-49.805,-18.555,1.0,1.0
1626062528.3620448,-62.012,-19.531,-20.02,1.0,1.0
1626062528.365951,-86.914,-20.02,-19.531,1.0,1.0
1626062528.3698573,13.184000000000001,-22.461,-12.695,1.0,1.0
1626062528.3737636,67.87100000000001,-14.16,-24.414,1.0,1.0
1626062528.3776698,-34.18,-41.016000000000005,-46.387,1.0,1.0
1626062528.381576,-103.516,-49.316,-41.504,1.0,1.0
1626062528.3854823,-20.508000000000003,-11.719000000000001,-15.625,1.0,1.0
1626062528.3893886,40.527,-8.301,-35.645,1.0,1.0
1626062528.3932948,-18.066,-39.551,-55.663999999999994,1.0,1.0
1626062528.397201,-105.95700000000001,-47.852,-30.761999999999997,1.0,1.0
1626062528.4011073,-68.359,-38.574,-7.812,1.0,1.0
1626062528.4050138,42.968999999999994,-32.227,-10.254000000000001,1.0,1.0
1626062528.4089198,29.296999999999997,-35.156,-27.831999999999997,1.0,1.0
1626062528.412826,-84.961,-53.711000000000006,-35.645,1.0,1.0
1626062528.4167323,-100.586,-46.387,-22.949,1.0,1.0
1626062528.4206386,0.0,-40.527,-25.879,1.0,1.0
1626062528.4245448,34.668,-42.968999999999994,-44.434,1.0,1.0
1626062528.428451,-48.828,-18.555,-39.062,1.0,1.0
1626062528.432357,-98.633,-13.184000000000001,-46.387,1.0,1.0
1626062528.4362638,-21.484,-31.25,-45.898,1.0,1.0
1626062528.4401696,43.457,-35.645,-18.066,1.0,1.0
1626062528.4440763,-17.09,-29.296999999999997,-3.906,1.0,1.0
1626062528.447982,-83.984,-24.414,-15.625,1.0,1.0
1626062528.4518883,-31.738000000000003,-30.273000000000003,-26.855,1.0,1.0
1626062528.455795,54.688,-15.625,-20.02,1.0,1.0
1626062528.459701,17.09,-12.695,-24.901999999999997,1.0,1.0
1626062528.463607,-94.727,-41.016000000000005,-47.363,1.0,1.0
1626062528.4675136,-77.148,-27.344,-39.551,1.0,1.0
1626062528.4714196,27.344,-23.926,-26.855,1.0,1.0
1626062528.475326,35.156,-51.27,-30.761999999999997,1.0,1.0
1626062528.4792323,-51.27,-28.32,-29.785,1.0,1.0
1626062528.4831386,-86.426,-1.465,-30.273000000000003,1.0,1.0
1626062528.4870448,-91.309,-50.781000000000006,-47.363,-368.652,1.0
1626062528.490951,-61.523,-42.968999999999994,-46.387,-148.438,1.0
1626062528.4948573,29.296999999999997,-23.926,-20.508000000000003,297.85200000000003,1.0
1626062528.4987636,10.254000000000001,-21.973000000000003,-26.855,154.785,1.0
1626062528.5026696,-88.37899999999999,-21.973000000000003,-36.621,-306.152,1.0
1626062528.506576,-92.773,-39.062,-16.113,-257.324,1.0
1626062528.5104823,-0.977,-59.082,-14.16,201.66,1.0
1626062528.5143886,20.508000000000003,-65.918,-36.133,250.488,1.0
1626062528.5182948,-62.012,-59.082,-48.828,-208.00799999999998,1.0
1626062528.522201,-104.98,-37.109,-57.129,-348.145,1.0
1626062528.5261073,-37.109,-22.461,-61.523,77.637,1.0
1626062528.5300136,14.648,-27.344,-30.273000000000003,295.41,1.0
1626062528.5339198,-45.898,-39.551,-6.348,1.0,1.0
1626062528.537826,-112.79299999999999,-45.898,-18.066,1.0,1.0
1626062528.5417323,-61.035,-47.363,-31.738000000000003,1.0,1.0
1626062528.5456386,32.227,-26.855,-42.48,1.0,1.0
1626062528.549545,-3.418,-18.555,-33.691,1.0,1.0
1626062528.553451,-109.375,-35.156,-28.809,1.0,1.0
1626062528.557357,-81.055,-53.711000000000006,-34.18,1.0,1.0
1626062528.5612638,21.973000000000003,-65.43,-42.48,1.0,1.0
1626062528.5651696,16.602,-57.129,-45.898,1.0,1.0
1626062528.5690758,-81.055,-46.875,-48.34,1.0,1.0
1626062528.572982,-105.95700000000001,-42.48,-51.758,1.0,1.0
1626062528.5768883,8.301,-17.578,-26.366999999999997,1.0,1.0
1626062528.580795,-60.059,-21.484,-31.738000000000003,-127.441,1.0
1626062528.584701,39.062,-28.809,-17.578,302.246,1.0
1626062528.5886073,13.672,-26.366999999999997,-14.648,138.672,1.0
1626062528.5925136,-71.777,-31.738000000000003,-16.602,-307.129,1.0
1626062528.5964196,-61.523,-40.039,-20.02,-222.65599999999998,1.0
1626062528.600326,38.574,-27.344,-15.137,251.953,1.0
1626062528.6042323,47.852,-13.672,-27.344,264.64799999999997,1.0
1626062528.6081383,-67.87100000000001,-33.691,-55.176,-229.00400000000002,1.0
1626062528.6120448,-104.98,-44.922,-49.316,-349.60900000000004,1.0
1626062528.615951,-11.719000000000001,-21.484,-27.344,107.91,1.0
1626062528.6198573,40.039,2.93,-32.227,315.43,1.0
1626062528.6237636,-45.898,-6.348,-37.109,-100.098,1.0
1626062528.6276698,37.109,-26.855,-29.296999999999997,298.828,1.0
1626062528.631576,-1.953,-37.598,-43.945,84.961,1.0
1626062528.6354823,-96.191,-36.133,-37.109,-354.98,1.0
1626062528.6393886,-72.266,-27.344,-18.555,-220.215,1.0
1626062528.6432948,33.203,-34.668,-25.879,254.88299999999998,1.0
1626062528.647201,31.738000000000003,-38.574,-34.668,227.53900000000002,1.0
1626062528.6511073,-61.523,-28.32,-29.296999999999997,-243.65200000000002,1.0
1626062528.6550138,-86.914,-30.761999999999997,-31.738000000000003,-325.684,1.0
1626062528.6589198,-6.348,-14.16,-37.109,127.441,1.0
1626062528.662826,36.621,7.812,-35.645,293.457,1.0
1626062528.6667323,-49.316,-17.09,-40.527,-138.184,1.0
1626062528.6706386,-110.84,-41.016000000000005,-40.039,-388.67199999999997,1.0
1626062528.6745448,-98.633,-42.48,-32.227,-356.445,1.0
1626062528.678451,1.953,-58.105,-14.648,100.098,1.0
1626062528.682357,51.758,-70.801,-23.926,310.059,1.0
1626062528.6862638,-35.645,-71.289,-51.758,-91.309,1.0
1626062528.6901696,-93.262,-26.366999999999997,-37.109,-369.14099999999996,1.0
1626062528.6940763,-43.457,-13.184000000000001,-22.949,-41.504,1.0
1626062528.697982,19.043,-34.668,-35.156,301.27,1.0
1626062528.7018883,-20.02,-44.922,-38.086,26.366999999999997,1.0
1626062528.705795,-103.516,-39.551,-40.039,-377.441,1.0
1626062528.709701,-66.895,-14.648,-34.18,-168.945,1.0
1626062528.713607,37.598,-21.484,-16.602,292.48,1.0
1626062528.7175136,31.25,-36.133,-15.137,182.61700000000002,1.0
1626062528.7214196,-83.008,-34.668,-40.039,1.0,1.0
1626062528.725326,-91.309,-47.363,-46.387,1.0,1.0
1626062528.7292323,22.461,-47.852,-27.344,1.0,1.0
1626062528.7331386,35.156,-51.27,-41.992,1.0,1.0
1626062528.7370448,-59.082,-35.645,-53.223,1.0,1.0
1626062528.740951,-91.79700000000001,-19.043,-50.293,1.0,1.0
1626062528.7448573,-18.555,-27.344,-53.223,1.0,1.0
1626062528.7487636,36.133,-41.016000000000005,-45.41,1.0,1.0
1626062528.7526696,-23.438000000000002,-42.968999999999994,-28.809,1.0,1.0
1626062528.756576,-122.559,-37.109,-36.133,1.0,1.0
1626062528.7604823,-78.613,-39.062,-35.645,1.0,1.0
1626062528.7643886,26.366999999999997,-30.761999999999997,-21.973000000000003,1.0,1.0
1626062528.7682948,10.742,-15.137,-37.598,1.0,1.0
1626062528.772201,-70.312,-46.875,-60.059,1.0,1.0
1626062528.7761073,-60.059,-60.059,-54.199,1.0,1.0
1626062528.7800136,29.296999999999997,-24.414,-28.809,1.0,1.0
1626062528.7839198,29.296999999999997,-15.137,-26.855,1.0,1.0
1626062528.787826,-73.242,-24.901999999999997,-48.34,1.0,1.0
1626062528.7917323,-96.191,-29.296999999999997,-39.062,1.0,1.0
1626062528.7956386,-0.977,-22.949,-34.668,1.0,1.0
1626062528.799545,40.039,-31.25,-54.199,1.0,1.0
1626062528.803451,-44.922,-40.527,-54.199,1.0,1.0
1626062528.807357,-96.68,-19.043,-26.366999999999997,1.0,1.0
1626062528.8112638,-25.879,-10.254000000000001,-10.742,1.0,1.0
1626062528.8151696,29.785,-15.137,-24.414,1.0,1.0
1626062528.8190758,-22.461,-15.625,-21.973000000000003,1.0,1.0
1626062528.822982,-91.309,-14.16,-15.625,1.0,1.0
1626062528.8268883,-51.27,-29.785,-31.738000000000003,1.0,1.0
1626062528.830795,34.668,-40.039,-41.504,1.0,1.0
1626062528.834701,19.531,-38.086,-41.504,1.0,1.0
1626062528.8386073,-58.105,-41.504,-25.391,1.0,1.0
1626062528.8425136,-62.988,-39.062,-11.23,1.0,1.0
1626062528.8464196,6.348,-27.831999999999997,-19.043,1.0,1.0
1626062528.850326,17.09,-31.738000000000003,-39.062,1.0,1.0
1626062528.8542323,-71.289,-44.922,-43.945,1.0,1.0
1626062528.8581383,-94.238,-26.855,-24.414,1.0,1.0
1626062528.8620448,-109.863,-19.531,-26.855,-371.582,1.0
1626062528.865951,-88.37899999999999,-15.137,-8.789,-194.33599999999998,1.0
1626062528.8698573,26.366999999999997,-19.531,-0.977,272.949,1.0
1626062528.8737636,14.648,-35.156,-16.113,178.71099999999998,1.0
1626062528.8776698,-100.586,-39.062,-34.18,-303.223,1.0
1626062528.881576,-102.539,-35.645,-37.598,-296.875,1.0
1626062528.8854823,-5.859,-51.758,-34.668,177.24599999999998,1.0
1626062528.8893886,18.066,-41.016000000000005,-34.18,261.23,1.0
1626062528.8932948,-67.383,-43.945,-35.156,-197.266,1.0
1626062528.897201,-102.051,-47.363,-13.672,-363.77,1.0
1626062528.9011073,-20.508000000000003,-31.738000000000003,-3.906,62.988,1.0
1626062528.9050138,21.973000000000003,-31.738000000000003,-9.277000000000001,310.547,1.0
1626062528.9089198,-44.922,-24.901999999999997,-21.973000000000003,1.0,1.0
1626062528.912826,-110.352,-34.668,-25.391,1.0,1.0
1626062528.9167323,-60.547,-46.387,-13.184000000000001,1.0,1.0
1626062528.9206386,30.273000000000003,-32.715,-38.086,1.0,1.0
1626062528.9245448,-2.93,-24.901999999999997,-40.039,1.0,1.0
1626062528.928451,-97.16799999999999,-41.016000000000005,-18.066,1.0,1.0
1626062528.932357,-78.125,-46.875,-29.296999999999997,1.0,1.0
1626062528.9362638,13.184000000000001,-39.062,-33.203,1.0,1.0
1626062528.9401696,12.695,-39.062,-18.066,1.0,1.0
1626062528.9440763,-74.707,-36.133,-22.461,1.0,1.0
1626062528.947982,-95.70299999999999,-30.761999999999997,-38.574,1.0,1.0
1626062528.9518883,-12.695,-28.32,-37.598,1.0,1.0
1626062528.955795,-59.082,-18.555,-48.34,-149.90200000000002,1.0
1626062528.959701,34.18,-23.438000000000002,-39.062,290.039,1.0
1626062528.963607,7.812,-42.968999999999994,-24.414,156.25,1.0
1626062528.9675136,-95.215,-40.039,-15.625,-319.336,1.0
1626062528.9714196,-100.586,-28.809,-16.113,-291.504,1.0
1626062528.975326,0.488,-23.438000000000002,-20.996,188.477,1.0
1626062528.9792323,39.551,-25.391,-21.973000000000003,266.113,1.0
1626062528.9831386,-60.059,-46.875,-34.18,-196.28900000000002,1.0
1626062528.9870448,-117.18799999999999,-64.941,-44.922,-362.793,1.0
1626062528.990951,-8.301,-32.715,-18.066,90.82,1.0
1626062528.9948573,51.758,-11.719000000000001,-14.16,327.637,1.0
1626062528.9987636,-34.18,-28.809,-33.203,-72.75399999999999,1.0
1626062529.0026696,-56.152,-29.296999999999997,-44.922,-164.062,1.0
1626062529.006576,-120.117,-36.133,-43.457,-377.93,1.0
1626062529.0104823,-32.715,-32.715,-20.508000000000003,36.621,1.0
1626062529.0143886,40.527,-42.48,-29.296999999999997,315.43,1.0
1626062529.0182948,-35.645,-28.32,-45.41,-50.293,1.0
1626062529.022201,-115.234,-16.113,-32.227,-388.67199999999997,1.0
1626062529.0261073,-54.199,-23.926,-19.531,-82.52,1.0
1626062529.0300136,38.086,-20.996,-21.973000000000003,324.707,1.0
1626062529.0339198,-0.488,-12.695,-32.715,111.816,1.0
1626062529.037826,-97.656,-34.668,-32.715,-334.473,1.0
1626062529.0417323,-87.402,-52.733999999999995,-28.809,-219.727,1.0
1626062529.0456386,6.348,-42.48,-25.391,241.21099999999998,1.0
1626062529.049545,16.113,-48.34,-22.949,1.0,1.0
1626062529.053451,-73.242,-15.625,-31.738000000000003,1.0,1.0
1626062529.057357,-110.84,-3.418,-47.852,1.0,1.0
1626062529.0612638,-6.836,-28.809,-30.761999999999997,1.0,1.0
1626062529.0651696,42.968999999999994,-31.25,-18.066,1.0,1.0
1626062529.0690758,-66.406,-37.598,-45.898,1.0,1.0
1626062529.072982,-126.465,-36.133,-49.316,1.0,1.0
1626062529.0768883,-33.691,-26.366999999999997,-20.996,1.0,1.0
1626062529.080795,54.688,-33.203,-19.043,1.0,1.0
1626062529.084701,-4.883,-45.898,-45.41,1.0,1.0
1626062529.0886073,-101.56200000000001,-23.926,-42.968999999999994,1.0,1.0
1626062529.0925136,-58.593999999999994,1.953,-12.695,1.0,1.0
1626062529.0964196,-83.984,-30.761999999999997,-34.18,299.805,1.0
1626062529.100326,0.488,-27.831999999999997,-25.879,138.672,1.0
1626062529.1042323,55.663999999999994,-34.668,-21.484,-332.031,1.0
1626062529.1081383,-12.695,-57.617,-10.742,-273.438,1.0
1626062529.1120448,-83.008,-43.945,-7.324,215.82,1.0
1626062529.115951,-32.227,-31.738000000000003,-23.438000000000002,240.72299999999998,1.0
1626062529.1198573,33.691,-39.551,-40.039,-241.699,1.0
1626062529.1237636,-7.812,-38.086,-40.527,-370.11699999999996,1.0
1626062529.1276698,-95.70299999999999,-16.113,-36.621,98.145,1.0
1626062529.131576,-65.918,-14.16,-26.366999999999997,308.594,1.0
1626062529.1354823,35.645,-48.34,-41.504,-95.70299999999999,1.0
1626062529.1393886,11.719000000000001,-57.129,-63.477,-372.07,1.0
1626062529.1432948,16.113,-31.25,-28.809,135.74200000000002,1.0
1626062529.147201,-82.52,-20.02,-18.066,-316.895,1.0
1626062529.1511073,-81.055,-34.668,-19.043,-222.65599999999998,1.0
1626062529.1550138,26.855,-64.941,-14.16,253.418,1.0
1626062529.1589198,28.809,-66.406,-25.391,230.46900000000002,1.0
1626062529.162826,-62.012,-26.366999999999997,-29.785,-234.863,1.0
1626062529.1667323,-84.961,-6.836,-31.738000000000003,-309.082,1.0
1626062529.1706386,-15.137,-16.113,-39.062,125.977,1.0
1626062529.1745448,7.812,-40.527,-35.156,252.93,1.0
1626062529.178451,-71.777,-23.438000000000002,-26.855,-171.875,1.0
1626062529.182357,-127.441,-8.789,-30.761999999999997,-399.902,1.0
1626062529.1862638,-52.246,-26.855,-27.831999999999997,-21.973000000000003,1.0
1626062529.1901696,34.18,-42.48,-3.906,1.0,1.0
1626062529.1940763,-14.16,-51.27,0.0,1.0,1.0
1626062529.197982,-102.051,-49.805,-20.508000000000003,1.0,1.0
1626062529.2018883,-65.43,-51.758,-40.039,1.0,1.0
1626062529.205795,30.273000000000003,-41.992,-41.016000000000005,1.0,1.0
1626062529.209701,26.366999999999997,-20.02,-27.344,1.0,1.0
1626062529.213607,-84.961,-34.18,-38.574,1.0,1.0
1626062529.2175136,-99.12100000000001,-30.761999999999997,-23.926,1.0,1.0
1626062529.2214196,4.395,-10.742,-6.836,1.0,1.0
1626062529.225326,13.184000000000001,-9.766,-29.296999999999997,1.0,1.0
1626062529.2292323,-75.684,-27.831999999999997,-50.293,1.0,1.0
1626062529.2331386,-118.164,-56.152,-47.363,1.0,1.0
1626062529.2370448,-99.12100000000001,-4.883,-33.203,-352.539,1.0
1626062529.240951,-83.984,-22.461,-26.366999999999997,-208.984,1.0
1626062529.2448573,15.625,-31.25,-17.578,260.254,1.0
1626062529.2487636,16.113,-38.086,-20.996,196.77700000000002,1.0
1626062529.2526696,-82.52,-63.477,-51.758,-281.738,1.0
1626062529.256576,-110.352,-68.848,-70.312,-322.754,1.0
1626062529.2604823,-13.184000000000001,-51.27,-32.715,148.92600000000002,1.0
1626062529.2643886,43.945,-25.879,-13.184000000000001,291.01599999999996,1.0
1626062529.2682948,-43.945,-26.855,-36.133,-154.785,1.0
1626062529.272201,-99.609,-38.086,-46.875,-372.559,1.0
1626062529.2761073,-21.484,-23.438000000000002,-37.109,23.926,1.0
1626062529.2800136,46.387,-5.859,-25.879,312.988,1.0
1626062529.2839198,-9.277000000000001,-14.16,-24.414,1.0,1.0
1626062529.287826,-91.79700000000001,-26.366999999999997,-24.901999999999997,1.0,1.0
1626062529.2917323,-38.574,-25.879,-30.273000000000003,1.0,1.0
1626062529.2956386,68.359,-18.066,-39.551,1.0,1.0
1626062529.299545,46.387,-29.785,-31.738000000000003,1.0,1.0
1626062529.303451,-59.57,-45.41,-24.414,1.0,1.0
1626062529.307357,-72.266,-41.016000000000005,-29.785,1.0,1.0
1626062529.3112638,-1.465,-30.761999999999997,-24.414,1.0,1.0
1626062529.3151696,8.789,-41.504,-32.715,1.0,1.0
1626062529.3190758,-75.195,-53.223,-48.34,1.0,1.0
1626062529.322982,-105.469,-37.598,-36.133,1.0,1.0
1626062529.3268883,1.465,-7.324,-19.043,1.0,1.0
1626062529.330795,-68.359,-17.09,-41.992,307.617,1.0
1626062529.334701,29.785,-5.371,-25.879,-120.605,1.0
1626062529.3386073,17.578,-3.418,-28.32,-383.301,1.0
1626062529.3425136,-70.312,-22.461,-50.293,-13.672,1.0
1626062529.3464196,-76.66,-53.711000000000006,-28.809,312.012,1.0
1626062529.350326,8.789,-59.57,-26.855,6.836,1.0
1626062529.3542323,30.273000000000003,-40.527,-69.824,-386.719,1.0
1626062529.3581383,-61.523,-37.598,-55.663999999999994,-159.668,1.0
1626062529.3620448,-118.652,-24.414,-22.949,298.34,1.0
1626062529.365951,-44.922,-11.719000000000001,-19.531,172.363,1.0
1626062529.3698573,12.207,-29.785,-26.855,-304.199,1.0
1626062529.3737636,-44.434,-22.461,-27.344,-267.09,1.0
1626062529.3776698,-25.391,-8.789,-36.621,-121.094,1.0
1626062529.381576,-92.773,-16.113,-16.602,-355.957,1.0
1626062529.3854823,-41.016000000000005,-40.527,-12.207,15.625,1.0
1626062529.3893886,23.926,-46.387,-24.414,308.105,1.0
1626062529.3932948,-28.32,-58.105,-21.973000000000003,-8.789,1.0
1626062529.397201,-111.816,-29.785,-19.043,-375.48800000000006,1.0
1626062529.4011073,-69.336,-6.836,-24.414,-126.465,1.0
1626062529.4050138,26.366999999999997,-14.16,-27.831999999999997,293.457,1.0
1626062529.4089198,6.348,-24.414,-33.691,118.164,1.0
1626062529.412826,-97.16799999999999,-47.363,-38.086,-348.145,1.0
1626062529.4167323,-85.449,-43.457,-27.344,-252.93,1.0
1626062529.4206386,18.555,-19.531,-12.207,223.145,1.0
1626062529.4245448,33.691,-11.23,-26.366999999999997,1.0,1.0
1626062529.428451,-54.688,-12.207,-48.828,1.0,1.0
1626062529.432357,-90.33200000000001,-49.316,-37.598,1.0,1.0
1626062529.4362638,-8.301,-62.012,-28.32,1.0,1.0
1626062529.4401696,22.461,-24.901999999999997,-33.203,1.0,1.0
1626062529.4440763,-60.547,-13.672,-30.761999999999997,1.0,1.0
1626062529.447982,-113.77,-23.926,-24.414,1.0,1.0
1626062529.4518883,-43.457,-12.207,-36.133,1.0,1.0
1626062529.455795,43.457,-18.066,-42.48,1.0,1.0
1626062529.459701,0.977,-60.547,-32.715,1.0,1.0
1626062529.463607,-102.051,-78.125,-38.574,1.0,1.0
1626062529.4675136,-67.383,-42.48,-27.344,1.0,1.0
1626062529.4714196,33.203,-21.484,-10.254000000000001,300.293,1.0
1626062529.475326,4.395,-23.926,-20.02,157.715,1.0
1626062529.4792323,-86.914,0.488,-35.156,-304.199,1.0
1626062529.4831386,-81.543,-2.93,-38.574,-263.672,1.0
1626062529.4870448,19.043,-31.25,-19.043,209.47299999999998,1.0
1626062529.490951,38.574,-44.434,-14.648,256.836,1.0
1626062529.4948573,-67.87100000000001,-34.668,-28.32,-217.773,1.0
1626062529.4987636,-109.863,-30.273000000000003,-38.574,-372.559,1.0
1626062529.5026696,-10.742,-36.133,-45.898,80.078,1.0
1626062529.506576,56.152,-41.992,-56.152,327.637,1.0
1626062529.5104823,-23.438000000000002,-31.738000000000003,-60.547,-73.73,1.0
1626062529.5143886,-87.891,-30.761999999999997,-42.48,-376.465,1.0
1626062529.5182948,-96.191,-49.805,-60.059,-365.723,1.0
1626062529.522201,-13.672,-37.598,-21.484,37.109,1.0
1626062529.5261073,50.293,-26.855,-12.695,310.059,1.0
1626062529.5300136,-14.16,-40.039,-25.391,-38.086,1.0
1626062529.5339198,-97.16799999999999,-40.039,-22.949,-384.76599999999996,1.0
1626062529.537826,-44.922,-25.391,-13.184000000000001,-89.355,1.0
1626062529.5417323,40.527,-18.066,-25.879,311.035,1.0
1626062529.5456386,-7.812,-21.484,-53.223,83.984,1.0
1626062529.549545,-110.84,-38.086,-49.805,-369.629,1.0
1626062529.553451,-91.309,-48.34,-41.504,-245.605,1.0
1626062529.557357,21.973000000000003,-25.879,-42.48,240.72299999999998,1.0
1626062529.5612638,31.25,-27.831999999999997,-44.434,218.262,1.0
1626062529.5651696,-65.918,-38.574,-28.809,1.0,1.0
1626062529.5690758,-89.844,-13.672,-10.742,1.0,1.0
1626062529.572982,0.488,1.953,-5.371,1.0,1.0
1626062529.5768883,47.852,-23.926,-11.23,1.0,1.0
1626062529.580795,-40.527,-59.57,-54.199,1.0,1.0
1626062529.584701,-104.00399999999999,-40.527,-80.566,1.0,1.0
1626062529.5886073,-17.578,-18.066,-35.645,1.0,1.0
1626062529.5925136,62.5,-40.527,10.254000000000001,1.0,1.0
1626062529.5964196,-16.113,-48.34,-12.695,1.0,1.0
1626062529.600326,-136.23,-27.344,-55.176,1.0,1.0
1626062529.6042323,-90.33200000000001,-24.414,-47.363,1.0,1.0
1626062529.6081383,22.949,-21.973000000000003,-35.645,1.0,1.0
1626062529.6120448,11.719000000000001,-1.953,-34.18,1.0,1.0
1626062529.615951,-74.219,-10.742,-10.254000000000001,1.0,1.0
1626062529.6198573,-68.848,-32.227,-5.859,1.0,1.0
1626062529.6237636,11.23,-44.922,-41.504,1.0,1.0
1626062529.6276698,25.879,-47.852,-57.129,1.0,1.0
1626062529.631576,-45.898,-49.316,-35.156,1.0,1.0
1626062529.6354823,-89.355,-46.875,-24.901999999999997,1.0,1.0
1626062529.6393886,-17.578,-28.809,-29.296999999999997,1.0,1.0
1626062529.6432948,48.34,-10.254000000000001,-27.831999999999997,1.0,1.0
1626062529.647201,-25.391,-23.926,-21.484,1.0,1.0
1626062529.6511073,-104.98,-22.949,-13.672,1.0,1.0
1626062529.6550138,-46.875,-19.531,-12.695,1.0,1.0
1626062529.6589198,-36.621,-52.246,-21.973000000000003,67.383,1.0
1626062529.662826,30.273000000000003,-59.57,-25.879,308.594,1.0
1626062529.6667323,-28.32,-52.733999999999995,-22.461,-58.105,1.0
1626062529.6706386,-114.258,-57.129,-25.391,-394.531,1.0
1626062529.6745448,-57.617,-52.246,-22.461,-90.82,1.0
1626062529.678451,35.645,-24.901999999999997,-19.043,310.547,1.0
1626062529.682357,-10.742,-24.901999999999997,-37.598,66.406,1.0
1626062529.6862638,-98.145,-27.344,-62.5,-369.629,1.0
1626062529.6901696,-65.43,-11.23,-58.105,-203.125,1.0
1626062529.6940763,31.738000000000003,-6.348,-41.992,261.23,1.0
1626062529.697982,18.555,-37.109,-30.273000000000003,181.15200000000002,1.0
1626062529.7018883,-86.426,-52.733999999999995,-25.879,-299.316,1.0
1626062529.705795,-96.68,-41.504,-33.691,-345.70300000000003,1.0
1626062529.709701,-99.12100000000001,-41.016000000000005,-53.223,-261.23,1.0
1626062529.713607,15.625,-42.968999999999994,-34.18,226.562,1.0
1626062529.7175136,31.25,-42.968999999999994,-26.366999999999997,221.68,1.0
1626062529.7214196,-61.523,-57.129,-26.366999999999997,-246.582,1.0
1626062529.725326,-86.426,-35.645,-27.831999999999997,-309.082,1.0
1626062529.7292323,-17.578,-22.461,-46.387,127.441,1.0
1626062529.7331386,24.901999999999997,-14.16,-46.387,279.297,1.0
1626062529.7370448,-43.457,2.441,-39.551,-135.254,1.0
1626062529.740951,-105.469,-8.789,-28.32,-380.371,1.0
1626062529.7448573,-41.992,-29.296999999999997,-23.926,-0.977,1.0
1626062529.7487636,38.574,-34.668,-28.809,327.14799999999997,1.0
1626062529.7526696,47.363,-37.598,-30.761999999999997,308.105,1.0
1626062529.756576,-21.484,-68.359,-37.109,-88.37899999999999,1.0
1626062529.7604823,-85.93799999999999,-78.125,-32.715,-376.465,1.0
1626062529.7643886,-17.09,-36.621,-20.508000000000003,-24.414,1.0
1626062529.7682948,58.593999999999994,7.324,-25.879,337.402,1.0
1626062529.772201,-18.066,-8.789,-48.34,36.621,1.0
1626062529.7761073,-111.816,-22.461,-46.387,-391.11300000000006,1.0
1626062529.7800136,-57.129,5.859,-37.109,-172.852,1.0
1626062529.7839198,47.852,2.441,-25.391,289.062,1.0
1626062529.787826,14.16,-39.062,-37.109,164.062,1.0
1626062529.7917323,-86.426,-43.457,-40.527,-307.129,1.0
1626062529.7956386,-82.52,-33.203,-24.901999999999997,-284.668,1.0
1626062529.799545,-74.219,-42.968999999999994,-32.227,1.0,1.0
1626062529.803451,6.836,-34.668,-34.18,1.0,1.0
1626062529.807357,16.113,-17.09,-22.949,1.0,1.0
1626062529.8112638,-70.312,-16.113,-31.25,1.0,1.0
1626062529.8151696,-103.516,-35.645,-51.27,1.0,1.0
1626062529.8190758,-10.254000000000001,-29.785,-22.461,1.0,1.0
1626062529.822982,44.434,-22.461,4.395,1.0,1.0
1626062529.8268883,-36.133,-32.227,-9.766,1.0,1.0
1626062529.830795,-104.00399999999999,-38.574,-32.227,1.0,1.0
1626062529.834701,-42.968999999999994,-46.875,-57.129,1.0,1.0
1626062529.8386073,40.527,-38.574,-46.875,1.0,1.0
1626062529.8425136,-7.812,-30.273000000000003,-24.901999999999997,1.0,1.0
1626062529.8464196,-55.176,-24.414,-30.761999999999997,-124.023,1.0
1626062529.850326,-116.211,-26.855,-35.645,-386.719,1.0
1626062529.8542323,-40.527,-42.968999999999994,-23.926,-11.23,1.0
1626062529.8581383,35.645,-53.223,-16.602,326.66,1.0
1626062529.8620448,-13.184000000000001,-48.34,-25.391,24.414,1.0
1626062529.865951,-97.16799999999999,-41.016000000000005,-31.738000000000003,-368.652,1.0
1626062529.8698573,-62.012,-41.992,-16.113,-145.996,1.0
1626062529.8737636,39.551,-44.922,-10.254000000000001,296.387,1.0
1626062529.8776698,20.508000000000003,-38.574,-37.598,158.691,1.0
1626062529.881576,-83.49600000000001,-26.366999999999997,-59.57,-316.406,1.0
1626062529.8854823,-81.055,-8.301,-49.316,-273.438,1.0
1626062529.8893886,5.371,-0.977,-32.715,191.895,1.0
1626062529.8932948,27.831999999999997,-11.719000000000001,-21.973000000000003,1.0,1.0
1626062529.897201,-60.059,-34.668,-17.578,1.0,1.0
1626062529.9011073,-92.773,-44.922,-11.23,1.0,1.0
1626062529.9050138,8.301,-38.574,-7.812,1.0,1.0
1626062529.9089198,47.363,-54.199,-32.715,1.0,1.0
1626062529.912826,-45.898,-57.617,-63.477,1.0,1.0
1626062529.9167323,-113.281,-24.414,-63.477,1.0,1.0
1626062529.9206386,-49.316,-25.391,-45.41,1.0,1.0
1626062529.9245448,30.273000000000003,-41.992,-27.344,1.0,1.0
1626062529.928451,-17.578,-36.133,-25.391,1.0,1.0
1626062529.932357,-95.215,-43.457,-31.738000000000003,1.0,1.0
1626062529.9362638,-56.152,-40.527,-39.062,1.0,1.0
1626062529.9401696,-99.12100000000001,-51.27,-32.715,-367.676,1.0
1626062529.9440763,-30.273000000000003,-25.391,-35.645,12.207,1.0
1626062529.947982,35.645,-3.418,-22.461,316.406,1.0
1626062529.9518883,-23.438000000000002,-11.719000000000001,-20.508000000000003,-14.648,1.0
1626062529.955795,-120.117,-36.133,-36.621,-407.715,1.0
1626062529.959701,-70.312,-23.438000000000002,-31.25,-137.207,1.0
1626062529.963607,33.691,-13.184000000000001,-23.438000000000002,304.199,1.0
1626062529.9675136,2.93,-63.477,-38.086,120.117,1.0
1626062529.9714196,-100.586,-63.477,-46.387,-347.656,1.0
1626062529.975326,-88.867,-21.484,-46.387,-262.695,1.0
1626062529.9792323,18.066,-15.625,-44.434,212.40200000000002,1.0
1626062529.9831386,38.086,-18.555,-23.438000000000002,226.562,1.0
1626062529.9870448,-121.58200000000001,-28.32,-31.738000000000003,30.761999999999997,1.0
1626062529.990951,-223.145,-26.855,-47.363,-439.45300000000003,1.0
1626062529.9948573,-235.352,-40.527,-35.156,-413.574,1.0
1626062529.9987636,-145.02,-61.035,-38.086,48.828,1.0
1626062530.0026696,-127.441,-38.086,-37.598,90.82,1.0
1626062530.006576,-229.49200000000002,-25.391,-30.761999999999997,-384.76599999999996,1.0
1626062530.0104823,-262.207,-18.066,-30.761999999999997,-506.348,1.0
1626062530.0143886,-178.22299999999998,-23.438000000000002,-32.715,-74.707,1.0
1626062530.0182948,-141.602,-40.039,-49.316,140.137,1.0
1626062530.022201,-219.238,-34.668,-66.406,-253.418,1.0
1626062530.0261073,-280.27299999999997,-28.32,-55.176,-556.1519999999999,1.0
1626062530.0300136,-208.00799999999998,-10.742,-33.203,-212.40200000000002,1.0
1626062530.0339198,-60.059,-55.176,-6.348,41.504,1.0
1626062530.037826,18.555,-61.035,0.977,337.402,1.0
1626062530.0417323,-20.996,-61.523,3.906,6.836,1.0
1626062530.0456386,-92.285,-60.547,10.254000000000001,-342.285,1.0
1626062530.049545,-41.016000000000005,-62.5,7.324,-61.035,1.0
1626062530.053451,53.711000000000006,-61.035,2.93,350.586,1.0
1626062530.057357,24.901999999999997,-72.266,6.348,152.832,1.0
1626062530.0612638,-52.733999999999995,-89.355,16.113,-284.668,1.0
1626062530.0651696,-29.296999999999997,-83.49600000000001,27.831999999999997,-151.855,1.0
1626062530.0690758,75.684,-78.125,25.391,323.73,1.0
1626062530.072982,81.543,-86.914,5.859,296.875,1.0
1626062530.0768883,-8.301,-91.309,1.465,-168.457,1.0
1626062530.080795,-20.996,-63.477,-8.301,-244.62900000000002,1.0
1626062530.084701,-23.926,-66.406,-12.695,-185.547,1.0
1626062530.0886073,80.566,-67.383,-1.953,294.434,1.0
1626062530.0925136,100.098,-68.848,-2.441,317.871,1.0
1626062530.0964196,-0.488,-53.223,-10.742,-159.18,1.0
1626062530.100326,-42.48,-50.781000000000006,-31.738000000000003,-283.203,1.0
1626062530.1042323,47.363,-33.691,-37.109,171.387,1.0
1626062530.1081383,91.309,-17.09,-11.23,378.418,1.0
1626062530.1120448,10.254000000000001,-33.691,-0.977,-30.273000000000003,1.0
1626062530.115951,-52.246,-55.663999999999994,-26.366999999999997,-315.43,1.0
1626062530.1198573,10.742,-55.663999999999994,-32.227,37.109,1.0
1626062530.1237636,92.285,-47.363,-1.465,395.02,1.0
1626062530.1276698,48.34,-35.645,-4.395,1.0,1.0
1626062530.131576,-39.062,-33.691,-23.926,1.0,1.0
1626062530.1354823,-9.277000000000001,-38.086,-22.949,1.0,1.0
1626062530.1393886,74.219,-41.992,-13.184000000000001,1.0,1.0
1626062530.1432948,52.733999999999995,-54.199,-20.996,1.0,1.0
1626062530.147201,-27.344,-42.48,-33.203,1.0,1.0
1626062530.1511073,-27.344,-30.273000000000003,-41.016000000000005,1.0,1.0
1626062530.1550138,53.711000000000006,-39.062,-41.016000000000005,1.0,1.0
1626062530.1589198,72.266,-31.25,-36.621,1.0,1.0
1626062530.162826,-19.531,-27.831999999999997,-31.738000000000003,1.0,1.0
1626062530.1667323,-66.895,-21.973000000000003,-21.484,1.0,1.0
1626062530.1706386,21.484,-19.531,-13.184000000000001,1.0,1.0
1626062530.1745448,-218.262,-32.227,-30.761999999999997,373.535,1.0
1626062530.178451,-133.789,-29.785,-32.715,-10.742,1.0
1626062530.182357,-139.16,-26.855,-32.715,-330.07800000000003,1.0
1626062530.1862638,-241.699,-25.879,-37.109,-18.066,1.0
1626062530.1901696,-266.60200000000003,-32.715,-35.645,364.25800000000004,1.0
1626062530.1940763,-179.688,-33.203,-29.296999999999997,124.512,1.0
1626062530.197982,-130.371,-34.18,-24.901999999999997,-324.707,1.0
1626062530.2018883,-194.824,-57.129,-23.438000000000002,-179.199,1.0
1626062530.205795,-247.55900000000003,-64.453,-27.831999999999997,274.414,1.0
1626062530.209701,-170.41,-33.691,-22.461,221.19099999999997,1.0
1626062530.213607,-92.773,-40.527,-15.137,-268.555,1.0
1626062530.2175136,-132.812,-71.777,-31.738000000000003,-290.039,1.0
1626062530.2214196,17.578,-49.805,-33.203,-31.738000000000003,1.0
1626062530.225326,-63.965,-60.547,-28.32,-341.309,1.0
1626062530.2292323,0.0,-50.293,-32.227,0.0,1.0
1626062530.2331386,93.75,-31.738000000000003,-25.879,373.04699999999997,1.0
1626062530.2370448,45.898,-29.785,-23.926,95.215,1.0
1626062530.240951,-45.41,-36.621,-32.227,-315.918,1.0
1626062530.2448573,-4.395,-38.574,-20.996,-109.863,1.0
1626062530.2487636,101.074,-35.645,-11.23,349.121,1.0
1626062530.2526696,93.262,-26.366999999999997,-16.602,246.09400000000002,1.0
1626062530.256576,-2.441,-39.062,-30.273000000000003,-232.422,1.0
1626062530.2604823,-8.789,-55.176,-31.738000000000003,-230.957,1.0
1626062530.2643886,87.402,-25.391,-21.484,243.65200000000002,1.0
1626062530.2682948,89.355,-21.484,-9.277000000000001,320.312,1.0
1626062530.272201,80.566,-36.621,-26.855,258.301,1.0
1626062530.2761073,-25.879,-50.293,-37.109,-229.49200000000002,1.0
1626062530.2800136,-52.733999999999995,-55.663999999999994,-37.109,-275.39099999999996,1.0
1626062530.2839198,38.574,-44.922,-36.133,189.94099999999997,1.0
1626062530.287826,89.844,-39.551,-33.203,337.402,1.0
1626062530.2917323,4.395,-42.48,-38.086,-90.82,1.0
1626062530.2956386,-54.199,-33.691,-40.527,-312.012,1.0
1626062530.299545,24.414,-37.598,-48.828,76.66,1.0
1626062530.303451,90.33200000000001,-53.223,-52.733999999999995,369.629,1.0
1626062530.307357,31.738000000000003,-43.457,-43.945,35.645,1.0
1626062530.3112638,-49.316,-22.461,-33.691,-333.98400000000004,1.0
1626062530.3151696,-79.59,-21.973000000000003,-42.968999999999994,-360.84,1.0
1626062530.3190758,-11.23,-6.836,-36.133,6.836,1.0
1626062530.322982,65.918,-25.391,-32.227,355.469,1.0
1626062530.3268883,5.371,-38.574,-35.156,50.293,1.0
1626062530.330795,-84.961,-33.203,-29.785,-347.168,1.0
1626062530.334701,-42.48,-24.901999999999997,-16.113,-113.77,1.0
1626062530.3386073,62.988,-29.296999999999997,-12.207,333.00800000000004,1.0
1626062530.3425136,37.109,-50.293,-27.344,185.547,1.0
1626062530.3464196,-43.457,-43.457,-33.203,-275.879,1.0
1626062530.350326,-53.711000000000006,-24.901999999999997,-32.227,-240.234,1.0
1626062530.3542323,18.066,-15.137,-23.438000000000002,217.773,1.0
1626062530.3581383,47.363,-19.531,-25.391,268.555,1.0
1626062530.3620448,-46.875,-33.203,-41.504,1.0,1.0
1626062530.365951,-84.473,-38.086,-33.203,1.0,1.0
1626062530.3698573,10.742,-30.273000000000003,-20.02,1.0,1.0
1626062530.3737636,70.801,-35.156,-28.809,1.0,1.0
1626062530.3776698,-12.695,-44.434,-37.109,1.0,1.0
1626062530.381576,-89.355,-28.809,-46.875,1.0,1.0
1626062530.3854823,-19.043,-6.836,-44.922,1.0,1.0
1626062530.3893886,64.453,0.977,-41.016000000000005,1.0,1.0
1626062530.3932948,21.484,-8.789,-44.434,1.0,1.0
1626062530.397201,-72.75399999999999,-13.184000000000001,-50.781000000000006,1.0,1.0
1626062530.4011073,-51.758,-6.348,-51.27,1.0,1.0
1626062530.4050138,36.621,-15.137,-49.316,1.0,1.0
1626062530.4089198,-19.043,-14.648,-29.785,30.761999999999997,1.0
1626062530.412826,48.828,-20.996,-40.039,337.89099999999996,1.0
1626062530.4167323,-5.859,-39.551,-36.133,7.324,1.0
1626062530.4206386,-88.867,-58.593999999999994,-23.438000000000002,-371.094,1.0
1626062530.4245448,-42.48,-47.852,-10.254000000000001,-109.863,1.0
1626062530.428451,38.574,-27.831999999999997,-15.625,311.035,1.0
1626062530.432357,3.906,-16.602,-37.109,127.441,1.0
1626062530.4362638,-85.93799999999999,0.0,-32.715,-330.566,1.0
1626062530.4401696,-85.93799999999999,-6.836,-27.344,-248.047,1.0
1626062530.4440763,13.184000000000001,-11.23,-32.227,232.422,1.0
1626062530.447982,35.645,-21.973000000000003,-38.574,241.699,1.0
1626062530.4518883,-67.87100000000001,-37.598,-59.57,-244.141,1.0
1626062530.455795,-110.352,-35.645,-49.316,1.0,1.0
1626062530.459701,-6.836,-34.18,-14.16,1.0,1.0
1626062530.463607,39.551,-40.527,-20.996,1.0,1.0
1626062530.4675136,-46.875,-49.316,-37.598,1.0,1.0
1626062530.4714196,-104.492,-39.551,-37.598,1.0,1.0
1626062530.475326,-48.828,-38.574,-32.715,1.0,1.0
1626062530.4792323,30.273000000000003,-44.434,-27.344,1.0,1.0
1626062530.4831386,-4.395,-35.156,-23.438000000000002,1.0,1.0
1626062530.4870448,-94.238,-21.484,-25.391,1.0,1.0
1626062530.490951,-66.895,-16.602,-34.18,1.0,1.0
1626062530.4948573,28.32,-26.366999999999997,-37.109,1.0,1.0
1626062530.4987636,13.184000000000001,-35.156,-46.875,1.0,1.0
1626062530.5026696,-90.33200000000001,-32.715,-56.641000000000005,1.0,1.0
1626062530.506576,-87.891,-36.621,-28.809,1.0,1.0
1626062530.5104823,8.789,-41.016000000000005,-12.695,1.0,1.0
1626062530.5143886,17.09,-34.18,-20.996,1.0,1.0
1626062530.5182948,-76.172,-22.461,-35.156,1.0,1.0
1626062530.522201,-109.863,-25.391,-40.527,1.0,1.0
1626062530.5261073,-23.926,-34.18,-29.785,1.0,1.0
1626062530.5300136,19.531,-36.133,-33.691,1.0,1.0
1626062530.5339198,-52.246,-32.227,-43.457,1.0,1.0
1626062530.537826,-124.512,-33.203,-48.828,1.0,1.0
1626062530.5417323,-60.059,-21.484,-40.039,1.0,1.0
1626062530.5456386,25.879,-20.02,-37.109,1.0,1.0
1626062530.549545,-23.926,-43.945,-41.016000000000005,1.0,1.0
1626062530.553451,-115.234,-49.805,-31.25,1.0,1.0
1626062530.557357,-77.637,-41.992,-13.672,1.0,1.0
1626062530.5612638,36.133,-20.996,-10.742,1.0,1.0
1626062530.5651696,23.438000000000002,-31.738000000000003,-31.738000000000003,1.0,1.0
1626062530.5690758,-85.449,-52.733999999999995,-35.645,1.0,1.0
1626062530.572982,-100.098,-58.593999999999994,-20.996,1.0,1.0
1626062530.5768883,-9.277000000000001,-61.035,-22.461,1.0,1.0
1626062530.580795,25.879,-35.156,-24.414,1.0,1.0
1626062530.584701,-67.383,-17.09,-29.296999999999997,1.0,1.0
1626062530.5886073,-125.977,-29.296999999999997,-35.156,1.0,1.0
1626062530.5925136,-43.457,-30.761999999999997,-25.391,1.0,1.0
1626062530.5964196,-101.56200000000001,-21.973000000000003,-51.27,340.332,1.0
1626062530.600326,5.371,8.789,-41.016000000000005,-15.625,1.0
1626062530.6042323,36.621,16.113,-39.551,-381.348,1.0
1626062530.6081383,-66.895,-3.906,-54.688,-92.773,1.0
1626062530.6120448,-110.84,-20.996,-59.57,321.289,1.0
1626062530.615951,-8.301,-36.133,-45.898,100.098,1.0
1626062530.6198573,44.922,-57.129,-35.156,-362.305,1.0
1626062530.6237636,-33.203,-43.457,-32.227,-244.141,1.0
1626062530.6276698,-114.74600000000001,-22.949,-39.551,249.512,1.0
1626062530.631576,-60.547,-20.508000000000003,-37.109,227.53900000000002,1.0
1626062530.6354823,31.738000000000003,-5.371,-36.621,-263.672,1.0
1626062530.6393886,-10.742,5.371,-36.133,-337.89099999999996,1.0
1626062530.6432948,-106.934,-31.25,-35.645,1.0,1.0
1626062530.647201,-75.684,-39.551,-35.645,1.0,1.0
1626062530.6511073,24.414,-19.043,-43.945,1.0,1.0
1626062530.6550138,16.602,-27.831999999999997,-51.27,1.0,1.0
1626062530.6589198,-82.52,-35.156,-49.316,1.0,1.0
1626062530.662826,-93.75,-31.738000000000003,-39.551,1.0,1.0
1626062530.6667323,17.09,-20.02,-33.203,1.0,1.0
1626062530.6706386,49.805,-30.273000000000003,-30.761999999999997,1.0,1.0
1626062530.6745448,-46.875,-46.875,-25.391,1.0,1.0
1626062530.678451,-101.56200000000001,-32.715,-28.809,1.0,1.0
1626062530.682357,-26.366999999999997,-19.043,-27.831999999999997,1.0,1.0
1626062530.6862638,50.781000000000006,-19.043,-26.855,1.0,1.0
1626062530.6901696,-14.16,-20.996,-39.551,1.0,1.0
1626062530.6940763,-115.723,-37.598,-49.316,1.0,1.0
1626062530.697982,-48.828,-34.18,-26.855,1.0,1.0
1626062530.7018883,53.711000000000006,-24.414,-17.578,1.0,1.0
1626062530.705795,0.977,-27.831999999999997,-35.156,1.0,1.0
1626062530.709701,-102.539,-30.273000000000003,-42.968999999999994,1.0,1.0
1626062530.713607,-78.613,-28.32,-35.645,1.0,1.0
1626062530.7175136,38.086,-25.879,-12.207,1.0,1.0
1626062530.7214196,37.109,-31.25,-15.625,1.0,1.0
1626062530.725326,-64.453,-32.227,-25.879,1.0,1.0
1626062530.7292323,-83.008,-24.901999999999997,-20.996,1.0,1.0
1626062530.7331386,-4.883,-20.996,-31.25,1.0,1.0
1626062530.7370448,21.484,-20.02,-44.922,1.0,1.0
1626062530.740951,-58.105,-20.02,-46.387,1.0,1.0
1626062530.7448573,-96.68,-21.484,-30.761999999999997,1.0,1.0
1626062530.7487636,-15.625,-16.113,-22.461,1.0,1.0
1626062530.7526696,53.711000000000006,-28.32,-29.296999999999997,1.0,1.0
1626062530.756576,-12.207,-60.547,-52.733999999999995,1.0,1.0
1626062530.7604823,-93.262,-50.293,-50.293,1.0,1.0
1626062530.7643886,-25.391,-1.953,-21.484,1.0,1.0
1626062530.7682948,82.031,-2.441,1.465,1.0,1.0
1626062530.772201,36.133,-42.968999999999994,-12.695,1.0,1.0
1626062530.7761073,-92.773,-46.875,-49.316,1.0,1.0
1626062530.7800136,-87.891,-24.901999999999997,-45.898,1.0,1.0
1626062530.7839198,-102.539,-41.504,-35.645,-388.184,1.0
1626062530.787826,-35.645,-15.137,-33.691,-48.828,1.0
1626062530.7917323,49.805,-2.93,-32.715,315.43,1.0
1626062530.7956386,-15.625,-13.672,-41.992,28.32,1.0
1626062530.799545,-97.16799999999999,-10.742,-34.668,-375.977,1.0
1626062530.803451,-50.781000000000006,-22.949,-24.414,-168.457,1.0
1626062530.807357,25.391,-46.387,-37.598,265.625,1.0
1626062530.8112638,-0.977,-31.25,-42.968999999999994,142.09,1.0
1626062530.8151696,-95.70299999999999,-8.301,-36.133,-325.684,1.0
1626062530.8190758,-95.215,-19.043,-36.133,-308.594,1.0
1626062530.822982,20.996,-43.945,-30.273000000000003,179.688,1.0
1626062530.8268883,44.434,-30.273000000000003,-34.668,268.555,1.0
1626062530.830795,-64.453,-12.207,-52.733999999999995,1.0,1.0
1626062530.834701,-107.91,-20.508000000000003,-58.105,1.0,1.0
1626062530.8386073,-26.855,-11.23,-61.035,1.0,1.0
1626062530.8425136,21.484,-17.09,-58.593999999999994,1.0,1.0
1626062530.8464196,-46.875,-38.086,-47.852,1.0,1.0
1626062530.850326,-114.74600000000001,-36.133,-41.992,1.0,1.0
1626062530.8542323,-44.434,-1.953,-43.945,1.0,1.0
1626062530.8581383,50.293,0.488,-41.016000000000005,1.0,1.0
1626062530.8620448,-0.977,-43.945,-37.598,1.0,1.0
1626062530.865951,-115.234,-45.41,-34.668,1.0,1.0
1626062530.8698573,-84.961,-27.344,-28.809,1.0,1.0
1626062530.8737636,37.109,-33.691,-19.043,1.0,1.0
1626062530.8776698,-62.988,-21.484,-27.831999999999997,218.262,1.0
1626062530.881576,25.879,-16.113,-20.508000000000003,-274.902,1.0
1626062530.8854823,-35.645,-26.855,-20.02,-315.43,1.0
1626062530.8893886,-145.50799999999998,-24.901999999999997,-29.785,161.13299999999998,1.0
1626062530.8932948,-129.395,-19.531,-34.18,291.992,1.0
1626062530.897201,-45.41,-11.23,-25.879,-141.602,1.0
1626062530.9011073,-76.66,-4.883,-23.926,-365.23400000000004,1.0
1626062530.9050138,-197.266,-8.789,-37.109,26.855,1.0
1626062530.9089198,-222.168,-12.207,-43.945,339.844,1.0
1626062530.912826,-131.34799999999998,-13.672,-38.574,-3.418,1.0
1626062530.9167323,-112.79299999999999,-14.648,-41.992,-392.57800000000003,1.0
1626062530.9206386,-224.12099999999998,-26.366999999999997,-51.758,-126.95299999999999,1.0
1626062530.9245448,32.227,-32.227,-44.434,-388.184,1.0
1626062530.928451,-70.312,-48.828,-46.875,-396.48400000000004,1.0
1626062530.932357,-53.711000000000006,-35.645,-28.809,74.707,1.0
1626062530.9362638,46.387,-21.484,-17.09,193.359,1.0
1626062530.9401696,45.41,-29.785,-30.273000000000003,-241.21099999999998,1.0
1626062530.9440763,-41.504,-35.156,-38.086,-422.36300000000006,1.0
1626062530.947982,-59.082,-21.484,-33.203,11.719000000000001,1.0
1626062530.9518883,30.761999999999997,-15.137,-38.086,304.688,1.0
1626062530.955795,87.891,-13.672,-33.691,-47.852,1.0
1626062530.959701,8.301,-28.32,-29.785,-394.531,1.0
1626062530.963607,-59.082,-53.711000000000006,-40.527,-81.543,1.0
1626062530.9675136,16.602,-57.129,-51.27,340.82,1.0
1626062530.9714196,-53.711000000000006,-58.105,-34.668,-251.465,1.0
1626062530.975326,41.504,-47.852,-33.203,224.609,1.0
1626062530.9792323,60.547,-34.18,-33.203,292.969,1.0
1626062530.9831386,-28.809,-24.414,-27.831999999999997,-161.621,1.0
1626062530.9870448,-65.43,-15.137,-20.508000000000003,-314.941,1.0
1626062530.990951,19.531,-9.766,-15.625,119.141,1.0
1626062530.9948573,89.355,-1.465,-7.324,370.11699999999996,1.0
1626062530.9987636,16.113,-21.973000000000003,-10.254000000000001,-21.484,1.0
1626062531.0026696,-76.66,-42.968999999999994,-28.809,-367.18800000000005,1.0
1626062531.006576,-19.531,-33.691,-29.296999999999997,-48.828,1.0
1626062531.0104823,65.918,-41.016000000000005,-21.484,330.07800000000003,1.0
1626062531.0143886,13.672,-62.988,-25.391,73.73,1.0
1626062531.0182948,-12.207,-45.898,-33.203,-16.602,1.0
1626062531.022201,-94.238,-63.477,-38.086,-383.301,1.0
1626062531.0261073,-36.133,-32.227,-20.996,-90.82,1.0
1626062531.0300136,68.359,-3.418,-8.789,344.727,1.0
1626062531.0339198,23.438000000000002,-20.996,-17.09,127.93,1.0
1626062531.037826,-89.355,-49.316,-34.18,-341.79699999999997,1.0
1626062531.0417323,-77.148,-47.363,-41.016000000000005,-218.75,1.0
1626062531.0456386,30.273000000000003,-28.809,-37.109,258.301,1.0
1626062531.049545,41.016000000000005,-49.805,-39.062,241.21099999999998,1.0
1626062531.053451,-68.848,-70.312,-54.199,-245.11700000000002,1.0
1626062531.057357,-85.449,-36.621,-43.457,-308.594,1.0
1626062531.0612638,16.602,1.465,-24.901999999999997,164.551,1.0
1626062531.0651696,55.176,-0.488,-28.32,1.0,1.0
1626062531.0690758,-36.133,-23.438000000000002,-34.668,1.0,1.0
1626062531.072982,-104.00399999999999,-27.344,-27.344,1.0,1.0
1626062531.0768883,-22.461,-29.785,-14.648,1.0,1.0
1626062531.080795,50.781000000000006,-59.57,-19.043,1.0,1.0
1626062531.084701,-17.578,-54.688,-27.344,1.0,1.0
1626062531.0886073,-97.16799999999999,-48.828,-31.25,1.0,1.0
1626062531.0925136,-43.945,-58.593999999999994,-27.344,1.0,1.0
1626062531.0964196,55.663999999999994,-34.668,-27.831999999999997,1.0,1.0
1626062531.100326,31.25,-51.758,-38.574,1.0,1.0
1626062531.1042323,-73.242,-60.547,-29.785,1.0,1.0
1626062531.1081383,-79.102,-20.508000000000003,-25.391,1.0,1.0
1626062531.1120448,-95.215,-18.066,-29.785,-388.184,1.0
1626062531.115951,-39.551,-35.156,-14.16,-80.078,1.0
1626062531.1198573,53.223,-23.926,-17.578,320.801,1.0
1626062531.1237636,14.16,-24.901999999999997,-33.691,90.82,1.0
1626062531.1276698,-86.914,-44.434,-32.227,-346.68,1.0
1626062531.131576,-61.035,-38.086,-26.855,-196.77700000000002,1.0
1626062531.1354823,39.062,-28.32,-25.391,275.879,1.0
1626062531.1393886,29.785,-18.066,-38.574,209.96099999999998,1.0
1626062531.1432948,-68.848,-8.301,-34.18,-265.625,1.0
1626062531.147201,-84.473,-16.602,-25.879,-302.73400000000004,1.0
1626062531.1511073,14.16,-25.391,-22.461,162.59799999999998,1.0
1626062531.1550138,48.34,-31.25,-16.602,297.85200000000003,1.0
1626062531.1589198,38.086,-20.508000000000003,-22.461,234.375,1.0
1626062531.162826,-60.059,-49.316,-20.996,-245.11700000000002,1.0
1626062531.1667323,-100.098,-63.965,-14.16,-342.285,1.0
1626062531.1706386,-15.137,-48.34,-15.137,118.652,1.0
1626062531.1745448,29.296999999999997,-40.039,-26.855,285.156,1.0
1626062531.178451,-42.968999999999994,-23.926,-22.461,-129.395,1.0
1626062531.182357,-95.215,-12.695,-18.066,-370.11699999999996,1.0
1626062531.1862638,-25.879,-19.043,-20.02,-2.93,1.0
1626062531.1901696,46.387,-36.621,-20.02,338.86699999999996,1.0
1626062531.1940763,-4.883,-45.898,-24.901999999999997,37.109,1.0
1626062531.197982,-84.473,-27.344,-21.973000000000003,-355.957,1.0
1626062531.2018883,-54.688,-33.203,-18.066,-137.207,1.0
1626062531.205795,-52.733999999999995,-32.227,-31.25,1.0,1.0
1626062531.209701,42.48,-30.761999999999997,-28.809,1.0,1.0
1626062531.213607,3.906,-34.668,-30.273000000000003,1.0,1.0
1626062531.2175136,-90.33200000000001,-59.57,-33.203,1.0,1.0
1626062531.2214196,-72.75399999999999,-80.566,-32.227,1.0,1.0
1626062531.225326,32.227,-53.711000000000006,-17.578,1.0,1.0
1626062531.2292323,29.296999999999997,-19.531,-18.066,1.0,1.0
1626062531.2331386,-77.148,-33.691,-21.484,1.0,1.0
1626062531.2370448,-90.82,-47.852,-28.32,1.0,1.0
1626062531.240951,-1.465,-30.761999999999997,-36.133,1.0,1.0
1626062531.2448573,34.18,-7.812,-20.996,1.0,1.0
1626062531.2487636,-64.453,-19.531,-25.391,1.0,1.0
1626062531.2526696,-126.95299999999999,-23.438000000000002,-35.156,1.0,1.0
1626062531.256576,-21.973000000000003,-14.648,-27.344,1.0,1.0
1626062531.2604823,48.34,-32.227,-30.761999999999997,1.0,1.0
1626062531.2643886,-29.296999999999997,-49.805,-41.016000000000005,1.0,1.0
1626062531.2682948,-110.352,-49.805,-50.781000000000006,1.0,1.0
1626062531.272201,-49.805,-32.715,-40.527,1.0,1.0
1626062531.2761073,43.945,-14.648,-31.25,1.0,1.0
