timestamps,TP9,AF7,AF8,TP10,Right AUX
1626295117.3426042,-29.296999999999997,-11.23,-50.293,-40.527,1.0
1626295117.3465104,42.48,15.137,-48.34,104.98,1.0
1626295117.3504167,0.488,6.348,-63.965,1.953,1.0
1626295117.354323,-96.68,-26.855,-77.148,-173.828,1.0
1626295117.358229,-84.473,0.0,-49.805,-106.934,1.0
1626295117.3621356,12.695,8.789,-19.531,89.355,1.0
1626295117.3660414,-0.488,9.277000000000001,-35.156,50.293,1.0
1626295117.3699481,-97.16799999999999,-56.641000000000005,-48.828,-155.273,1.0
1626295117.373854,-77.148,-45.898,-26.366999999999997,-134.27700000000002,1.0
1626295117.3777602,27.831999999999997,3.418,-10.254000000000001,78.613,1.0
1626295117.381667,18.066,-10.742,-35.645,81.543,1.0
1626295117.385573,-88.37899999999999,-22.461,-62.988,-125.977,1.0
1626295117.389479,-136.719,-75.195,-79.102,1.0,1.0
1626295117.3933854,-60.547,-38.574,-75.684,1.0,1.0
1626295117.3972914,14.16,-11.719000000000001,-44.434,1.0,1.0
1626295117.401198,-40.039,-1.953,-37.109,1.0,1.0
1626295117.4051042,-119.62899999999999,-10.254000000000001,-46.875,1.0,1.0
1626295117.4090104,-50.781000000000006,-70.801,-26.855,1.0,1.0
1626295117.4129167,48.34,-20.02,-17.578,1.0,1.0
1626295117.416823,2.441,-6.836,-35.645,1.0,1.0
1626295117.4207292,-89.355,-24.901999999999997,-40.527,1.0,1.0
1626295117.4246354,-83.008,-46.875,-42.968999999999994,1.0,1.0
1626295117.4285414,-3.906,-68.359,-44.922,1.0,1.0
1626295117.432448,10.742,-5.371,-45.41,1.0,1.0
1626295117.4363542,-65.43,-0.488,-63.965,1.0,1.0
1626295117.4402604,-84.961,3.418,-57.617,1.0,1.0
1626295117.4441667,0.488,-24.414,-26.366999999999997,1.0,1.0
1626295117.448073,34.18,-60.059,-38.086,1.0,1.0
1626295117.4519792,-57.617,-3.906,-58.105,1.0,1.0
1626295117.4558854,-111.816,15.137,-56.152,1.0,1.0
1626295117.4597917,-19.043,13.672,-44.922,1.0,1.0
1626295117.463698,51.758,-81.055,-19.531,1.0,1.0
1626295117.4676042,-10.254000000000001,-87.891,-11.719000000000001,1.0,1.0
1626295117.4715104,-100.098,-21.973000000000003,-24.901999999999997,1.0,1.0
1626295117.475417,-79.59,-9.766,-32.227,1.0,1.0
1626295117.479323,14.648,2.93,-16.113,1.0,1.0
1626295117.483229,0.977,-86.426,-14.648,1.0,1.0
1626295117.4871356,-104.98,-77.637,-26.366999999999997,1.0,1.0
1626295117.4910414,-99.12100000000001,-33.691,-11.23,1.0,1.0
1626295117.4949477,8.301,-9.277000000000001,12.695,1.0,1.0
1626295117.498854,14.648,-22.461,0.0,1.0,1.0
1626295117.5027602,-79.59,-114.74600000000001,-25.879,1.0,1.0
1626295117.506667,-111.32799999999999,-63.965,-16.602,1.0,1.0
1626295117.510573,-20.02,-36.621,0.0,1.0,1.0
1626295117.5144792,37.598,-53.223,-12.207,1.0,1.0
1626295117.5183854,-51.758,-55.176,-38.086,1.0,1.0
1626295117.5222914,-131.34799999999998,-99.12100000000001,-40.039,1.0,1.0
1626295117.526198,-61.523,-51.27,-16.602,1.0,1.0
1626295117.5301042,26.366999999999997,-11.23,-0.977,106.934,1.0
1626295117.5340102,-22.949,-5.371,-16.602,-21.484,1.0
1626295117.5379167,-104.98,-32.227,-22.949,-180.176,1.0
1626295117.541823,-68.848,-54.199,-21.973000000000003,-79.59,1.0
1626295117.5457292,28.32,-37.109,-33.203,105.95700000000001,1.0
1626295117.5496354,12.207,-42.48,-34.668,44.434,1.0
1626295117.5535417,-84.961,-28.32,-32.715,-153.809,1.0
1626295117.557448,-92.285,-88.37899999999999,-27.831999999999997,-140.625,1.0
1626295117.5613542,-5.371,-68.359,-20.02,50.293,1.0
1626295117.5652604,18.555,-9.766,-18.066,73.242,1.0
1626295117.5691667,-66.406,-24.414,-14.648,-111.816,1.0
1626295117.573073,-108.398,-44.922,-21.484,-167.48,1.0
1626295117.5769792,-89.355,-16.113,-25.879,-156.738,1.0
1626295117.5808856,5.371,39.551,-15.625,42.48,1.0
1626295117.5847917,26.366999999999997,-5.859,-38.086,74.219,1.0
1626295117.588698,-70.312,-86.426,-57.617,-117.676,1.0
1626295117.5926042,-98.633,-31.738000000000003,-30.761999999999997,-170.898,1.0
1626295117.5965104,-24.901999999999997,1.465,-26.855,2.93,1.0
1626295117.6004167,29.785,15.625,-20.508000000000003,106.445,1.0
1626295117.604323,-24.901999999999997,-50.293,-13.672,-31.25,1.0
1626295117.608229,-107.42200000000001,-82.031,-35.156,-169.43400000000003,1.0
1626295117.6121356,-61.523,-44.922,-29.296999999999997,-52.733999999999995,1.0
1626295117.6160414,29.296999999999997,-25.879,-18.066,111.816,1.0
1626295117.6199481,10.742,-28.809,-17.578,37.598,1.0
1626295117.623854,-106.445,-153.32,-42.48,1.0,1.0
1626295117.6277602,-97.16799999999999,-79.102,-42.48,1.0,1.0
1626295117.631667,23.926,39.551,-17.578,1.0,1.0
1626295117.635573,27.344,21.973000000000003,-28.809,1.0,1.0
1626295117.639479,-72.266,-31.25,-52.246,1.0,1.0
1626295117.6433854,-97.656,-106.934,-55.663999999999994,1.0,1.0
1626295117.6472914,4.395,-36.621,-30.273000000000003,1.0,1.0
1626295117.651198,54.688,-10.742,-18.555,1.0,1.0
1626295117.6551042,-22.949,-40.039,-38.574,1.0,1.0
1626295117.6590104,-82.031,-62.012,-52.733999999999995,1.0,1.0
1626295117.6629167,-23.926,-76.66,-27.831999999999997,1.0,1.0
1626295117.666823,39.062,17.578,-7.324,1.0,1.0
1626295117.6707292,-15.625,34.668,-22.949,1.0,1.0
1626295117.6746354,-93.262,18.066,-32.227,1.0,1.0
1626295117.6785414,-56.152,-20.02,-39.551,1.0,1.0
1626295117.682448,20.508000000000003,-68.359,-38.086,1.0,1.0
1626295117.6863542,17.578,-25.879,-22.461,1.0,1.0
1626295117.6902604,-58.105,-12.695,-23.438000000000002,1.0,1.0
1626295117.6941667,-67.383,-17.578,-30.273000000000003,1.0,1.0
1626295117.698073,0.0,-89.355,-37.598,1.0,1.0
1626295117.7019792,15.625,-65.43,-29.296999999999997,1.0,1.0
1626295117.7058854,-62.988,-15.625,-26.366999999999997,1.0,1.0
1626295117.7097917,-105.469,-36.133,-45.898,1.0,1.0
1626295117.713698,-17.578,-31.738000000000003,-41.504,1.0,1.0
1626295117.7176042,11.23,5.859,-22.461,68.848,1.0
1626295117.7215104,29.296999999999997,-7.812,-32.715,79.102,1.0
1626295117.725417,-56.152,-62.5,-57.129,-112.79299999999999,1.0
1626295117.729323,-81.543,-82.031,-56.152,-152.344,1.0
1626295117.733229,0.977,-17.09,-20.508000000000003,31.25,1.0
1626295117.7371356,51.27,-9.277000000000001,-7.324,120.117,1.0
1626295117.7410414,-17.578,-7.812,-19.043,-39.062,1.0
1626295117.7449477,-120.117,-86.426,-44.922,-186.035,1.0
1626295117.748854,-64.453,-86.426,-34.668,-45.41,1.0
1626295117.7527602,31.25,2.93,-7.812,118.164,1.0
1626295117.756667,-9.277000000000001,14.648,-24.414,3.906,1.0
1626295117.760573,-86.914,0.0,-48.34,-161.13299999999998,1.0
1626295117.7644792,-104.492,-9.277000000000001,-43.945,-106.445,1.0
1626295117.7683854,-67.383,-3.906,-33.691,87.402,1.0
1626295117.7722914,16.113,-29.785,-34.18,66.895,1.0
1626295117.776198,-25.391,-70.801,-53.223,-130.371,1.0
1626295117.7801042,-102.051,-43.945,-32.715,-131.34799999999998,1.0
1626295117.7840102,-84.961,-23.926,-10.742,58.105,1.0
1626295117.7879167,11.719000000000001,2.441,-14.16,104.00399999999999,1.0
1626295117.791823,23.438000000000002,-45.898,-16.113,-88.37899999999999,1.0
1626295117.7957292,-63.477,-52.733999999999995,-26.366999999999997,-150.391,1.0
1626295117.7996354,-89.355,-5.371,-32.715,15.137,1.0
1626295117.8035417,0.488,23.926,-25.391,91.79700000000001,1.0
1626295117.807448,49.316,45.41,-18.555,-35.156,1.0
1626295117.8113542,-56.641000000000005,-83.008,-65.43,1.0,1.0
1626295117.8152604,-112.305,-39.551,-69.824,1.0,1.0
1626295117.8191667,-35.645,42.968999999999994,-46.387,1.0,1.0
1626295117.823073,27.344,23.926,-49.316,1.0,1.0
1626295117.8269792,-13.672,-13.184000000000001,-48.34,1.0,1.0
1626295117.8308856,-98.145,-64.941,-67.87100000000001,1.0,1.0
1626295117.8347917,-66.895,-1.953,-74.219,1.0,1.0
1626295117.838698,34.668,16.113,-57.617,1.0,1.0
1626295117.8426042,22.949,6.348,-60.059,1.0,1.0
1626295117.8465104,-91.79700000000001,-13.672,-54.688,1.0,1.0
1626295117.8504167,-99.609,-59.57,-28.809,1.0,1.0
1626295117.854323,13.672,15.625,-12.207,1.0,1.0
1626295117.858229,20.508000000000003,37.109,-30.273000000000003,54.688,1.0
1626295117.8621356,-72.266,2.93,-43.457,-143.555,1.0
1626295117.8660414,-94.238,-41.016000000000005,-50.293,-176.27,1.0
1626295117.8699481,-18.066,-54.688,-51.758,8.301,1.0
1626295117.873854,36.133,18.555,-36.621,96.68,1.0
1626295117.8777602,-41.992,13.672,-39.551,-83.008,1.0
1626295117.881667,-109.375,-11.23,-40.039,-188.965,1.0
1626295117.885573,-43.945,-46.387,-42.968999999999994,-25.879,1.0
1626295117.889479,31.738000000000003,-26.855,-38.086,106.934,1.0
1626295117.8933854,1.465,-3.906,-25.879,-11.719000000000001,1.0
1626295117.8972914,-77.148,-13.184000000000001,-25.879,-165.52700000000002,1.0
1626295117.901198,-43.945,-12.695,-12.207,-67.383,1.0
1626295117.9051042,-36.133,12.695,-22.461,-33.203,1.0
1626295117.9090104,41.992,21.484,-22.949,107.42200000000001,1.0
1626295117.9129167,-17.09,-33.691,-45.898,-19.043,1.0
1626295117.916823,-94.727,-78.125,-47.363,-177.24599999999998,1.0
1626295117.9207292,-43.945,-11.719000000000001,-13.184000000000001,-74.707,1.0
1626295117.9246354,39.551,-18.066,-2.93,104.98,1.0
1626295117.9285414,24.901999999999997,-23.438000000000002,-18.555,64.941,1.0
1626295117.932448,-97.16799999999999,-74.707,-47.852,-148.438,1.0
1626295117.9363542,-122.559,-60.547,-58.105,-152.344,1.0
1626295117.9402604,-3.906,0.0,-30.273000000000003,62.988,1.0
1626295117.9441667,34.18,-14.16,-16.113,99.609,1.0
1626295117.948073,-58.593999999999994,-31.25,-45.898,-93.75,1.0
1626295117.9519792,-117.676,-96.68,-61.523,1.0,1.0
1626295117.9558854,-31.25,-46.875,-24.414,1.0,1.0
1626295117.9597917,36.621,7.324,-10.742,1.0,1.0
1626295117.963698,-28.809,-8.301,-28.809,1.0,1.0
1626295117.9676042,-104.98,-48.828,-38.574,1.0,1.0
1626295117.9715104,-55.663999999999994,-105.95700000000001,-28.809,1.0,1.0
1626295117.975417,47.852,-37.598,-17.09,1.0,1.0
1626295117.979323,8.301,-12.695,-33.203,1.0,1.0
1626295117.983229,-87.891,-22.461,-49.316,1.0,1.0
1626295117.9871356,-64.453,-16.602,-34.18,1.0,1.0
1626295117.9910414,32.715,-60.547,-17.09,1.0,1.0
1626295117.9949477,36.621,-43.457,-27.831999999999997,1.0,1.0
1626295117.998854,-57.617,-30.761999999999997,-38.086,-117.18799999999999,1.0
1626295118.0027602,-83.008,-9.766,-25.391,-142.578,1.0
1626295118.006667,-3.906,-32.715,-18.066,37.598,1.0
1626295118.010573,36.621,-90.82,-28.809,93.262,1.0
1626295118.0144792,-41.992,-43.945,-39.551,-85.93799999999999,1.0
1626295118.0183854,-106.445,-0.977,-48.34,-177.24599999999998,1.0
1626295118.0222914,-30.761999999999997,10.742,-42.48,-2.441,1.0
1626295118.026198,28.32,-71.289,-45.898,109.863,1.0
1626295118.0301042,-12.207,-82.52,-47.363,-15.625,1.0
1626295118.0340102,-83.984,-48.828,-38.086,-155.762,1.0
1626295118.0379167,-53.223,-20.02,-14.16,-52.246,1.0
1626295118.041823,47.363,16.113,4.395,126.465,1.0
1626295118.0457292,10.742,-75.195,-6.836,1.0,1.0
1626295118.0496354,-100.098,-51.758,-23.926,1.0,1.0
1626295118.0535417,-105.469,-4.395,-36.621,1.0,1.0
1626295118.057448,-9.277000000000001,-8.301,-35.645,1.0,1.0
1626295118.0613542,17.09,-38.086,-28.32,1.0,1.0
1626295118.0652604,-58.593999999999994,-95.215,-66.895,1.0,1.0
1626295118.0691667,-79.59,-46.387,-90.33200000000001,1.0,1.0
1626295118.073073,-7.324,-25.879,-18.066,1.0,1.0
1626295118.0769792,22.461,-6.348,13.672,1.0,1.0
1626295118.0808856,-45.41,-38.086,-4.883,1.0,1.0
1626295118.0847917,-101.074,-97.656,-5.859,1.0,1.0
1626295118.088698,-44.434,-21.973000000000003,-1.465,1.0,1.0
1626295118.0926042,35.156,10.742,-4.883,111.816,1.0
1626295118.0965104,-6.348,5.859,-10.742,-4.395,1.0
1626295118.1004167,-103.516,-45.41,-25.879,-175.293,1.0
1626295118.104323,-66.406,-84.473,-54.688,-83.49600000000001,1.0
1626295118.108229,46.875,-22.461,-25.879,120.605,1.0
1626295118.1121356,5.859,-15.137,-16.602,48.34,1.0
1626295118.1160414,-110.352,-20.996,-39.062,-158.691,1.0
1626295118.1199481,-128.418,-82.031,-20.508000000000003,-153.809,1.0
1626295118.123854,-29.785,-64.941,13.184000000000001,46.875,1.0
1626295118.1277602,26.366999999999997,19.043,26.366999999999997,102.051,1.0
1626295118.131667,-83.984,-8.789,-7.324,-108.887,1.0
1626295118.135573,-175.293,-67.87100000000001,-25.879,-212.891,1.0
1626295118.139479,-116.211,0.977,-25.391,-157.227,1.0
1626295118.1433854,-19.043,6.348,-25.391,47.363,1.0
1626295118.1472914,24.414,-25.391,-43.945,98.633,1.0
1626295118.151198,-46.875,-92.773,-36.621,-74.707,1.0
1626295118.1551042,-94.727,-49.316,-4.883,-159.18,1.0
1626295118.1590104,-34.668,-27.831999999999997,8.301,1.465,1.0
1626295118.1629167,25.879,-12.207,5.859,111.32799999999999,1.0
1626295118.166823,-37.109,-87.402,-19.531,-46.875,1.0
1626295118.1707292,-102.539,-107.91,-38.574,-171.875,1.0
1626295118.1746354,-34.18,-19.531,-20.02,-22.461,1.0
1626295118.1785414,41.992,17.578,-7.324,130.371,1.0
1626295118.182448,-11.719000000000001,-5.371,-31.25,12.695,1.0
1626295118.1863542,-112.79299999999999,-121.58200000000001,-50.293,1.0,1.0
1626295118.1902604,-82.031,-74.219,-32.227,1.0,1.0
1626295118.1941667,25.391,-9.766,-31.25,1.0,1.0
1626295118.198073,41.992,-13.184000000000001,-35.645,1.0,1.0
1626295118.2019792,-57.129,-46.387,-47.363,1.0,1.0
1626295118.2058854,-85.93799999999999,-107.42200000000001,-35.156,1.0,1.0
1626295118.2097917,19.531,-15.625,2.93,1.0,1.0
1626295118.213698,42.48,14.16,-14.16,1.0,1.0
1626295118.2176042,-46.875,-22.461,-40.527,1.0,1.0
1626295118.2215104,-90.33200000000001,-77.637,-44.434,1.0,1.0
1626295118.225417,-31.738000000000003,-112.305,-33.203,1.0,1.0
1626295118.229323,39.062,-24.414,-13.672,1.0,1.0
1626295118.233229,-1.465,-11.23,-12.695,-9.766,1.0
1626295118.2371356,-70.801,-8.789,-20.508000000000003,-148.92600000000002,1.0
1626295118.2410414,-15.625,-20.508000000000003,-38.086,-30.273000000000003,1.0
1626295118.2449477,60.547,-55.663999999999994,-35.645,127.441,1.0
1626295118.248854,-3.906,-11.23,-27.831999999999997,14.648,1.0
1626295118.2527602,-90.33200000000001,-20.02,-22.949,-149.90200000000002,1.0
1626295118.256667,-70.801,-30.761999999999997,-7.812,-85.449,1.0
1626295118.260573,-7.812,-94.727,-23.438000000000002,64.453,1.0
1626295118.2644792,9.277000000000001,-83.49600000000001,-41.016000000000005,57.129,1.0
1626295118.2683854,-62.012,-18.066,-51.27,-112.79299999999999,1.0
1626295118.2722914,-100.586,-15.625,-44.434,-151.36700000000002,1.0
1626295118.276198,-1.953,7.324,-8.789,48.828,1.0
1626295118.2801042,-2.93,10.742,-12.695,51.27,1.0
1626295118.2840102,23.926,12.207,-2.93,76.172,1.0
1626295118.2879167,-66.895,-54.688,-17.09,-111.816,1.0
1626295118.291823,-106.445,-84.473,-32.715,-166.016,1.0
1626295118.2957292,-6.348,-5.859,-17.578,33.203,1.0
1626295118.2996354,49.316,-7.324,-13.184000000000001,124.512,1.0
1626295118.3035417,-23.438000000000002,-33.691,-42.968999999999994,-45.41,1.0
1626295118.307448,-113.77,-89.844,-63.477,-189.453,1.0
1626295118.3113542,-62.988,-58.105,-34.18,-53.223,1.0
1626295118.3152604,40.039,3.418,-14.16,115.234,1.0
1626295118.3191667,9.766,-0.977,-26.855,17.578,1.0
1626295118.323073,-82.031,-2.93,-29.296999999999997,-156.25,1.0
1626295118.3269792,-63.965,12.695,-7.812,-101.074,1.0
1626295118.3308856,-33.203,13.672,0.488,83.008,1.0
1626295118.3347917,14.648,-24.901999999999997,-29.296999999999997,57.129,1.0
1626295118.338698,-23.926,-81.543,-41.992,-105.95700000000001,1.0
1626295118.3426042,-104.98,-54.199,-34.668,-93.262,1.0
1626295118.3465104,-78.125,-21.484,-18.555,55.176,1.0
1626295118.3504167,22.461,22.461,-24.901999999999997,47.852,1.0
1626295118.354323,23.926,-34.668,-36.621,-122.07,1.0
1626295118.358229,-72.266,-56.641000000000005,-26.366999999999997,-181.15200000000002,1.0
1626295118.3621356,-95.215,-5.371,-18.555,-13.672,1.0
1626295118.3660414,-9.277000000000001,8.789,-15.625,102.539,1.0
1626295118.3699481,45.898,0.0,-12.695,-22.949,1.0
1626295118.373854,-35.156,-122.559,-37.109,1.0,1.0
1626295118.3777602,-109.863,-89.844,-47.363,1.0,1.0
1626295118.381667,-34.18,-6.836,-21.484,1.0,1.0
1626295118.385573,44.922,-8.789,-8.301,1.0,1.0
1626295118.389479,-16.602,-27.344,-20.508000000000003,1.0,1.0
1626295118.3933854,-107.91,-55.663999999999994,-29.785,1.0,1.0
1626295118.3972914,-61.523,-15.137,-31.738000000000003,1.0,1.0
1626295118.401198,38.574,-15.137,-19.531,1.0,1.0
1626295118.4051042,29.785,4.395,-4.395,1.0,1.0
1626295118.4090104,-73.242,-24.414,-25.879,1.0,1.0
1626295118.4129167,-88.37899999999999,-107.91,-46.387,1.0,1.0
1626295118.416823,16.113,-40.527,-30.761999999999997,1.0,1.0
1626295118.4207292,33.691,0.0,-27.831999999999997,85.93799999999999,1.0
1626295118.4246354,-59.57,-10.254000000000001,-30.761999999999997,-114.258,1.0
1626295118.4285414,-110.352,-60.059,-40.527,-170.41,1.0
1626295118.432448,-35.156,-60.547,-33.691,10.254000000000001,1.0
1626295118.4363542,34.18,23.438000000000002,-13.672,99.609,1.0
1626295118.4402604,-38.086,9.766,-26.366999999999997,-68.359,1.0
1626295118.4441667,-103.027,-17.578,-28.809,-174.805,1.0
1626295118.448073,-25.879,-84.961,-28.32,-15.625,1.0
1626295118.4519792,55.176,-75.195,-36.621,122.07,1.0
1626295118.4558854,1.953,-15.137,-30.273000000000003,-1.465,1.0
1626295118.4597917,-92.773,-32.227,-27.344,-167.48,1.0
1626295118.463698,-67.87100000000001,-34.18,-22.949,-81.055,1.0
1626295118.4676042,-27.344,13.184000000000001,-20.02,-28.32,1.0
1626295118.4715104,62.988,19.531,-23.438000000000002,126.465,1.0
1626295118.475417,21.484,-19.531,-26.855,18.555,1.0
1626295118.479323,-69.824,-62.5,-10.742,-152.832,1.0
1626295118.483229,-61.035,-17.578,-18.555,-74.707,1.0
1626295118.4871356,14.16,-5.859,-34.18,88.37899999999999,1.0
1626295118.4910414,22.949,-3.906,-20.996,52.733999999999995,1.0
1626295118.4949477,-72.75399999999999,-79.59,-28.809,-141.602,1.0
1626295118.498854,-97.656,-83.984,-53.711000000000006,-147.94899999999998,1.0
1626295118.5027602,1.465,-4.883,-32.227,60.547,1.0
1626295118.506667,45.898,17.09,-9.766,106.934,1.0
1626295118.510573,-33.203,12.695,-31.738000000000003,-76.172,1.0
1626295118.5144792,-70.801,-91.309,-44.434,1.0,1.0
1626295118.5183854,1.465,-44.434,-22.949,1.0,1.0
1626295118.5222914,44.434,20.02,-20.02,1.0,1.0
1626295118.526198,-38.574,2.441,-45.898,1.0,1.0
1626295118.5301042,-118.652,-43.945,-57.129,1.0,1.0
1626295118.5340102,-49.316,-111.816,-26.855,1.0,1.0
1626295118.5379167,41.016000000000005,-32.715,-2.441,1.0,1.0
1626295118.541823,3.418,-17.09,-20.02,1.0,1.0
1626295118.5457292,-79.102,-15.625,-46.387,1.0,1.0
1626295118.5496354,-50.293,3.906,-41.992,1.0,1.0
1626295118.5535417,43.945,-26.855,0.977,1.0,1.0
1626295118.557448,22.461,3.906,-19.043,1.0,1.0
1626295118.5613542,-67.383,-1.465,-47.852,1.0,1.0
1626295118.5652604,-89.355,-8.789,-34.18,1.0,1.0
1626295118.5691667,7.812,-26.366999999999997,-8.789,1.0,1.0
1626295118.573073,57.617,-72.266,-0.488,1.0,1.0
1626295118.5769792,-32.227,-61.523,-31.738000000000003,1.0,1.0
1626295118.5808856,-86.426,-20.02,-44.434,1.0,1.0
1626295118.5847917,-2.441,41.992,-12.695,1.0,1.0
1626295118.588698,62.012,-14.648,-5.859,1.0,1.0
1626295118.5926042,-12.695,-41.016000000000005,-26.855,1.0,1.0
1626295118.5965104,-103.516,-4.883,-39.551,1.0,1.0
1626295118.6004167,-55.176,6.348,-39.551,1.0,1.0
1626295118.604323,41.016000000000005,15.137,-15.625,1.0,1.0
1626295118.608229,11.23,-120.605,-26.855,1.0,1.0
1626295118.6121356,-94.238,-91.79700000000001,-49.316,1.0,1.0
1626295118.6160414,-87.402,0.488,-42.968999999999994,1.0,1.0
1626295118.6199481,20.02,12.207,-27.831999999999997,1.0,1.0
1626295118.623854,46.387,-16.602,-27.344,1.0,1.0
1626295118.6277602,-43.945,-110.352,-38.086,1.0,1.0
1626295118.631667,-94.238,-31.738000000000003,-29.785,1.0,1.0
1626295118.635573,-18.555,27.344,-24.901999999999997,1.0,1.0
1626295118.639479,30.761999999999997,10.254000000000001,-37.109,1.0,1.0
1626295118.6433854,-30.273000000000003,-34.668,-40.527,1.0,1.0
1626295118.6472914,-89.844,-100.586,-26.855,1.0,1.0
1626295118.651198,-45.41,-28.32,-20.508000000000003,1.0,1.0
1626295118.6551042,22.949,7.324,-15.137,91.79700000000001,1.0
1626295118.6590104,-17.09,-5.371,-23.438000000000002,-26.366999999999997,1.0
1626295118.6629167,-93.262,-53.223,-31.25,-178.71099999999998,1.0
1626295118.666823,-57.617,-81.055,-17.578,-76.66,1.0
1626295118.6707292,28.809,-4.395,-20.02,95.70299999999999,1.0
1626295118.6746354,23.438000000000002,17.09,-36.621,49.805,1.0
1626295118.6785414,-69.824,14.648,-45.41,-138.672,1.0
1626295118.682448,-83.008,-81.543,-31.25,-125.488,1.0
1626295118.6863542,15.625,-89.844,-10.742,79.102,1.0
1626295118.6902604,28.32,-18.555,-47.852,70.801,1.0
1626295118.6941667,-66.895,-19.531,-62.012,-131.34799999999998,1.0
1626295118.698073,-89.844,-5.859,-30.761999999999997,-152.344,1.0
1626295118.7019792,-90.33200000000001,-13.672,-40.039,39.551,1.0
1626295118.7058854,-16.113,-19.531,-36.133,116.211,1.0
1626295118.7097917,24.414,-25.879,-32.227,-46.875,1.0
1626295118.713698,-28.32,-35.645,-32.715,-164.551,1.0
1626295118.7176042,-82.031,4.883,-39.551,-41.504,1.0
1626295118.7215104,-20.02,16.602,-37.109,98.145,1.0
1626295118.725417,46.387,9.766,-23.438000000000002,-10.742,1.0
1626295118.729323,-27.831999999999997,-71.289,-42.48,-194.33599999999998,1.0
1626295118.733229,-110.84,-85.93799999999999,-52.246,-94.238,1.0
1626295118.7371356,-62.988,-20.996,-31.738000000000003,109.863,1.0
1626295118.7410414,21.484,7.324,-15.625,45.898,1.0
1626295118.7449477,12.207,10.254000000000001,-15.625,-146.484,1.0
1626295118.748854,-77.148,-105.469,-30.761999999999997,1.0,1.0
1626295118.7527602,-77.148,-70.801,-37.109,1.0,1.0
1626295118.756667,23.926,7.324,-21.484,1.0,1.0
1626295118.760573,31.738000000000003,19.531,-20.02,1.0,1.0
1626295118.7644792,-76.172,-29.785,-37.598,1.0,1.0
1626295118.7683854,-107.42200000000001,-129.395,-44.922,1.0,1.0
1626295118.7722914,-6.836,-35.645,-37.598,1.0,1.0
1626295118.776198,50.781000000000006,15.625,-42.968999999999994,1.0,1.0
1626295118.7801042,-33.203,-24.901999999999997,-38.086,1.0,1.0
1626295118.7840102,-108.398,-47.363,-27.344,1.0,1.0
1626295118.7879167,-35.645,-54.199,-28.32,1.0,1.0
1626295118.791823,36.621,9.277000000000001,-26.366999999999997,1.0,1.0
1626295118.7957292,-15.137,8.301,-36.133,-34.18,1.0
1626295118.7996354,-86.426,-17.09,-45.898,-175.293,1.0
1626295118.8035417,-48.34,-49.805,-35.645,-59.57,1.0
1626295118.807448,47.363,-42.48,-9.277000000000001,114.258,1.0
1626295118.8113542,21.484,20.02,-18.555,36.621,1.0
1626295118.8152604,-73.242,11.23,-55.176,-142.578,1.0
1626295118.8191667,-70.801,-2.93,-51.758,-100.586,1.0
1626295118.823073,7.812,-75.195,-35.645,78.125,1.0
1626295118.8269792,24.414,-65.918,-14.16,79.59,1.0
1626295118.8308856,-72.266,-7.812,-34.18,-114.258,1.0
1626295118.8347917,-112.79299999999999,-4.883,-54.688,-154.297,1.0
1626295118.838698,-23.926,2.93,-33.203,37.109,1.0
1626295118.8426042,0.977,11.719000000000001,-48.34,52.246,1.0
1626295118.8465104,38.574,14.648,-20.996,81.543,1.0
1626295118.8504167,-34.668,-36.621,-24.414,-101.074,1.0
1626295118.854323,-91.309,-86.426,-69.824,-169.43400000000003,1.0
1626295118.858229,-14.16,-8.301,-46.875,18.066,1.0
1626295118.8621356,51.27,0.0,2.93,110.84,1.0
1626295118.8660414,-31.25,-28.809,-14.16,-71.777,1.0
1626295118.8699481,-119.141,-110.84,-48.34,-203.613,1.0
1626295118.873854,-37.109,-69.336,-24.414,-37.598,1.0
1626295118.8777602,39.551,23.438000000000002,-7.324,109.375,1.0
1626295118.881667,-36.133,7.812,-46.387,-37.109,1.0
1626295118.885573,-114.74600000000001,-9.766,-52.733999999999995,-195.312,1.0
1626295118.889479,-99.609,-19.531,-39.062,-94.238,1.0
1626295118.8933854,-46.387,14.648,-22.461,94.238,1.0
1626295118.8972914,32.227,-12.207,-16.602,45.898,1.0
1626295118.901198,7.324,-45.41,-13.184000000000001,-135.254,1.0
1626295118.9051042,-83.49600000000001,-4.883,-24.901999999999997,-127.93,1.0
1626295118.9090104,-80.566,-17.09,-20.02,56.641000000000005,1.0
1626295118.9129167,23.438000000000002,-0.488,-6.348,80.566,1.0
1626295118.916823,31.738000000000003,-48.34,-30.273000000000003,-112.79299999999999,1.0
1626295118.9207292,-75.684,-70.312,-46.387,-174.31599999999997,1.0
1626295118.9246354,-101.074,-0.488,-31.738000000000003,5.859,1.0
1626295118.9285414,-3.906,16.113,-27.344,108.398,1.0
1626295118.932448,32.715,-12.207,-26.366999999999997,-36.621,1.0
1626295118.9363542,-56.641000000000005,-124.512,-16.113,-73.242,1.0
1626295118.9402604,-110.352,-81.543,-23.926,-164.062,1.0
1626295118.9441667,-31.738000000000003,2.441,-16.602,0.488,1.0
1626295118.948073,36.621,20.508000000000003,-16.602,118.652,1.0
1626295118.9519792,-27.344,-8.301,-45.898,-18.555,1.0
1626295118.9558854,-119.62899999999999,-108.398,-59.57,-178.71099999999998,1.0
1626295118.9597917,-81.543,-49.316,-52.733999999999995,-77.148,1.0
1626295118.963698,32.227,22.461,-16.602,116.699,1.0
1626295118.9676042,27.831999999999997,16.113,-1.465,57.617,1.0
1626295118.9715104,-74.219,-26.366999999999997,-15.625,-141.113,1.0
1626295118.975417,-79.59,-88.37899999999999,-19.043,-117.676,1.0
1626295118.979323,12.207,-21.484,-19.043,76.172,1.0
1626295118.983229,28.32,33.203,-21.973000000000003,74.707,1.0
1626295118.9871356,-56.152,26.366999999999997,-30.273000000000003,-118.164,1.0
1626295118.9910414,-94.727,-34.668,-43.457,-158.203,1.0
1626295118.9949477,-24.901999999999997,-79.59,-57.617,17.09,1.0
1626295118.998854,18.555,-4.883,-45.41,73.73,1.0
1626295119.0027602,-46.387,7.324,-35.645,-80.078,1.0
1626295119.006667,-104.00399999999999,-12.695,-31.738000000000003,-172.363,1.0
1626295119.010573,-40.039,-79.102,-22.461,-24.901999999999997,1.0
1626295119.0144792,53.223,-83.49600000000001,-21.484,125.488,1.0
1626295119.0183854,25.391,-12.207,-21.484,6.836,1.0
1626295119.0222914,-75.195,-10.254000000000001,-27.831999999999997,-163.57399999999998,1.0
1626295119.026198,-68.359,-24.414,-25.879,-81.543,1.0
1626295119.0301042,-41.992,-3.418,-47.852,-40.039,1.0
1626295119.0340102,42.968999999999994,9.766,-8.789,116.211,1.0
1626295119.0379167,0.488,-20.996,-24.901999999999997,4.395,1.0
1626295119.041823,-98.145,-57.617,-52.733999999999995,-179.688,1.0
1626295119.0457292,-64.941,-13.672,-13.672,-93.262,1.0
1626295119.0496354,22.461,9.766,-3.906,84.961,1.0
1626295119.0535417,12.695,11.23,-30.761999999999997,45.41,1.0
1626295119.057448,-78.125,-49.316,-48.34,-148.438,1.0
1626295119.0613542,-85.449,-28.32,-44.434,-144.043,1.0
1626295119.0652604,19.043,31.738000000000003,-16.602,65.918,1.0
1626295119.0691667,52.733999999999995,13.672,-5.371,107.91,1.0
1626295119.073073,-47.852,-38.086,-30.273000000000003,-94.727,1.0
1626295119.0769792,-120.117,-134.27700000000002,-51.27,1.0,1.0
1626295119.0808856,-38.086,-66.895,-39.062,1.0,1.0
1626295119.0847917,56.152,1.953,-29.785,1.0,1.0
1626295119.088698,0.0,-18.066,-44.922,1.0,1.0
1626295119.0926042,-102.051,-44.922,-47.363,1.0,1.0
1626295119.0965104,-64.453,-114.258,-41.504,1.0,1.0
1626295119.1004167,43.945,-19.531,-29.785,1.0,1.0
1626295119.104323,4.395,11.719000000000001,-32.715,1.0,1.0
1626295119.108229,-110.84,-26.855,-52.733999999999995,1.0,1.0
1626295119.1121356,-83.984,-29.296999999999997,-39.062,1.0,1.0
1626295119.1160414,16.113,-64.453,-20.508000000000003,1.0,1.0
1626295119.1199481,11.23,-44.434,-25.879,1.0,1.0
1626295119.123854,-76.172,-32.715,-47.852,1.0,1.0
1626295119.1277602,-90.33200000000001,-11.23,-39.062,1.0,1.0
1626295119.131667,-13.672,-15.137,-20.996,1.0,1.0
1626295119.135573,25.391,-32.227,-28.32,1.0,1.0
1626295119.139479,-45.41,2.93,-25.879,1.0,1.0
1626295119.1433854,-100.098,-11.23,-21.973000000000003,1.0,1.0
1626295119.1472914,-24.414,-18.066,-14.16,1.0,1.0
1626295119.151198,47.852,-63.477,-12.695,1.0,1.0
1626295119.1551042,-13.672,-89.355,-37.598,1.0,1.0
1626295119.1590104,-92.773,-59.082,-57.617,1.0,1.0
1626295119.1629167,-51.758,-25.879,-55.663999999999994,1.0,1.0
1626295119.166823,23.926,11.719000000000001,-32.227,1.0,1.0
1626295119.1707292,-4.883,-56.152,-12.695,1.0,1.0
1626295119.1746354,-96.68,-52.246,-24.414,1.0,1.0
1626295119.1785414,-80.078,-22.949,-28.809,1.0,1.0
1626295119.182448,32.715,-11.23,5.371,1.0,1.0
1626295119.1863542,29.296999999999997,-9.766,-1.953,1.0,1.0
1626295119.1902604,-73.73,-95.70299999999999,-35.645,1.0,1.0
1626295119.1941667,-72.75399999999999,-51.758,-35.156,1.0,1.0
1626295119.198073,20.996,19.531,-19.531,1.0,1.0
1626295119.2019792,44.434,16.602,-24.414,1.0,1.0
1626295119.2058854,-33.691,-30.273000000000003,-37.598,1.0,1.0
1626295119.2097917,-107.42200000000001,-69.336,-37.109,1.0,1.0
1626295119.213698,-55.176,-4.395,-42.48,1.0,1.0
1626295119.2176042,41.504,19.043,-25.391,109.863,1.0
1626295119.2215104,-4.883,-23.926,-20.996,-18.555,1.0
1626295119.225417,-100.098,-64.941,-33.691,-193.359,1.0
1626295119.229323,-57.617,-62.988,-28.32,-89.844,1.0
1626295119.233229,40.527,-9.766,-33.691,92.285,1.0
1626295119.2371356,24.901999999999997,5.371,-26.855,38.086,1.0
1626295119.2410414,-81.055,2.441,-41.016000000000005,-153.809,1.0
1626295119.2449477,-91.79700000000001,-60.547,-42.968999999999994,-139.648,1.0
1626295119.248854,-2.93,-65.43,-42.968999999999994,51.758,1.0
1626295119.2527602,17.578,-10.254000000000001,-59.57,67.383,1.0
1626295119.256667,-57.129,-26.855,-27.831999999999997,-111.32799999999999,1.0
1626295119.260573,-98.633,-29.785,-14.16,-158.203,1.0
1626295119.2644792,-78.125,-8.301,-20.996,-117.18799999999999,1.0
1626295119.2683854,0.488,-5.859,-21.973000000000003,62.988,1.0
1626295119.2722914,41.992,-22.949,-49.316,98.145,1.0
1626295119.276198,-29.296999999999997,-68.848,-62.988,-77.637,1.0
1626295119.2801042,-89.355,-58.593999999999994,-35.156,-151.855,1.0
1626295119.2840102,-23.438000000000002,-15.137,-8.789,20.02,1.0
1626295119.2879167,43.945,28.809,5.371,122.07,1.0
1626295119.291823,-18.066,-51.758,-16.602,-34.18,1.0
1626295119.2957292,-89.355,-72.75399999999999,-33.691,-163.57399999999998,1.0
1626295119.2996354,-49.316,-18.555,-24.901999999999997,-47.852,1.0
1626295119.3035417,14.16,-3.418,-31.738000000000003,96.68,1.0
1626295119.307448,-14.648,-5.371,-47.852,1.465,1.0
1626295119.3113542,-92.285,-102.539,-47.852,1.0,1.0
1626295119.3152604,-84.961,-70.801,-38.086,1.0,1.0
1626295119.3191667,9.766,-40.039,-34.668,1.0,1.0
1626295119.323073,32.715,-43.945,-13.672,1.0,1.0
1626295119.3269792,-55.176,-23.438000000000002,-4.395,1.0,1.0
1626295119.3308856,-96.191,-86.914,-21.973000000000003,1.0,1.0
1626295119.3347917,-36.133,-38.574,-38.574,1.0,1.0
1626295119.338698,3.418,-2.93,-53.711000000000006,1.0,1.0
1626295119.3426042,-40.527,-15.625,-61.035,1.0,1.0
1626295119.3465104,-98.145,-32.715,-45.41,1.0,1.0
1626295119.3504167,-38.574,-72.75399999999999,-14.16,1.0,1.0
1626295119.354323,31.25,-16.113,-5.859,1.0,1.0
1626295119.358229,-25.391,-21.484,-30.273000000000003,-42.48,1.0
1626295119.3621356,-86.914,-25.391,-27.831999999999997,-171.875,1.0
1626295119.3660414,-35.156,-30.273000000000003,-8.789,-41.504,1.0
1626295119.3699481,30.761999999999997,-64.941,-21.973000000000003,102.051,1.0
1626295119.373854,-10.742,-13.672,-50.781000000000006,-0.977,1.0
1626295119.3777602,-97.656,8.301,-72.75399999999999,-171.387,1.0
1626295119.381667,-85.449,17.578,-50.781000000000006,-115.723,1.0
1626295119.385573,33.203,-63.477,-11.719000000000001,101.074,1.0
1626295119.389479,62.5,-85.449,-17.09,122.559,1.0
1626295119.3933854,-49.805,-7.812,-46.875,-99.12100000000001,1.0
1626295119.3972914,-95.215,8.301,-49.316,-157.227,1.0
1626295119.401198,3.906,21.973000000000003,-12.207,41.504,1.0
1626295119.4051042,13.184000000000001,-7.324,-32.227,77.148,1.0
1626295119.4090104,28.809,0.0,-15.625,84.961,1.0
1626295119.4129167,-70.312,-15.625,-29.296999999999997,-121.094,1.0
1626295119.416823,-114.74600000000001,-67.383,-44.434,-179.199,1.0
1626295119.4207292,-35.645,-17.578,-46.387,-2.441,1.0
1626295119.4246354,9.277000000000001,6.348,-45.41,81.055,1.0
1626295119.4285414,-62.988,10.254000000000001,-47.363,-84.961,1.0
1626295119.432448,-120.605,-71.777,-42.48,-195.801,1.0
1626295119.4363542,-52.733999999999995,-93.75,-31.738000000000003,-37.598,1.0
1626295119.4402604,42.968999999999994,-8.789,-22.949,128.418,1.0
1626295119.4441667,-5.859,-6.836,-25.879,13.184000000000001,1.0
1626295119.448073,-110.352,-12.207,-41.504,-174.805,1.0
1626295119.4519792,-86.426,-91.309,-45.898,1.0,1.0
1626295119.4558854,14.648,-46.387,-22.461,1.0,1.0
1626295119.4597917,15.137,15.625,-19.531,1.0,1.0
1626295119.463698,-79.59,-1.953,-32.715,1.0,1.0
1626295119.4676042,-86.914,-10.254000000000001,-32.715,1.0,1.0
1626295119.4715104,0.0,-94.238,-29.785,1.0,1.0
1626295119.475417,22.949,-59.082,-27.344,1.0,1.0
1626295119.479323,-43.457,-11.23,-24.414,1.0,1.0
1626295119.483229,-87.891,-8.301,-30.273000000000003,1.0,1.0
1626295119.4871356,-34.668,-27.344,-23.926,1.0,1.0
1626295119.4910414,25.879,-69.824,-22.461,1.0,1.0
1626295119.4949477,-23.438000000000002,-28.809,-36.621,1.0,1.0
1626295119.498854,-103.027,-14.648,-37.109,1.0,1.0
1626295119.5027602,-58.105,-2.441,-24.414,1.0,1.0
1626295119.506667,39.551,-5.859,-26.366999999999997,1.0,1.0
1626295119.510573,14.16,-49.805,-39.551,1.0,1.0
1626295119.5144792,-91.309,-45.41,-48.34,1.0,1.0
1626295119.5183854,-77.637,-7.812,-36.133,1.0,1.0
1626295119.5222914,24.901999999999997,9.766,-17.09,1.0,1.0
1626295119.526198,24.414,-59.082,-20.996,1.0,1.0
1626295119.5301042,-72.75399999999999,-72.75399999999999,-37.598,1.0,1.0
1626295119.5340102,-92.773,-28.809,-37.598,1.0,1.0
1626295119.5379167,-7.324,-2.93,-28.32,1.0,1.0
1626295119.541823,26.366999999999997,6.836,-35.645,1.0,1.0
1626295119.5457292,-42.48,-101.074,-33.691,1.0,1.0
1626295119.5496354,-101.56200000000001,-87.891,-34.668,1.0,1.0
1626295119.5535417,-25.879,-27.831999999999997,-42.968999999999994,1.0,1.0
1626295119.557448,55.663999999999994,-27.831999999999997,-40.039,1.0,1.0
1626295119.5613542,-9.766,-43.945,-35.645,1.0,1.0
1626295119.5652604,-89.844,-118.652,-20.996,1.0,1.0
1626295119.5691667,-62.5,-46.875,-19.043,1.0,1.0
1626295119.573073,24.414,18.555,-11.719000000000001,1.0,1.0
1626295119.5769792,16.113,28.32,-2.441,1.0,1.0
1626295119.5808856,-92.773,-8.789,-34.18,1.0,1.0
1626295119.5847917,-88.867,-83.984,-32.715,1.0,1.0
1626295119.588698,15.625,-20.02,-6.836,1.0,1.0
1626295119.5926042,25.391,10.742,-21.973000000000003,75.684,1.0
1626295119.5965104,-69.336,-25.879,-42.48,-122.559,1.0
1626295119.6004167,-83.984,-73.73,-34.668,-136.23,1.0
1626295119.604323,5.859,-73.73,-27.344,63.965,1.0
1626295119.608229,39.551,10.254000000000001,-28.32,116.211,1.0
1626295119.6121356,-37.598,9.766,-47.363,-62.988,1.0
1626295119.6160414,-118.164,-11.719000000000001,-69.824,-185.05900000000003,1.0
1626295119.6199481,-40.527,-57.617,-24.901999999999997,-16.113,1.0
1626295119.623854,51.758,-66.406,-6.348,127.93,1.0
1626295119.6277602,-8.789,-0.977,-37.598,-23.926,1.0
1626295119.631667,-94.727,-5.371,-29.785,-175.78099999999998,1.0
1626295119.635573,-41.992,-40.527,-16.113,-57.129,1.0
1626295119.639479,-34.18,-12.207,-55.176,-10.254000000000001,1.0
1626295119.6433854,51.27,8.301,-31.25,137.207,1.0
1626295119.6472914,-3.906,-14.648,-24.901999999999997,2.93,1.0
1626295119.651198,-84.473,-70.801,-42.48,-163.57399999999998,1.0
1626295119.6551042,-53.223,-40.527,-27.344,-73.242,1.0
1626295119.6590104,34.18,-0.977,-16.113,113.281,1.0
1626295119.6629167,24.414,27.831999999999997,-24.901999999999997,57.129,1.0
1626295119.666823,-52.733999999999995,-40.527,-19.531,-126.465,1.0
1626295119.6707292,-73.242,-62.012,-32.715,-124.512,1.0
1626295119.6746354,-7.812,7.812,-62.012,39.062,1.0
1626295119.6785414,24.901999999999997,16.602,-54.199,67.87100000000001,1.0
1626295119.682448,-52.733999999999995,-9.277000000000001,-32.715,-117.676,1.0
1626295119.6863542,-93.75,-104.492,-22.949,1.0,1.0
1626295119.6902604,-10.254000000000001,-71.777,-10.254000000000001,1.0,1.0
1626295119.6941667,41.504,-9.277000000000001,-35.156,1.0,1.0
1626295119.698073,-34.668,-15.137,-67.87100000000001,1.0,1.0
1626295119.7019792,-92.773,-20.508000000000003,-33.691,1.0,1.0
1626295119.7058854,-38.086,-76.66,-14.16,1.0,1.0
1626295119.7097917,29.785,-24.901999999999997,-30.273000000000003,1.0,1.0
1626295119.713698,-20.996,-9.766,-60.059,1.0,1.0
1626295119.7176042,-105.95700000000001,-36.133,-60.547,1.0,1.0
1626295119.7215104,-67.87100000000001,-30.273000000000003,-26.855,1.0,1.0
1626295119.725417,33.203,-42.968999999999994,-9.766,1.0,1.0
1626295119.729323,33.203,-4.883,-17.578,1.0,1.0
1626295119.733229,-53.711000000000006,-8.301,-21.973000000000003,1.0,1.0
1626295119.7371356,-81.055,-21.484,-29.785,1.0,1.0
1626295119.7410414,-14.16,-26.855,-51.27,1.0,1.0
1626295119.7449477,30.273000000000003,-44.434,-54.199,1.0,1.0
1626295119.748854,-18.066,-9.277000000000001,-34.18,1.0,1.0
1626295119.7527602,-79.59,-15.137,-35.156,1.0,1.0
1626295119.756667,-28.809,-25.391,-38.086,1.0,1.0
1626295119.760573,61.035,-52.733999999999995,-21.973000000000003,1.0,1.0
1626295119.7644792,-5.371,-51.758,-44.434,1.0,1.0
1626295119.7683854,-122.559,-11.719000000000001,-62.988,1.0,1.0
1626295119.7722914,-84.473,7.324,-43.945,1.0,1.0
1626295119.776198,6.836,2.93,-33.203,1.0,1.0
1626295119.7801042,47.852,-51.27,-22.461,133.30100000000002,1.0
1626295119.7840102,-0.488,-31.738000000000003,-43.457,13.184000000000001,1.0
1626295119.7879167,-113.281,-26.855,-46.387,-159.18,1.0
1626295119.791823,-92.773,-51.758,-26.855,-76.172,1.0
1626295119.7957292,-0.977,-1.465,-26.366999999999997,94.727,1.0
1626295119.7996354,7.324,19.531,-19.531,46.387,1.0
1626295119.8035417,-72.75399999999999,2.441,-22.461,-132.32399999999998,1.0
1626295119.807448,-61.035,-64.453,-10.742,-95.70299999999999,1.0
1626295119.8113542,48.34,-71.289,-0.977,109.863,1.0
1626295119.8152604,46.875,-37.109,-15.137,107.42200000000001,1.0
1626295119.8191667,-56.641000000000005,-19.531,-41.504,-92.773,1.0
1626295119.823073,-97.656,5.859,-65.43,-149.90200000000002,1.0
1626295119.8269792,-87.891,-15.137,-38.086,38.086,1.0
1626295119.8308856,3.418,-1.953,-32.715,121.58200000000001,1.0
1626295119.8347917,41.992,-1.953,-31.738000000000003,-56.641000000000005,1.0
1626295119.838698,-45.41,-61.523,-34.668,-172.852,1.0
1626295119.8426042,-95.70299999999999,-38.086,-27.831999999999997,-8.789,1.0
1626295119.8465104,-24.414,-11.23,-17.09,156.25,1.0
1626295119.8504167,41.504,-7.324,-14.648,3.906,1.0
1626295119.854323,-20.996,-67.383,-29.785,-187.5,1.0
1626295119.858229,-104.98,-64.453,-47.852,-106.445,1.0
1626295119.8621356,-42.968999999999994,2.93,-33.691,75.195,1.0
1626295119.8660414,42.968999999999994,8.301,-27.344,47.363,1.0
1626295119.8699481,4.395,-0.977,-39.551,-149.90200000000002,1.0
1626295119.873854,-83.49600000000001,-76.66,-42.48,1.0,1.0
1626295119.8777602,-69.336,-67.87100000000001,-52.246,1.0,1.0
1626295119.881667,30.273000000000003,-41.504,-38.086,1.0,1.0
1626295119.885573,44.434,-15.625,-26.855,1.0,1.0
1626295119.889479,-38.574,-6.348,-27.344,1.0,1.0
1626295119.8933854,-75.195,-93.75,-11.719000000000001,1.0,1.0
1626295119.8972914,-18.555,-61.035,-22.461,1.0,1.0
1626295119.901198,12.207,-8.301,-33.203,1.0,1.0
1626295119.9051042,-52.246,9.277000000000001,-32.227,1.0,1.0
1626295119.9090104,-103.516,-17.578,-45.898,1.0,1.0
1626295119.9129167,-32.227,-73.242,-41.504,1.0,1.0
1626295119.916823,40.527,-33.203,-10.254000000000001,1.0,1.0
1626295119.9207292,-29.785,-20.02,-23.438000000000002,-21.484,1.0
1626295119.9246354,-120.117,-15.625,-32.227,-179.688,1.0
1626295119.9285414,-64.941,-26.855,-5.859,-55.176,1.0
1626295119.932448,30.761999999999997,-67.383,-1.953,120.605,1.0
1626295119.9363542,-7.812,-26.855,-28.32,27.831999999999997,1.0
1626295119.9402604,-102.051,4.395,-37.109,-149.90200000000002,1.0
1626295119.9441667,-82.52,1.465,-18.066,-87.891,1.0
1626295119.948073,7.812,-47.852,-16.602,102.539,1.0
1626295119.9519792,9.277000000000001,-55.176,-27.831999999999997,80.078,1.0
1626295119.9558854,-72.75399999999999,-22.461,-27.344,-112.305,1.0
1626295119.9597917,-93.75,-26.366999999999997,-20.508000000000003,-137.207,1.0
1626295119.963698,-8.789,-26.366999999999997,-26.855,44.922,1.0
1626295119.9676042,-34.668,-30.273000000000003,-17.09,53.223,1.0
1626295119.9715104,-4.883,-12.695,-14.648,69.824,1.0
1626295119.975417,-75.684,-23.438000000000002,-23.438000000000002,-116.211,1.0
1626295119.979323,-108.398,-60.059,-6.836,-157.227,1.0
1626295119.983229,-37.598,-22.949,-11.23,16.602,1.0
1626295119.9871356,37.109,-5.371,-22.949,110.352,1.0
1626295119.9910414,-12.207,-22.461,-35.645,-42.968999999999994,1.0
1626295119.9949477,-92.285,-71.777,-62.5,-180.176,1.0
1626295119.998854,-59.082,-54.199,-54.199,-68.359,1.0
1626295120.0027602,18.555,9.277000000000001,-26.855,79.59,1.0
1626295120.006667,-12.695,-6.348,-27.831999999999997,-19.043,1.0
1626295120.010573,-100.586,-18.066,-35.645,-186.523,1.0
1626295120.0144792,-60.547,-53.711000000000006,-12.207,1.0,1.0
1626295120.0183854,41.504,-13.184000000000001,3.906,1.0,1.0
1626295120.0222914,29.785,9.766,-9.277000000000001,1.0,1.0
1626295120.026198,-82.52,-32.227,-39.551,1.0,1.0
1626295120.0301042,-102.051,-57.617,-38.574,1.0,1.0
1626295120.0340102,-5.371,-114.258,-23.926,1.0,1.0
1626295120.0379167,15.137,-38.574,-40.527,1.0,1.0
1626295120.041823,-56.641000000000005,12.207,-46.875,1.0,1.0
1626295120.0457292,-98.145,12.695,-36.133,1.0,1.0
1626295120.0496354,-40.039,-0.488,-22.461,1.0,1.0
1626295120.0535417,29.296999999999997,-46.875,-9.277000000000001,1.0,1.0
1626295120.057448,-44.922,-33.203,-41.016000000000005,1.0,1.0
1626295120.0613542,-139.648,-48.34,-72.266,1.0,1.0
1626295120.0652604,-69.824,-28.32,-18.066,1.0,1.0
1626295120.0691667,29.296999999999997,-19.531,22.949,1.0,1.0
1626295120.073073,-13.184000000000001,-39.551,-4.883,1.0,1.0
1626295120.0769792,-89.844,-0.488,-25.879,1.0,1.0
1626295120.0808856,-56.152,16.113,-13.672,1.0,1.0
1626295120.0847917,16.602,5.859,-37.598,1.0,1.0
1626295120.088698,11.23,-47.852,-58.105,1.0,1.0
1626295120.0926042,-66.895,-55.176,-31.738000000000003,1.0,1.0
1626295120.0965104,-79.59,-1.953,-18.066,1.0,1.0
1626295120.1004167,16.113,5.371,-4.883,1.0,1.0
1626295120.104323,59.082,-14.16,-9.766,1.0,1.0
1626295120.108229,-23.438000000000002,-106.934,-30.761999999999997,1.0,1.0
1626295120.1121356,-94.727,-71.777,-51.27,1.0,1.0
1626295120.1160414,-24.414,1.953,-49.805,1.0,1.0
1626295120.1199481,57.129,22.461,-39.551,1.0,1.0
1626295120.123854,17.578,5.371,-27.344,1.0,1.0
1626295120.1277602,-68.848,-106.934,-28.809,1.0,1.0
1626295120.131667,-65.918,-67.87100000000001,-61.523,1.0,1.0
1626295120.135573,16.602,-9.766,-47.852,1.0,1.0
1626295120.139479,4.395,-11.719000000000001,-22.461,1.0,1.0
1626295120.1433854,-79.59,-40.527,-31.738000000000003,1.0,1.0
1626295120.1472914,-57.617,-94.727,-34.668,1.0,1.0
1626295120.151198,33.203,-46.875,-37.109,1.0,1.0
1626295120.1551042,35.645,-16.113,-39.062,80.078,1.0
1626295120.1590104,-57.129,-13.184000000000001,-31.738000000000003,-114.74600000000001,1.0
1626295120.1629167,-79.59,-21.973000000000003,-23.438000000000002,-136.23,1.0
1626295120.166823,20.508000000000003,-41.992,-19.043,64.941,1.0
1626295120.1707292,60.059,-2.441,-33.203,125.488,1.0
1626295120.1746354,-30.273000000000003,-3.418,-55.663999999999994,-66.895,1.0
1626295120.1785414,-85.93799999999999,-0.488,-35.645,-166.50400000000002,1.0
1626295120.182448,-27.344,-78.613,-6.836,-7.324,1.0
1626295120.1863542,33.691,-93.262,-29.785,112.305,1.0
1626295120.1902604,-18.066,-2.93,-64.453,-21.484,1.0
1626295120.1941667,-100.586,-2.93,-53.223,-173.34,1.0
1626295120.198073,-63.965,-17.578,-32.227,-83.008,1.0
1626295120.2019792,-34.668,-14.648,-21.973000000000003,-34.18,1.0
1626295120.2058854,55.663999999999994,-2.93,-20.996,115.234,1.0
1626295120.2097917,7.812,-35.156,-38.086,-7.324,1.0
1626295120.213698,-84.961,-66.895,-29.296999999999997,-167.96900000000002,1.0
1626295120.2176042,-72.266,-23.438000000000002,-27.831999999999997,-95.215,1.0
1626295120.2215104,26.366999999999997,4.395,-27.831999999999997,93.262,1.0
1626295120.225417,48.34,0.488,-11.23,73.242,1.0
1626295120.229323,-47.852,-56.641000000000005,-22.949,-116.699,1.0
1626295120.233229,-92.773,-52.246,-50.781000000000006,-140.625,1.0
1626295120.2371356,-13.184000000000001,-9.277000000000001,-29.296999999999997,41.016000000000005,1.0
1626295120.2410414,25.879,-16.113,-17.578,83.008,1.0
1626295120.2449477,-58.593999999999994,-25.879,-36.133,-107.42200000000001,1.0
1626295120.248854,-90.82,-82.52,-24.414,-152.832,1.0
1626295120.2527602,-8.301,-50.781000000000006,-6.348,35.645,1.0
1626295120.256667,49.805,-8.301,-11.23,125.977,1.0
1626295120.260573,-13.184000000000001,-23.926,-45.41,-35.645,1.0
1626295120.2644792,-94.727,-24.414,-56.152,-165.52700000000002,1.0
1626295120.2683854,-49.316,-54.199,-33.691,-39.062,1.0
1626295120.2722914,33.691,-8.301,-4.395,114.74600000000001,1.0
1626295120.276198,-9.766,-0.977,-5.371,5.859,1.0
1626295120.2801042,-110.84,-32.227,-36.621,-181.15200000000002,1.0
1626295120.2840102,-83.984,-28.32,-28.32,-103.027,1.0
1626295120.2879167,27.831999999999997,-52.246,-16.113,105.95700000000001,1.0
1626295120.291823,19.531,-55.663999999999994,-36.621,71.777,1.0
1626295120.2957292,-82.52,-35.645,-54.688,-132.32399999999998,1.0
1626295120.2996354,-91.79700000000001,6.836,-39.062,-134.27700000000002,1.0
1626295120.3035417,-6.348,-15.625,-14.648,59.57,1.0
1626295120.307448,19.531,-62.988,-19.043,90.82,1.0
1626295120.3113542,-58.593999999999994,-21.973000000000003,-28.809,-99.609,1.0
1626295120.3152604,-104.00399999999999,-6.348,-28.809,-168.457,1.0
1626295120.3191667,-18.555,-20.508000000000003,-21.484,20.508000000000003,1.0
1626295120.323073,50.781000000000006,-49.805,-21.484,133.30100000000002,1.0
1626295120.3269792,-6.836,-55.176,-38.574,-7.812,1.0
1626295120.3308856,-96.191,-35.645,-37.109,-158.691,1.0
1626295120.3347917,-62.5,-20.996,-29.785,-54.199,1.0
1626295120.338698,34.18,-8.301,-22.461,117.676,1.0
1626295120.3426042,63.477,12.695,-5.859,127.93,1.0
1626295120.3465104,10.742,12.695,-20.02,0.488,1.0
1626295120.3504167,-77.148,-7.324,-28.809,-157.227,1.0
1626295120.354323,-31.25,-44.434,-12.207,-53.711000000000006,1.0
1626295120.358229,60.547,9.766,-5.859,119.62899999999999,1.0
1626295120.3621356,19.531,23.926,-35.156,33.691,1.0
1626295120.3660414,-91.79700000000001,-0.488,-64.453,-169.43400000000003,1.0
1626295120.3699481,-84.473,-59.57,-50.293,-127.93,1.0
1626295120.373854,7.324,-77.637,-14.16,67.87100000000001,1.0
1626295120.3777602,34.668,-27.344,3.418,80.078,1.0
1626295120.381667,-42.48,-13.184000000000001,-20.02,-86.426,1.0
1626295120.385573,-90.82,-15.137,-48.34,-140.625,1.0
1626295120.389479,-102.539,-4.883,-52.733999999999995,4.395,1.0
1626295120.3933854,-6.836,-7.324,-34.18,61.523,1.0
1626295120.3972914,5.859,-47.363,-35.156,-92.773,1.0
1626295120.401198,-76.66,-62.012,-54.688,-200.195,1.0
1626295120.4051042,-116.699,-18.555,-67.383,-58.105,1.0
1626295120.4090104,-33.203,-25.391,-46.387,101.56200000000001,1.0
1626295120.4129167,44.434,-35.156,-27.344,-29.296999999999997,1.0
1626295120.416823,-7.324,-50.293,-44.434,-207.52,1.0
1626295120.4207292,-87.891,-38.086,-56.641000000000005,-116.699,1.0
1626295120.4246354,-42.968999999999994,4.395,-50.781000000000006,76.172,1.0
1626295120.4285414,53.711000000000006,9.277000000000001,-35.156,26.855,1.0
1626295120.432448,24.901999999999997,-7.324,-28.32,-179.199,1.0
1626295120.4363542,-70.312,-90.33200000000001,-39.551,1.0,1.0
1626295120.4402604,-47.852,-60.547,-34.668,1.0,1.0
1626295120.4441667,48.34,9.277000000000001,-15.625,1.0,1.0
1626295120.448073,33.203,-10.742,-34.18,1.0,1.0
1626295120.4519792,-66.895,-44.922,-64.453,1.0,1.0
1626295120.4558854,-67.87100000000001,-72.75399999999999,-56.152,1.0,1.0
1626295120.4597917,23.438000000000002,1.465,-38.574,1.0,1.0
1626295120.463698,58.105,22.949,-17.578,1.0,1.0
1626295120.4676042,-32.715,-16.113,-13.184000000000001,1.0,1.0
1626295120.4715104,-97.656,-41.016000000000005,-29.296999999999997,1.0,1.0
1626295120.475417,-13.184000000000001,-50.293,-31.738000000000003,1.0,1.0
1626295120.479323,59.57,17.09,-16.602,1.0,1.0
1626295120.483229,-18.555,-3.906,-31.738000000000003,-33.691,1.0
1626295120.4871356,-114.258,-21.973000000000003,-64.941,-196.77700000000002,1.0
1626295120.4910414,-62.012,-9.277000000000001,-61.523,-63.965,1.0
1626295120.4949477,27.344,-35.156,-19.043,109.375,1.0
1626295120.498854,-13.672,-19.531,6.348,1.953,1.0
1626295120.5027602,-103.027,-13.184000000000001,-21.973000000000003,-179.199,1.0
1626295120.506667,-70.312,-7.324,-16.602,-101.56200000000001,1.0
1626295120.510573,36.133,-35.645,10.254000000000001,109.863,1.0
1626295120.5144792,28.32,-41.016000000000005,-19.531,83.008,1.0
1626295120.5183854,-75.195,-26.855,-33.691,-129.88299999999998,1.0
1626295120.5222914,-104.98,-24.901999999999997,-24.414,-155.273,1.0
1626295120.526198,-9.766,2.93,-21.973000000000003,39.551,1.0
1626295120.5301042,-66.895,-71.289,-12.207,70.312,1.0
1626295120.5340102,45.41,-56.152,0.0,94.727,1.0
1626295120.5379167,37.598,2.93,-14.16,-100.098,1.0
1626295120.541823,-73.73,-3.418,-41.016000000000005,-157.715,1.0
1626295120.5457292,-79.59,-17.09,-40.039,36.133,1.0
1626295120.5496354,19.531,-32.227,-19.043,122.07,1.0
1626295120.5535417,40.527,-11.23,-18.555,-60.059,1.0
1626295120.557448,-49.805,-23.926,-20.508000000000003,-166.50400000000002,1.0
1626295120.5613542,-94.238,-36.621,-25.879,-12.207,1.0
1626295120.5652604,-16.113,-52.733999999999995,-27.831999999999997,126.465,1.0
1626295120.5691667,49.316,-70.801,-21.484,15.625,1.0
1626295120.573073,-24.414,-28.809,-41.992,-164.551,1.0
1626295120.5769792,-99.12100000000001,-28.32,-37.598,1.0,1.0
1626295120.5808856,-35.645,-2.93,-11.23,1.0,1.0
1626295120.5847917,62.988,-4.395,3.418,1.0,1.0
1626295120.588698,16.113,-62.5,-17.578,1.0,1.0
1626295120.5926042,-86.914,-38.574,-45.41,1.0,1.0
1626295120.5965104,-64.453,-5.371,-32.715,1.0,1.0
1626295120.6004167,26.855,-2.93,-33.691,1.0,1.0
1626295120.604323,28.809,-83.984,-43.457,1.0,1.0
1626295120.608229,-56.641000000000005,-87.891,-34.18,1.0,1.0
1626295120.6121356,-83.008,-13.672,-43.945,1.0,1.0
1626295120.6160414,-11.719000000000001,7.812,-45.41,1.0,1.0
1626295120.6199481,22.949,19.043,-16.113,1.0,1.0
1626295120.623854,-48.828,-62.012,-12.207,1.0,1.0
1626295120.6277602,-95.70299999999999,-68.848,-26.366999999999997,1.0,1.0
1626295120.631667,-16.113,-21.484,-26.366999999999997,1.0,1.0
1626295120.635573,54.199,13.184000000000001,-16.602,1.0,1.0
1626295120.639479,-14.16,-17.578,-20.508000000000003,1.0,1.0
1626295120.6433854,-87.402,-120.605,-18.066,1.0,1.0
1626295120.6472914,-42.48,-57.129,-22.949,1.0,1.0
1626295120.651198,47.363,1.465,-33.691,1.0,1.0
1626295120.6551042,26.366999999999997,14.648,-47.852,1.0,1.0
1626295120.6590104,-81.055,-32.227,-39.062,1.0,1.0
1626295120.6629167,-76.172,-108.398,-19.531,1.0,1.0
1626295120.666823,19.043,-29.296999999999997,-20.508000000000003,1.0,1.0
1626295120.6707292,22.949,-12.207,-32.715,65.918,1.0
1626295120.6746354,-69.336,-12.207,-45.41,-128.906,1.0
1626295120.6785414,-99.12100000000001,-5.371,-52.246,-155.762,1.0
1626295120.682448,-17.09,-35.156,-41.504,30.273000000000003,1.0
1626295120.6863542,41.016000000000005,-0.977,-36.133,112.79299999999999,1.0
1626295120.6902604,-24.901999999999997,-2.93,-26.855,-50.781000000000006,1.0
1626295120.6941667,-91.309,5.371,-30.761999999999997,-160.645,1.0
1626295120.698073,-13.184000000000001,-41.016000000000005,-26.366999999999997,8.301,1.0
1626295120.7019792,42.48,-77.637,-22.949,121.094,1.0
1626295120.7058854,-20.02,-29.785,-26.366999999999997,-31.738000000000003,1.0
1626295120.7097917,-102.051,-31.25,-41.992,-182.12900000000002,1.0
1626295120.713698,-77.148,-8.789,-44.922,-89.355,1.0
1626295120.7176042,-77.637,-44.922,-18.555,99.12100000000001,1.0
1626295120.7215104,10.254000000000001,-45.898,-9.277000000000001,40.527,1.0
1626295120.725417,0.488,-27.344,-10.254000000000001,-147.461,1.0
1626295120.729323,-92.285,-49.316,-23.438000000000002,-117.18799999999999,1.0
1626295120.733229,-100.586,-25.391,-46.875,79.102,1.0
1626295120.7371356,-10.254000000000001,-18.555,-33.691,111.816,1.0
1626295120.7410414,-8.789,-17.09,-32.715,-96.68,1.0
1626295120.7449477,-99.609,-48.34,-51.758,-178.22299999999998,1.0
1626295120.748854,-113.77,-58.105,-69.336,4.395,1.0
1626295120.7527602,-25.879,-20.996,-55.663999999999994,99.609,1.0
1626295120.756667,18.066,-21.973000000000003,-17.578,-58.105,1.0
1626295120.760573,-64.453,-30.761999999999997,-25.391,-187.5,1.0
1626295120.7644792,-110.352,-107.42200000000001,-33.203,1.0,1.0
1626295120.7683854,-20.02,-62.988,-14.648,1.0,1.0
1626295120.7722914,30.273000000000003,-0.977,-16.602,1.0,1.0
1626295120.776198,-47.852,-16.113,-42.48,1.0,1.0
1626295120.7801042,-108.398,-29.296999999999997,-42.48,1.0,1.0
1626295120.7840102,-48.828,-101.56200000000001,-25.391,1.0,1.0
1626295120.7879167,39.551,-56.152,-26.855,1.0,1.0
1626295120.791823,-0.488,-16.113,-50.781000000000006,1.0,1.0
1626295120.7957292,-94.727,-5.371,-33.203,1.0,1.0
1626295120.7996354,-78.125,-35.645,-14.16,1.0,1.0
1626295120.8035417,13.672,-87.402,-26.855,1.0,1.0
1626295120.807448,18.555,-17.578,-15.625,1.0,1.0
1626295120.8113542,-63.477,8.789,-10.742,-126.465,1.0
1626295120.8152604,-67.87100000000001,4.395,-13.672,-108.887,1.0
1626295120.8191667,14.16,-18.555,-4.883,78.613,1.0
1626295120.823073,27.831999999999997,-70.801,-27.831999999999997,89.844,1.0
1626295120.8269792,-59.082,-31.25,-51.758,-101.56200000000001,1.0
1626295120.8308856,-90.33200000000001,-18.066,-35.645,-157.227,1.0
1626295120.8347917,4.395,-12.695,-12.695,38.086,1.0
1626295120.838698,56.152,-61.035,-27.344,138.672,1.0
1626295120.8426042,-19.531,-83.984,-52.246,-25.879,1.0
1626295120.8465104,-86.426,-14.16,-35.645,-159.668,1.0
1626295120.8504167,-30.273000000000003,20.02,5.859,-28.809,1.0
1626295120.854323,51.27,30.761999999999997,-5.371,133.30100000000002,1.0
1626295120.858229,41.016000000000005,8.301,-5.371,116.211,1.0
1626295120.8621356,0.488,2.441,-9.277000000000001,-5.371,1.0
1626295120.8660414,-83.49600000000001,-12.207,-32.227,-159.18,1.0
1626295120.8699481,-53.711000000000006,-45.41,-29.785,-63.477,1.0
1626295120.873854,30.273000000000003,-21.973000000000003,-22.949,103.027,1.0
1626295120.8777602,16.113,-34.18,-23.926,43.457,1.0
1626295120.881667,-77.148,-37.109,-40.527,-143.555,1.0
1626295120.885573,-77.148,-62.012,-40.039,-117.676,1.0
1626295120.889479,23.926,-47.852,-4.395,82.52,1.0
1626295120.8933854,30.273000000000003,-1.465,-3.418,82.52,1.0
1626295120.8972914,-75.195,-17.09,-25.879,-120.117,1.0
1626295120.901198,-111.816,-5.859,-42.48,-162.109,1.0
1626295120.9051042,-94.727,1.953,-21.973000000000003,40.039,1.0
1626295120.9090104,15.625,10.742,-1.953,103.516,1.0
1626295120.9129167,29.785,-32.715,-16.113,-75.195,1.0
1626295120.916823,-58.105,-103.027,-22.461,-161.13299999999998,1.0
1626295120.9207292,-78.613,-49.316,-31.25,-20.02,1.0
1626295120.9246354,-4.395,-5.859,-20.508000000000003,104.00399999999999,1.0
1626295120.9285414,19.531,-9.277000000000001,-24.414,-7.324,1.0
1626295120.932448,-64.941,-38.086,-36.621,-171.875,1.0
1626295120.9363542,-128.418,-45.41,-32.715,-83.008,1.0
1626295120.9402604,-56.152,-14.648,-34.668,100.098,1.0
1626295120.9441667,41.992,-9.766,-14.16,36.621,1.0
1626295120.948073,-8.789,-13.672,-11.23,-164.551,1.0
1626295120.9519792,-96.191,-61.035,-22.461,1.0,1.0
1626295120.9558854,-71.777,-45.41,-12.207,1.0,1.0
1626295120.9597917,20.508000000000003,-16.113,-3.418,1.0,1.0
1626295120.963698,27.344,-31.738000000000003,-1.465,1.0,1.0
1626295120.9676042,-67.87100000000001,-33.203,-20.02,1.0,1.0
1626295120.9715104,-72.75399999999999,-60.059,-23.438000000000002,1.0,1.0
1626295120.975417,3.906,-25.391,-13.672,1.0,1.0
1626295120.979323,20.02,2.441,-16.113,1.0,1.0
1626295120.983229,-49.805,-1.953,-26.366999999999997,1.0,1.0
1626295120.9871356,-96.191,-18.555,-27.831999999999997,1.0,1.0
1626295120.9910414,-35.645,-70.312,-25.391,1.0,1.0
1626295120.9949477,44.434,-67.87100000000001,-24.901999999999997,1.0,1.0
1626295120.998854,5.371,-89.355,-26.855,-20.02,1.0
1626295121.0027602,-85.449,-41.992,-25.391,-166.50400000000002,1.0
1626295121.006667,-56.641000000000005,-0.488,-16.113,-56.641000000000005,1.0
1626295121.010573,32.715,-10.742,-15.625,106.445,1.0
1626295121.0144792,0.0,16.602,-21.973000000000003,15.137,1.0
1626295121.0183854,-95.215,-8.789,-41.504,-168.945,1.0
1626295121.0222914,-74.219,-10.742,-48.828,-112.79299999999999,1.0
1626295121.026198,26.366999999999997,-32.227,-20.996,85.449,1.0
1626295121.0301042,43.457,-57.617,-7.324,80.078,1.0
1626295121.0340102,-41.016000000000005,-62.012,-17.09,-105.469,1.0
1626295121.0379167,-71.777,-67.87100000000001,-30.273000000000003,-130.371,1.0
1626295121.041823,7.324,-20.996,-32.227,49.805,1.0
1626295121.0457292,11.719000000000001,4.883,-36.621,57.617,1.0
1626295121.0496354,21.973000000000003,-7.812,-29.785,59.57,1.0
1626295121.0535417,-65.43,-40.527,-35.156,-122.07,1.0
1626295121.057448,-95.215,-64.941,-29.296999999999997,-149.414,1.0
1626295121.0613542,-20.996,-12.695,-37.109,27.344,1.0
1626295121.0652604,32.715,-1.953,-42.968999999999994,103.027,1.0
1626295121.0691667,-23.438000000000002,-15.137,-36.133,-48.34,1.0
1626295121.073073,-91.309,-64.453,-20.02,-157.227,1.0
1626295121.0769792,-56.152,-75.684,-28.32,-38.086,1.0
1626295121.0808856,7.324,-10.254000000000001,-33.691,85.449,1.0
1626295121.0847917,-20.02,-11.23,-28.809,-15.625,1.0
1626295121.088698,-89.355,-20.02,-43.457,-160.156,1.0
1626295121.0926042,-76.66,-46.875,-26.855,1.0,1.0
1626295121.0965104,1.953,-11.719000000000001,-5.371,1.0,1.0
1626295121.1004167,-6.348,10.254000000000001,-37.598,1.0,1.0
1626295121.104323,-97.656,-11.719000000000001,-47.363,1.0,1.0
1626295121.108229,-85.93799999999999,-37.109,-7.324,1.0,1.0
1626295121.1121356,14.16,-96.68,11.719000000000001,1.0,1.0
1626295121.1160414,18.066,-43.945,-22.461,1.0,1.0
1626295121.1199481,-76.66,-6.836,-42.968999999999994,1.0,1.0
1626295121.123854,-111.32799999999999,-2.441,-32.715,1.0,1.0
1626295121.1277602,-26.855,-3.906,-26.855,1.0,1.0
1626295121.131667,51.758,-42.968999999999994,-18.555,1.0,1.0
1626295121.135573,-19.043,-27.831999999999997,-14.16,1.0,1.0
1626295121.139479,-96.191,-15.625,-23.926,-155.273,1.0
1626295121.1433854,-56.152,-4.883,-32.715,-29.785,1.0
1626295121.1472914,22.461,-37.598,-7.812,111.816,1.0
1626295121.151198,-6.348,-70.312,-9.277000000000001,6.836,1.0
1626295121.1551042,-106.445,-38.086,-43.457,-168.945,1.0
1626295121.1590104,-70.312,-4.883,-35.645,-85.93799999999999,1.0
1626295121.1629167,44.922,32.715,-10.254000000000001,112.79299999999999,1.0
1626295121.166823,37.598,-13.184000000000001,-7.812,74.707,1.0
1626295121.1707292,-54.688,-44.922,-32.227,-115.723,1.0
1626295121.1746354,-92.285,-22.949,-59.57,-136.23,1.0
1626295121.1785414,-26.855,-11.23,-50.293,34.18,1.0
1626295121.182448,22.461,-7.324,-28.32,83.984,1.0
1626295121.1863542,-49.805,-93.262,-14.648,1.0,1.0
1626295121.1902604,-104.492,-72.75399999999999,-15.625,1.0,1.0
1626295121.1941667,-30.761999999999997,8.301,-29.296999999999997,1.0,1.0
1626295121.198073,34.18,28.809,-37.598,1.0,1.0
1626295121.2019792,-13.184000000000001,-1.465,-57.129,1.0,1.0
1626295121.2058854,-73.242,-90.33200000000001,-76.66,1.0,1.0
1626295121.2097917,-53.711000000000006,-41.016000000000005,-67.87100000000001,1.0,1.0
1626295121.213698,0.488,3.418,-25.391,1.0,1.0
1626295121.2176042,-25.879,-7.324,-7.324,1.0,1.0
1626295121.2215104,-105.95700000000001,-28.809,-19.531,1.0,1.0
1626295121.225417,-76.66,-61.523,-22.461,1.0,1.0
1626295121.229323,21.973000000000003,-18.555,-21.484,1.0,1.0
1626295121.233229,26.855,-20.996,-36.133,61.035,1.0
1626295121.2371356,-64.453,-11.23,-43.457,-132.32399999999998,1.0
1626295121.2410414,-101.074,-11.719000000000001,-49.805,-163.57399999999998,1.0
1626295121.2449477,-8.301,-30.761999999999997,-50.293,28.809,1.0
1626295121.248854,31.25,-5.859,-41.016000000000005,90.82,1.0
1626295121.2527602,-56.641000000000005,-13.184000000000001,-59.082,-90.33200000000001,1.0
1626295121.256667,-104.492,-11.719000000000001,-57.129,-168.945,1.0
1626295121.260573,-27.344,-47.363,-24.414,4.883,1.0
1626295121.2644792,39.062,-54.688,-17.09,119.62899999999999,1.0
1626295121.2683854,-25.879,-12.207,-50.293,-33.691,1.0
1626295121.2722914,-97.656,-24.901999999999997,-75.195,-174.31599999999997,1.0
1626295121.276198,-43.457,-15.137,-57.129,-49.316,1.0
1626295121.2801042,-41.992,-6.836,-31.25,136.23,1.0
1626295121.2840102,34.18,-2.93,-16.113,47.363,1.0
1626295121.2879167,6.836,-12.207,-22.461,-166.99200000000002,1.0
1626295121.291823,-77.148,-60.059,-59.082,-140.625,1.0
1626295121.2957292,-76.66,-42.968999999999994,-41.992,69.824,1.0
1626295121.2996354,5.859,-30.761999999999997,-8.301,97.16799999999999,1.0
1626295121.3035417,-0.488,-45.41,-25.879,-103.516,1.0
1626295121.307448,-79.102,-70.312,-34.18,-158.203,1.0
1626295121.3113542,-90.33200000000001,-65.43,-33.203,26.855,1.0
1626295121.3152604,-13.184000000000001,-28.32,-32.227,116.699,1.0
1626295121.3191667,23.926,-1.953,-21.973000000000003,-61.523,1.0
1626295121.323073,-50.293,-5.371,-25.879,-184.57,1.0
1626295121.3269792,-82.52,-76.66,-8.301,1.0,1.0
1626295121.3308856,-6.836,-43.457,9.766,1.0,1.0
1626295121.3347917,33.203,-2.93,-7.812,1.0,1.0
1626295121.338698,-38.086,-43.457,-47.852,1.0,1.0
1626295121.3426042,-116.211,-63.477,-71.289,1.0,1.0
1626295121.3465104,-62.5,-74.707,-34.668,1.0,1.0
1626295121.3504167,12.695,-16.113,0.0,1.0,1.0
1626295121.354323,-20.508000000000003,-11.719000000000001,-17.09,1.0,1.0
1626295121.358229,-93.75,-36.133,-25.391,1.0,1.0
1626295121.3621356,-81.055,-44.434,-17.09,1.0,1.0
1626295121.3660414,21.973000000000003,-83.49600000000001,-20.508000000000003,1.0,1.0
1626295121.3699481,24.414,-31.25,-25.879,1.0,1.0
1626295121.373854,-83.49600000000001,-7.324,-35.156,-137.695,1.0
1626295121.3777602,-104.00399999999999,-16.602,-41.016000000000005,-148.92600000000002,1.0
1626295121.381667,-1.953,-32.715,-11.23,51.27,1.0
1626295121.385573,25.879,-76.172,-9.277000000000001,92.285,1.0
1626295121.389479,-75.195,-80.566,-55.663999999999994,-109.863,1.0
1626295121.3933854,-113.281,-35.645,-33.203,-173.34,1.0
1626295121.3972914,-26.855,4.883,8.789,10.742,1.0
1626295121.401198,26.855,-27.831999999999997,-1.953,103.027,1.0
1626295121.4051042,-32.227,-41.992,-28.32,-47.363,1.0
1626295121.4090104,-114.74600000000001,-27.831999999999997,-37.109,-179.688,1.0
1626295121.4129167,-64.941,-19.531,-21.973000000000003,-56.152,1.0
1626295121.416823,34.18,-16.113,-27.831999999999997,109.863,1.0
1626295121.4207292,41.016000000000005,-13.672,-13.672,114.258,1.0
1626295121.4246354,-20.02,-25.879,-31.25,-26.855,1.0
1626295121.4285414,-108.887,-75.195,-48.828,-185.05900000000003,1.0
1626295121.432448,-67.87100000000001,-94.238,-35.156,-76.66,1.0
1626295121.4363542,17.09,-20.996,-32.715,97.656,1.0
1626295121.4402604,-4.395,10.254000000000001,-52.733999999999995,25.391,1.0
1626295121.4441667,-94.238,3.418,-57.129,-152.832,1.0
1626295121.448073,-72.75399999999999,-26.366999999999997,-29.296999999999997,-92.773,1.0
1626295121.4519792,34.18,-42.968999999999994,-5.371,97.16799999999999,1.0
1626295121.4558854,40.527,-45.898,-7.324,87.402,1.0
1626295121.4597917,-53.711000000000006,-39.551,-23.926,-97.656,1.0
1626295121.463698,-92.773,-5.371,-26.855,-141.602,1.0
1626295121.4676042,-10.742,-60.059,-10.742,40.527,1.0
1626295121.4715104,18.555,-60.059,-29.785,85.93799999999999,1.0
1626295121.475417,-56.641000000000005,-29.296999999999997,-55.663999999999994,-83.008,1.0
1626295121.479323,-93.75,-13.672,-32.715,-162.109,1.0
1626295121.483229,-34.18,-14.16,-12.695,-23.438000000000002,1.0
1626295121.4871356,31.738000000000003,-85.449,-21.973000000000003,107.91,1.0
1626295121.4910414,-19.531,-26.855,-35.156,-21.484,1.0
1626295121.4949477,-104.492,-9.277000000000001,-52.246,-190.918,1.0
1626295121.498854,-70.312,-19.531,-50.293,-94.727,1.0
1626295121.5027602,45.41,-2.441,-17.578,114.258,1.0
1626295121.506667,24.901999999999997,-68.359,-12.207,61.035,1.0
1626295121.510573,-99.609,-64.941,-27.344,-159.668,1.0
1626295121.5144792,-97.16799999999999,-21.973000000000003,-13.184000000000001,1.0,1.0
1626295121.5183854,1.465,5.371,-12.207,1.0,1.0
1626295121.5222914,38.086,-8.301,-13.184000000000001,1.0,1.0
1626295121.526198,-39.062,-49.316,-9.277000000000001,1.0,1.0
1626295121.5301042,-100.098,-16.113,-36.133,1.0,1.0
1626295121.5340102,-15.625,-6.348,-36.133,1.0,1.0
1626295121.5379167,46.875,-26.366999999999997,-20.02,1.0,1.0
1626295121.541823,-16.113,-54.199,-20.02,1.0,1.0
1626295121.5457292,-87.891,-42.968999999999994,-20.02,1.0,1.0
1626295121.5496354,-51.27,-20.508000000000003,-22.949,1.0,1.0
1626295121.5535417,23.926,-22.461,-34.18,1.0,1.0
1626295121.557448,-9.766,5.859,-32.715,1.0,1.0
1626295121.5613542,-92.773,-62.988,-34.18,1.0,1.0
1626295121.5652604,-73.242,-58.593999999999994,-26.855,1.0,1.0
1626295121.5691667,25.879,-0.977,-11.719000000000001,1.0,1.0
1626295121.573073,22.461,5.859,-38.574,1.0,1.0
1626295121.5769792,-73.242,-35.156,-40.527,1.0,1.0
1626295121.5808856,-83.49600000000001,-112.79299999999999,-16.113,1.0,1.0
1626295121.5847917,1.465,-58.105,-26.366999999999997,1.0,1.0
1626295121.588698,20.02,-15.137,-35.645,1.0,1.0
1626295121.5926042,-67.383,-12.207,-31.738000000000003,1.0,1.0
1626295121.5965104,-113.77,-18.066,-35.156,1.0,1.0
1626295121.6004167,-28.809,-56.152,-21.484,1.0,1.0
1626295121.604323,40.039,-5.859,-15.137,1.0,1.0
1626295121.608229,-18.066,-8.789,-30.273000000000003,-38.086,1.0
1626295121.6121356,-86.914,-27.344,-29.296999999999997,-170.41,1.0
1626295121.6160414,-29.296999999999997,-20.02,-19.531,-31.738000000000003,1.0
1626295121.6199481,68.359,-50.293,-19.531,142.09,1.0
1626295121.623854,58.593999999999994,-37.598,-20.508000000000003,61.035,1.0
1626295121.6277602,-42.968999999999994,-42.968999999999994,-20.508000000000003,-118.652,1.0
1626295121.631667,-76.66,-26.366999999999997,-43.945,-95.215,1.0
1626295121.635573,-5.371,-32.227,-39.062,65.918,1.0
1626295121.639479,13.184000000000001,-54.199,-29.296999999999997,54.688,1.0
1626295121.6433854,-62.5,-11.23,-37.598,-130.371,1.0
1626295121.6472914,-103.027,-3.906,-35.645,-166.016,1.0
1626295121.651198,-31.25,-1.465,-33.691,16.602,1.0
1626295121.6551042,24.414,0.977,-25.391,84.961,1.0
1626295121.6590104,53.711000000000006,-20.02,-23.438000000000002,99.609,1.0
1626295121.6629167,-36.621,-48.828,-35.645,-99.12100000000001,1.0
1626295121.666823,-70.801,-60.547,-22.949,-131.34799999999998,1.0
1626295121.6707292,0.977,-7.324,-27.831999999999997,46.875,1.0
1626295121.6746354,26.366999999999997,-3.418,-34.668,92.285,1.0
1626295121.6785414,-60.059,-17.09,-33.203,-98.633,1.0
1626295121.682448,-128.418,-30.273000000000003,-33.691,-205.078,1.0
1626295121.6863542,-63.965,-21.484,-27.344,-50.293,1.0
1626295121.6902604,24.414,-11.23,-9.766,95.70299999999999,1.0
1626295121.6941667,-7.812,-23.438000000000002,-9.277000000000001,-11.23,1.0
1626295121.698073,-99.609,-35.645,-36.621,-182.12900000000002,1.0
1626295121.7019792,-62.012,-87.402,-32.227,1.0,1.0
1626295121.7058854,29.296999999999997,-53.223,-34.18,1.0,1.0
1626295121.7097917,-0.488,-20.02,-54.199,1.0,1.0
1626295121.713698,-96.68,-16.113,-50.781000000000006,1.0,1.0
1626295121.7176042,-83.49600000000001,-3.418,-12.695,1.0,1.0
1626295121.7215104,11.719000000000001,-70.312,-6.348,1.0,1.0
1626295121.725417,16.602,-35.156,-31.738000000000003,1.0,1.0
1626295121.729323,-76.66,-2.93,-40.527,1.0,1.0
1626295121.733229,-106.934,-9.766,-34.668,1.0,1.0
1626295121.7371356,-6.836,-23.926,-10.742,1.0,1.0
1626295121.7410414,50.781000000000006,-88.867,-10.254000000000001,1.0,1.0
1626295121.7449477,-31.25,-54.199,-38.574,1.0,1.0
1626295121.748854,-96.191,11.23,-49.805,1.0,1.0
1626295121.7527602,-36.621,38.086,-37.598,1.0,1.0
1626295121.756667,37.109,4.395,-30.761999999999997,1.0,1.0
1626295121.760573,1.953,-56.152,-20.02,1.0,1.0
1626295121.7644792,-90.82,-43.457,-21.973000000000003,1.0,1.0
1626295121.7683854,-90.82,-8.301,-27.344,1.0,1.0
1626295121.7722914,-3.906,7.812,-27.344,1.0,1.0
1626295121.776198,-2.441,-46.387,-25.391,1.0,1.0
1626295121.7801042,-86.914,-91.79700000000001,-17.09,1.0,1.0
1626295121.7840102,-87.891,-46.387,-23.926,1.0,1.0
1626295121.7879167,-9.277000000000001,-4.395,-43.457,1.0,1.0
1626295121.791823,13.184000000000001,17.578,-40.039,1.0,1.0
1626295121.7957292,-69.336,-27.344,-38.574,1.0,1.0
1626295121.7996354,-132.812,-30.761999999999997,-44.434,1.0,1.0
1626295121.8035417,-49.316,-3.906,-24.901999999999997,1.0,1.0
1626295121.807448,27.831999999999997,0.977,-12.207,1.0,1.0
1626295121.8113542,-19.043,-7.324,-20.996,1.0,1.0
1626295121.8152604,-84.473,-68.848,-27.344,1.0,1.0
1626295121.8191667,-51.27,-62.012,-35.645,1.0,1.0
1626295121.823073,27.344,-46.387,-36.621,1.0,1.0
1626295121.8269792,4.395,-33.691,-41.016000000000005,1.0,1.0
1626295121.8308856,-85.449,-37.109,-32.227,1.0,1.0
1626295121.8347917,-81.543,-65.918,-28.32,1.0,1.0
1626295121.838698,0.488,-6.348,-32.715,1.0,1.0
1626295121.8426042,19.043,28.809,-19.531,81.543,1.0
1626295121.8465104,-69.336,-0.488,-20.508000000000003,-116.211,1.0
1626295121.8504167,-115.234,-38.574,-31.738000000000003,-156.738,1.0
1626295121.854323,-27.344,-62.5,-13.184000000000001,27.831999999999997,1.0
1626295121.858229,28.809,-29.785,-10.742,94.238,1.0
1626295121.8621356,-34.18,-1.465,-41.992,-68.848,1.0
1626295121.8660414,-83.49600000000001,-1.465,-39.551,-148.92600000000002,1.0
1626295121.8699481,-18.555,-52.246,-12.207,10.742,1.0
1626295121.873854,40.039,-61.035,-15.625,104.98,1.0
1626295121.8777602,-7.324,2.93,-34.668,-37.109,1.0
1626295121.881667,-80.566,13.184000000000001,-36.621,-166.99200000000002,1.0
1626295121.885573,-57.617,-6.836,-24.901999999999997,-72.75399999999999,1.0
1626295121.889479,-41.504,-4.883,-20.996,90.82,1.0
1626295121.8933854,24.414,-4.395,-17.09,19.531,1.0
1626295121.8972914,-16.113,-11.719000000000001,-20.02,-173.828,1.0
1626295121.901198,-88.37899999999999,-39.551,-20.02,-126.95299999999999,1.0
1626295121.9051042,-52.733999999999995,-25.391,-9.766,72.266,1.0
1626295121.9090104,39.551,-16.602,-1.953,82.031,1.0
1626295121.9129167,30.761999999999997,-11.23,-16.602,-106.445,1.0
1626295121.916823,-72.266,-60.059,-66.895,-146.484,1.0
1626295121.9207292,-88.37899999999999,-55.663999999999994,-66.406,39.551,1.0
1626295121.9246354,15.137,14.648,-9.766,111.816,1.0
1626295121.9285414,23.926,0.0,-7.812,-66.406,1.0
1626295121.932448,-73.73,-15.137,-30.273000000000003,-181.15200000000002,1.0
1626295121.9363542,-86.914,-57.617,-15.625,1.0,1.0
1626295121.9402604,-20.508000000000003,-51.758,-12.207,1.0,1.0
1626295121.9441667,24.901999999999997,-25.391,-20.02,1.0,1.0
1626295121.948073,-27.344,-21.484,-29.785,1.0,1.0
1626295121.9519792,-106.934,-26.855,-27.344,1.0,1.0
1626295121.9558854,-37.109,-57.129,-1.953,1.0,1.0
1626295121.9597917,27.344,-33.203,-19.043,1.0,1.0
1626295121.963698,-26.366999999999997,-24.414,-39.062,1.0,1.0
1626295121.9676042,-106.934,-20.508000000000003,-45.41,1.0,1.0
1626295121.9715104,-88.867,-31.738000000000003,-33.691,1.0,1.0
1626295121.975417,12.695,-62.988,-17.09,1.0,1.0
1626295121.979323,20.02,-28.32,-3.418,1.0,1.0
1626295121.983229,-71.777,-26.366999999999997,-3.418,-123.04700000000001,1.0
1626295121.9871356,-108.398,-34.668,-40.039,-139.648,1.0
1626295121.9910414,-31.25,-58.593999999999994,-57.617,41.992,1.0
1626295121.9949477,16.602,-85.93799999999999,-28.809,87.891,1.0
1626295121.998854,-71.289,-62.5,-26.855,-104.98,1.0
1626295122.0027602,-123.04700000000001,-42.48,-40.039,-181.641,1.0
1626295122.006667,-25.391,10.254000000000001,-22.949,11.719000000000001,1.0
1626295122.010573,44.434,5.859,-31.738000000000003,122.07,1.0
1626295122.0144792,-22.461,-38.086,-64.453,-40.527,1.0
1626295122.0183854,-116.211,-47.363,-61.035,-194.824,1.0
1626295122.0222914,-70.801,-44.922,-31.25,-69.336,1.0
1626295122.026198,36.133,-26.855,-9.277000000000001,100.098,1.0
1626295122.0301042,34.18,14.16,-40.039,110.84,1.0
1626295122.0340102,-15.137,2.441,-48.34,-28.32,1.0
1626295122.0379167,-80.078,-23.438000000000002,-44.922,-163.57399999999998,1.0
1626295122.041823,-48.828,-65.43,-33.203,-67.87100000000001,1.0
1626295122.0457292,26.855,-56.152,-28.32,93.262,1.0
1626295122.0496354,22.949,-20.996,-35.156,37.598,1.0
1626295122.0535417,-65.43,3.418,-37.109,-150.391,1.0
1626295122.057448,-82.031,-24.414,-33.203,-122.559,1.0
1626295122.0613542,-4.395,-41.016000000000005,-34.18,68.359,1.0
1626295122.0652604,10.742,-11.719000000000001,-21.484,63.477,1.0
1626295122.0691667,-70.801,-17.578,-7.812,-123.535,1.0
1626295122.073073,-111.32799999999999,-30.761999999999997,-35.156,-166.016,1.0
1626295122.0769792,-10.254000000000001,-63.477,-27.831999999999997,1.0,1.0
1626295122.0808856,43.457,-46.875,-17.578,1.0,1.0
1626295122.0847917,-39.062,-30.761999999999997,-43.945,1.0,1.0
1626295122.088698,-90.33200000000001,-29.785,-50.293,1.0,1.0
1626295122.0926042,-4.883,5.371,-22.461,1.0,1.0
1626295122.0965104,69.824,-35.156,-14.16,1.0,1.0
1626295122.1004167,-6.836,-28.32,-34.18,1.0,1.0
1626295122.104323,-94.238,-3.906,-41.016000000000005,1.0,1.0
1626295122.108229,-64.453,-10.254000000000001,-27.831999999999997,1.0,1.0
1626295122.1121356,30.761999999999997,-13.672,-4.883,1.0,1.0
1626295122.1160414,40.039,-36.621,-1.465,1.0,1.0
1626295122.1199481,-64.453,-32.227,-24.414,1.0,1.0
1626295122.123854,-80.566,-33.691,-27.831999999999997,1.0,1.0
1626295122.1277602,22.461,-1.953,-22.949,1.0,1.0
1626295122.131667,39.551,-11.23,-20.508000000000003,1.0,1.0
1626295122.135573,-45.41,-48.828,-27.831999999999997,1.0,1.0
1626295122.139479,-83.49600000000001,-14.648,-43.945,1.0,1.0
1626295122.1433854,-29.296999999999997,0.0,-41.992,1.0,1.0
1626295122.1472914,33.691,6.348,-20.02,1.0,1.0
1626295122.151198,-4.883,-24.414,-3.418,1.0,1.0
1626295122.1551042,-85.449,-51.27,-25.391,1.0,1.0
1626295122.1590104,-44.922,-26.366999999999997,-28.32,1.0,1.0
1626295122.1629167,34.668,-32.227,-5.859,1.0,1.0
1626295122.166823,-15.137,-38.574,-21.484,1.0,1.0
1626295122.1707292,-95.70299999999999,-95.70299999999999,-29.785,-165.03900000000002,1.0
1626295122.1746354,-65.43,-59.082,-20.508000000000003,-80.566,1.0
1626295122.1785414,15.625,12.207,-10.742,97.16799999999999,1.0
1626295122.182448,0.0,-4.395,-20.996,52.246,1.0
1626295122.1863542,-89.844,-36.621,-37.598,-137.207,1.0
1626295122.1902604,-96.68,-99.609,-36.133,-127.93,1.0
1626295122.1941667,-11.719000000000001,-57.129,-34.18,54.688,1.0
1626295122.198073,21.973000000000003,-15.625,-33.203,83.984,1.0
1626295122.2019792,-54.199,-18.066,-39.062,-97.656,1.0
1626295122.2058854,-104.00399999999999,-44.434,-44.434,-170.898,1.0
1626295122.2097917,-24.901999999999997,-81.055,-18.555,6.348,1.0
1626295122.213698,36.621,-30.761999999999997,-7.324,108.887,1.0
1626295122.2176042,-34.668,-30.761999999999997,-41.992,-46.875,1.0
1626295122.2215104,-108.887,-25.879,-60.547,-183.105,1.0
1626295122.225417,-49.316,-15.625,-35.156,-51.758,1.0
1626295122.229323,30.273000000000003,-47.852,-16.602,105.469,1.0
1626295122.233229,-6.836,-19.531,-23.926,11.23,1.0
1626295122.2371356,-98.633,-14.16,-43.945,-159.18,1.0
1626295122.2410414,-87.891,-10.254000000000001,-45.41,-101.56200000000001,1.0
1626295122.2449477,22.949,-13.184000000000001,-29.785,100.586,1.0
1626295122.248854,39.551,-36.621,-31.738000000000003,88.37899999999999,1.0
1626295122.2527602,-70.801,-47.852,-58.105,-132.812,1.0
1626295122.256667,-97.656,-36.621,-46.875,-151.855,1.0
1626295122.260573,-6.836,-7.812,-14.16,58.593999999999994,1.0
1626295122.2644792,29.785,28.32,-25.391,82.031,1.0
1626295122.2683854,37.109,16.602,-53.223,76.172,1.0
1626295122.2722914,-62.988,-26.366999999999997,-60.059,-127.441,1.0
1626295122.276198,-106.934,-77.148,-41.992,-169.43400000000003,1.0
1626295122.2801042,-20.996,-20.02,-14.648,22.461,1.0
1626295122.2840102,35.645,3.418,-4.883,96.191,1.0
1626295122.2879167,-20.02,-22.461,-13.184000000000001,-66.406,1.0
1626295122.291823,-91.79700000000001,-44.922,-20.996,-174.805,1.0
1626295122.2957292,-54.688,-30.273000000000003,-31.25,-41.504,1.0
1626295122.2996354,20.996,7.812,-32.227,94.727,1.0
1626295122.3035417,-17.09,-14.16,-34.668,-27.344,1.0
1626295122.307448,-99.12100000000001,-32.227,-43.457,-188.965,1.0
1626295122.3113542,-56.152,-73.242,-42.48,1.0,1.0
1626295122.3152604,50.781000000000006,-46.875,-35.645,1.0,1.0
1626295122.3191667,20.508000000000003,-11.23,-44.922,1.0,1.0
1626295122.323073,-83.008,-18.555,-37.598,1.0,1.0
1626295122.3269792,-74.707,-14.16,-17.578,1.0,1.0
1626295122.3308856,10.742,-63.477,-18.066,1.0,1.0
1626295122.3347917,28.809,-21.484,-15.137,1.0,1.0
1626295122.338698,-52.733999999999995,-1.953,-19.531,1.0,1.0
1626295122.3426042,-96.68,-18.066,-27.831999999999997,1.0,1.0
1626295122.3465104,-24.901999999999997,-36.133,-32.715,1.0,1.0
1626295122.3504167,36.621,-91.79700000000001,-39.062,1.0,1.0
1626295122.354323,-30.761999999999997,-37.598,-47.852,1.0,1.0
1626295122.358229,-83.984,-8.789,-16.602,-155.762,1.0
1626295122.3621356,-13.672,-13.672,8.789,-10.254000000000001,1.0
1626295122.3660414,32.715,-27.831999999999997,-21.973000000000003,102.539,1.0
1626295122.3699481,-20.508000000000003,-51.758,-46.875,-17.578,1.0
1626295122.373854,-95.215,-11.23,-38.086,-174.805,1.0
1626295122.3777602,-66.406,-21.484,-20.996,-89.844,1.0
1626295122.381667,32.715,-3.418,-28.32,108.398,1.0
1626295122.385573,23.926,-19.531,-32.715,64.941,1.0
1626295122.389479,-79.59,-59.57,-24.901999999999997,-144.043,1.0
1626295122.3933854,-75.684,-13.672,-19.043,-128.418,1.0
1626295122.3972914,20.996,9.766,-21.973000000000003,67.383,1.0
1626295122.401198,39.062,-13.672,-22.949,85.93799999999999,1.0
1626295122.4051042,-43.457,-104.00399999999999,-27.831999999999997,-93.75,1.0
1626295122.4090104,-86.426,-73.242,-22.949,-158.203,1.0
1626295122.4129167,-9.766,12.695,-16.113,17.578,1.0
1626295122.416823,50.293,22.461,-25.879,119.62899999999999,1.0
1626295122.4207292,-17.578,-20.02,-30.761999999999997,-41.016000000000005,1.0
1626295122.4246354,-91.79700000000001,-95.215,-34.18,-174.31599999999997,1.0
1626295122.4285414,-51.758,-35.645,-31.738000000000003,-47.363,1.0
1626295122.432448,24.414,-0.977,-27.831999999999997,109.863,1.0
1626295122.4363542,12.695,0.977,-33.691,29.296999999999997,1.0
1626295122.4402604,-80.078,-16.602,-45.898,-148.438,1.0
1626295122.4441667,-81.543,-76.172,-39.062,-100.098,1.0
1626295122.448073,22.949,-21.973000000000003,-15.137,92.773,1.0
1626295122.4519792,41.992,-12.207,-8.789,83.008,1.0
1626295122.4558854,-47.363,-41.992,-13.184000000000001,-107.91,1.0
1626295122.4597917,-83.49600000000001,-49.805,-17.578,-140.137,1.0
1626295122.463698,-3.906,-44.922,-16.602,42.48,1.0
1626295122.4676042,39.062,6.836,-12.207,102.051,1.0
1626295122.4715104,-38.086,2.441,-27.831999999999997,-74.219,1.0
1626295122.475417,-107.42200000000001,-31.25,-39.062,-184.082,1.0
1626295122.479323,-42.48,-54.688,-30.761999999999997,-24.414,1.0
1626295122.483229,28.809,-47.852,-48.828,103.516,1.0
1626295122.4871356,-29.296999999999997,-28.809,-63.477,-40.039,1.0
1626295122.4910414,-109.863,-41.016000000000005,-43.457,-183.105,1.0
1626295122.4949477,-77.637,-16.113,-26.366999999999997,-75.684,1.0
1626295122.498854,-67.87100000000001,-0.488,-43.945,-44.434,1.0
1626295122.5027602,38.086,9.277000000000001,-27.831999999999997,116.699,1.0
1626295122.506667,4.395,-28.809,-18.555,-6.836,1.0
1626295122.510573,-95.70299999999999,-77.148,-33.203,-180.176,1.0
1626295122.5144792,-67.87100000000001,-12.695,-35.156,-80.078,1.0
1626295122.5183854,35.156,18.066,-21.484,117.18799999999999,1.0
1626295122.5222914,30.761999999999997,17.578,-21.973000000000003,66.406,1.0
1626295122.526198,-54.199,-40.527,-26.855,-120.605,1.0
1626295122.5301042,-56.641000000000005,-61.035,-26.855,-98.633,1.0
1626295122.5340102,15.137,-1.465,-32.227,76.172,1.0
1626295122.5379167,28.32,6.836,-31.738000000000003,80.078,1.0
1626295122.541823,-58.593999999999994,-0.977,-38.086,-113.281,1.0
1626295122.5457292,-103.027,-71.289,-34.18,1.0,1.0
1626295122.5496354,-22.949,-66.895,-25.879,1.0,1.0
1626295122.5535417,28.809,0.0,-30.273000000000003,1.0,1.0
1626295122.557448,-31.25,-2.441,-35.645,1.0,1.0
1626295122.5613542,-83.984,-20.508000000000003,-43.457,1.0,1.0
1626295122.5652604,-12.695,-56.641000000000005,-17.578,1.0,1.0
1626295122.5691667,61.035,-16.113,2.93,1.0,1.0
1626295122.573073,3.906,-5.859,-20.508000000000003,1.0,1.0
1626295122.5769792,-97.16799999999999,-27.831999999999997,-37.598,1.0,1.0
1626295122.5808856,-59.57,-34.18,-25.879,1.0,1.0
1626295122.5847917,44.922,-68.359,-15.137,1.0,1.0
1626295122.588698,31.25,-23.926,-15.625,1.0,1.0
1626295122.5926042,-84.961,-12.695,-44.922,-152.832,1.0
1626295122.5965104,-119.141,-15.625,-55.663999999999994,-168.945,1.0
1626295122.6004167,-28.32,-10.742,-36.621,23.926,1.0
1626295122.604323,9.766,-44.922,-34.668,64.453,1.0
1626295122.608229,-71.289,-34.18,-47.852,-120.117,1.0
1626295122.6121356,-109.863,-18.066,-37.109,-180.176,1.0
1626295122.6160414,-15.625,4.883,-14.648,11.719000000000001,1.0
1626295122.6199481,44.922,-20.996,-27.831999999999997,112.305,1.0
1626295122.623854,-30.761999999999997,-57.129,-55.663999999999994,-49.316,1.0
1626295122.6277602,-120.605,-55.663999999999994,-58.593999999999994,-196.28900000000002,1.0
1626295122.631667,-67.87100000000001,-41.992,-18.555,-68.359,1.0
1626295122.635573,27.344,-8.789,-3.906,92.285,1.0
1626295122.639479,36.621,13.672,11.719000000000001,113.77,1.0
1626295122.6433854,-27.831999999999997,-2.93,-3.906,-37.109,1.0
1626295122.6472914,-100.098,-27.831999999999997,-30.273000000000003,-179.199,1.0
1626295122.651198,-53.711000000000006,-22.949,-29.296999999999997,-61.523,1.0
1626295122.6551042,37.109,-1.953,-20.02,115.234,1.0
1626295122.6590104,26.366999999999997,-34.668,-38.086,56.152,1.0
1626295122.6629167,-68.848,-44.434,-39.551,-126.95299999999999,1.0
1626295122.666823,-77.148,-61.035,-15.137,-99.12100000000001,1.0
1626295122.6707292,11.719000000000001,-58.593999999999994,-5.371,83.49600000000001,1.0
1626295122.6746354,33.203,-4.395,-5.371,79.59,1.0
1626295122.6785414,-41.504,8.301,-15.625,-102.539,1.0
1626295122.682448,-59.082,6.348,-14.16,-125.977,1.0
1626295122.6863542,10.254000000000001,-41.992,-7.812,1.0,1.0
1626295122.6902604,50.781000000000006,-7.812,-24.414,1.0,1.0
1626295122.6941667,-23.926,-1.465,-42.48,1.0,1.0
1626295122.698073,-82.52,-38.086,-52.733999999999995,1.0,1.0
1626295122.7019792,0.977,-31.25,-35.645,1.0,1.0
1626295122.7058854,75.684,-74.707,2.441,1.0,1.0
1626295122.7097917,-8.789,-44.434,-9.277000000000001,1.0,1.0
1626295122.713698,-101.56200000000001,-16.602,-29.785,1.0,1.0
1626295122.7176042,-55.176,-5.371,-16.113,1.0,1.0
1626295122.7215104,36.621,-15.625,-7.812,1.0,1.0
1626295122.725417,36.133,-68.359,-15.625,1.0,1.0
1626295122.729323,-46.875,-38.086,-27.344,1.0,1.0
1626295122.733229,-51.758,-26.366999999999997,-24.414,1.0,1.0
1626295122.7371356,39.551,-7.324,-7.324,1.0,1.0
1626295122.7410414,49.316,-17.578,-20.02,1.0,1.0
1626295122.7449477,-42.968999999999994,-89.844,-62.988,1.0,1.0
1626295122.748854,-90.82,-83.49600000000001,-66.406,1.0,1.0
1626295122.7527602,-13.672,-35.156,-34.668,1.0,1.0
1626295122.756667,54.199,16.113,-27.831999999999997,1.0,1.0
1626295122.760573,-20.508000000000003,-7.812,-25.391,1.0,1.0
1626295122.7644792,-115.723,-60.547,-27.831999999999997,1.0,1.0
1626295122.7683854,-73.242,-45.898,-29.296999999999997,1.0,1.0
1626295122.7722914,30.761999999999997,-8.789,-5.371,1.0,1.0
1626295122.776198,-1.953,10.742,-19.531,1.0,1.0
1626295122.7801042,-102.539,-81.055,-41.016000000000005,1.0,1.0
1626295122.7840102,-73.242,-68.359,-29.785,1.0,1.0
1626295122.7879167,29.785,2.441,-22.949,1.0,1.0
1626295122.791823,21.484,-17.578,-24.901999999999997,1.0,1.0
1626295122.7957292,-75.195,-44.434,-37.109,1.0,1.0
1626295122.7996354,-89.844,-100.098,-41.016000000000005,1.0,1.0
1626295122.8035417,-7.324,-42.48,-35.156,1.0,1.0
1626295122.807448,21.484,4.395,-43.457,1.0,1.0
1626295122.8113542,-54.688,-5.859,-38.086,1.0,1.0
1626295122.8152604,-100.586,-20.508000000000003,-27.831999999999997,1.0,1.0
1626295122.8191667,-19.531,-68.848,-19.043,1.0,1.0
1626295122.823073,44.434,-35.156,-18.066,1.0,1.0
1626295122.8269792,-5.371,-19.043,-27.831999999999997,-14.648,1.0
1626295122.8308856,-70.312,-24.414,-27.831999999999997,-145.02,1.0
1626295122.8347917,-22.949,-25.879,-20.996,-23.926,1.0
1626295122.838698,62.012,-19.531,-12.695,136.719,1.0
1626295122.8426042,30.761999999999997,11.23,-32.227,46.875,1.0
1626295122.8465104,-57.129,7.324,-58.593999999999994,-123.535,1.0
1626295122.8504167,-61.523,-2.93,-47.363,-79.102,1.0
1626295122.854323,28.32,-32.227,-10.254000000000001,107.42200000000001,1.0
1626295122.858229,29.296999999999997,-51.27,-5.859,77.637,1.0
1626295122.8621356,-80.078,-18.066,-28.809,-145.02,1.0
1626295122.8660414,-93.262,5.371,-37.598,-149.414,1.0
1626295122.8699481,14.16,13.672,-13.184000000000001,61.523,1.0
1626295122.873854,-2.93,3.906,-8.789,1.0,1.0
1626295122.8777602,20.508000000000003,-3.906,-3.418,1.0,1.0
1626295122.881667,-70.312,-51.758,-23.438000000000002,1.0,1.0
1626295122.885573,-112.79299999999999,-100.098,-42.48,1.0,1.0
1626295122.889479,-15.625,-33.691,-16.602,1.0,1.0
1626295122.8933854,40.039,0.0,-6.348,1.0,1.0
1626295122.8972914,-32.227,-17.09,-34.668,1.0,1.0
1626295122.901198,-93.75,-53.223,-46.387,1.0,1.0
1626295122.9051042,-46.387,-60.059,-45.898,1.0,1.0
1626295122.9090104,16.602,-10.254000000000001,-41.992,1.0,1.0
1626295122.9129167,-30.761999999999997,-20.996,-43.945,1.0,1.0
1626295122.916823,-113.281,-35.645,-40.039,1.0,1.0
1626295122.9207292,-84.473,-70.801,-36.133,1.0,1.0
1626295122.9246354,19.531,-43.457,-25.879,1.0,1.0
1626295122.9285414,22.949,2.441,-26.366999999999997,1.0,1.0
1626295122.932448,-69.824,-9.766,-34.668,1.0,1.0
1626295122.9363542,-84.961,-37.109,-39.062,1.0,1.0
1626295122.9402604,13.184000000000001,-102.539,-28.32,1.0,1.0
1626295122.9441667,49.805,-28.32,-7.324,1.0,1.0
1626295122.948073,-43.945,-4.395,-18.066,1.0,1.0
1626295122.9519792,-96.68,-49.805,-34.668,1.0,1.0
1626295122.9558854,-22.949,-62.5,-34.18,1.0,1.0
1626295122.9597917,36.133,-75.684,-32.715,1.0,1.0
1626295122.963698,-32.715,-10.742,-40.039,1.0,1.0
1626295122.9676042,-110.84,4.395,-51.758,-192.38299999999998,1.0
1626295122.9715104,-45.41,-3.906,-41.016000000000005,-40.527,1.0
1626295122.975417,51.758,-0.977,-12.207,122.559,1.0
1626295122.979323,10.742,-34.668,-9.766,13.672,1.0
1626295122.983229,-81.055,-32.715,-32.227,-156.25,1.0
1626295122.9871356,-55.176,-12.695,-25.879,-77.148,1.0
1626295122.9910414,20.02,-8.301,-17.09,86.426,1.0
1626295122.9949477,8.789,-58.105,-33.203,35.645,1.0
1626295122.998854,-64.941,-76.172,-55.176,-141.602,1.0
1626295123.0027602,-81.543,-20.508000000000003,-43.945,-143.555,1.0
1626295123.006667,1.465,7.812,-20.508000000000003,40.039,1.0
1626295123.010573,38.086,11.719000000000001,-30.273000000000003,85.93799999999999,1.0
1626295123.0144792,16.113,1.465,-1.465,63.965,1.0
1626295123.0183854,-63.965,-19.043,-18.066,-117.18799999999999,1.0
1626295123.0222914,-73.73,-46.875,-15.137,-113.281,1.0
1626295123.026198,23.926,-62.988,0.488,83.008,1.0
1626295123.0301042,53.711000000000006,-10.254000000000001,3.906,121.58200000000001,1.0
1626295123.0340102,-58.593999999999994,-17.578,-20.508000000000003,-87.891,1.0
1626295123.0379167,-118.652,-39.551,-33.691,-182.12900000000002,1.0
1626295123.041823,-22.461,-49.316,-10.254000000000001,6.348,1.0
1626295123.0457292,50.781000000000006,-41.992,-25.879,131.34799999999998,1.0
1626295123.0496354,-25.879,-5.859,-50.781000000000006,-28.809,1.0
1626295123.0535417,-114.74600000000001,-9.277000000000001,-28.809,-189.453,1.0
1626295123.057448,-64.453,-5.859,-5.859,-65.43,1.0
1626295123.0613542,-27.344,0.488,-12.207,123.535,1.0
1626295123.0652604,47.852,-14.648,2.93,50.293,1.0
1626295123.0691667,-25.391,-50.293,-29.296999999999997,-152.832,1.0
1626295123.073073,-114.258,-70.801,-43.457,-126.95299999999999,1.0
1626295123.0769792,-76.172,-18.555,-28.809,65.918,1.0
1626295123.0808856,20.508000000000003,-2.93,-26.366999999999997,58.593999999999994,1.0
1626295123.0847917,12.207,0.488,-47.852,-131.34799999999998,1.0
1626295123.088698,-72.75399999999999,-41.504,-60.547,-156.25,1.0
1626295123.0926042,-72.75399999999999,-69.336,-36.621,31.738000000000003,1.0
1626295123.0965104,11.23,-25.879,0.488,91.309,1.0
1626295123.1004167,27.831999999999997,-14.648,-0.488,-85.93799999999999,1.0
1626295123.104323,-56.641000000000005,0.0,-19.043,-182.12900000000002,1.0
1626295123.108229,-99.12100000000001,-49.805,-29.296999999999997,1.0,1.0
1626295123.1121356,-28.32,-41.992,-34.18,1.0,1.0
1626295123.1160414,22.461,-16.113,-22.461,1.0,1.0
1626295123.1199481,-36.621,-45.41,-21.484,1.0,1.0
1626295123.123854,-94.727,-49.805,-39.062,1.0,1.0
1626295123.1277602,-38.086,-79.102,-50.781000000000006,1.0,1.0
1626295123.131667,28.809,-23.438000000000002,-48.34,1.0,1.0
1626295123.135573,-18.066,24.901999999999997,-46.387,1.0,1.0
1626295123.139479,-98.633,9.277000000000001,-46.875,1.0,1.0
1626295123.1433854,-61.035,-14.16,-21.973000000000003,1.0,1.0
1626295123.1472914,34.18,-38.086,-4.395,1.0,1.0
1626295123.151198,2.441,-9.277000000000001,-29.296999999999997,1.0,1.0
1626295123.1551042,-98.145,-27.831999999999997,-46.875,-166.99200000000002,1.0
1626295123.1590104,-92.773,-29.296999999999997,-41.992,-144.043,1.0
1626295123.1629167,5.859,-20.996,-35.645,51.27,1.0
1626295123.166823,23.926,-62.5,-37.109,75.684,1.0
1626295123.1707292,-52.246,-31.25,-27.344,-101.56200000000001,1.0
1626295123.1746354,-95.215,-26.366999999999997,-28.32,-169.43400000000003,1.0
1626295123.1785414,-24.414,-15.625,-43.945,2.441,1.0
1626295123.182448,25.391,-23.438000000000002,-41.504,101.074,1.0
1626295123.1863542,-39.551,-37.109,-31.738000000000003,-52.246,1.0
1626295123.1902604,-99.12100000000001,-2.441,-23.438000000000002,-174.805,1.0
1626295123.1941667,-44.922,4.883,-13.672,-43.457,1.0
1626295123.198073,40.527,7.324,-26.366999999999997,113.77,1.0
1626295123.2019792,47.363,-1.465,-25.879,120.117,1.0
1626295123.2058854,-40.039,-36.133,-42.48,-50.781000000000006,1.0
1626295123.2097917,-111.816,-44.434,-36.133,-189.94099999999997,1.0
1626295123.213698,-57.129,-56.152,-24.901999999999997,-64.453,1.0
1626295123.2176042,25.879,-11.23,-36.133,91.309,1.0
1626295123.2215104,7.324,-9.766,-45.41,19.043,1.0
1626295123.225417,-80.078,-22.461,-45.898,-154.297,1.0
1626295123.229323,-69.336,-27.831999999999997,-20.996,-104.492,1.0
1626295123.233229,31.738000000000003,-18.555,7.812,99.609,1.0
1626295123.2371356,34.18,0.977,-10.254000000000001,86.426,1.0
1626295123.2410414,-67.87100000000001,-29.296999999999997,-41.992,-121.094,1.0
1626295123.2449477,-86.426,-22.949,-34.18,-148.92600000000002,1.0
1626295123.248854,-3.418,-83.984,-20.508000000000003,1.0,1.0
1626295123.2527602,26.366999999999997,-74.219,-20.508000000000003,1.0,1.0
1626295123.256667,-46.875,-22.461,-33.691,1.0,1.0
1626295123.260573,-105.469,-19.531,-56.152,1.0,1.0
1626295123.2644792,-39.551,-15.137,-39.551,1.0,1.0
1626295123.2683854,47.852,-63.477,-3.906,1.0,1.0
1626295123.2722914,-13.672,-27.344,-15.137,1.0,1.0
1626295123.276198,-111.32799999999999,-26.855,-26.855,1.0,1.0
1626295123.2801042,-68.359,-25.879,-41.504,1.0,1.0
1626295123.2840102,40.527,-8.789,-28.809,1.0,1.0
1626295123.2879167,14.16,-81.543,-12.207,1.0,1.0
1626295123.291823,-92.285,-37.598,-29.785,1.0,1.0
1626295123.2957292,-90.33200000000001,-2.441,-27.344,1.0,1.0
1626295123.2996354,17.09,-16.602,-5.859,1.0,1.0
1626295123.3035417,44.434,-39.062,-5.859,1.0,1.0
1626295123.307448,-56.641000000000005,-63.965,-27.831999999999997,1.0,1.0
1626295123.3113542,-104.00399999999999,-9.766,-43.457,1.0,1.0
1626295123.3152604,-24.414,-4.395,-54.688,1.0,1.0
1626295123.3191667,38.086,-6.836,-51.27,1.0,1.0
1626295123.323073,-14.16,-32.715,-34.18,1.0,1.0
1626295123.3269792,-82.52,-60.059,-10.254000000000001,1.0,1.0
1626295123.3308856,-24.901999999999997,-1.465,12.207,1.0,1.0
1626295123.3347917,42.48,-2.93,4.395,1.0,1.0
1626295123.338698,-29.296999999999997,-29.296999999999997,-36.621,1.0,1.0
1626295123.3426042,-101.56200000000001,-87.891,-37.598,1.0,1.0
1626295123.3465104,-56.641000000000005,-75.684,-27.831999999999997,1.0,1.0
1626295123.3504167,22.949,-11.719000000000001,-25.391,1.0,1.0
1626295123.354323,-2.93,-16.602,-36.133,1.0,1.0
1626295123.358229,-88.867,-26.855,-53.711000000000006,1.0,1.0
1626295123.3621356,-69.824,-76.172,-34.18,1.0,1.0
1626295123.3660414,18.066,-33.691,-24.901999999999997,1.0,1.0
1626295123.3699481,44.922,6.836,-18.066,1.0,1.0
1626295123.373854,-37.598,1.465,-20.996,1.0,1.0
1626295123.3777602,-86.426,-28.32,-17.09,1.0,1.0
1626295123.381667,-20.02,-88.37899999999999,-5.859,1.0,1.0
1626295123.385573,36.621,-25.879,-17.09,1.0,1.0
1626295123.389479,-23.926,-7.324,-36.133,-50.293,1.0
1626295123.3933854,-105.469,-30.273000000000003,-49.805,-177.734,1.0
1626295123.3972914,-52.246,-34.18,-29.785,-46.875,1.0
1626295123.401198,27.831999999999997,-50.293,-32.715,106.445,1.0
1626295123.4051042,-10.742,-16.602,-51.27,-0.488,1.0
1626295123.4090104,-89.355,-23.438000000000002,-39.062,-159.18,1.0
1626295123.4129167,-62.5,-23.926,-26.366999999999997,-78.125,1.0
1626295123.416823,39.551,-20.996,-14.16,108.887,1.0
1626295123.4207292,41.016000000000005,-31.25,-1.465,77.148,1.0
1626295123.4246354,-70.801,-13.672,-18.555,-130.371,1.0
1626295123.4285414,-104.00399999999999,-10.742,-23.926,-152.344,1.0
1626295123.432448,-14.16,-8.301,-19.531,37.109,1.0
1626295123.4363542,15.625,-0.977,-30.761999999999997,99.12100000000001,1.0
1626295123.4402604,20.996,-22.949,-36.621,-84.961,1.0
1626295123.4441667,-65.918,-54.688,-55.176,-171.875,1.0
1626295123.448073,-92.773,-80.078,-48.828,11.719000000000001,1.0
1626295123.4519792,-11.23,-15.137,-41.504,127.93,1.0
1626295123.4558854,37.109,13.672,-43.945,-30.761999999999997,1.0
1626295123.4597917,-32.715,-9.766,-38.574,-168.945,1.0
1626295123.463698,-83.49600000000001,-36.621,-31.738000000000003,-45.898,1.0
1626295123.4676042,-16.113,-23.926,-22.949,109.375,1.0
1626295123.4715104,48.34,22.461,-24.414,22.949,1.0
1626295123.475417,-3.906,3.418,-38.086,-160.645,1.0
1626295123.479323,-89.844,-19.043,-47.363,-122.559,1.0
1626295123.483229,-47.852,-69.824,-32.715,-65.43,1.0
1626295123.4871356,37.598,-59.57,-16.602,104.98,1.0
1626295123.4910414,20.508000000000003,-8.301,-30.761999999999997,29.785,1.0
1626295123.4949477,-57.129,-8.789,-40.527,-145.02,1.0
1626295123.498854,-66.895,-34.18,-39.062,-120.605,1.0
1626295123.5027602,26.855,-76.172,-23.926,79.102,1.0
1626295123.506667,23.438000000000002,-35.156,-43.945,58.593999999999994,1.0
1626295123.510573,-69.824,-7.324,-56.152,-126.465,1.0
1626295123.5144792,-88.867,-6.836,-36.133,-147.94899999999998,1.0
1626295123.5183854,-11.719000000000001,-16.602,-21.973000000000003,29.296999999999997,1.0
1626295123.5222914,42.48,-50.293,-9.766,114.258,1.0
1626295123.526198,-35.645,-25.879,-29.785,-61.523,1.0
1626295123.5301042,-108.398,-37.598,-41.016000000000005,-178.71099999999998,1.0
1626295123.5340102,-35.156,-26.855,-25.391,-20.508000000000003,1.0
1626295123.5379167,55.176,-16.113,-31.25,131.836,1.0
1626295123.541823,8.789,-63.477,-30.761999999999997,15.625,1.0
1626295123.5457292,-92.285,-17.09,-29.296999999999997,-159.18,1.0
1626295123.5496354,-80.566,10.742,-43.457,-91.309,1.0
1626295123.5535417,16.602,7.324,-43.945,90.82,1.0
1626295123.557448,19.043,-18.066,-40.039,56.152,1.0
1626295123.5613542,-72.75399999999999,-62.012,-43.457,-132.32399999999998,1.0
1626295123.5652604,-72.266,-19.043,-13.672,-112.79299999999999,1.0
1626295123.5691667,22.949,24.901999999999997,4.883,85.449,1.0
1626295123.573073,34.668,20.02,-20.508000000000003,89.844,1.0
1626295123.5769792,13.672,-18.555,-21.973000000000003,49.316,1.0
1626295123.5808856,-69.336,-20.508000000000003,-39.551,-134.27700000000002,1.0
1626295123.5847917,-83.49600000000001,-42.968999999999994,-36.621,-133.789,1.0
1626295123.588698,8.789,-78.613,-10.254000000000001,61.523,1.0
1626295123.5926042,41.992,-20.508000000000003,-5.859,106.445,1.0
1626295123.5965104,-49.316,-17.578,-36.621,-88.37899999999999,1.0
1626295123.6004167,-116.699,-19.043,-51.27,-186.523,1.0
1626295123.604323,-31.738000000000003,-31.738000000000003,-39.062,-1.953,1.0
1626295123.608229,51.27,-41.016000000000005,-60.547,127.93,1.0
1626295123.6121356,-19.043,5.371,-57.617,-32.227,1.0
1626295123.6160414,-118.652,-9.277000000000001,-37.109,-199.21900000000002,1.0
1626295123.6199481,-81.543,-12.207,-27.831999999999997,-84.473,1.0
1626295123.623854,-51.758,-31.738000000000003,-42.968999999999994,95.215,1.0
1626295123.6277602,27.831999999999997,8.301,-16.602,24.414,1.0
1626295123.631667,-12.207,0.488,-30.761999999999997,-151.36700000000002,1.0
1626295123.635573,-92.773,-63.965,-56.641000000000005,-102.051,1.0
1626295123.639479,-63.965,-45.41,-48.34,97.656,1.0
1626295123.6433854,27.344,-26.855,-33.691,86.914,1.0
1626295123.6472914,16.602,1.953,-21.484,-131.836,1.0
1626295123.651198,-90.33200000000001,-41.992,-29.296999999999997,-167.48,1.0
1626295123.6551042,-105.469,-66.406,-29.296999999999997,32.715,1.0
1626295123.6590104,0.0,-6.836,-2.93,98.633,1.0
1626295123.6629167,28.32,-11.719000000000001,-10.254000000000001,-66.895,1.0
1626295123.666823,-64.941,-15.625,-33.203,-175.78099999999998,1.0
1626295123.6707292,-106.445,-83.984,-26.366999999999997,1.0,1.0
1626295123.6746354,-34.18,-66.895,-28.32,1.0,1.0
1626295123.6785414,28.32,-2.441,-32.715,1.0,1.0
1626295123.682448,-27.344,-20.508000000000003,-27.831999999999997,1.0,1.0
1626295123.6863542,-95.70299999999999,-30.273000000000003,-38.086,1.0,1.0
1626295123.6902604,-41.992,-82.031,-46.875,1.0,1.0
1626295123.6941667,37.109,-17.09,-45.41,1.0,1.0
1626295123.698073,-6.836,-3.906,-51.27,1.0,1.0
1626295123.7019792,-93.75,-36.621,-41.504,1.0,1.0
1626295123.7058854,-71.289,-41.992,-19.043,1.0,1.0
1626295123.7097917,26.366999999999997,-79.102,-11.719000000000001,1.0,1.0
1626295123.713698,32.715,-5.859,-18.066,1.0,1.0
1626295123.7176042,-75.195,-6.348,-40.039,-145.996,1.0
1626295123.7215104,-118.164,-41.992,-61.035,-167.48,1.0
1626295123.725417,-14.16,-40.527,-38.086,40.039,1.0
1626295123.729323,41.016000000000005,-66.895,-17.578,95.70299999999999,1.0
1626295123.733229,-65.43,-24.901999999999997,-39.062,-111.32799999999999,1.0
1626295123.7371356,-121.094,-7.812,-54.688,-178.22299999999998,1.0
1626295123.7410414,-33.691,-5.859,-40.527,9.277000000000001,1.0
1626295123.7449477,37.109,-44.922,-18.066,118.652,1.0
1626295123.748854,-11.23,-69.824,-17.578,-24.414,1.0
1626295123.7527602,-87.402,-16.113,-32.227,-162.109,1.0
1626295123.756667,-41.016000000000005,-2.441,-20.02,-34.668,1.0
1626295123.760573,38.086,-1.953,-6.836,117.676,1.0
1626295123.7644792,-16.113,-71.777,-19.531,106.934,1.0
1626295123.7683854,46.387,-36.133,-19.531,-42.48,1.0
1626295123.7722914,-24.901999999999997,13.184000000000001,-34.18,-180.66400000000002,1.0
1626295123.776198,-80.566,18.555,-36.621,-61.035,1.0
1626295123.7801042,-7.812,-5.371,-26.366999999999997,117.676,1.0
1626295123.7840102,65.918,-93.262,-12.695,38.086,1.0
1626295123.7879167,-13.184000000000001,-46.875,-30.273000000000003,-160.645,1.0
1626295123.791823,-103.516,3.906,-32.227,-98.145,1.0
1626295123.7957292,-66.895,-2.93,-27.344,99.12100000000001,1.0
1626295123.7996354,9.277000000000001,-28.809,-28.809,73.73,1.0
1626295123.8035417,1.465,-83.008,-29.785,-125.488,1.0
1626295123.807448,-85.449,-50.293,-49.316,-158.203,1.0
1626295123.8113542,-92.285,-34.18,-53.223,1.0,1.0
1626295123.8152604,0.977,-20.02,-34.668,1.0,1.0
1626295123.8191667,43.457,-16.602,-10.742,1.0,1.0
1626295123.823073,-39.551,-63.965,-30.273000000000003,1.0,1.0
1626295123.8269792,-91.79700000000001,-26.366999999999997,-69.336,1.0,1.0
1626295123.8308856,-21.484,17.578,-43.945,1.0,1.0
1626295123.8347917,29.296999999999997,23.926,-20.508000000000003,1.0,1.0
1626295123.838698,-28.809,-34.18,-25.391,1.0,1.0
1626295123.8426042,-87.891,-65.918,-14.648,1.0,1.0
1626295123.8465104,-34.668,-2.93,-22.461,1.0,1.0
1626295123.8504167,34.668,16.113,-26.855,1.0,1.0
1626295123.854323,-0.488,17.578,-7.812,1.0,1.0
1626295123.858229,-88.37899999999999,-52.733999999999995,-25.391,1.0,1.0
1626295123.8621356,-81.543,-82.52,-53.223,1.0,1.0
1626295123.8660414,10.742,-37.598,-39.551,1.0,1.0
1626295123.8699481,12.207,-10.742,-41.016000000000005,1.0,1.0
1626295123.873854,-76.66,-1.465,-41.992,1.0,1.0
1626295123.8777602,-73.73,-65.918,-14.648,1.0,1.0
1626295123.881667,21.973000000000003,-46.875,-6.836,1.0,1.0
1626295123.885573,46.387,-19.043,-19.043,1.0,1.0
1626295123.889479,-55.176,-15.137,-40.039,1.0,1.0
1626295123.8933854,-108.887,-23.438000000000002,-31.25,1.0,1.0
1626295123.8972914,-25.879,-65.43,4.395,1.0,1.0
1626295123.901198,23.926,-15.625,-23.926,1.0,1.0
1626295123.9051042,-35.645,-0.488,-58.105,-59.57,1.0
1626295123.9090104,-106.934,-17.09,-40.039,-183.105,1.0
1626295123.9129167,-67.383,-29.296999999999997,-32.715,-59.57,1.0
1626295123.916823,21.484,-41.992,-48.828,109.863,1.0
1626295123.9207292,-0.977,-2.441,-36.133,23.926,1.0
1626295123.9246354,-90.82,-10.254000000000001,-24.414,-155.762,1.0
1626295123.9285414,-83.49600000000001,-26.366999999999997,-36.133,-107.42200000000001,1.0
1626295123.932448,33.691,-50.293,-18.066,101.56200000000001,1.0
1626295123.9363542,55.663999999999994,-71.289,-11.719000000000001,94.727,1.0
1626295123.9402604,-60.547,-33.203,-35.645,-122.559,1.0
1626295123.9441667,-83.984,-4.395,-35.156,-130.859,1.0
1626295123.948073,-2.93,-2.441,-38.574,54.688,1.0
1626295123.9519792,3.418,-0.488,-44.434,80.078,1.0
1626295123.9558854,8.789,-30.273000000000003,-35.645,-107.42200000000001,1.0
1626295123.9597917,-74.707,-55.663999999999994,-24.901999999999997,-183.105,1.0
1626295123.963698,-83.49600000000001,-74.219,-12.695,-17.578,1.0
1626295123.9676042,27.344,1.465,-17.09,92.285,1.0
1626295123.9715104,54.688,27.831999999999997,-41.016000000000005,-15.137,1.0
1626295123.975417,-46.387,9.277000000000001,-41.504,-146.484,1.0
1626295123.979323,-104.492,-22.949,-24.414,-49.805,1.0
1626295123.983229,-45.898,-69.336,-12.207,87.891,1.0
1626295123.9871356,20.508000000000003,-58.593999999999994,-22.461,-19.531,1.0
1626295123.9910414,-6.348,-19.531,-38.086,-175.78099999999998,1.0
1626295123.9949477,-91.309,2.441,-54.688,-106.445,1.0
1626295123.998854,-73.73,-73.73,-38.086,1.0,1.0
1626295124.0027602,22.949,-75.195,-9.766,1.0,1.0
1626295124.006667,9.766,-2.93,-15.137,1.0,1.0
1626295124.010573,-70.801,-0.488,-24.414,1.0,1.0
1626295124.0144792,-69.824,-39.062,-38.574,1.0,1.0
1626295124.0183854,0.977,-135.74200000000002,-39.062,1.0,1.0
1626295124.0222914,24.901999999999997,-64.453,-17.578,1.0,1.0
1626295124.026198,-39.062,25.391,-8.789,1.0,1.0
1626295124.0301042,-107.42200000000001,-5.371,-37.109,1.0,1.0
1626295124.0340102,-43.457,-44.922,-49.316,1.0,1.0
1626295124.0379167,26.855,-96.68,-37.109,1.0,1.0
1626295124.041823,-39.062,-32.715,-31.738000000000003,1.0,1.0
1626295124.0457292,-105.95700000000001,3.906,-29.296999999999997,-168.945,1.0
1626295124.0496354,-48.34,4.883,-13.184000000000001,-17.09,1.0
1626295124.0535417,29.296999999999997,-14.16,-13.672,113.77,1.0
1626295124.057448,-12.207,-69.824,-32.715,-8.789,1.0
1626295124.0613542,-101.56200000000001,-33.691,-41.992,-178.71099999999998,1.0
1626295124.0652604,-79.59,4.395,-37.109,-103.027,1.0
1626295124.0691667,16.602,20.996,-17.578,89.355,1.0
1626295124.073073,22.461,-19.531,-8.789,57.617,1.0
1626295124.0769792,-67.87100000000001,-70.801,-20.508000000000003,-138.672,1.0
1626295124.0808856,-93.75,-31.738000000000003,-47.852,-144.043,1.0
1626295124.0847917,10.254000000000001,-14.16,-31.25,62.5,1.0
1626295124.088698,56.641000000000005,-16.602,-4.395,111.32799999999999,1.0
1626295124.0926042,23.438000000000002,-9.277000000000001,-21.484,71.289,1.0
1626295124.0965104,-62.988,3.906,-21.484,-112.305,1.0
1626295124.1004167,-96.191,-28.32,-36.133,-136.23,1.0
1626295124.104323,-29.785,-95.215,-47.852,30.761999999999997,1.0
1626295124.108229,13.184000000000001,-24.901999999999997,-29.296999999999997,79.59,1.0
1626295124.1121356,-62.5,1.465,-30.761999999999997,-97.656,1.0
1626295124.1160414,-107.91,-8.789,-28.809,-172.852,1.0
1626295124.1199481,-10.742,-29.785,-0.977,19.043,1.0
1626295124.123854,75.684,-70.801,4.395,151.36700000000002,1.0
1626295124.1277602,1.465,-39.551,-20.996,-6.348,1.0
1626295124.131667,-91.309,-21.973000000000003,-25.391,-165.52700000000002,1.0
1626295124.135573,-41.992,-6.348,-20.508000000000003,-53.223,1.0
1626295124.139479,30.761999999999997,-69.336,-37.109,1.0,1.0
1626295124.1433854,-15.137,-78.125,-59.082,1.0,1.0
1626295124.1472914,-104.98,-31.738000000000003,-55.663999999999994,1.0,1.0
1626295124.151198,-88.867,-21.973000000000003,-27.344,1.0,1.0
1626295124.1551042,10.254000000000001,-1.465,-24.414,1.0,1.0
1626295124.1590104,37.109,-69.336,-30.273000000000003,1.0,1.0
1626295124.1629167,-49.316,-60.547,-28.809,1.0,1.0
1626295124.166823,-70.312,-20.02,-19.531,1.0,1.0
1626295124.1707292,16.113,-1.953,-12.695,1.0,1.0
1626295124.1746354,46.387,-6.836,-20.996,1.0,1.0
1626295124.1785414,-38.086,-106.934,-38.086,1.0,1.0
1626295124.182448,-110.352,-106.445,-52.733999999999995,1.0,1.0
1626295124.1863542,-51.27,-24.414,-47.363,1.0,1.0
1626295124.1902604,21.973000000000003,27.344,-32.227,1.0,1.0
1626295124.1941667,-21.484,4.395,-30.273000000000003,1.0,1.0
1626295124.198073,-95.70299999999999,-50.781000000000006,-53.223,1.0,1.0
1626295124.2019792,-55.176,-11.23,-37.109,1.0,1.0
1626295124.2058854,42.48,13.184000000000001,-9.277000000000001,1.0,1.0
1626295124.2097917,20.508000000000003,-8.301,-15.137,1.0,1.0
1626295124.213698,-91.79700000000001,-67.383,-25.879,1.0,1.0
1626295124.2176042,-103.516,-97.656,-39.551,1.0,1.0
1626295124.2215104,-8.301,-59.57,-21.973000000000003,1.0,1.0
1626295124.225417,23.926,-45.898,-11.23,1.0,1.0
1626295124.229323,-52.733999999999995,5.371,-33.203,1.0,1.0
1626295124.233229,-76.66,-23.926,-41.992,1.0,1.0
1626295124.2371356,-10.254000000000001,-44.434,-36.133,1.0,1.0
1626295124.2410414,38.574,-2.93,-17.09,1.0,1.0
1626295124.2449477,-23.926,-8.789,-28.32,1.0,1.0
1626295124.248854,-105.95700000000001,-31.738000000000003,-36.621,1.0,1.0
1626295124.2527602,-61.035,-103.516,-28.809,1.0,1.0
1626295124.256667,3.906,-57.617,-35.645,1.0,1.0
1626295124.260573,-28.32,-15.137,-35.645,1.0,1.0
1626295124.2644792,-96.191,-14.648,-43.457,1.0,1.0
1626295124.2683854,-61.523,-18.555,-42.968999999999994,1.0,1.0
1626295124.2722914,40.527,-108.398,-17.09,1.0,1.0
1626295124.276198,19.043,-59.082,-25.391,1.0,1.0
1626295124.2801042,-88.37899999999999,-5.859,-55.176,-163.57399999999998,1.0
1626295124.2840102,-86.426,3.906,-47.852,-132.812,1.0
1626295124.2879167,17.09,-21.484,-24.901999999999997,72.266,1.0
1626295124.291823,42.968999999999994,-75.684,-21.973000000000003,100.098,1.0
1626295124.2957292,-41.504,-23.926,-26.855,-87.402,1.0
1626295124.2996354,-94.727,-6.348,-38.574,-166.016,1.0
1626295124.3035417,-23.438000000000002,-2.441,-42.48,6.348,1.0
1626295124.307448,62.012,-26.366999999999997,-13.672,121.58200000000001,1.0
1626295124.3113542,-2.93,-66.406,-13.184000000000001,-32.227,1.0
1626295124.3152604,-114.258,-39.551,-48.34,-191.40599999999998,1.0
1626295124.3191667,-64.453,-11.719000000000001,-43.945,-66.406,1.0
1626295124.323073,29.785,14.648,-29.785,95.215,1.0
1626295124.3269792,46.875,-17.578,-7.324,115.723,1.0
1626295124.3308856,-11.23,7.324,-30.761999999999997,-23.926,1.0
1626295124.3347917,-101.56200000000001,-9.277000000000001,-34.668,-170.41,1.0
1626295124.338698,-57.129,-69.336,-29.296999999999997,-55.663999999999994,1.0
1626295124.3426042,35.645,-32.227,-39.551,105.469,1.0
1626295124.3465104,4.395,-21.973000000000003,-45.898,15.137,1.0
1626295124.3504167,-91.79700000000001,-17.578,-42.968999999999994,-162.59799999999998,1.0
1626295124.354323,-78.613,-29.296999999999997,-35.645,-103.516,1.0
1626295124.358229,22.461,-46.875,-28.809,95.70299999999999,1.0
1626295124.3621356,40.039,-1.465,-16.602,83.984,1.0
1626295124.3660414,-50.293,0.488,-13.184000000000001,-115.234,1.0
1626295124.3699481,-86.426,-0.977,-14.16,-140.137,1.0
1626295124.373854,-5.371,-64.941,-8.789,1.0,1.0
1626295124.3777602,28.809,-63.477,-24.414,1.0,1.0
1626295124.381667,-53.223,-22.949,-42.968999999999994,1.0,1.0
1626295124.385573,-101.56200000000001,-28.32,-38.574,1.0,1.0
1626295124.389479,-29.785,-13.184000000000001,-49.805,1.0,1.0
1626295124.3933854,47.363,-83.984,-32.227,1.0,1.0
1626295124.3972914,-5.371,-41.504,-16.113,1.0,1.0
1626295124.401198,-93.75,-0.488,-26.366999999999997,1.0,1.0
1626295124.4051042,-63.965,-17.578,-28.32,1.0,1.0
1626295124.4090104,26.366999999999997,-22.461,-22.461,1.0,1.0
1626295124.4129167,23.438000000000002,-87.891,-28.32,1.0,1.0
1626295124.416823,-85.449,-71.289,-50.293,1.0,1.0
1626295124.4207292,-96.191,-32.227,-56.152,-128.906,1.0
1626295124.4246354,12.695,15.625,-28.809,74.707,1.0
1626295124.4285414,28.32,15.625,-20.508000000000003,76.172,1.0
1626295124.432448,-54.199,-43.457,-19.531,-113.77,1.0
1626295124.4363542,-71.777,-8.789,-32.715,-145.996,1.0
1626295124.4402604,18.066,9.766,-41.016000000000005,48.828,1.0
1626295124.4441667,55.663999999999994,1.465,-22.461,117.18799999999999,1.0
1626295124.448073,-33.203,-40.039,-17.578,-62.5,1.0
1626295124.4519792,-110.84,-69.824,-29.296999999999997,-180.176,1.0
1626295124.4558854,-47.363,-21.973000000000003,-21.973000000000003,-36.621,1.0
1626295124.4597917,36.621,-4.883,-6.348,108.398,1.0
1626295124.463698,-1.953,-5.371,-13.672,-2.441,1.0
1626295124.4676042,-99.609,-79.59,-28.809,1.0,1.0
1626295124.4715104,-88.37899999999999,-80.078,-40.039,1.0,1.0
1626295124.475417,8.301,2.93,-32.227,1.0,1.0
1626295124.479323,27.831999999999997,20.508000000000003,-37.598,1.0,1.0
1626295124.483229,-62.5,-32.227,-64.453,1.0,1.0
1626295124.4871356,-70.801,-102.539,-26.855,1.0,1.0
1626295124.4910414,-0.977,-55.663999999999994,-1.953,1.0,1.0
1626295124.4949477,4.395,-13.184000000000001,-14.648,1.0,1.0
1626295124.498854,-78.125,0.0,-27.831999999999997,1.0,1.0
1626295124.5027602,-107.91,-7.812,-29.296999999999997,1.0,1.0
1626295124.506667,-15.625,-84.961,-19.531,1.0,1.0
1626295124.510573,35.645,-65.918,-13.184000000000001,1.0,1.0
1626295124.5144792,-33.691,-37.598,-26.366999999999997,-49.805,1.0
1626295124.5183854,-114.258,-22.461,-41.992,-186.035,1.0
1626295124.5222914,-41.992,4.883,-10.742,-25.391,1.0
1626295124.526198,61.035,-17.578,11.719000000000001,148.438,1.0
1626295124.5301042,1.953,-26.855,-21.973000000000003,14.16,1.0
1626295124.5340102,-101.074,-45.898,-42.48,-167.96900000000002,1.0
1626295124.5379167,-79.59,-35.645,-22.461,-96.68,1.0
1626295124.541823,39.062,-19.043,-9.766,109.863,1.0
1626295124.5457292,47.363,-33.691,-21.484,86.426,1.0
1626295124.5496354,-77.148,-30.273000000000003,-44.922,-144.531,1.0
1626295124.5535417,-111.32799999999999,-12.207,-52.733999999999995,-162.59799999999998,1.0
1626295124.557448,-8.789,-0.488,-33.691,55.176,1.0
1626295124.5613542,7.812,-23.438000000000002,-5.859,120.117,1.0
1626295124.5652604,35.645,1.465,-8.789,-67.87100000000001,1.0
1626295124.5691667,-49.316,-8.301,-24.901999999999997,-165.52700000000002,1.0
1626295124.573073,-86.426,-52.733999999999995,-36.133,-13.184000000000001,1.0
1626295124.5769792,-33.203,-20.996,-37.109,86.426,1.0
1626295124.5808856,7.812,-34.668,-31.25,-43.945,1.0
1626295124.5847917,-51.758,-43.457,-47.852,-150.391,1.0
1626295124.588698,-104.98,-48.34,-43.457,-18.555,1.0
1626295124.5926042,-39.551,-48.828,-30.273000000000003,141.113,1.0
1626295124.5965104,25.879,1.465,-28.809,43.457,1.0
1626295124.6004167,-25.879,-16.602,-40.527,-163.57399999999998,1.0
1626295124.604323,-101.074,-31.738000000000003,-43.457,-122.07,1.0
1626295124.608229,-52.733999999999995,-76.66,-18.066,1.0,1.0
1626295124.6121356,54.199,-46.875,9.277000000000001,1.0,1.0
1626295124.6160414,45.41,-3.418,-4.395,1.0,1.0
1626295124.6199481,-68.848,-40.039,-37.598,1.0,1.0
1626295124.623854,-81.055,-44.434,-39.551,1.0,1.0
1626295124.6277602,22.949,-93.75,-3.906,1.0,1.0
1626295124.631667,26.366999999999997,-35.645,-16.602,1.0,1.0
1626295124.635573,-72.266,17.09,-44.922,1.0,1.0
1626295124.639479,-108.887,0.488,-37.598,1.0,1.0
1626295124.6433854,-16.602,-32.715,3.906,1.0,1.0
1626295124.6472914,54.688,-106.445,17.09,1.0,1.0
1626295124.651198,-20.02,-51.27,-24.414,1.0,1.0
1626295124.6551042,-95.215,-7.812,-37.598,-170.41,1.0
1626295124.6590104,-32.715,1.953,-22.949,-22.949,1.0
1626295124.6629167,60.059,-3.906,-20.996,128.906,1.0
1626295124.666823,9.766,-58.105,-34.18,0.977,1.0
1626295124.6707292,-99.12100000000001,-36.621,-41.992,-191.40599999999998,1.0
1626295124.6746354,-72.75399999999999,-11.719000000000001,-29.296999999999997,-103.027,1.0
1626295124.6785414,16.602,8.789,-29.785,75.195,1.0
1626295124.682448,7.812,-23.926,-49.316,19.531,1.0
1626295124.6863542,-68.848,-65.918,-47.363,-152.344,1.0
1626295124.6902604,-69.336,-20.996,-28.809,-123.535,1.0
1626295124.6941667,22.949,1.465,-7.812,76.172,1.0
1626295124.698073,44.922,-7.324,-14.648,99.12100000000001,1.0
1626295124.7019792,29.785,-14.648,-10.254000000000001,66.406,1.0
1626295124.7058854,-58.105,0.0,-21.973000000000003,-123.535,1.0
1626295124.7097917,-88.867,-20.02,-42.48,-134.766,1.0
1626295124.713698,-9.277000000000001,-85.449,-33.203,57.617,1.0
1626295124.7176042,31.25,-23.926,-13.184000000000001,102.539,1.0
1626295124.7215104,-55.176,2.441,-27.344,-91.309,1.0
1626295124.725417,-106.445,-15.137,-44.922,-171.875,1.0
1626295124.729323,-37.109,-29.785,-29.785,-4.883,1.0
1626295124.733229,16.113,-49.805,-25.391,90.82,1.0
1626295124.7371356,-42.48,-28.809,-46.875,-61.523,1.0
1626295124.7410414,-97.656,-20.02,-44.434,-180.66400000000002,1.0
1626295124.7449477,-35.156,-4.395,-10.254000000000001,-38.086,1.0
1626295124.748854,28.809,-66.895,-11.23,104.492,1.0
1626295124.7527602,-18.066,-82.031,-37.598,1.953,1.0
1626295124.756667,-105.469,-42.968999999999994,-40.527,-168.945,1.0
1626295124.760573,-83.49600000000001,-8.301,-30.273000000000003,-105.95700000000001,1.0
1626295124.7644792,13.672,11.719000000000001,-17.09,86.914,1.0
1626295124.7683854,21.973000000000003,-108.887,-18.555,67.383,1.0
1626295124.7722914,-53.223,-83.49600000000001,-24.901999999999997,-114.258,1.0
1626295124.776198,-72.75399999999999,-21.973000000000003,-20.508000000000003,-130.859,1.0
1626295124.7801042,3.906,-4.395,-27.831999999999997,45.41,1.0
1626295124.7840102,41.992,7.812,-31.25,95.215,1.0
1626295124.7879167,-38.086,-61.523,-35.156,-89.844,1.0
1626295124.791823,-116.211,-42.48,-70.801,-201.172,1.0
1626295124.7957292,-48.828,-22.949,-59.082,1.0,1.0
1626295124.7996354,26.855,-26.855,-22.949,1.0,1.0
1626295124.8035417,-26.855,-50.293,-17.578,1.0,1.0
1626295124.807448,-97.16799999999999,-85.449,-11.23,1.0,1.0
1626295124.8113542,-56.641000000000005,-38.574,-17.09,1.0,1.0
1626295124.8152604,30.761999999999997,-8.301,-20.02,1.0,1.0
1626295124.8191667,2.441,-2.93,-30.761999999999997,1.0,1.0
1626295124.823073,-88.37899999999999,-41.016000000000005,-32.715,1.0,1.0
1626295124.8269792,-77.148,-83.984,-20.508000000000003,1.0,1.0
1626295124.8308856,32.715,-42.48,-7.812,1.0,1.0
1626295124.8347917,51.27,-20.02,-22.949,1.0,1.0
1626295124.838698,-49.316,19.531,-43.457,1.0,1.0
1626295124.8426042,-99.12100000000001,-42.48,-45.41,1.0,1.0
1626295124.8465104,-33.203,-64.941,-42.968999999999994,1.0,1.0
1626295124.8504167,19.043,-18.066,-30.761999999999997,1.0,1.0
1626295124.854323,-42.968999999999994,-23.438000000000002,-24.414,1.0,1.0
1626295124.858229,-95.215,-15.137,-39.551,1.0,1.0
1626295124.8621356,-31.738000000000003,-99.12100000000001,-39.062,1.0,1.0
1626295124.8660414,32.227,-48.34,-21.973000000000003,1.0,1.0
1626295124.8699481,-10.254000000000001,3.418,-15.625,1.0,1.0
1626295124.873854,-90.82,-18.555,-24.901999999999997,1.0,1.0
1626295124.8777602,-63.477,-34.668,-34.668,1.0,1.0
1626295124.881667,12.207,-122.07,-33.203,1.0,1.0
1626295124.885573,-0.977,-49.805,-38.086,1.0,1.0
1626295124.889479,-96.191,-2.441,-47.852,-160.645,1.0
1626295124.8933854,-100.586,-23.926,-31.738000000000003,-137.207,1.0
1626295124.8972914,12.207,-39.551,-12.207,81.055,1.0
1626295124.901198,26.366999999999997,-80.566,-11.719000000000001,99.12100000000001,1.0
1626295124.9051042,-67.87100000000001,-40.039,-43.945,-108.398,1.0
1626295124.9090104,-97.16799999999999,-9.277000000000001,-48.828,-166.50400000000002,1.0
1626295124.9129167,-17.578,20.996,-29.785,15.625,1.0
1626295124.916823,53.223,-31.25,-26.855,126.465,1.0
1626295124.9207292,-3.418,-78.613,-16.602,-17.09,1.0
1626295124.9246354,-102.539,-24.414,-30.761999999999997,-166.99200000000002,1.0
1626295124.9285414,-68.359,0.977,-42.48,-45.41,1.0
1626295124.932448,21.973000000000003,19.043,-33.203,118.652,1.0
1626295124.9363542,51.27,25.391,-20.996,115.723,1.0
1626295124.9402604,-16.602,-1.465,-34.668,-38.086,1.0
1626295124.9441667,-108.887,-34.668,-39.062,-186.035,1.0
1626295124.948073,-47.363,-40.527,-25.879,-56.152,1.0
1626295124.9519792,40.039,-6.348,-33.203,111.32799999999999,1.0
1626295124.9558854,8.301,10.254000000000001,-21.484,33.203,1.0
1626295124.9597917,-76.66,-2.441,-20.508000000000003,-144.043,1.0
1626295124.963698,-66.895,-38.086,-31.738000000000003,-96.191,1.0
1626295124.9676042,19.531,-53.711000000000006,-17.578,89.844,1.0
1626295124.9715104,21.973000000000003,-36.133,-19.043,65.918,1.0
1626295124.975417,-57.129,-26.855,-21.484,-115.234,1.0
1626295124.979323,-80.566,1.465,-19.531,-129.395,1.0
1626295124.983229,0.488,-50.293,-17.578,1.0,1.0
1626295124.9871356,43.457,-54.688,-17.09,1.0,1.0
1626295124.9910414,-29.785,3.418,-52.733999999999995,1.0,1.0
1626295124.9949477,-97.16799999999999,-2.441,-51.758,1.0,1.0
1626295124.998854,-53.223,-12.207,-16.113,1.0,1.0
1626295125.0027602,23.926,-78.125,-9.766,1.0,1.0
1626295125.006667,-20.996,-58.593999999999994,-26.366999999999997,1.0,1.0
1626295125.010573,-102.539,-35.156,-33.691,1.0,1.0
1626295125.0144792,-54.688,-9.277000000000001,-25.879,1.0,1.0
1626295125.0183854,41.504,-17.578,-16.602,1.0,1.0
1626295125.0222914,6.348,-112.305,-21.973000000000003,1.0,1.0
1626295125.026198,-85.93799999999999,-46.875,-22.461,1.0,1.0
1626295125.0301042,-76.66,-3.906,-17.578,-107.91,1.0
1626295125.0340102,17.578,-14.648,-6.348,79.59,1.0
1626295125.0379167,25.391,-20.02,-8.301,71.777,1.0
1626295125.041823,-85.93799999999999,-70.312,-56.152,-139.648,1.0
1626295125.0457292,-103.027,-18.066,-62.012,-160.156,1.0
1626295125.0496354,-4.883,14.16,-25.391,43.945,1.0
1626295125.0535417,37.598,7.324,-23.926,110.84,1.0
1626295125.057448,-30.761999999999997,-25.879,-24.901999999999997,-60.059,1.0
1626295125.0613542,-98.145,-82.031,-26.855,-169.43400000000003,1.0
1626295125.0652604,-39.062,-70.312,-25.391,-25.879,1.0
1626295125.0691667,32.227,-45.898,-11.719000000000001,100.098,1.0
1626295125.073073,-31.738000000000003,-5.859,-35.645,-37.598,1.0
1626295125.0769792,-54.199,1.953,-27.831999999999997,-71.289,1.0
1626295125.0808856,-121.094,-3.906,-22.461,-189.94099999999997,1.0
1626295125.0847917,-53.223,-2.93,-10.742,-47.363,1.0
1626295125.088698,27.831999999999997,-44.922,-12.695,102.539,1.0
1626295125.0926042,4.395,-9.766,-20.02,3.418,1.0
1626295125.0965104,-81.055,3.906,-28.32,-162.59799999999998,1.0
1626295125.1004167,-83.008,-24.414,-27.344,-104.98,1.0
1626295125.104323,5.859,-55.176,-18.555,68.359,1.0
1626295125.108229,6.348,-72.75399999999999,-31.25,36.133,1.0
1626295125.1121356,-83.008,-39.062,-53.711000000000006,-151.855,1.0
1626295125.1160414,-82.52,-29.296999999999997,-35.645,-130.371,1.0
