timestamps,TP9,AF7,AF8,TP10,Right AUX
1626295255.6707292,-85.93799999999999,10.254000000000001,-35.156,-134.766,1.0
1626295255.6746354,-46.875,-84.961,-21.484,-21.973000000000003,1.0
1626295255.6785414,29.785,-104.98,-6.348,90.82,1.0
1626295255.682448,12.207,-4.883,-19.043,9.766,1.0
1626295255.6863542,-79.102,7.812,-34.668,-135.74200000000002,1.0
1626295255.6902604,-74.707,13.672,-34.18,-77.148,1.0
1626295255.6941667,-15.625,-93.262,-66.895,49.316,1.0
1626295255.698073,1.953,-43.457,-50.293,23.438000000000002,1.0
1626295255.7019792,-60.059,5.371,-29.785,-116.211,1.0
1626295255.7058854,-86.426,-34.668,-27.344,-119.62899999999999,1.0
1626295255.7097917,-5.859,-46.875,-3.906,30.761999999999997,1.0
1626295255.713698,11.719000000000001,-123.535,-22.949,38.574,1.0
1626295255.7176042,-45.898,-30.761999999999997,-48.34,1.0,1.0
1626295255.7215104,-64.941,17.09,-37.598,1.0,1.0
1626295255.725417,16.602,14.16,-11.719000000000001,1.0,1.0
1626295255.729323,55.176,-1.953,-28.809,1.0,1.0
1626295255.733229,-46.387,-92.773,-54.688,1.0,1.0
1626295255.7371356,-110.84,-29.785,-33.691,1.0,1.0
1626295255.7410414,-46.875,13.672,-14.16,1.0,1.0
1626295255.7449477,26.855,-0.488,-18.555,1.0,1.0
1626295255.748854,-17.09,-31.738000000000003,-47.363,1.0,1.0
1626295255.7527602,-82.52,-46.875,-48.34,1.0,1.0
1626295255.756667,-44.434,-9.277000000000001,-26.366999999999997,1.0,1.0
1626295255.760573,16.113,7.324,-34.18,1.0,1.0
1626295255.7644792,17.578,20.996,-23.438000000000002,43.945,1.0
1626295255.7683854,-50.781000000000006,-71.777,-11.23,-103.516,1.0
1626295255.7722914,-75.684,-99.609,-29.296999999999997,-113.281,1.0
1626295255.776198,-17.09,-9.766,-30.273000000000003,30.761999999999997,1.0
1626295255.7801042,9.766,14.648,-26.855,51.758,1.0
1626295255.7840102,-51.27,-11.23,-33.691,-94.727,1.0
1626295255.7879167,-104.00399999999999,-137.695,-59.57,-156.738,1.0
1626295255.791823,-34.668,-75.684,-47.363,-8.301,1.0
1626295255.7957292,24.901999999999997,-3.418,-5.371,83.49600000000001,1.0
1626295255.7996354,-20.02,1.953,-1.465,-34.668,1.0
1626295255.8035417,-63.965,6.836,-19.531,-125.0,1.0
1626295255.807448,-46.387,-96.68,-65.43,-39.551,1.0
1626295255.8113542,7.812,-26.855,-55.176,1.0,1.0
1626295255.8152604,-5.859,4.395,-22.949,1.0,1.0
1626295255.8191667,-63.965,2.441,-20.02,1.0,1.0
1626295255.823073,-50.293,-15.137,-11.23,1.0,1.0
1626295255.8269792,5.859,-121.094,-3.906,1.0,1.0
1626295255.8308856,6.348,-52.733999999999995,-9.277000000000001,1.0,1.0
1626295255.8347917,-54.199,-9.277000000000001,-20.02,1.0,1.0
1626295255.838698,-73.242,-9.277000000000001,-17.578,1.0,1.0
1626295255.8426042,-14.16,-49.805,-23.438000000000002,1.0,1.0
1626295255.8465104,18.555,-94.238,-45.41,1.0,1.0
1626295255.8504167,-51.758,-20.996,-55.663999999999994,1.0,1.0
1626295255.854323,-112.79299999999999,7.324,-49.316,1.0,1.0
1626295255.858229,-41.992,46.387,-47.363,-11.719000000000001,1.0
1626295255.8621356,18.066,-42.968999999999994,-37.109,83.984,1.0
1626295255.8660414,-42.968999999999994,-109.863,-35.156,-51.758,1.0
1626295255.8699481,-105.95700000000001,-66.895,-27.344,-165.03900000000002,1.0
1626295255.873854,-64.453,-35.645,-14.16,-52.246,1.0
1626295255.8777602,11.719000000000001,15.137,-7.324,79.102,1.0
1626295255.881667,-8.789,-104.98,-29.296999999999997,2.93,1.0
1626295255.885573,-66.406,-75.195,-40.527,-125.977,1.0
1626295255.889479,-46.387,-1.465,-20.996,-68.359,1.0
1626295255.8933854,17.09,10.742,-8.301,68.848,1.0
1626295255.8972914,9.277000000000001,3.418,-14.16,37.109,1.0
1626295255.901198,-64.941,-117.18799999999999,-27.831999999999997,-109.863,1.0
1626295255.9051042,-54.688,11.719000000000001,-41.016000000000005,-117.676,1.0
1626295255.9090104,-44.922,-65.43,-40.039,-81.055,1.0
1626295255.9129167,25.391,-83.984,-7.324,68.848,1.0
1626295255.916823,20.996,-27.344,-8.301,53.711000000000006,1.0
1626295255.9207292,-42.48,4.395,-13.184000000000001,-89.355,1.0
1626295255.9246354,-52.733999999999995,29.296999999999997,-5.371,-106.445,1.0
1626295255.9285414,-25.391,-125.977,-42.968999999999994,-2.441,1.0
1626295255.932448,1.953,-67.383,-65.43,46.875,1.0
1626295255.9363542,-40.039,17.578,-61.523,-74.219,1.0
1626295255.9402604,-84.473,0.0,-42.48,-147.94899999999998,1.0
1626295255.9441667,-30.273000000000003,-14.648,-23.926,-22.949,1.0
1626295255.948073,14.16,-140.137,-32.227,71.289,1.0
1626295255.9519792,-15.625,-48.828,-24.414,1.0,1.0
1626295255.9558854,-70.801,11.23,-25.879,1.0,1.0
1626295255.9597917,-44.434,18.066,-24.901999999999997,1.0,1.0
1626295255.963698,31.738000000000003,-5.371,-10.254000000000001,1.0,1.0
1626295255.9676042,26.855,-95.70299999999999,-15.625,1.0,1.0
1626295255.9715104,-35.645,-5.859,-34.668,1.0,1.0
1626295255.975417,-44.922,17.09,-26.366999999999997,1.0,1.0
1626295255.979323,5.371,14.16,-15.137,1.0,1.0
1626295255.983229,6.348,-11.719000000000001,-29.296999999999997,1.0,1.0
1626295255.9871356,-68.848,-94.727,-36.621,1.0,1.0
1626295255.9910414,-102.539,-33.203,-46.387,1.0,1.0
1626295255.9949477,-34.668,13.184000000000001,-42.968999999999994,1.0,1.0
1626295255.998854,30.273000000000003,31.25,-28.809,77.148,1.0
1626295256.0027602,-19.043,-65.918,-40.527,-38.574,1.0
1626295256.006667,-82.031,-90.33200000000001,-31.25,-145.50799999999998,1.0
1626295256.010573,-41.016000000000005,5.859,7.812,-41.016000000000005,1.0
1626295256.0144792,25.879,26.366999999999997,-1.953,80.078,1.0
1626295256.0183854,1.465,7.812,-33.203,-1.953,1.0
1626295256.0222914,-78.125,-114.74600000000001,-44.434,-144.531,1.0
1626295256.026198,-72.266,-63.965,-43.945,-102.539,1.0
1626295256.0301042,-7.812,8.789,-37.598,36.621,1.0
1626295256.0340102,4.395,16.602,-41.504,20.508000000000003,1.0
1626295256.0379167,-37.598,-14.16,-41.504,-103.027,1.0
1626295256.041823,-49.316,-160.156,-24.901999999999997,-99.609,1.0
1626295256.0457292,-70.801,-20.508000000000003,-41.504,-102.051,1.0
1626295256.0496354,-0.488,-80.078,-37.109,46.875,1.0
1626295256.0535417,9.766,-69.824,-23.926,40.527,1.0
1626295256.057448,-47.852,2.93,-16.113,-96.191,1.0
1626295256.0613542,-76.66,-11.719000000000001,-22.949,-118.652,1.0
1626295256.0652604,-29.785,-9.766,-42.48,10.254000000000001,1.0
1626295256.0691667,-3.906,-127.441,-62.5,51.27,1.0
1626295256.073073,-54.199,-74.707,-52.733999999999995,-78.125,1.0
1626295256.0769792,-83.49600000000001,10.742,-22.461,-136.23,1.0
1626295256.0808856,-22.949,22.949,-1.953,4.395,1.0
1626295256.0847917,34.668,-20.508000000000003,-14.16,95.70299999999999,1.0
1626295256.088698,-13.672,-187.012,-44.434,-21.484,1.0
1626295256.0926042,-42.968999999999994,1.953,-36.133,-141.602,1.0
1626295256.0965104,-92.285,-83.49600000000001,-49.805,-64.453,1.0
1626295256.1004167,-35.645,-74.219,-20.996,68.848,1.0
1626295256.104323,28.32,19.043,1.465,30.273000000000003,1.0
1626295256.108229,5.371,21.973000000000003,-22.949,-111.32799999999999,1.0
1626295256.1121356,-59.57,4.395,-59.57,-96.191,1.0
1626295256.1160414,-57.617,-153.809,-55.176,26.855,1.0
1626295256.1199481,5.371,-114.258,-28.32,19.531,1.0
1626295256.123854,3.418,-8.301,-9.766,-98.633,1.0
1626295256.1277602,-57.129,2.93,-7.812,-118.652,1.0
1626295256.131667,-62.5,-1.465,-17.09,19.531,1.0
1626295256.135573,-9.277000000000001,-121.58200000000001,-21.973000000000003,73.73,1.0
1626295256.139479,18.555,-51.758,-20.508000000000003,1.0,1.0
1626295256.1433854,-23.438000000000002,14.648,-21.484,1.0,1.0
1626295256.1472914,-54.199,14.648,-36.621,1.0,1.0
1626295256.151198,-19.043,-31.738000000000003,-43.945,1.0,1.0
1626295256.1551042,12.695,-120.605,-24.901999999999997,1.0,1.0
1626295256.1590104,-29.785,-40.039,-25.391,1.0,1.0
1626295256.1629167,-87.891,5.859,-28.32,1.0,1.0
1626295256.166823,-54.688,34.18,-21.973000000000003,1.0,1.0
1626295256.1707292,4.883,-8.301,-22.949,1.0,1.0
1626295256.1746354,-28.32,-87.891,-27.831999999999997,1.0,1.0
1626295256.1785414,-108.887,-30.761999999999997,-53.223,1.0,1.0
1626295256.182448,-90.82,-15.625,-48.34,1.0,1.0
1626295256.1863542,-7.324,-1.465,-32.715,51.27,1.0
1626295256.1902604,-0.977,-70.801,-41.992,20.02,1.0
1626295256.1941667,-70.312,-99.609,-37.598,-125.488,1.0
1626295256.198073,-76.66,-4.395,-27.344,-108.887,1.0
1626295256.2019792,-6.836,33.691,-1.465,39.551,1.0
1626295256.2058854,20.996,12.695,-6.836,69.336,1.0
1626295256.2097917,-43.457,-135.74200000000002,-44.922,-75.195,1.0
1626295256.213698,-71.777,-74.707,-48.828,-126.95299999999999,1.0
1626295256.2176042,-14.16,7.812,-33.691,4.883,1.0
1626295256.2215104,25.391,15.137,-22.949,81.055,1.0
1626295256.225417,-18.555,-4.883,-27.831999999999997,-26.855,1.0
1626295256.229323,-91.79700000000001,-140.137,-53.711000000000006,-137.207,1.0
1626295256.233229,-73.242,24.901999999999997,-22.949,-134.766,1.0
1626295256.2371356,-29.785,-61.035,-21.484,-14.16,1.0
1626295256.2410414,26.855,-83.008,-34.18,78.613,1.0
1626295256.2449477,3.418,-6.348,-42.968999999999994,-11.23,1.0
1626295256.248854,-63.477,14.16,-40.527,-129.395,1.0
1626295256.2527602,-42.968999999999994,27.344,-23.926,-50.293,1.0
1626295256.256667,2.441,-87.402,-35.156,59.57,1.0
1626295256.260573,-17.578,-77.637,-35.156,-8.301,1.0
1626295256.2644792,-80.566,-26.855,-29.785,-138.672,1.0
1626295256.2683854,-78.613,-4.883,-33.691,-100.098,1.0
1626295256.2722914,2.93,-3.906,-7.812,60.059,1.0
1626295256.276198,29.296999999999997,-109.375,11.23,65.43,1.0
1626295256.2801042,-52.733999999999995,-47.363,-25.879,1.0,1.0
1626295256.2840102,-97.16799999999999,-15.625,-62.5,1.0,1.0
1626295256.2879167,-28.32,-3.906,-43.457,1.0,1.0
1626295256.291823,20.508000000000003,3.906,-25.879,1.0,1.0
1626295256.2957292,-30.761999999999997,-95.215,-39.062,1.0,1.0
1626295256.2996354,-83.008,-58.105,-47.852,1.0,1.0
1626295256.3035417,-33.203,0.977,-24.414,1.0,1.0
1626295256.307448,21.973000000000003,20.02,-26.366999999999997,1.0,1.0
1626295256.3113542,-32.715,-6.836,-67.87100000000001,1.0,1.0
1626295256.3152604,-88.37899999999999,-59.082,-49.316,1.0,1.0
1626295256.3191667,-43.457,-14.648,-15.625,1.0,1.0
1626295256.323073,23.926,15.625,-33.691,1.0,1.0
1626295256.3269792,22.461,16.602,-9.766,36.621,1.0
1626295256.3308856,-46.875,-76.172,-14.648,-112.79299999999999,1.0
1626295256.3347917,-82.52,-102.539,-49.316,-119.141,1.0
1626295256.338698,-35.645,-27.831999999999997,-33.203,16.602,1.0
1626295256.3426042,-5.859,0.488,-19.043,21.973000000000003,1.0
1626295256.3465104,-49.805,-0.977,-28.32,-105.469,1.0
1626295256.3504167,-68.848,-101.074,-61.523,-121.094,1.0
1626295256.354323,-7.812,-59.57,-50.781000000000006,20.508000000000003,1.0
1626295256.358229,38.574,11.719000000000001,1.465,92.773,1.0
1626295256.3621356,-20.02,11.23,-1.953,-35.156,1.0
1626295256.3660414,-72.266,-28.32,-7.324,-125.488,1.0
1626295256.3699481,-43.945,-166.016,-23.926,-31.738000000000003,1.0
1626295256.373854,-4.395,-75.195,-55.176,54.688,1.0
1626295256.3777602,-43.945,-15.625,-57.129,-48.34,1.0
1626295256.381667,-104.00399999999999,-12.695,-50.781000000000006,-164.062,1.0
1626295256.385573,-70.801,-22.461,-34.668,-84.473,1.0
1626295256.389479,4.883,-89.355,-26.855,61.035,1.0
1626295256.3933854,20.02,-0.977,-35.645,41.504,1.0
1626295256.3972914,-31.25,12.207,-29.785,-91.79700000000001,1.0
1626295256.401198,-49.805,-8.789,-10.742,-95.215,1.0
1626295256.4051042,-1.953,-24.901999999999997,-4.395,30.273000000000003,1.0
1626295256.4090104,12.695,-67.383,-22.461,44.434,1.0
1626295256.4129167,-58.593999999999994,-16.113,-50.293,-106.445,1.0
1626295256.416823,-92.773,-3.906,-41.016000000000005,-147.461,1.0
1626295256.4207292,-19.531,7.812,-25.391,10.254000000000001,1.0
1626295256.4246354,23.926,-69.824,-46.875,79.59,1.0
1626295256.4285414,-18.066,-78.125,-28.809,-31.738000000000003,1.0
1626295256.432448,-65.43,11.23,-11.23,-116.699,1.0
1626295256.4363542,-36.133,-5.371,-25.879,-31.25,1.0
1626295256.4402604,13.184000000000001,-21.973000000000003,-33.691,73.73,1.0
1626295256.4441667,-9.766,-139.16,-39.062,-0.977,1.0
1626295256.448073,-76.66,-80.566,-39.062,-140.625,1.0
1626295256.4519792,-86.914,-0.977,-39.551,-104.492,1.0
1626295256.4558854,-13.672,18.555,-27.344,42.48,1.0
1626295256.4597917,22.461,6.348,-26.366999999999997,45.41,1.0
1626295256.463698,-56.641000000000005,-134.766,-43.945,-112.305,1.0
1626295256.4676042,-80.078,10.742,-39.062,-131.836,1.0
1626295256.4715104,-79.102,-62.988,-42.968999999999994,23.926,1.0
1626295256.475417,9.277000000000001,-69.336,-20.996,90.33200000000001,1.0
1626295256.479323,37.109,8.789,-13.184000000000001,-41.504,1.0
1626295256.483229,-29.296999999999997,-0.977,-25.391,-121.58200000000001,1.0
1626295256.4871356,-60.547,-24.414,-22.949,18.555,1.0
1626295256.4910414,-6.836,-158.203,-24.901999999999997,106.445,1.0
1626295256.4949477,27.831999999999997,-77.148,-24.414,-25.391,1.0
1626295256.498854,-19.531,29.785,-36.133,-145.996,1.0
1626295256.5027602,-72.266,23.438000000000002,-45.898,-58.593999999999994,1.0
1626295256.506667,-24.414,8.789,-6.348,68.848,1.0
1626295256.510573,38.574,-130.371,19.043,12.695,1.0
1626295256.5144792,6.836,-58.593999999999994,-3.418,1.0,1.0
1626295256.5183854,-81.543,3.906,-39.062,1.0,1.0
1626295256.5222914,-75.684,1.953,-32.715,1.0,1.0
1626295256.526198,-1.465,-23.438000000000002,-22.949,1.0,1.0
1626295256.5301042,-0.488,-85.93799999999999,-43.457,1.0,1.0
1626295256.5340102,-63.965,0.0,-48.828,1.0,1.0
1626295256.5379167,-74.707,46.387,-33.203,1.0,1.0
1626295256.541823,-2.441,41.504,-23.438000000000002,1.0,1.0
1626295256.5457292,18.555,-20.996,-41.992,1.0,1.0
1626295256.5496354,-46.875,-86.914,-70.801,1.0,1.0
1626295256.5535417,-69.824,0.977,-75.684,1.0,1.0
1626295256.557448,2.441,18.555,-49.316,1.0,1.0
1626295256.5613542,26.855,1.465,-13.672,62.012,1.0
1626295256.5652604,-46.387,-75.684,-21.484,-83.49600000000001,1.0
1626295256.5691667,-104.98,-89.355,-40.039,-170.898,1.0
1626295256.573073,-63.477,11.719000000000001,-31.738000000000003,-57.129,1.0
1626295256.5769792,2.93,38.086,-39.551,45.41,1.0
1626295256.5808856,-14.16,27.831999999999997,-54.199,-29.296999999999997,1.0
1626295256.5847917,-74.707,-84.961,-39.062,-141.602,1.0
1626295256.588698,-52.246,-65.918,-23.926,-81.543,1.0
1626295256.5926042,20.508000000000003,2.441,-20.996,62.988,1.0
1626295256.5965104,8.301,8.789,-33.691,26.366999999999997,1.0
1626295256.6004167,-58.593999999999994,1.465,-42.48,-120.117,1.0
1626295256.604323,-61.523,-123.535,-31.25,-106.445,1.0
1626295256.608229,-72.266,9.277000000000001,-37.598,-92.285,1.0
1626295256.6121356,-3.418,-60.059,-28.809,50.781000000000006,1.0
1626295256.6160414,-3.418,-80.566,-44.922,22.949,1.0
1626295256.6199481,-58.105,-3.418,-37.109,-108.887,1.0
1626295256.623854,-67.383,2.441,-21.484,-103.027,1.0
1626295256.6277602,-12.695,13.184000000000001,-16.602,31.25,1.0
1626295256.631667,27.831999999999997,-109.863,-21.973000000000003,66.895,1.0
1626295256.635573,-30.273000000000003,-76.66,-40.039,-64.941,1.0
1626295256.639479,-94.238,8.301,-35.156,-128.906,1.0
1626295256.6433854,-45.41,12.695,-35.156,-12.207,1.0
1626295256.6472914,1.953,-20.508000000000003,-46.387,68.359,1.0
1626295256.651198,-45.41,-166.016,-42.48,-42.48,1.0
1626295256.6551042,-36.621,20.02,-46.875,-143.555,1.0
1626295256.6590104,-89.355,-76.172,-76.66,-52.733999999999995,1.0
1626295256.6629167,-22.461,-97.16799999999999,-30.761999999999997,63.477,1.0
1626295256.666823,28.809,20.996,15.625,-0.977,1.0
1626295256.6707292,-19.531,23.438000000000002,-10.254000000000001,-133.30100000000002,1.0
1626295256.6746354,-97.16799999999999,-17.09,-44.922,-85.449,1.0
1626295256.6785414,-68.848,-145.02,-23.926,48.34,1.0
1626295256.682448,12.207,-74.707,-3.906,34.668,1.0
1626295256.6863542,-5.859,7.812,-36.133,-117.676,1.0
1626295256.6902604,-69.336,4.395,-44.922,-148.438,1.0
1626295256.6941667,-69.336,-8.789,-34.18,-3.906,1.0
1626295256.698073,-7.324,-137.207,-53.223,62.5,1.0
1626295256.7019792,23.926,-37.109,-42.968999999999994,70.801,1.0
1626295256.7058854,-30.273000000000003,36.621,-18.555,-75.684,1.0
1626295256.7097917,-76.66,3.906,-22.949,-125.977,1.0
1626295256.713698,-30.761999999999997,-31.25,-34.18,3.906,1.0
1626295256.7176042,13.672,-109.863,-27.344,62.5,1.0
1626295256.7215104,-28.32,-22.461,-47.363,-53.711000000000006,1.0
1626295256.725417,-69.824,18.066,-57.129,-129.88299999999998,1.0
1626295256.729323,-37.109,13.184000000000001,-45.898,-26.366999999999997,1.0
1626295256.733229,21.484,-25.879,-33.691,78.613,1.0
1626295256.7371356,5.859,-76.172,-13.184000000000001,-2.93,1.0
1626295256.7410414,-48.828,-26.366999999999997,-3.418,-119.141,1.0
1626295256.7449477,-21.484,-8.789,-8.301,-41.992,1.0
1626295256.748854,53.711000000000006,35.156,-3.418,100.098,1.0
1626295256.7527602,34.668,-52.246,-16.113,45.41,1.0
1626295256.756667,-54.199,-88.37899999999999,-39.062,-114.74600000000001,1.0
1626295256.760573,-65.43,12.695,-57.129,-105.95700000000001,1.0
1626295256.7644792,2.441,19.531,-53.711000000000006,45.41,1.0
1626295256.7683854,15.137,-5.859,-41.016000000000005,59.57,1.0
1626295256.7722914,-45.41,-172.363,-50.293,-85.449,1.0
1626295256.776198,-71.289,-124.023,-66.406,-121.094,1.0
1626295256.7801042,-15.137,-0.488,-54.688,19.043,1.0
1626295256.7840102,28.32,31.738000000000003,-17.09,85.449,1.0
1626295256.7879167,-10.254000000000001,31.25,1.953,-32.227,1.0
1626295256.791823,-79.102,-132.32399999999998,-20.508000000000003,-136.719,1.0
1626295256.7957292,-83.008,4.883,-25.879,-139.648,1.0
1626295256.7996354,-35.645,-37.598,-21.484,-18.066,1.0
1626295256.8035417,22.461,-47.852,-11.23,72.266,1.0
1626295256.807448,-28.809,-0.977,-36.133,-46.875,1.0
1626295256.8113542,-85.449,-0.488,-46.875,-153.809,1.0
1626295256.8152604,-28.809,18.066,-43.457,-35.156,1.0
1626295256.8191667,41.504,-90.33200000000001,-51.27,93.75,1.0
1626295256.823073,6.836,-90.82,-19.531,2.441,1.0
1626295256.8269792,-65.43,-36.621,-5.859,-134.27700000000002,1.0
1626295256.8308856,-68.359,-5.859,-30.273000000000003,-95.70299999999999,1.0
1626295256.8347917,-5.371,-1.953,-29.296999999999997,43.457,1.0
1626295256.838698,-15.137,-135.254,-41.992,16.113,1.0
1626295256.8426042,-75.684,-65.918,-47.363,1.0,1.0
1626295256.8465104,-86.426,13.184000000000001,-45.41,1.0,1.0
1626295256.8504167,-34.18,22.949,-53.223,1.0,1.0
1626295256.854323,8.301,-9.277000000000001,-28.809,1.0,1.0
1626295256.858229,-23.926,-114.258,-41.016000000000005,1.0,1.0
1626295256.8621356,-62.012,-42.48,-66.406,1.0,1.0
1626295256.8660414,-37.598,1.465,-31.738000000000003,1.0,1.0
1626295256.8699481,-3.418,10.742,-5.371,1.0,1.0
1626295256.873854,-28.32,-14.16,-10.254000000000001,1.0,1.0
1626295256.8777602,-88.867,-97.656,-40.039,1.0,1.0
1626295256.881667,-78.613,-40.527,-52.246,1.0,1.0
1626295256.885573,8.789,15.137,-12.695,1.0,1.0
1626295256.889479,11.23,24.414,1.465,18.555,1.0
1626295256.8933854,-72.266,-80.566,-33.691,-136.23,1.0
1626295256.8972914,-75.684,-89.355,-56.152,-113.77,1.0
1626295256.901198,-6.348,20.996,-33.691,41.016000000000005,1.0
1626295256.9051042,-1.953,17.09,-24.414,39.062,1.0
1626295256.9090104,-72.75399999999999,-13.672,-46.875,-112.305,1.0
1626295256.9129167,-101.56200000000001,-152.832,-50.293,-137.207,1.0
1626295256.916823,-39.062,-107.42200000000001,-17.09,7.812,1.0
1626295256.9207292,25.391,9.766,4.883,86.426,1.0
1626295256.9246354,-26.855,13.672,-12.207,-44.434,1.0
1626295256.9285414,-83.49600000000001,-20.508000000000003,-26.855,-132.32399999999998,1.0
1626295256.932448,-41.016000000000005,-157.715,-41.016000000000005,-13.184000000000001,1.0
1626295256.9363542,-16.602,3.906,-13.184000000000001,20.508000000000003,1.0
1626295256.9402604,18.555,-73.73,-24.901999999999997,77.148,1.0
1626295256.9441667,-23.926,-90.82,-33.203,-47.852,1.0
1626295256.948073,-70.801,13.672,-46.875,-127.441,1.0
1626295256.9519792,-48.828,20.508000000000003,-40.039,-36.621,1.0
1626295256.9558854,10.254000000000001,-9.766,-2.441,69.336,1.0
1626295256.9597917,-14.16,-163.57399999999998,-7.324,-11.719000000000001,1.0
1626295256.963698,-75.195,-117.676,-28.809,-143.066,1.0
1626295256.9676042,-65.43,15.137,-23.926,-80.078,1.0
1626295256.9715104,5.859,43.457,0.977,70.801,1.0
1626295256.975417,7.324,11.23,-11.719000000000001,37.109,1.0
1626295256.979323,-73.73,-149.90200000000002,-57.617,-125.0,1.0
1626295256.983229,-17.09,14.648,-40.039,-80.566,1.0
1626295256.9871356,-25.391,-44.434,-37.109,-47.363,1.0
1626295256.9910414,-13.672,-75.684,-24.414,38.574,1.0
1626295256.9949477,-21.484,-3.906,-18.066,3.906,1.0
1626295256.998854,-83.49600000000001,-2.441,-35.156,-140.137,1.0
1626295257.0027602,-95.70299999999999,-10.742,-35.156,-139.648,1.0
1626295257.006667,-18.555,-167.96900000000002,-30.273000000000003,24.901999999999997,1.0
1626295257.010573,23.926,-109.863,-40.039,67.383,1.0
1626295257.0144792,-33.691,12.695,-40.039,-72.75399999999999,1.0
1626295257.0183854,-83.984,18.555,-16.113,-136.23,1.0
1626295257.0222914,-27.831999999999997,-15.137,-4.883,-2.93,1.0
1626295257.026198,29.296999999999997,-202.637,-20.02,88.37899999999999,1.0
1626295257.0301042,5.371,-81.055,-31.738000000000003,1.0,1.0
1626295257.0340102,-52.246,36.621,-52.733999999999995,1.0,1.0
1626295257.0379167,-39.551,40.039,-42.968999999999994,1.0,1.0
1626295257.041823,12.695,-4.395,-21.484,1.0,1.0
1626295257.0457292,-5.371,-121.094,-19.531,1.0,1.0
1626295257.0496354,-56.641000000000005,-32.227,-8.301,1.0,1.0
1626295257.0535417,-67.87100000000001,23.438000000000002,-25.391,1.0,1.0
1626295257.057448,-11.719000000000001,25.391,-40.039,1.0,1.0
1626295257.0613542,-3.906,-43.457,-57.617,1.0,1.0
1626295257.0652604,-71.289,-119.141,-62.012,1.0,1.0
1626295257.0691667,-80.078,-8.789,-40.527,1.0,1.0
1626295257.073073,-24.901999999999997,15.625,-37.109,1.0,1.0
1626295257.0769792,20.508000000000003,21.973000000000003,-34.18,73.73,1.0
1626295257.0808856,-32.715,-80.566,-42.48,-53.711000000000006,1.0
1626295257.0847917,-87.891,-121.094,-44.922,-134.766,1.0
1626295257.088698,-36.133,0.488,-22.949,-13.672,1.0
1626295257.0926042,-0.488,23.926,-20.996,65.43,1.0
1626295257.0965104,-33.691,18.555,-21.484,-28.32,1.0
1626295257.1004167,-104.98,-149.414,-31.738000000000003,-150.879,1.0
1626295257.104323,-75.195,-124.023,-24.414,-61.035,1.0
1626295257.108229,0.0,-7.812,-11.719000000000001,76.66,1.0
1626295257.1121356,-12.695,5.859,-29.785,14.648,1.0
1626295257.1160414,-62.012,-12.207,-25.879,-105.95700000000001,1.0
1626295257.1199481,-77.148,-157.227,-34.18,-98.633,1.0
1626295257.123854,-55.663999999999994,-0.488,-33.203,-62.5,1.0
1626295257.1277602,13.184000000000001,-67.87100000000001,-45.898,69.336,1.0
1626295257.131667,10.254000000000001,-93.75,-51.758,22.949,1.0
1626295257.135573,-35.156,-15.137,-22.949,-93.75,1.0
1626295257.139479,-54.688,20.508000000000003,-12.207,-87.891,1.0
1626295257.1433854,-5.859,38.574,-18.066,38.086,1.0
1626295257.1472914,0.977,-113.77,-71.777,40.527,1.0
1626295257.151198,-58.593999999999994,-91.79700000000001,-87.402,-93.262,1.0
1626295257.1551042,-85.449,1.465,-39.062,-141.602,1.0
1626295257.1590104,-39.062,8.301,-6.348,-15.625,1.0
1626295257.1629167,4.883,-0.488,1.953,63.965,1.0
1626295257.166823,-36.133,-146.484,-29.296999999999997,-47.363,1.0
1626295257.1707292,-71.777,-62.5,-46.387,-127.441,1.0
1626295257.1746354,-37.598,7.812,-33.203,-45.41,1.0
1626295257.1785414,20.02,6.836,-16.602,74.707,1.0
1626295257.182448,9.277000000000001,-10.742,-34.668,19.531,1.0
1626295257.1863542,-80.078,-116.699,-61.523,-141.602,1.0
1626295257.1902604,-76.66,-30.761999999999997,-44.434,-95.215,1.0
1626295257.1941667,11.719000000000001,25.879,-20.508000000000003,61.035,1.0
1626295257.198073,23.438000000000002,29.296999999999997,-14.648,52.733999999999995,1.0
1626295257.2019792,-55.176,-29.785,-28.809,-96.68,1.0
1626295257.2058854,-68.359,-85.449,-21.973000000000003,-104.00399999999999,1.0
1626295257.2097917,16.113,18.066,1.465,54.199,1.0
1626295257.213698,33.691,20.508000000000003,-20.02,76.172,1.0
1626295257.2176042,-31.738000000000003,10.254000000000001,-36.621,-66.895,1.0
1626295257.2215104,-89.844,-66.406,-41.992,-147.94899999999998,1.0
1626295257.225417,-41.992,-78.613,-32.715,-21.484,1.0
1626295257.229323,38.086,12.695,-17.09,91.309,1.0
1626295257.233229,-2.441,1.953,-27.344,-20.02,1.0
1626295257.2371356,-64.453,0.488,-41.016000000000005,-125.0,1.0
1626295257.2410414,-59.082,-139.648,-52.246,-58.105,1.0
1626295257.2449477,14.648,-91.79700000000001,-23.926,77.148,1.0
1626295257.248854,22.949,16.602,-28.809,41.992,1.0
1626295257.2527602,-49.316,8.789,-49.805,-106.934,1.0
1626295257.256667,-65.43,-14.16,-27.344,-92.773,1.0
1626295257.260573,-27.831999999999997,-126.465,-42.968999999999994,15.625,1.0
1626295257.2644792,6.836,-45.898,-37.109,1.0,1.0
1626295257.2683854,-60.059,-4.883,-46.387,1.0,1.0
1626295257.2722914,-93.262,-0.488,-39.062,1.0,1.0
1626295257.276198,0.488,-3.418,0.0,1.0,1.0
1626295257.2801042,27.344,-112.79299999999999,-15.625,1.0,1.0
1626295257.2840102,-31.25,-39.551,-31.25,1.0,1.0
1626295257.2879167,-77.637,-8.301,-31.25,1.0,1.0
1626295257.291823,-22.949,-22.461,-31.738000000000003,1.0,1.0
1626295257.2957292,23.438000000000002,-56.152,-46.875,1.0,1.0
1626295257.2996354,-30.273000000000003,-95.215,-62.5,1.0,1.0
1626295257.3035417,-83.49600000000001,6.348,-48.34,1.0,1.0
1626295257.307448,-65.918,30.273000000000003,-21.484,1.0,1.0
1626295257.3113542,9.277000000000001,28.809,2.93,61.035,1.0
1626295257.3152604,0.488,-55.176,-26.366999999999997,8.301,1.0
1626295257.3191667,-68.848,-82.031,-37.598,-133.789,1.0
1626295257.323073,-51.27,2.441,-5.859,-90.33200000000001,1.0
1626295257.3269792,4.395,-9.766,-16.602,46.387,1.0
1626295257.3308856,14.648,-9.766,-34.18,51.758,1.0
1626295257.3347917,-59.082,-135.254,-74.707,-104.98,1.0
1626295257.338698,-88.867,-86.914,-64.941,-140.625,1.0
1626295257.3426042,-36.621,16.602,-25.879,-1.953,1.0
1626295257.3465104,-14.16,11.23,-23.438000000000002,38.086,1.0
1626295257.3504167,-56.152,-18.066,-37.598,-82.031,1.0
1626295257.354323,-114.74600000000001,-172.363,-63.477,-179.688,1.0
1626295257.358229,-83.984,-0.977,-21.973000000000003,-126.95299999999999,1.0
1626295257.3621356,-24.901999999999997,-60.547,-27.831999999999997,10.742,1.0
1626295257.3660414,34.18,-72.75399999999999,-35.156,85.93799999999999,1.0
1626295257.3699481,8.301,0.488,-9.277000000000001,-12.695,1.0
1626295257.373854,-47.852,-1.465,0.488,-105.469,1.0
1626295257.3777602,-41.504,-18.555,-29.785,-37.109,1.0
1626295257.381667,-5.371,-89.355,-55.176,54.688,1.0
1626295257.385573,-24.901999999999997,-46.875,-54.688,-17.09,1.0
1626295257.389479,-85.449,-3.418,-46.875,-144.043,1.0
1626295257.3933854,-70.312,10.254000000000001,-32.715,-83.984,1.0
1626295257.3972914,7.324,1.953,-9.766,65.918,1.0
1626295257.401198,5.859,-157.227,-16.113,33.691,1.0
1626295257.4051042,-39.551,-58.593999999999994,-9.766,1.0,1.0
1626295257.4090104,-54.688,18.066,-22.461,1.0,1.0
1626295257.4129167,-17.09,-14.648,-42.48,1.0,1.0
1626295257.416823,0.488,-49.316,-41.016000000000005,1.0,1.0
1626295257.4207292,-70.801,-154.297,-62.5,1.0,1.0
1626295257.4246354,-100.098,-51.27,-52.733999999999995,1.0,1.0
1626295257.4285414,-33.203,20.508000000000003,-31.738000000000003,1.0,1.0
1626295257.432448,14.16,27.344,-15.625,1.0,1.0
1626295257.4363542,-29.296999999999997,-22.461,-18.555,1.0,1.0
1626295257.4402604,-79.59,-96.191,-48.34,1.0,1.0
1626295257.4441667,-42.48,-0.977,-42.48,1.0,1.0
1626295257.448073,21.973000000000003,14.16,-4.883,1.0,1.0
1626295257.4519792,12.695,-4.883,-0.488,16.602,1.0
1626295257.4558854,-84.473,-100.586,-45.41,-133.789,1.0
1626295257.4597917,-80.566,-121.58200000000001,-42.968999999999994,-95.70299999999999,1.0
1626295257.463698,37.598,19.531,-15.137,91.79700000000001,1.0
1626295257.4676042,25.879,33.691,-38.086,61.035,1.0
1626295257.4715104,-64.941,9.277000000000001,-41.992,-109.375,1.0
1626295257.475417,-101.074,-120.117,-40.039,-144.531,1.0
1626295257.479323,-28.809,-79.102,-39.062,-0.977,1.0
1626295257.483229,22.461,10.254000000000001,-48.34,64.453,1.0
1626295257.4871356,-29.296999999999997,24.414,-32.227,-58.105,1.0
1626295257.4910414,-76.66,2.441,-18.066,-127.93,1.0
1626295257.4949477,-73.242,-183.105,-41.016000000000005,-49.316,1.0
1626295257.498854,-17.578,21.484,-16.602,29.296999999999997,1.0
1626295257.5027602,3.418,-62.012,-12.207,66.406,1.0
1626295257.506667,-46.387,-103.516,-20.02,-56.641000000000005,1.0
1626295257.510573,-57.617,-9.766,-30.761999999999997,-99.12100000000001,1.0
1626295257.5144792,-12.207,1.465,-41.016000000000005,9.277000000000001,1.0
1626295257.5183854,36.133,-6.348,-1.465,106.445,1.0
1626295257.5222914,-32.227,-147.461,-24.901999999999997,-25.879,1.0
1626295257.526198,-95.70299999999999,-100.586,-39.062,-156.25,1.0
1626295257.5301042,-64.941,-18.555,-30.761999999999997,-69.336,1.0
1626295257.5340102,12.207,-0.977,-37.109,70.312,1.0
1626295257.5379167,12.207,18.555,-32.227,28.32,1.0
1626295257.541823,-83.984,-121.58200000000001,-39.062,-136.719,1.0
1626295257.5457292,-69.824,27.344,-10.254000000000001,-112.305,1.0
1626295257.5496354,-75.195,-52.246,-32.227,39.062,1.0
1626295257.5535417,-3.418,-73.73,-29.296999999999997,54.199,1.0
1626295257.557448,20.996,0.488,-19.043,-82.031,1.0
1626295257.5613542,-54.199,-7.812,-44.434,-124.023,1.0
1626295257.5652604,-67.87100000000001,5.371,-32.715,20.508000000000003,1.0
1626295257.5691667,-27.831999999999997,-117.676,-33.691,86.426,1.0
1626295257.573073,-6.348,-87.402,-31.25,-46.387,1.0
1626295257.5769792,-41.504,-10.254000000000001,-17.578,-154.297,1.0
1626295257.5808856,-65.43,-23.926,-19.043,-65.918,1.0
1626295257.5847917,-25.879,-31.738000000000003,-35.156,63.477,1.0
1626295257.588698,-5.371,-149.414,-57.617,-0.488,1.0
1626295257.5926042,-24.901999999999997,-46.875,-26.366999999999997,1.0,1.0
1626295257.5965104,-69.336,17.09,-8.789,1.0,1.0
1626295257.6004167,-51.758,9.277000000000001,-18.555,1.0,1.0
1626295257.604323,-0.488,-14.16,-30.273000000000003,1.0,1.0
1626295257.608229,-26.366999999999997,-112.79299999999999,-49.805,1.0,1.0
1626295257.6121356,-73.242,-24.901999999999997,-46.387,1.0,1.0
1626295257.6160414,-52.733999999999995,26.366999999999997,-34.668,1.0,1.0
1626295257.6199481,30.273000000000003,41.504,-10.254000000000001,1.0,1.0
1626295257.623854,36.133,-38.086,-19.531,1.0,1.0
1626295257.6277602,-39.062,-140.625,-29.785,1.0,1.0
1626295257.631667,-71.289,-22.949,-30.761999999999997,1.0,1.0
1626295257.635573,-32.715,14.16,-34.668,1.0,1.0
1626295257.639479,6.348,1.953,-27.344,53.223,1.0
1626295257.6433854,-56.641000000000005,-70.312,-61.523,-96.68,1.0
1626295257.6472914,-105.469,-95.215,-62.988,-167.48,1.0
1626295257.651198,-36.133,2.441,-30.273000000000003,-20.02,1.0
1626295257.6551042,21.484,20.02,-31.738000000000003,70.801,1.0
1626295257.6590104,-7.324,26.855,-39.551,-20.996,1.0
1626295257.6629167,-76.66,-134.27700000000002,-80.078,-137.695,1.0
1626295257.666823,-47.852,-100.098,-67.87100000000001,-52.733999999999995,1.0
1626295257.6707292,37.598,33.691,-9.277000000000001,90.33200000000001,1.0
1626295257.6746354,13.672,17.09,0.977,21.973000000000003,1.0
1626295257.6785414,-82.031,-28.809,-18.555,-143.066,1.0
1626295257.682448,-101.56200000000001,-183.59400000000002,-39.062,-133.789,1.0
1626295257.6863542,-66.406,13.672,-29.785,-57.129,1.0
1626295257.6902604,1.953,-67.383,-20.508000000000003,68.848,1.0
1626295257.6941667,-9.277000000000001,-86.426,-34.18,16.113,1.0
1626295257.698073,-76.66,2.441,-48.34,-124.023,1.0
1626295257.7019792,-71.777,5.859,-28.32,-96.68,1.0
1626295257.7058854,0.488,21.484,-2.93,60.059,1.0
1626295257.7097917,-3.418,-91.79700000000001,-37.109,46.875,1.0
1626295257.713698,-55.663999999999994,-64.941,-41.992,-95.215,1.0
1626295257.7176042,-70.312,12.695,-23.438000000000002,-116.211,1.0
1626295257.7215104,-1.953,20.02,-20.996,33.203,1.0
1626295257.725417,51.27,14.648,-22.461,107.42200000000001,1.0
1626295257.729323,-14.648,-150.879,-26.855,-31.738000000000003,1.0
1626295257.733229,-65.918,-79.102,-11.719000000000001,1.0,1.0
1626295257.7371356,-30.273000000000003,-0.977,-27.831999999999997,1.0,1.0
1626295257.7410414,26.366999999999997,9.277000000000001,-35.156,1.0,1.0
1626295257.7449477,6.836,5.859,-14.16,1.0,1.0
1626295257.748854,-75.684,-118.164,-42.968999999999994,1.0,1.0
1626295257.7527602,-64.453,-48.34,-45.898,1.0,1.0
1626295257.756667,19.043,25.391,-7.324,1.0,1.0
1626295257.760573,29.785,41.992,5.371,1.0,1.0
1626295257.7644792,-55.176,-15.137,-19.531,1.0,1.0
1626295257.7683854,-91.309,-89.355,-36.133,1.0,1.0
1626295257.7722914,-17.09,-4.883,-33.203,1.0,1.0
1626295257.776198,18.066,12.695,-30.273000000000003,1.0,1.0
1626295257.7801042,-32.715,-1.953,-22.949,-67.383,1.0
1626295257.7840102,-72.75399999999999,-96.191,-48.34,-119.141,1.0
1626295257.7879167,-32.227,-125.488,-63.477,-0.977,1.0
1626295257.791823,7.812,4.883,-40.039,68.848,1.0
1626295257.7957292,-34.668,26.366999999999997,-31.738000000000003,-51.758,1.0
1626295257.7996354,-67.87100000000001,-0.977,-23.438000000000002,-125.977,1.0
1626295257.8035417,-39.062,-135.74200000000002,-37.598,-33.203,1.0
1626295257.807448,20.02,-66.406,-29.296999999999997,82.031,1.0
1626295257.8113542,-0.488,44.922,-18.555,13.672,1.0
1626295257.8152604,-75.195,19.043,-29.296999999999997,-133.30100000000002,1.0
1626295257.8191667,-75.684,-15.137,-29.785,-101.56200000000001,1.0
1626295257.823073,-16.113,-140.625,-41.504,26.366999999999997,1.0
1626295257.8269792,21.973000000000003,-52.246,-25.879,1.0,1.0
1626295257.8308856,-30.761999999999997,-4.883,-29.785,1.0,1.0
1626295257.8347917,-53.711000000000006,1.953,-39.551,1.0,1.0
1626295257.838698,10.742,-10.254000000000001,-32.715,1.0,1.0
1626295257.8426042,17.578,-137.207,-39.062,1.0,1.0
1626295257.8465104,-40.039,-36.133,-29.785,1.0,1.0
1626295257.8504167,-76.172,27.344,-30.761999999999997,1.0,1.0
1626295257.854323,-20.508000000000003,35.645,-6.348,1.0,1.0
1626295257.858229,28.32,-2.93,2.441,1.0,1.0
1626295257.8621356,-29.785,-99.12100000000001,-45.898,1.0,1.0
1626295257.8660414,-77.637,-19.531,-44.922,1.0,1.0
1626295257.8699481,-42.48,31.25,-17.578,1.0,1.0
1626295257.873854,20.02,31.25,-8.789,78.125,1.0
1626295257.8777602,14.648,-49.805,-21.973000000000003,25.391,1.0
1626295257.881667,-53.223,-95.215,-55.663999999999994,-115.723,1.0
1626295257.885573,-57.617,-20.996,-45.898,-90.82,1.0
1626295257.889479,6.348,5.371,-8.789,58.105,1.0
1626295257.8933854,22.949,31.25,0.488,62.5,1.0
1626295257.8972914,-52.733999999999995,-116.699,-19.043,-98.633,1.0
1626295257.901198,-83.984,-107.91,-14.16,-129.88299999999998,1.0
1626295257.9051042,-17.578,17.09,-13.184000000000001,15.137,1.0
1626295257.9090104,26.366999999999997,39.551,-20.996,67.383,1.0
1626295257.9129167,-41.016000000000005,-13.184000000000001,-43.945,-81.543,1.0
1626295257.916823,-117.676,-175.78099999999998,-81.543,-179.688,1.0
1626295257.9207292,-71.777,29.296999999999997,-28.809,-125.0,1.0
1626295257.9246354,-17.09,-49.316,-32.227,16.113,1.0
1626295257.9285414,9.277000000000001,-100.098,-64.941,67.87100000000001,1.0
1626295257.932448,-38.574,-8.789,-55.663999999999994,-58.593999999999994,1.0
1626295257.9363542,-80.078,24.414,4.883,-129.395,1.0
1626295257.9402604,-37.109,33.691,6.348,-11.23,1.0
1626295257.9441667,-13.672,-118.652,-47.363,61.035,1.0
1626295257.948073,-36.133,-98.145,-34.18,-20.02,1.0
1626295257.9519792,-81.543,-18.555,-11.719000000000001,-131.34799999999998,1.0
1626295257.9558854,-73.73,-30.273000000000003,-21.973000000000003,-81.543,1.0
1626295257.9597917,-1.465,-24.414,-27.831999999999997,57.617,1.0
1626295257.963698,-21.973000000000003,-174.31599999999997,-61.035,-2.441,1.0
1626295257.9676042,-74.219,-71.777,-41.504,-133.30100000000002,1.0
1626295257.9715104,-66.895,24.901999999999997,-25.391,-100.586,1.0
1626295257.975417,-1.465,25.391,-20.02,50.293,1.0
1626295257.979323,20.508000000000003,-6.836,-14.648,64.453,1.0
1626295257.983229,-54.688,-125.488,-46.875,-91.309,1.0
1626295257.9871356,-64.941,-41.016000000000005,-34.668,-109.863,1.0
1626295257.9910414,1.465,18.066,-19.043,38.086,1.0
1626295257.9949477,32.715,39.551,-28.809,91.79700000000001,1.0
1626295257.998854,-27.831999999999997,-27.831999999999997,-41.504,-50.293,1.0
1626295258.0027602,-90.82,-125.0,-50.781000000000006,-151.855,1.0
1626295258.006667,-53.711000000000006,-13.184000000000001,-46.875,-54.199,1.0
1626295258.010573,13.672,36.133,-27.344,63.965,1.0
1626295258.0144792,16.602,42.968999999999994,-7.324,16.602,1.0
1626295258.0183854,-62.012,-41.992,-21.484,-123.04700000000001,1.0
1626295258.0222914,-66.895,-84.473,-20.02,-79.102,1.0
1626295258.026198,21.484,11.719000000000001,0.0,88.867,1.0
1626295258.0301042,21.973000000000003,22.461,-14.16,63.965,1.0
1626295258.0340102,-36.621,0.488,-30.761999999999997,-79.59,1.0
1626295258.0379167,-74.219,-133.789,-58.593999999999994,-104.00399999999999,1.0
1626295258.041823,-28.32,-86.426,-53.223,19.531,1.0
1626295258.0457292,12.207,7.324,-23.926,57.617,1.0
1626295258.0496354,-49.805,4.395,-29.785,-81.543,1.0
1626295258.0535417,-91.309,-16.113,-40.039,-140.137,1.0
1626295258.057448,-56.641000000000005,-160.645,-53.711000000000006,-23.926,1.0
1626295258.0613542,-4.883,12.207,-27.344,28.32,1.0
1626295258.0652604,21.484,-68.848,-57.617,68.359,1.0
1626295258.0691667,-20.02,-88.37899999999999,-45.898,-53.223,1.0
1626295258.073073,-59.082,2.441,-3.418,-118.164,1.0
1626295258.0769792,-13.184000000000001,17.09,-0.977,9.277000000000001,1.0
1626295258.0808856,43.945,38.086,-13.672,113.281,1.0
1626295258.0847917,-9.277000000000001,-87.891,-55.663999999999994,-12.207,1.0
1626295258.088698,-81.055,-78.125,-51.758,-141.602,1.0
1626295258.0926042,-67.383,9.766,-22.949,-68.848,1.0
1626295258.0965104,-4.395,7.812,-9.277000000000001,57.617,1.0
1626295258.1004167,0.977,-12.695,-15.137,17.09,1.0
1626295258.104323,-67.87100000000001,-137.207,-25.879,-117.676,1.0
1626295258.108229,-58.105,11.23,-34.668,-79.102,1.0
1626295258.1121356,-58.593999999999994,-83.008,-43.945,82.031,1.0
1626295258.1160414,-4.395,-117.676,-34.668,83.984,1.0
1626295258.1199481,17.09,-10.254000000000001,-16.113,-74.707,1.0
1626295258.123854,-22.461,17.09,-7.812,-116.211,1.0
1626295258.1277602,-58.105,15.625,-31.25,21.484,1.0
1626295258.131667,-26.855,-126.95299999999999,-47.852,63.965,1.0
1626295258.135573,3.906,-90.33200000000001,-48.34,-58.593999999999994,1.0
1626295258.139479,-42.968999999999994,15.625,-51.758,-136.23,1.0
1626295258.1433854,-64.453,31.25,-30.273000000000003,-45.41,1.0
1626295258.1472914,-15.137,4.883,-25.879,63.477,1.0
1626295258.151198,8.301,-176.75799999999998,-30.273000000000003,6.836,1.0
1626295258.1551042,-23.438000000000002,-97.16799999999999,-24.901999999999997,1.0,1.0
1626295258.1590104,-62.988,0.488,-29.785,1.0,1.0
1626295258.1629167,-42.48,17.578,-28.809,1.0,1.0
1626295258.166823,12.207,4.395,-30.273000000000003,1.0,1.0
1626295258.1707292,4.395,-100.586,-24.901999999999997,1.0,1.0
1626295258.1746354,-46.387,-15.137,-19.043,1.0,1.0
1626295258.1785414,-55.663999999999994,1.465,-26.855,1.0,1.0
1626295258.182448,-5.371,2.441,-25.391,1.0,1.0
1626295258.1863542,2.441,-17.09,-38.574,1.0,1.0
1626295258.1902604,-62.988,-108.887,-66.895,1.0,1.0
1626295258.1941667,-64.453,-16.602,-46.387,1.0,1.0
1626295258.198073,6.348,10.254000000000001,-22.461,1.0,1.0
1626295258.2019792,24.414,1.953,-28.32,64.941,1.0
1626295258.2058854,-30.273000000000003,-44.434,-32.715,-74.219,1.0
1626295258.2097917,-63.965,-79.102,-26.366999999999997,-123.04700000000001,1.0
1626295258.213698,-8.789,6.348,1.953,13.672,1.0
1626295258.2176042,35.156,37.109,-10.254000000000001,90.33200000000001,1.0
1626295258.2215104,-14.648,19.531,-37.109,-31.738000000000003,1.0
1626295258.225417,-82.52,-136.23,-32.715,-143.555,1.0
1626295258.229323,-58.593999999999994,-94.727,-30.273000000000003,-54.688,1.0
1626295258.233229,7.324,21.484,-26.855,67.383,1.0
1626295258.2371356,-0.488,33.691,-37.109,8.301,1.0
1626295258.2410414,-64.453,-11.719000000000001,-31.738000000000003,-121.58200000000001,1.0
1626295258.2449477,-70.312,-203.613,-7.324,-86.914,1.0
1626295258.248854,-62.988,28.32,-17.578,-49.316,1.0
1626295258.2527602,-1.953,-36.133,-45.41,70.312,1.0
1626295258.256667,0.0,-71.777,-51.27,19.531,1.0
1626295258.260573,-73.242,11.23,-40.527,-134.27700000000002,1.0
1626295258.2644792,-84.473,20.996,-20.508000000000003,-114.74600000000001,1.0
1626295258.2683854,-9.766,30.273000000000003,-16.602,35.645,1.0
1626295258.2722914,5.371,-95.215,-42.968999999999994,31.25,1.0
1626295258.276198,-57.129,-85.93799999999999,-47.363,-108.887,1.0
1626295258.2801042,-86.914,-10.742,-30.273000000000003,-138.672,1.0
1626295258.2840102,-17.09,-9.766,-32.715,8.789,1.0
1626295258.2879167,33.203,-41.016000000000005,-59.082,85.449,1.0
1626295258.291823,-23.438000000000002,-170.41,-50.293,-43.457,1.0
1626295258.2957292,-79.102,-35.156,-32.227,1.0,1.0
1626295258.2996354,-47.852,53.711000000000006,-27.831999999999997,1.0,1.0
1626295258.3035417,13.672,40.039,-25.391,1.0,1.0
1626295258.307448,-11.719000000000001,-4.395,-38.574,1.0,1.0
1626295258.3113542,-75.195,-120.605,-34.18,1.0,1.0
1626295258.3152604,-65.43,-39.062,-26.366999999999997,1.0,1.0
1626295258.3191667,0.977,10.254000000000001,-39.062,1.0,1.0
1626295258.323073,11.23,12.695,-49.316,1.0,1.0
1626295258.3269792,-53.223,-20.508000000000003,-42.968999999999994,1.0,1.0
1626295258.3308856,-65.43,-88.867,-35.156,1.0,1.0
1626295258.3347917,9.766,-23.438000000000002,-28.32,1.0,1.0
1626295258.338698,40.527,-22.949,-21.484,1.0,1.0
1626295258.3426042,-24.901999999999997,-10.742,-32.227,-64.941,1.0
1626295258.3465104,-68.848,-36.133,-42.48,-117.676,1.0
1626295258.3504167,-25.391,-57.617,-32.227,8.789,1.0
1626295258.354323,21.484,22.949,-31.738000000000003,76.66,1.0
1626295258.358229,-23.926,29.296999999999997,-45.41,-53.223,1.0
1626295258.3621356,-85.93799999999999,18.555,-33.691,-155.273,1.0
1626295258.3660414,-63.477,-129.88299999999998,-34.18,-54.688,1.0
1626295258.3699481,5.371,-97.656,-39.062,60.059,1.0
1626295258.373854,7.812,16.113,-34.18,-2.441,1.0
1626295258.3777602,-40.527,-16.113,-32.715,-110.352,1.0
1626295258.381667,-18.066,-38.086,-34.668,-41.992,1.0
1626295258.385573,16.602,-123.535,-44.922,71.777,1.0
1626295258.389479,3.418,-24.414,-29.296999999999997,1.0,1.0
1626295258.3933854,-58.105,35.645,-6.836,1.0,1.0
1626295258.3972914,-88.37899999999999,17.578,-6.836,1.0,1.0
1626295258.401198,-37.598,-12.207,-20.02,1.0,1.0
1626295258.4051042,-15.137,-133.30100000000002,-38.086,1.0,1.0
1626295258.4090104,-68.848,-46.875,-42.48,1.0,1.0
1626295258.4129167,-104.00399999999999,-7.812,-34.18,1.0,1.0
1626295258.416823,-45.898,-15.137,-21.973000000000003,1.0,1.0
1626295258.4207292,2.441,-21.973000000000003,-22.461,1.0,1.0
1626295258.4246354,-43.457,-97.16799999999999,-36.133,1.0,1.0
1626295258.4285414,-95.215,-27.831999999999997,-38.574,1.0,1.0
1626295258.432448,-53.223,22.949,-25.879,1.0,1.0
1626295258.4363542,28.809,42.968999999999994,-8.789,90.33200000000001,1.0
1626295258.4402604,25.391,-44.434,-15.137,31.25,1.0
1626295258.4441667,-57.129,-113.281,-50.293,-115.234,1.0
1626295258.448073,-73.242,-30.761999999999997,-59.57,-87.402,1.0
1626295258.4519792,8.789,-10.742,-38.086,63.965,1.0
1626295258.4558854,21.484,0.488,-31.738000000000003,47.852,1.0
1626295258.4597917,-70.801,-139.16,-37.598,-123.04700000000001,1.0
1626295258.463698,-91.79700000000001,-91.309,-25.391,-130.859,1.0
1626295258.4676042,-15.137,42.48,-18.555,25.391,1.0
1626295258.4715104,14.648,51.27,-22.949,60.059,1.0
1626295258.475417,-45.898,20.996,-33.203,-80.078,1.0
1626295258.479323,-76.172,-153.809,-63.965,-131.34799999999998,1.0
1626295258.483229,-109.375,2.441,-59.082,-2.441,1.0
1626295258.4871356,-57.129,-27.344,-45.898,76.66,1.0
1626295258.4910414,-3.906,-64.941,-30.761999999999997,-31.738000000000003,1.0
1626295258.4949477,-46.387,-12.207,-31.738000000000003,-149.90200000000002,1.0
1626295258.498854,-94.727,-2.441,-29.296999999999997,-73.73,1.0
1626295258.5027602,-44.434,7.324,-23.438000000000002,67.383,1.0
1626295258.506667,-1.465,-125.977,-25.879,9.277000000000001,1.0
1626295258.510573,-31.738000000000003,-82.52,-38.086,-126.95299999999999,1.0
1626295258.5144792,-69.336,12.695,-54.199,-76.66,1.0
1626295258.5183854,-48.34,1.953,-33.691,63.965,1.0
1626295258.5222914,3.906,3.906,-21.973000000000003,57.617,1.0
1626295258.526198,-10.254000000000001,-151.855,-59.57,-102.051,1.0
1626295258.5301042,-76.66,-69.336,-51.758,1.0,1.0
1626295258.5340102,-85.93799999999999,25.391,-10.254000000000001,1.0,1.0
1626295258.5379167,-20.996,21.973000000000003,-6.836,1.0,1.0
1626295258.541823,7.324,4.883,-16.113,1.0,1.0
1626295258.5457292,-41.992,-103.027,-20.508000000000003,1.0,1.0
1626295258.5496354,-74.219,-50.781000000000006,-25.879,1.0,1.0
1626295258.5535417,-21.484,8.301,-20.996,1.0,1.0
1626295258.557448,34.18,28.32,-16.602,1.0,1.0
1626295258.5613542,-21.484,-41.504,-33.691,1.0,1.0
1626295258.5652604,-93.262,-123.04700000000001,-44.922,1.0,1.0
1626295258.5691667,-46.387,-13.672,-26.366999999999997,1.0,1.0
1626295258.573073,25.391,30.761999999999997,-12.207,1.0,1.0
1626295258.5769792,1.953,33.691,-20.508000000000003,4.395,1.0
1626295258.5808856,-72.266,-53.223,-45.41,-134.766,1.0
1626295258.5847917,-60.059,-102.051,-39.062,-75.684,1.0
1626295258.588698,16.113,1.465,-21.973000000000003,75.195,1.0
1626295258.5926042,26.366999999999997,23.438000000000002,-25.391,42.48,1.0
1626295258.5965104,-30.761999999999997,7.324,-26.366999999999997,-93.75,1.0
1626295258.6004167,-61.035,-100.586,-29.785,-95.70299999999999,1.0
1626295258.604323,-0.977,-66.406,-28.809,44.922,1.0
1626295258.608229,27.344,1.465,-34.668,69.824,1.0
1626295258.6121356,-47.852,-13.672,-33.203,-84.961,1.0
1626295258.6160414,-96.191,-37.109,-47.852,-145.996,1.0
1626295258.6199481,-47.363,-186.523,-39.551,-17.09,1.0
1626295258.623854,-15.137,26.366999999999997,-15.137,33.691,1.0
1626295258.6277602,16.113,-54.688,-23.438000000000002,63.965,1.0
1626295258.631667,-46.875,-133.30100000000002,-41.992,-79.59,1.0
1626295258.635573,-80.078,-29.785,-34.668,-133.30100000000002,1.0
1626295258.639479,-24.414,9.277000000000001,-36.621,0.488,1.0
1626295258.6433854,20.996,15.625,-16.602,81.055,1.0
1626295258.6472914,-32.715,-127.93,-27.831999999999997,-51.27,1.0
1626295258.651198,-98.145,-109.863,-51.27,-170.41,1.0
1626295258.6551042,-48.34,23.926,-21.484,-62.5,1.0
1626295258.6590104,26.855,42.968999999999994,-1.465,68.359,1.0
1626295258.6629167,7.324,2.441,-27.344,8.301,1.0
1626295258.666823,-71.777,-167.48,-72.266,-133.30100000000002,1.0
1626295258.6707292,-38.086,22.461,-54.688,-88.867,1.0
1626295258.6746354,-33.691,-65.918,-53.223,63.965,1.0
1626295258.6785414,12.695,-103.516,-37.598,51.758,1.0
1626295258.682448,15.625,5.371,-16.113,-104.00399999999999,1.0
1626295258.6863542,-41.992,30.273000000000003,-16.113,-130.371,1.0
1626295258.6902604,-53.711000000000006,32.227,-38.086,25.879,1.0
1626295258.6941667,-18.555,-93.262,-58.105,65.918,1.0
1626295258.698073,8.789,-74.707,-46.875,-78.613,1.0
1626295258.7019792,-35.156,-6.348,-42.48,-145.50799999999998,1.0
1626295258.7058854,-68.848,4.883,-49.805,-16.602,1.0
1626295258.7097917,-13.184000000000001,7.812,-28.32,86.914,1.0
1626295258.713698,-1.953,-173.828,-44.434,-7.812,1.0
1626295258.7176042,-37.598,-98.145,-53.711000000000006,1.0,1.0
1626295258.7215104,-85.93799999999999,4.395,-47.852,1.0,1.0
1626295258.725417,-65.918,21.973000000000003,-39.062,1.0,1.0
1626295258.729323,-0.977,10.742,-30.273000000000003,1.0,1.0
1626295258.733229,-30.273000000000003,-114.74600000000001,-36.133,1.0,1.0
1626295258.7371356,-95.70299999999999,-39.551,-32.227,1.0,1.0
1626295258.7410414,-67.87100000000001,12.207,-25.391,1.0,1.0
1626295258.7449477,11.719000000000001,-4.883,-27.831999999999997,1.0,1.0
1626295258.748854,8.301,-59.57,-36.621,1.0,1.0
1626295258.7527602,-62.988,-130.371,-47.363,1.0,1.0
1626295258.756667,-69.336,-18.066,-36.133,1.0,1.0
1626295258.760573,-6.836,53.223,-12.695,1.0,1.0
1626295258.7644792,6.836,52.733999999999995,-12.207,59.082,1.0
1626295258.7683854,-69.824,-32.227,-53.711000000000006,-98.145,1.0
1626295258.7722914,-106.445,-84.961,-51.27,-152.832,1.0
1626295258.776198,-51.27,-34.668,-22.461,-12.207,1.0
1626295258.7801042,1.953,-26.855,-11.23,70.312,1.0
1626295258.7840102,-20.02,-5.371,-10.254000000000001,-29.785,1.0
1626295258.7879167,-73.73,-103.027,-31.738000000000003,-122.07,1.0
1626295258.791823,-53.223,-73.242,-29.785,-28.32,1.0
1626295258.7957292,4.883,17.09,-14.648,76.66,1.0
1626295258.7996354,4.395,22.461,-3.418,12.207,1.0
1626295258.8035417,-54.688,-2.93,-0.488,-105.469,1.0
1626295258.807448,-75.684,-152.344,-31.738000000000003,-78.125,1.0
1626295258.8113542,-52.733999999999995,40.039,-31.25,-48.34,1.0
1626295258.8152604,11.719000000000001,-53.223,-20.996,70.312,1.0
1626295258.8191667,-4.883,-143.066,-29.785,16.602,1.0
1626295258.823073,-81.543,-30.273000000000003,-55.176,-126.95299999999999,1.0
1626295258.8269792,-77.148,13.672,-57.617,-94.727,1.0
1626295258.8308856,4.395,31.25,-20.508000000000003,62.5,1.0
1626295258.8347917,0.977,-82.031,-21.484,42.968999999999994,1.0
1626295258.838698,-60.059,-72.266,-45.41,-101.56200000000001,1.0
1626295258.8426042,-67.383,7.812,-26.855,-100.586,1.0
1626295258.8465104,-8.789,12.207,-7.324,38.574,1.0
1626295258.8504167,19.531,21.484,-13.184000000000001,75.195,1.0
1626295258.854323,-39.062,-122.07,-26.366999999999997,-61.523,1.0
1626295258.858229,-79.59,-76.66,-26.855,1.0,1.0
1626295258.8621356,-24.901999999999997,-9.277000000000001,-22.949,1.0,1.0
1626295258.8660414,37.598,11.719000000000001,-6.836,1.0,1.0
1626295258.8699481,6.348,-7.324,-16.602,1.0,1.0
1626295258.873854,-64.453,-142.578,-40.039,1.0,1.0
1626295258.8777602,-54.199,-51.27,-38.574,1.0,1.0
1626295258.881667,15.137,28.32,-32.227,1.0,1.0
1626295258.885573,20.996,40.527,-24.901999999999997,1.0,1.0
1626295258.889479,-41.504,5.859,-17.09,1.0,1.0
1626295258.8933854,-59.082,-75.684,-18.555,1.0,1.0
1626295258.8972914,19.531,-13.184000000000001,-6.836,1.0,1.0
1626295258.901198,62.5,-3.906,-11.719000000000001,1.0,1.0
1626295258.9051042,-21.973000000000003,-8.301,-34.668,-62.988,1.0
1626295258.9090104,-61.523,-65.43,-28.809,-105.95700000000001,1.0
1626295258.9129167,-4.395,-79.59,-12.695,26.855,1.0
1626295258.916823,20.508000000000003,38.086,-41.504,75.684,1.0
1626295258.9207292,-32.715,37.109,-45.41,-56.152,1.0
1626295258.9246354,-87.402,15.625,-20.996,-149.414,1.0
1626295258.9285414,-56.152,-106.934,-23.926,-42.48,1.0
1626295258.932448,13.184000000000001,-83.984,-17.09,76.66,1.0
1626295258.9363542,-10.742,-2.93,-19.043,-13.184000000000001,1.0
1626295258.9402604,-72.266,-13.672,-32.227,-139.648,1.0
1626295258.9441667,-42.48,-18.066,-14.648,-59.082,1.0
1626295258.948073,35.156,-163.57399999999998,-5.859,88.37899999999999,1.0
1626295258.9519792,29.296999999999997,-97.656,-35.645,41.504,1.0
1626295258.9558854,-39.551,2.441,-45.898,-112.305,1.0
1626295258.9597917,-56.152,28.809,-29.785,-106.445,1.0
1626295258.963698,-20.508000000000003,-13.184000000000001,-41.016000000000005,16.602,1.0
1626295258.9676042,-4.883,-143.066,-68.359,28.809,1.0
1626295258.9715104,-42.48,-22.461,-74.219,-95.70299999999999,1.0
1626295258.975417,-82.52,9.766,-60.547,-148.92600000000002,1.0
1626295258.979323,-33.203,-15.625,-28.809,-11.719000000000001,1.0
1626295258.983229,19.043,-15.137,-14.16,73.242,1.0
1626295258.9871356,-11.719000000000001,-87.891,-25.879,-34.18,1.0
1626295258.9910414,-41.992,-37.109,-24.414,-112.79299999999999,1.0
1626295258.9949477,1.465,6.348,-15.137,-6.348,1.0
1626295258.998854,55.176,48.828,-13.672,98.633,1.0
1626295259.0027602,2.441,-35.156,-32.227,-11.719000000000001,1.0
1626295259.006667,-89.355,-106.445,-59.082,-162.109,1.0
1626295259.010573,-67.383,-1.465,-53.223,-93.75,1.0
1626295259.0144792,28.32,20.508000000000003,-36.621,70.801,1.0
1626295259.0183854,41.992,10.742,-43.945,45.41,1.0
1626295259.0222914,-40.527,-139.648,-65.43,-114.258,1.0
1626295259.026198,-54.688,-98.633,-48.828,-104.492,1.0
1626295259.0301042,23.926,35.645,-27.344,62.5,1.0
1626295259.0340102,51.758,29.296999999999997,-28.32,89.844,1.0
1626295259.0379167,-19.531,-0.977,-41.992,-61.035,1.0
1626295259.041823,-69.824,-154.785,-58.105,-124.512,1.0
1626295259.0457292,-48.828,20.508000000000003,-8.301,35.156,1.0
1626295259.0496354,-2.441,-39.551,-10.742,117.18799999999999,1.0
1626295259.0535417,25.879,-74.707,-26.855,-19.531,1.0
1626295259.057448,-26.366999999999997,2.441,-37.598,-140.137,1.0
1626295259.0613542,-85.449,7.324,-31.738000000000003,-67.383,1.0
1626295259.0652604,-33.691,22.949,-20.02,80.078,1.0
1626295259.0691667,16.113,-104.98,-39.062,28.32,1.0
1626295259.073073,-20.508000000000003,-87.891,-48.34,-123.535,1.0
1626295259.0769792,-70.312,7.812,-42.968999999999994,-83.984,1.0
1626295259.0808856,-37.109,-0.488,-28.809,69.824,1.0
1626295259.0847917,43.457,7.812,-12.207,69.824,1.0
1626295259.088698,30.273000000000003,-151.36700000000002,-35.156,-73.242,1.0
1626295259.0926042,-50.293,-90.82,-32.715,1.0,1.0
1626295259.0965104,-68.848,4.883,-14.648,1.0,1.0
1626295259.1004167,-1.953,34.18,-24.414,1.0,1.0
1626295259.104323,1.953,19.043,-44.922,1.0,1.0
1626295259.108229,-80.566,-108.887,-50.781000000000006,1.0,1.0
1626295259.1121356,-78.613,-35.645,-28.32,1.0,1.0
1626295259.1160414,-3.418,13.184000000000001,-16.113,1.0,1.0
1626295259.1199481,41.504,2.441,-15.625,1.0,1.0
1626295259.123854,-10.742,-40.527,-33.203,1.0,1.0
1626295259.1277602,-89.355,-96.191,-58.593999999999994,1.0,1.0
1626295259.131667,-27.344,22.461,-28.32,1.0,1.0
1626295259.135573,30.761999999999997,49.316,-10.742,1.0,1.0
1626295259.139479,-35.645,25.879,-36.621,-43.945,1.0
1626295259.1433854,-108.398,-33.203,-56.152,-179.199,1.0
1626295259.1472914,-89.355,-57.129,-40.527,-109.375,1.0
1626295259.151198,-26.855,26.855,-27.344,28.809,1.0
1626295259.1551042,-32.227,20.508000000000003,-34.668,-13.672,1.0
1626295259.1590104,-96.191,-5.859,-41.016000000000005,-158.691,1.0
1626295259.1629167,-108.887,-128.906,-44.922,-154.785,1.0
1626295259.166823,-15.137,-66.895,-38.086,13.184000000000001,1.0
1626295259.1707292,8.789,36.133,-55.176,24.414,1.0
1626295259.1746354,-61.035,18.555,-65.43,-134.27700000000002,1.0
1626295259.1785414,-79.59,5.859,-47.852,-156.738,1.0
1626295259.182448,-39.062,-154.785,-63.965,-30.273000000000003,1.0
1626295259.1863542,-8.789,38.086,-32.227,45.898,1.0
1626295259.1902604,13.672,-34.668,-18.066,73.73,1.0
1626295259.1941667,-58.593999999999994,-115.234,-39.062,-83.008,1.0
1626295259.198073,-78.613,-11.23,-24.414,-121.58200000000001,1.0
1626295259.2019792,-20.02,35.156,2.441,13.672,1.0
1626295259.2058854,16.113,42.48,-1.465,80.566,1.0
1626295259.2097917,-48.34,-119.62899999999999,-38.086,-58.105,1.0
1626295259.213698,-100.098,-135.254,-49.805,-159.18,1.0
1626295259.2176042,-46.875,-17.09,-32.715,-42.48,1.0
1626295259.2215104,3.906,13.672,-32.715,64.941,1.0
1626295259.225417,-27.344,11.23,-54.688,-17.578,1.0
1626295259.229323,-97.16799999999999,-167.96900000000002,-64.453,-149.414,1.0
1626295259.233229,-79.59,5.859,-38.086,-93.262,1.0
1626295259.2371356,-74.219,-54.688,-46.875,46.387,1.0
1626295259.2410414,-17.09,-98.633,-46.875,24.901999999999997,1.0
1626295259.2449477,-7.812,-12.207,-46.875,-119.141,1.0
1626295259.248854,-72.75399999999999,-16.113,-42.48,-143.555,1.0
1626295259.2527602,-61.035,-5.859,-8.789,17.09,1.0
1626295259.256667,-9.766,-117.676,-9.766,77.637,1.0
1626295259.260573,0.977,-87.891,-25.391,-55.176,1.0
1626295259.2644792,-41.992,20.996,-33.691,-136.23,1.0
1626295259.2683854,-58.593999999999994,20.996,-18.066,-31.738000000000003,1.0
1626295259.2722914,5.859,16.113,12.695,75.195,1.0
1626295259.276198,9.277000000000001,-141.113,-11.719000000000001,-21.973000000000003,1.0
1626295259.2801042,-58.593999999999994,-79.102,-41.016000000000005,1.0,1.0
1626295259.2840102,-87.891,-6.348,-40.527,1.0,1.0
1626295259.2879167,-13.672,16.113,-22.949,1.0,1.0
1626295259.291823,33.203,-7.812,-20.996,1.0,1.0
1626295259.2957292,-30.761999999999997,-185.547,-29.296999999999997,1.0,1.0
1626295259.2996354,-89.844,-76.66,-22.949,1.0,1.0
1626295259.3035417,-60.059,34.18,-12.207,1.0,1.0
1626295259.307448,17.578,38.086,3.906,1.0,1.0
1626295259.3113542,5.371,-29.296999999999997,-4.395,1.0,1.0
1626295259.3152604,-65.43,-138.672,-12.207,1.0,1.0
1626295259.3191667,-56.641000000000005,-31.738000000000003,9.277000000000001,1.0,1.0
1626295259.323073,-7.324,7.324,-6.348,1.0,1.0
1626295259.3269792,2.441,-0.488,-39.551,61.523,1.0
1626295259.3308856,-72.75399999999999,-67.87100000000001,-62.5,-100.098,1.0
1626295259.3347917,-113.77,-128.418,-55.176,-145.02,1.0
1626295259.338698,-28.809,-27.344,-6.348,20.508000000000003,1.0
1626295259.3426042,27.344,2.93,8.301,86.426,1.0
1626295259.3465104,-18.555,-38.574,1.465,-42.968999999999994,1.0
1626295259.3504167,-68.848,-163.57399999999998,-20.02,-125.977,1.0
1626295259.354323,-22.949,-82.031,-24.414,-7.812,1.0
1626295259.358229,37.598,35.645,-11.23,100.586,1.0
1626295259.3621356,0.488,29.785,-29.296999999999997,-3.418,1.0
1626295259.3660414,-79.102,4.883,-43.457,-134.766,1.0
1626295259.3699481,-79.102,-168.457,-32.227,-84.473,1.0
1626295259.373854,-57.617,10.254000000000001,-9.277000000000001,-43.945,1.0
1626295259.3777602,11.23,-48.828,-13.672,80.566,1.0
1626295259.381667,-17.578,-122.559,-41.016000000000005,-1.465,1.0
1626295259.385573,-83.49600000000001,-62.988,-48.34,-136.719,1.0
1626295259.389479,-69.336,-35.156,-42.48,-85.93799999999999,1.0
1626295259.3933854,7.324,20.996,-22.949,67.383,1.0
1626295259.3972914,35.645,-48.34,-2.441,67.383,1.0
1626295259.401198,-45.898,-66.406,-19.043,-93.75,1.0
1626295259.4051042,-94.727,6.836,-34.18,-129.88299999999998,1.0
1626295259.4090104,-47.363,24.414,-33.203,0.0,1.0
1626295259.4129167,-23.926,-0.488,-38.086,25.391,1.0
1626295259.416823,-65.918,-172.852,-39.062,-101.074,1.0
1626295259.4207292,-91.79700000000001,-99.12100000000001,-42.968999999999994,1.0,1.0
1626295259.4246354,-47.852,-3.906,-43.457,1.0,1.0
1626295259.4285414,7.812,-5.859,-30.761999999999997,1.0,1.0
1626295259.432448,-13.184000000000001,-23.438000000000002,-25.879,1.0,1.0
1626295259.4363542,-80.078,-126.465,-31.738000000000003,1.0,1.0
1626295259.4402604,-51.27,-16.602,-26.855,1.0,1.0
1626295259.4441667,0.977,35.156,-33.203,1.0,1.0
1626295259.448073,-20.508000000000003,14.648,-41.992,1.0,1.0
1626295259.4519792,-69.336,-24.414,-26.366999999999997,1.0,1.0
1626295259.4558854,-68.848,-113.77,-13.672,1.0,1.0
1626295259.4597917,-3.418,-39.551,-6.836,1.0,1.0
1626295259.463698,22.461,8.301,-3.906,1.0,1.0
1626295259.4676042,-34.18,24.414,-16.602,-77.148,1.0
1626295259.4715104,-79.59,-46.387,-62.988,-120.605,1.0
1626295259.475417,-24.901999999999997,-83.49600000000001,-72.266,8.789,1.0
1626295259.479323,20.02,0.488,-41.504,67.87100000000001,1.0
1626295259.483229,-38.086,17.09,-46.387,-67.87100000000001,1.0
1626295259.4871356,-65.43,52.733999999999995,-25.391,-124.023,1.0
1626295259.4910414,-9.766,-77.148,1.953,1.953,1.0
1626295259.4949477,28.809,-95.70299999999999,-19.531,81.543,1.0
1626295259.498854,-14.16,0.0,-36.621,-25.391,1.0
1626295259.5027602,-86.914,9.277000000000001,-37.109,-146.97299999999998,1.0
1626295259.506667,-67.383,-5.371,-35.645,-68.359,1.0
1626295259.510573,4.395,-170.41,-39.062,72.266,1.0
1626295259.5144792,9.766,42.48,-31.738000000000003,57.129,1.0
1626295259.5183854,-3.906,-19.043,-26.855,-18.066,1.0
1626295259.5222914,-76.66,-92.773,-41.992,-148.92600000000002,1.0
1626295259.526198,-60.059,-7.812,-37.109,-84.473,1.0
1626295259.5301042,20.02,10.254000000000001,-14.648,65.43,1.0
1626295259.5340102,20.02,11.719000000000001,-22.461,31.25,1.0
1626295259.5379167,-51.758,-123.535,-48.34,-119.141,1.0
1626295259.541823,-69.336,-109.863,-41.016000000000005,-106.934,1.0
1626295259.5457292,-7.324,9.766,-21.973000000000003,35.156,1.0
1626295259.5496354,22.461,19.531,-28.32,54.688,1.0
1626295259.5535417,-15.137,5.859,-48.34,-69.336,1.0
1626295259.557448,-50.781000000000006,-131.836,-52.246,-118.652,1.0
1626295259.5613542,-83.984,14.648,-32.227,2.93,1.0
1626295259.5652604,-21.484,-13.672,-10.742,74.707,1.0
1626295259.5691667,13.672,-76.172,-30.761999999999997,-41.504,1.0
1626295259.573073,-41.016000000000005,-35.156,-45.41,-137.207,1.0
1626295259.5769792,-84.473,-29.785,-44.434,-39.551,1.0
1626295259.5808856,-47.852,15.625,-53.223,72.75399999999999,1.0
1626295259.5847917,3.418,-79.59,-45.41,-1.465,1.0
1626295259.588698,-8.789,-65.918,-30.761999999999997,-136.719,1.0
1626295259.5926042,-68.359,26.855,-17.578,-94.238,1.0
1626295259.5965104,-55.663999999999994,13.672,-10.742,53.711000000000006,1.0
1626295259.6004167,11.719000000000001,-6.348,-19.531,49.805,1.0
1626295259.604323,-7.812,-162.109,-41.992,-114.74600000000001,1.0
1626295259.608229,-64.453,-91.309,-37.109,1.0,1.0
1626295259.6121356,-60.547,-12.207,-27.831999999999997,1.0,1.0
1626295259.6160414,-3.906,-30.761999999999997,-33.203,1.0,1.0
1626295259.6199481,12.695,-35.645,-34.668,1.0,1.0
1626295259.623854,-63.477,-105.95700000000001,-32.715,1.0,1.0
1626295259.6277602,-78.613,-9.277000000000001,-34.668,1.0,1.0
1626295259.631667,-3.418,45.41,-43.945,1.0,1.0
1626295259.635573,15.137,34.668,-43.945,1.0,1.0
1626295259.639479,-59.082,-36.133,-42.968999999999994,1.0,1.0
1626295259.6433854,-109.863,-150.391,-39.551,1.0,1.0
1626295259.6472914,-50.293,-49.805,-24.901999999999997,1.0,1.0
1626295259.651198,20.996,0.488,-17.578,1.0,1.0
1626295259.6551042,-4.883,3.906,-20.508000000000003,-20.508000000000003,1.0
1626295259.6590104,-75.195,-52.733999999999995,-46.875,-137.695,1.0
1626295259.6629167,-59.082,-83.49600000000001,-43.457,-63.477,1.0
1626295259.666823,11.719000000000001,22.461,-26.855,65.43,1.0
1626295259.6707292,9.766,37.109,-36.621,16.602,1.0
1626295259.6746354,-66.406,14.16,-34.668,-125.488,1.0
1626295259.6785414,-95.215,-141.602,-42.968999999999994,-123.04700000000001,1.0
1626295259.682448,-20.996,-115.723,-40.527,18.555,1.0
1626295259.6863542,7.812,14.648,-24.901999999999997,31.738000000000003,1.0
1626295259.6902604,-54.199,20.02,-19.531,-108.398,1.0
1626295259.6941667,-75.195,-8.301,-18.066,-127.93,1.0
1626295259.698073,-37.109,-200.68400000000003,-33.203,-1.953,1.0
1626295259.7019792,-8.301,14.16,-17.09,36.621,1.0
1626295259.7058854,15.625,-15.137,-35.645,54.688,1.0
1626295259.7097917,-40.527,-68.848,-50.293,-78.613,1.0
1626295259.713698,-56.152,12.695,-34.668,-99.12100000000001,1.0
1626295259.7176042,-15.625,29.296999999999997,-41.992,25.879,1.0
1626295259.7215104,28.32,39.062,-31.738000000000003,88.867,1.0
1626295259.725417,-16.602,-86.914,-1.465,-32.715,1.0
1626295259.729323,-90.33200000000001,-111.816,-8.301,-144.531,1.0
1626295259.733229,-58.593999999999994,-17.09,-17.578,-51.27,1.0
1626295259.7371356,13.184000000000001,-8.789,-5.859,79.102,1.0
1626295259.7410414,-14.16,-29.785,-15.137,0.488,1.0
1626295259.7449477,-100.586,-158.203,-50.293,-150.879,1.0
1626295259.748854,-67.87100000000001,-46.387,-37.598,1.0,1.0
1626295259.7527602,33.203,54.688,3.906,1.0,1.0
1626295259.756667,41.992,19.531,-2.93,1.0,1.0
1626295259.760573,-44.922,-24.414,-41.992,1.0,1.0
1626295259.7644792,-100.586,-140.137,-62.988,1.0,1.0
1626295259.7683854,-26.855,-22.949,-28.809,1.0,1.0
1626295259.7722914,35.156,47.363,-0.488,1.0,1.0
1626295259.776198,-29.785,3.418,-24.414,1.0,1.0
1626295259.7801042,-86.914,-33.203,-39.551,1.0,1.0
1626295259.7840102,-46.387,-86.426,-27.344,1.0,1.0
1626295259.7879167,14.648,-3.418,-15.625,1.0,1.0
1626295259.791823,-7.324,16.602,-12.207,1.0,1.0
1626295259.7957292,-57.617,9.277000000000001,-9.277000000000001,-121.58200000000001,1.0
1626295259.7996354,-48.34,-47.363,-26.855,-47.852,1.0
1626295259.8035417,13.184000000000001,-88.867,-40.039,74.219,1.0
1626295259.807448,21.973000000000003,-3.418,-50.781000000000006,28.809,1.0
1626295259.8113542,-46.875,-13.672,-57.129,-116.699,1.0
1626295259.8152604,-55.176,-8.301,-30.761999999999997,-86.426,1.0
1626295259.8191667,-6.836,-89.355,-20.996,40.039,1.0
1626295259.823073,-3.418,-69.336,-25.391,17.578,1.0
1626295259.8269792,-64.453,11.23,-30.273000000000003,-121.094,1.0
1626295259.8308856,-68.359,13.672,-27.831999999999997,-113.77,1.0
1626295259.8347917,8.789,21.973000000000003,-19.043,46.387,1.0
1626295259.838698,27.831999999999997,-117.18799999999999,-31.738000000000003,67.87100000000001,1.0
1626295259.8426042,-19.531,-62.5,-33.691,-61.035,1.0
1626295259.8465104,-57.129,6.348,-45.898,-112.305,1.0
1626295259.8504167,-8.789,5.371,-46.387,8.301,1.0
1626295259.854323,39.551,-5.371,-26.855,91.309,1.0
1626295259.858229,-4.883,-144.043,-26.366999999999997,-13.672,1.0
1626295259.8621356,-62.5,-56.641000000000005,-36.133,-122.559,1.0
1626295259.8660414,-52.246,20.02,-41.016000000000005,-58.105,1.0
1626295259.8699481,17.09,32.715,-9.277000000000001,78.613,1.0
1626295259.873854,8.789,5.371,-4.395,30.761999999999997,1.0
1626295259.8777602,-83.49600000000001,-96.68,-39.062,-136.23,1.0
1626295259.881667,-77.148,-18.066,-37.109,-100.586,1.0
1626295259.885573,10.742,27.344,-27.831999999999997,69.336,1.0
1626295259.889479,36.621,14.648,-32.227,79.59,1.0
1626295259.8933854,-22.949,-37.598,-42.48,-75.684,1.0
1626295259.8972914,-71.777,-61.035,-42.968999999999994,-132.812,1.0
1626295259.901198,-32.227,18.555,-32.227,-7.812,1.0
1626295259.9051042,7.324,42.48,-25.879,45.898,1.0
1626295259.9090104,-28.32,44.922,-36.133,-71.289,1.0
1626295259.9129167,-73.242,-104.492,-43.945,-146.484,1.0
1626295259.916823,-36.621,-102.539,-44.434,-39.551,1.0
1626295259.9207292,30.273000000000003,17.09,-51.758,65.918,1.0
1626295259.9246354,3.906,22.461,-51.27,-20.996,1.0
1626295259.9285414,-68.848,-0.977,-35.156,-146.484,1.0
1626295259.932448,-77.148,-164.062,-49.316,-103.027,1.0
1626295259.9363542,-24.414,24.901999999999997,-21.484,-22.461,1.0
1626295259.9402604,5.371,-30.273000000000003,-28.32,62.5,1.0
1626295259.9441667,-17.578,-79.59,-41.504,-22.949,1.0
1626295259.948073,-74.707,11.719000000000001,-40.527,-142.09,1.0
1626295259.9519792,-65.918,25.391,-33.691,-93.262,1.0
1626295259.9558854,19.531,25.391,-23.926,59.082,1.0
1626295259.9597917,24.901999999999997,-99.609,-32.715,36.133,1.0
1626295259.963698,-50.781000000000006,-97.656,-41.016000000000005,-115.723,1.0
1626295259.9676042,-64.453,-14.648,-40.039,-104.492,1.0
1626295259.9715104,14.648,-12.207,-13.672,55.663999999999994,1.0
1626295259.975417,41.992,6.348,-13.184000000000001,77.148,1.0
1626295259.979323,-45.898,-125.488,-53.223,-92.773,1.0
1626295259.983229,-91.309,-40.039,-52.246,1.0,1.0
1626295259.9871356,-36.133,47.852,-37.109,1.0,1.0
1626295259.9910414,12.695,33.203,-29.785,1.0,1.0
1626295259.9949477,-27.344,-27.344,-28.32,1.0,1.0
1626295259.998854,-82.031,-156.738,-34.18,1.0,1.0
1626295260.0027602,-44.922,-34.668,-21.973000000000003,1.0,1.0
1626295260.006667,13.672,27.831999999999997,-15.625,1.0,1.0
1626295260.010573,9.277000000000001,0.977,-24.901999999999997,1.0,1.0
1626295260.0144792,-57.617,-37.598,-30.761999999999997,1.0,1.0
1626295260.0183854,-69.336,-118.164,-31.738000000000003,1.0,1.0
1626295260.0222914,1.953,-18.555,-30.761999999999997,1.0,1.0
1626295260.026198,12.207,40.039,-36.133,1.0,1.0
1626295260.0301042,-57.617,33.691,-38.086,-107.42200000000001,1.0
1626295260.0340102,-89.355,-33.691,-28.809,-124.023,1.0
1626295260.0379167,-35.156,-95.70299999999999,-19.043,9.277000000000001,1.0
1626295260.041823,3.906,-13.672,-19.043,53.711000000000006,1.0
1626295260.0457292,-48.828,8.789,-31.25,-78.613,1.0
1626295260.0496354,-80.566,0.488,-28.809,-142.09,1.0
1626295260.0535417,-41.016000000000005,-99.12100000000001,-27.831999999999997,-17.578,1.0
1626295260.057448,-1.953,-93.75,-41.016000000000005,70.801,1.0
1626295260.0613542,-26.366999999999997,-1.953,-46.387,-32.715,1.0
1626295260.0652604,-77.637,24.901999999999997,-32.715,-135.74200000000002,1.0
1626295260.0691667,-56.152,23.926,-22.461,-52.246,1.0
1626295260.073073,-8.301,-147.94899999999998,-25.879,60.059,1.0
1626295260.0769792,47.852,25.391,-12.695,103.027,1.0
1626295260.0808856,-10.742,-28.809,-29.296999999999997,-18.555,1.0
1626295260.0847917,-78.125,-109.375,-38.574,-144.043,1.0
1626295260.088698,-38.086,-16.113,-19.043,-52.246,1.0
1626295260.0926042,36.621,25.879,-26.855,87.891,1.0
1626295260.0965104,32.227,48.828,-33.203,41.504,1.0
1626295260.1004167,-68.359,-83.984,-37.109,-127.441,1.0
1626295260.104323,-99.12100000000001,-100.586,-40.039,-122.07,1.0
1626295260.108229,-23.438000000000002,6.836,-20.508000000000003,38.574,1.0
1626295260.1121356,-2.441,18.555,-15.625,48.828,1.0
1626295260.1160414,-52.733999999999995,12.695,-24.901999999999997,-88.867,1.0
1626295260.1199481,-99.609,-143.555,-43.457,-142.578,1.0
1626295260.123854,-83.984,21.484,-37.109,-110.352,1.0
1626295260.1277602,-14.648,-21.484,-22.461,38.574,1.0
1626295260.131667,15.625,-78.613,-20.02,62.988,1.0
1626295260.135573,-36.621,-21.484,-21.484,-66.406,1.0
1626295260.139479,-82.52,-4.883,-33.691,-127.93,1.0
1626295260.1433854,-25.879,27.344,-28.809,-2.441,1.0
1626295260.1472914,7.324,-81.543,-48.34,59.57,1.0
1626295260.151198,-32.227,-99.12100000000001,-53.223,-58.593999999999994,1.0
1626295260.1551042,-65.918,0.488,-41.016000000000005,-145.02,1.0
1626295260.1590104,-45.898,9.277000000000001,-36.133,-60.547,1.0
1626295260.1629167,7.812,-18.555,-18.066,55.663999999999994,1.0
1626295260.166823,-29.785,-165.52700000000002,-28.809,-23.438000000000002,1.0
1626295260.1707292,-85.93799999999999,-72.266,-30.273000000000003,1.0,1.0
1626295260.1746354,-53.223,37.598,-19.043,1.0,1.0
1626295260.1785414,14.16,40.527,-25.391,1.0,1.0
1626295260.182448,6.836,-26.855,-43.457,1.0,1.0
1626295260.1863542,-77.637,-194.824,-62.5,1.0,1.0
1626295260.1902604,-85.93799999999999,-84.473,-53.223,1.0,1.0
1626295260.1941667,-19.043,0.977,-25.391,1.0,1.0
1626295260.198073,15.137,23.926,-15.137,1.0,1.0
1626295260.2019792,-36.621,-4.883,-40.527,1.0,1.0
1626295260.2058854,-94.727,-117.18799999999999,-56.641000000000005,1.0,1.0
1626295260.2097917,-43.945,-18.066,-36.133,1.0,1.0
1626295260.213698,32.715,10.742,-24.901999999999997,1.0,1.0
1626295260.2176042,-7.812,-19.043,-45.41,-31.738000000000003,1.0
1626295260.2215104,-90.33200000000001,-43.457,-52.246,-164.551,1.0
1626295260.225417,-69.336,-60.547,-37.598,-84.473,1.0
1626295260.229323,-1.953,11.23,-26.855,46.875,1.0
1626295260.233229,1.465,20.996,-22.949,1.465,1.0
1626295260.2371356,-51.27,13.672,-31.25,-125.977,1.0
1626295260.2410414,-75.684,-126.465,-48.828,-107.42200000000001,1.0
1626295260.2449477,-4.883,-105.469,-29.296999999999997,42.968999999999994,1.0
1626295260.248854,21.973000000000003,20.02,-5.371,43.945,1.0
1626295260.2527602,-38.086,19.531,-26.366999999999997,-94.238,1.0
1626295260.256667,-52.733999999999995,10.254000000000001,-32.715,-103.516,1.0
1626295260.260573,-12.695,-146.97299999999998,-33.203,20.508000000000003,1.0
1626295260.2644792,-4.395,20.508000000000003,-41.016000000000005,61.035,1.0
1626295260.2683854,7.812,-7.812,-21.484,58.593999999999994,1.0
1626295260.2722914,-54.688,-77.637,-16.602,-86.914,1.0
1626295260.276198,-77.148,-8.301,-16.602,-118.164,1.0
1626295260.2801042,-30.273000000000003,6.348,-16.602,8.789,1.0
1626295260.2840102,18.555,21.484,-16.602,76.172,1.0
1626295260.2879167,-3.418,-73.73,-8.301,-20.508000000000003,1.0
1626295260.291823,-54.199,-97.16799999999999,-16.113,-103.516,1.0
1626295260.2957292,-51.758,0.488,-31.738000000000003,-30.761999999999997,1.0
1626295260.2996354,-7.324,33.203,-27.831999999999997,62.5,1.0
1626295260.3035417,-15.625,15.625,-21.484,-7.812,1.0
1626295260.307448,-82.031,-158.691,-32.227,-127.93,1.0
1626295260.3113542,-72.75399999999999,-78.125,-40.039,1.0,1.0
1626295260.3152604,14.16,34.18,-12.695,1.0,1.0
1626295260.3191667,7.324,15.625,-20.508000000000003,1.0,1.0
1626295260.323073,-56.152,-26.366999999999997,-40.527,1.0,1.0
1626295260.3269792,-74.707,-157.715,-32.715,1.0,1.0
1626295260.3308856,-13.184000000000001,-43.945,-26.366999999999997,1.0,1.0
1626295260.3347917,40.527,41.992,-18.555,1.0,1.0
1626295260.338698,-25.879,21.484,-37.598,1.0,1.0
1626295260.3426042,-80.078,1.953,-44.434,1.0,1.0
1626295260.3465104,-41.992,-63.965,-24.414,1.0,1.0
1626295260.3504167,-0.977,1.465,-34.668,1.0,1.0
1626295260.354323,-23.926,-3.906,-41.016000000000005,1.0,1.0
1626295260.358229,-73.242,-6.348,-33.691,-138.672,1.0
1626295260.3621356,-49.805,-27.831999999999997,-26.855,-45.41,1.0
1626295260.3660414,17.578,-59.57,-10.254000000000001,79.59,1.0
1626295260.3699481,6.836,13.184000000000001,-25.879,14.16,1.0
1626295260.373854,-63.965,-9.766,-53.223,-121.58200000000001,1.0
1626295260.3777602,-64.453,-10.742,-44.922,-78.125,1.0
1626295260.381667,17.578,-90.33200000000001,-9.766,69.336,1.0
1626295260.385573,39.062,-65.43,4.395,65.918,1.0
1626295260.389479,-41.016000000000005,32.715,-32.227,-91.309,1.0
1626295260.3933854,-77.637,18.555,-47.363,-123.535,1.0
1626295260.3972914,-5.859,6.348,-24.901999999999997,24.901999999999997,1.0
1626295260.401198,20.508000000000003,-115.234,-34.18,47.852,1.0
1626295260.4051042,-43.945,-38.574,-49.316,1.0,1.0
1626295260.4090104,-69.336,45.898,-41.992,1.0,1.0
1626295260.4129167,-8.301,39.062,-18.555,1.0,1.0
1626295260.416823,37.109,-11.23,-27.831999999999997,1.0,1.0
1626295260.4207292,-14.648,-163.086,-65.918,1.0,1.0
1626295260.4246354,-71.289,-45.41,-67.87100000000001,1.0,1.0
1626295260.4285414,-31.738000000000003,37.598,-39.551,1.0,1.0
1626295260.432448,42.48,32.715,-18.555,1.0,1.0
1626295260.4363542,29.785,-3.418,-39.551,1.0,1.0
1626295260.4402604,-44.434,-96.191,-53.711000000000006,1.0,1.0
1626295260.4441667,-50.293,-8.789,-49.316,1.0,1.0
1626295260.448073,9.766,24.901999999999997,-45.898,1.0,1.0
1626295260.4519792,13.672,2.441,-37.109,30.273000000000003,1.0
1626295260.4558854,-49.805,-38.086,-32.715,-105.95700000000001,1.0
1626295260.4597917,-73.242,-68.359,-32.227,-125.488,1.0
1626295260.463698,-17.09,4.883,-28.32,15.137,1.0
1626295260.4676042,16.602,15.625,-26.855,54.688,1.0
1626295260.4715104,-12.695,15.137,-21.973000000000003,-50.293,1.0
1626295260.475417,-47.852,-78.613,-19.531,-104.00399999999999,1.0
1626295260.479323,-18.555,-68.848,-43.457,0.0,1.0
1626295260.483229,37.109,10.742,-41.992,104.492,1.0
1626295260.4871356,-9.766,8.301,-45.41,-11.719000000000001,1.0
1626295260.4910414,-79.102,5.859,-51.758,-146.97299999999998,1.0
1626295260.4949477,-55.176,-134.27700000000002,-39.551,-72.266,1.0
1626295260.498854,-45.898,0.977,-42.48,-36.133,1.0
1626295260.5027602,5.371,-33.203,-31.738000000000003,68.848,1.0
1626295260.506667,-25.879,-66.895,-40.527,-19.043,1.0
1626295260.510573,-83.984,7.324,-37.109,-136.719,1.0
1626295260.5144792,-57.129,20.996,-33.691,-65.43,1.0
1626295260.5183854,15.625,26.366999999999997,-34.18,75.195,1.0
1626295260.5222914,16.113,-63.477,-27.344,38.574,1.0
1626295260.526198,-59.082,-77.148,-36.621,-114.74600000000001,1.0
1626295260.5301042,-69.824,-11.23,-34.668,-110.352,1.0
1626295260.5340102,17.578,3.418,-4.883,58.105,1.0
1626295260.5379167,41.992,-5.859,-13.184000000000001,83.49600000000001,1.0
1626295260.541823,-25.879,-175.293,-41.504,-67.383,1.0
1626295260.5457292,-68.848,-88.867,-64.453,1.0,1.0
1626295260.5496354,-35.645,31.738000000000003,-75.195,1.0,1.0
1626295260.5535417,8.789,39.551,-54.688,1.0,1.0
1626295260.557448,-18.066,11.23,-25.391,1.0,1.0
1626295260.5613542,-77.637,-119.62899999999999,-22.949,1.0,1.0
1626295260.5652604,-59.082,-54.199,-23.926,1.0,1.0
1626295260.5691667,10.254000000000001,0.0,-14.16,1.0,1.0
1626295260.573073,2.441,-12.695,-7.324,1.0,1.0
1626295260.5769792,-75.195,-57.617,-22.461,1.0,1.0
1626295260.5808856,-64.453,-97.656,-37.109,1.0,1.0
1626295260.5847917,1.953,8.789,-41.016000000000005,1.0,1.0
1626295260.588698,-3.418,15.137,-51.758,1.0,1.0
1626295260.5926042,-66.895,-7.812,-60.059,-117.676,1.0
1626295260.5965104,-69.824,-45.41,-33.691,-107.42200000000001,1.0
1626295260.6004167,10.742,-62.5,-16.113,57.617,1.0
1626295260.604323,33.203,15.137,-31.738000000000003,72.75399999999999,1.0
1626295260.608229,-38.086,-19.043,-29.296999999999997,-89.355,1.0
1626295260.6121356,-72.266,-21.484,-22.949,-136.719,1.0
1626295260.6160414,-20.508000000000003,-51.27,-35.156,1.953,1.0
1626295260.6199481,14.648,-51.27,-38.574,67.87100000000001,1.0
1626295260.623854,-24.901999999999997,0.977,-25.391,-42.968999999999994,1.0
1626295260.6277602,-79.102,6.836,-12.695,-138.184,1.0
1626295260.631667,-54.688,7.324,-15.625,-51.27,1.0
1626295260.635573,0.0,-140.137,-27.831999999999997,64.941,1.0
1626295260.639479,25.391,7.812,-20.508000000000003,77.148,1.0
1626295260.6433854,-1.465,-38.086,-40.039,-11.23,1.0
1626295260.6472914,-70.312,-85.93799999999999,-40.527,-131.34799999999998,1.0
1626295260.651198,-59.082,0.977,-7.324,-65.43,1.0
1626295260.6551042,12.695,14.648,12.695,69.824,1.0
1626295260.6590104,16.602,5.859,-8.789,29.785,1.0
1626295260.6629167,-61.035,-91.309,-53.711000000000006,-113.281,1.0
1626295260.666823,-72.266,-89.844,-52.246,-94.238,1.0
1626295260.6707292,4.883,0.977,-16.602,55.663999999999994,1.0
1626295260.6746354,3.906,1.465,-21.973000000000003,38.574,1.0
1626295260.6785414,-52.733999999999995,-6.348,-31.738000000000003,-104.00399999999999,1.0
1626295260.682448,-57.129,-141.113,-17.578,-110.352,1.0
1626295260.6863542,-65.43,13.672,-19.043,32.715,1.0
1626295260.6902604,-23.926,-29.296999999999997,-28.809,75.684,1.0
1626295260.6941667,-22.461,-88.867,-40.527,-64.941,1.0
1626295260.698073,-71.777,-29.296999999999997,-40.039,-134.27700000000002,1.0
1626295260.7019792,-93.262,-14.648,-26.855,-4.883,1.0
1626295260.7058854,-30.761999999999997,-8.789,-9.277000000000001,92.773,1.0
1626295260.7097917,27.831999999999997,-89.355,3.418,-1.465,1.0
1626295260.713698,-8.789,-74.707,-7.812,-130.371,1.0
1626295260.7176042,-62.012,-5.859,-28.809,-66.895,1.0
1626295260.7215104,-28.32,3.418,-26.855,78.125,1.0
1626295260.725417,25.879,28.809,-14.16,41.016000000000005,1.0
1626295260.729323,-6.348,-98.633,-33.203,-102.051,1.0
1626295260.733229,-80.566,-75.195,-46.387,1.0,1.0
1626295260.7371356,-79.102,-4.883,-29.296999999999997,1.0,1.0
1626295260.7410414,-1.953,24.414,-24.414,1.0,1.0
1626295260.7449477,20.02,7.324,-29.296999999999997,1.0,1.0
1626295260.748854,-48.34,-113.77,-26.366999999999997,1.0,1.0
1626295260.7527602,-73.242,-33.203,-23.926,1.0,1.0
1626295260.756667,-1.953,19.531,-5.371,1.0,1.0
1626295260.760573,25.879,13.672,-5.859,1.0,1.0
1626295260.7644792,-34.668,-36.133,-31.25,1.0,1.0
1626295260.7683854,-59.57,-135.74200000000002,-25.391,1.0,1.0
1626295260.7722914,-4.395,-37.598,-22.949,1.0,1.0
1626295260.776198,30.273000000000003,26.855,-37.598,1.0,1.0
1626295260.7801042,-19.531,32.715,-45.898,-47.363,1.0
1626295260.7840102,-81.055,-41.016000000000005,-50.781000000000006,-150.879,1.0
1626295260.7879167,-52.733999999999995,-104.00399999999999,-31.25,-56.641000000000005,1.0
1626295260.791823,8.789,-38.086,-20.02,66.406,1.0
1626295260.7957292,-22.461,-8.789,-56.641000000000005,-11.23,1.0
1626295260.7996354,-78.125,31.738000000000003,-55.663999999999994,-129.88299999999998,1.0
1626295260.8035417,-57.129,-60.547,-14.648,-70.801,1.0
1626295260.807448,8.301,-78.613,-17.578,64.453,1.0
1626295260.8113542,4.395,-11.719000000000001,-36.621,37.109,1.0
1626295260.8152604,-57.129,-13.672,-37.598,-120.117,1.0
1626295260.8191667,-50.293,-13.184000000000001,-31.738000000000003,-108.887,1.0
1626295260.823073,9.277000000000001,-155.273,-28.809,42.968999999999994,1.0
1626295260.8269792,-8.789,-6.836,-6.348,52.733999999999995,1.0
1626295260.8308856,1.465,-41.016000000000005,-30.273000000000003,42.48,1.0
1626295260.8347917,-66.406,-116.211,-46.875,-104.00399999999999,1.0
1626295260.838698,-71.777,-15.625,-39.062,-113.281,1.0
1626295260.8426042,-4.395,38.574,-14.16,31.738000000000003,1.0
1626295260.8465104,2.93,23.926,-19.043,63.965,1.0
1626295260.8504167,-47.363,-89.355,-29.785,-65.43,1.0
1626295260.854323,-77.148,-77.637,-28.32,-132.32399999999998,1.0
1626295260.858229,-29.296999999999997,17.09,-31.738000000000003,-17.09,1.0
1626295260.8621356,28.32,9.766,-18.066,81.543,1.0
1626295260.8660414,-17.578,-22.949,-18.555,-28.809,1.0
1626295260.8699481,-81.543,-148.438,-27.831999999999997,-148.438,1.0
1626295260.873854,-49.805,-67.87100000000001,-32.227,1.0,1.0
1626295260.8777602,11.719000000000001,16.602,-50.781000000000006,1.0,1.0
1626295260.881667,-2.93,9.766,-52.246,1.0,1.0
1626295260.885573,-69.336,-24.901999999999997,-42.48,1.0,1.0
1626295260.889479,-81.055,-126.465,-34.668,1.0,1.0
1626295260.8933854,1.465,-22.949,2.441,1.0,1.0
1626295260.8972914,23.926,7.324,2.93,1.0,1.0
1626295260.901198,-56.641000000000005,-19.043,-35.645,1.0,1.0
1626295260.9051042,-80.078,-12.207,-45.41,1.0,1.0
1626295260.9090104,-19.043,-76.66,-24.414,1.0,1.0
1626295260.9129167,14.648,-18.555,-12.695,1.0,1.0
1626295260.916823,-43.457,3.906,-36.621,1.0,1.0
1626295260.9207292,-104.492,-15.137,-55.176,1.0,1.0
1626295260.9246354,-62.988,-22.949,-46.875,1.0,1.0
1626295260.9285414,14.16,-12.207,-26.366999999999997,1.0,1.0
1626295260.932448,-0.977,32.715,-10.254000000000001,1.0,1.0
1626295260.9363542,-61.035,23.438000000000002,-1.953,1.0,1.0
1626295260.9402604,-54.688,22.949,-10.254000000000001,1.0,1.0
1626295260.9441667,8.789,-83.008,-23.438000000000002,1.0,1.0
1626295260.948073,19.531,-113.281,-24.414,1.0,1.0
1626295260.9519792,-52.246,-27.831999999999997,-34.668,1.0,1.0
1626295260.9558854,-75.684,-4.883,-32.715,1.0,1.0
1626295260.9597917,-18.066,-0.488,-19.531,1.0,1.0
1626295260.963698,13.672,-93.75,-26.855,1.0,1.0
1626295260.9676042,-33.691,-51.758,-46.875,-78.613,1.0
1626295260.9715104,-69.336,9.766,-40.527,-128.906,1.0
1626295260.975417,-21.973000000000003,28.32,-18.555,2.441,1.0
1626295260.979323,30.273000000000003,-9.277000000000001,-19.043,90.33200000000001,1.0
1626295260.983229,-8.789,-169.922,-38.086,-23.926,1.0
1626295260.9871356,-68.848,-71.289,-51.27,-126.95299999999999,1.0
1626295260.9910414,-38.086,18.066,-34.668,-26.855,1.0
1626295260.9949477,6.836,20.02,-13.184000000000001,77.148,1.0
1626295260.998854,-7.812,9.277000000000001,-6.348,3.418,1.0
1626295261.0027602,-68.848,-73.73,-17.09,-121.094,1.0
1626295261.006667,-88.867,-21.484,-41.016000000000005,-95.70299999999999,1.0
1626295261.010573,-31.25,-6.836,-59.082,32.715,1.0
1626295261.0144792,-10.254000000000001,-8.789,-52.246,26.366999999999997,1.0
1626295261.0183854,-68.359,-49.316,-29.785,-113.281,1.0
1626295261.0222914,-87.402,-105.469,-24.901999999999997,-117.676,1.0
1626295261.026198,-19.531,-14.16,-24.414,31.738000000000003,1.0
1626295261.0301042,9.277000000000001,-0.488,-31.738000000000003,58.105,1.0
1626295261.0340102,-38.086,-11.23,-38.086,-67.87100000000001,1.0
1626295261.0379167,-66.406,-104.492,-31.25,-108.887,1.0
1626295261.041823,-26.855,-79.59,-33.203,0.977,1.0
1626295261.0457292,19.043,23.438000000000002,-19.043,76.172,1.0
1626295261.0496354,-9.277000000000001,16.602,-7.812,-20.02,1.0
1626295261.0535417,-72.75399999999999,0.0,-28.809,-133.30100000000002,1.0
1626295261.057448,-44.434,-134.27700000000002,-41.504,-48.34,1.0
1626295261.0613542,-41.992,29.785,-11.23,80.566,1.0
1626295261.0652604,0.0,-2.441,-14.648,18.066,1.0
1626295261.0691667,-34.18,-64.941,-28.32,-113.77,1.0
1626295261.073073,-87.891,-10.254000000000001,-29.296999999999997,-87.891,1.0
1626295261.0769792,-62.988,-2.93,-27.831999999999997,53.711000000000006,1.0
1626295261.0808856,3.906,-28.809,-47.363,41.016000000000005,1.0
1626295261.0847917,17.09,-106.445,-36.133,-93.75,1.0
1626295261.088698,-47.852,-81.543,-22.949,-109.863,1.0
1626295261.0926042,-62.988,9.277000000000001,-20.508000000000003,25.391,1.0
1626295261.0965104,-4.883,41.992,-4.395,86.914,1.0
1626295261.1004167,-19.043,35.156,-20.996,-58.105,1.0
1626295261.104323,-83.984,-129.395,-28.809,-139.648,1.0
1626295261.108229,-100.586,-72.75399999999999,-29.296999999999997,-141.602,1.0
1626295261.1121356,-23.926,7.812,-21.484,11.719000000000001,1.0
1626295261.1160414,31.25,-16.602,-23.926,81.055,1.0
1626295261.1199481,-17.09,-36.621,-43.945,-41.504,1.0
1626295261.123854,-66.895,-116.699,-44.434,-120.605,1.0
1626295261.1277602,-41.992,-15.625,-23.926,-26.855,1.0
1626295261.131667,17.578,42.48,-10.254000000000001,73.73,1.0
1626295261.135573,-7.324,5.859,-34.18,-13.184000000000001,1.0
1626295261.139479,-77.637,-42.968999999999994,-53.711000000000006,-135.74200000000002,1.0
1626295261.1433854,-72.266,-103.027,-46.875,-78.125,1.0
1626295261.1472914,-16.113,-20.02,-33.691,44.922,1.0
1626295261.151198,-13.672,8.301,-15.137,18.066,1.0
1626295261.1551042,-61.035,7.812,-5.371,-103.027,1.0
1626295261.1590104,-65.43,-21.973000000000003,-19.043,-97.656,1.0
1626295261.1629167,-9.766,-63.965,-40.527,35.156,1.0
1626295261.166823,3.418,-12.207,-41.016000000000005,46.387,1.0
1626295261.1707292,-57.129,3.906,-39.062,-96.191,1.0
1626295261.1746354,-96.191,9.277000000000001,-47.363,-142.578,1.0
1626295261.1785414,-43.945,-71.777,-42.48,-8.301,1.0
1626295261.182448,4.883,-70.801,-34.668,61.523,1.0
1626295261.1863542,-34.18,-7.324,-37.109,-47.363,1.0
1626295261.1902604,-86.914,-2.93,-44.922,-140.137,1.0
1626295261.1941667,-50.293,14.648,-48.34,-45.41,1.0
1626295261.198073,25.879,-104.492,-26.855,90.82,1.0
1626295261.2019792,14.16,17.09,-19.531,79.102,1.0
1626295261.2058854,-12.695,-41.016000000000005,-29.296999999999997,-21.973000000000003,1.0
1626295261.2097917,-70.312,-97.656,-24.414,-127.93,1.0
1626295261.213698,-58.105,1.953,-33.203,-52.733999999999995,1.0
1626295261.2176042,16.602,20.02,-29.785,82.031,1.0
1626295261.2215104,12.207,6.836,-31.738000000000003,26.855,1.0
1626295261.225417,-55.663999999999994,-97.16799999999999,-32.715,-111.32799999999999,1.0
1626295261.229323,-69.336,-112.79299999999999,-17.09,-91.309,1.0
1626295261.233229,-15.137,8.789,-23.438000000000002,39.551,1.0
1626295261.2371356,9.766,34.18,-26.855,40.039,1.0
1626295261.2410414,-54.688,2.93,-31.738000000000003,-105.469,1.0
1626295261.2449477,-89.844,-141.113,-47.852,-131.836,1.0
1626295261.248854,-73.242,10.742,-51.27,11.719000000000001,1.0
1626295261.2527602,6.836,-25.879,-20.02,66.406,1.0
1626295261.256667,27.344,-85.93799999999999,-20.02,-69.336,1.0
1626295261.260573,-42.48,-20.508000000000003,-28.809,-149.414,1.0
1626295261.2644792,-69.824,3.906,-23.926,-32.715,1.0
1626295261.2683854,-12.695,9.277000000000001,-38.086,61.035,1.0
1626295261.2722914,18.066,-81.543,-39.062,-24.901999999999997,1.0
1626295261.276198,-36.621,-84.473,-22.461,-133.789,1.0
1626295261.2801042,-85.449,7.812,-13.184000000000001,-62.5,1.0
1626295261.2840102,-53.711000000000006,17.09,-15.625,87.402,1.0
1626295261.2879167,-2.93,11.719000000000001,-20.02,25.879,1.0
1626295261.291823,-20.02,-114.74600000000001,-18.555,-138.672,1.0
1626295261.2957292,-64.941,-58.105,-19.531,1.0,1.0
1626295261.2996354,-47.852,5.859,-25.879,1.0,1.0
1626295261.3035417,1.465,-9.766,-32.715,1.0,1.0
1626295261.307448,-6.348,-35.156,-25.879,1.0,1.0
1626295261.3113542,-59.082,-166.50400000000002,-18.066,1.0,1.0
1626295261.3152604,-73.242,-66.406,-40.527,1.0,1.0
1626295261.3191667,-13.184000000000001,0.0,-49.316,1.0,1.0
1626295261.323073,18.066,16.113,-32.227,1.0,1.0
1626295261.3269792,-47.363,-2.441,-30.761999999999997,1.0,1.0
1626295261.3308856,-92.773,-113.77,-41.016000000000005,1.0,1.0
1626295261.3347917,-32.227,-17.578,-24.901999999999997,1.0,1.0
1626295261.338698,20.02,39.551,-7.812,1.0,1.0
1626295261.3426042,-33.203,29.296999999999997,-23.438000000000002,-49.316,1.0
1626295261.3465104,-100.586,-20.02,-41.016000000000005,-156.25,1.0
1626295261.3504167,-71.777,-83.49600000000001,-33.203,-57.129,1.0
1626295261.354323,9.766,-28.809,-18.555,74.219,1.0
1626295261.358229,-5.859,-9.277000000000001,-30.761999999999997,2.93,1.0
1626295261.3621356,-75.684,5.371,-36.621,-126.465,1.0
1626295261.3660414,-63.477,-89.844,-18.555,-66.406,1.0
1626295261.3699481,9.766,-80.566,-15.137,75.684,1.0
1626295261.373854,17.578,20.508000000000003,-16.113,49.316,1.0
1626295261.3777602,-41.016000000000005,9.766,-18.066,-85.449,1.0
1626295261.381667,-63.477,-3.418,-29.296999999999997,-86.426,1.0
1626295261.385573,-28.32,-137.695,-30.761999999999997,27.831999999999997,1.0
1626295261.389479,4.883,20.996,-29.785,50.781000000000006,1.0
1626295261.3933854,15.137,-8.789,-44.922,32.227,1.0
1626295261.3972914,-41.504,-73.242,-62.012,-107.42200000000001,1.0
1626295261.401198,-64.453,8.301,-40.039,-117.18799999999999,1.0
1626295261.4051042,8.301,41.016000000000005,-2.93,38.086,1.0
1626295261.4090104,38.574,36.621,-22.461,74.219,1.0
1626295261.4129167,-43.945,-87.891,-39.062,-83.49600000000001,1.0
1626295261.416823,-91.79700000000001,-100.098,-20.02,-146.97299999999998,1.0
1626295261.4207292,-42.48,8.301,-24.901999999999997,-17.09,1.0
1626295261.4246354,6.836,19.531,-37.598,71.289,1.0
1626295261.4285414,-16.602,-3.418,-30.273000000000003,-24.901999999999997,1.0
1626295261.432448,-70.801,-175.78099999999998,-37.109,-136.23,1.0
1626295261.4363542,-48.828,-111.816,-51.758,1.0,1.0
1626295261.4402604,6.348,-3.906,-47.363,1.0,1.0
1626295261.4441667,-21.973000000000003,12.207,-34.668,1.0,1.0
1626295261.448073,-84.473,1.953,-24.414,1.0,1.0
1626295261.4519792,-73.242,-119.62899999999999,-21.484,1.0,1.0
1626295261.4558854,-1.953,-28.32,-18.555,1.0,1.0
1626295261.4597917,-0.488,19.531,-31.738000000000003,1.0,1.0
1626295261.463698,-75.195,-1.465,-42.968999999999994,1.0,1.0
1626295261.4676042,-100.098,-26.366999999999997,-44.922,1.0,1.0
1626295261.4715104,-27.831999999999997,-79.59,-32.227,1.0,1.0
1626295261.475417,44.434,-7.324,-5.859,1.0,1.0
1626295261.479323,-17.09,-10.254000000000001,-19.531,1.0,1.0
1626295261.483229,-100.586,-11.23,-57.129,-141.113,1.0
1626295261.4871356,-64.453,-27.344,-66.895,-35.156,1.0
1626295261.4910414,-0.977,-69.336,-45.41,68.359,1.0
1626295261.4949477,-13.672,7.812,-21.973000000000003,-10.742,1.0
1626295261.498854,-68.848,20.508000000000003,-20.996,-121.58200000000001,1.0
1626295261.5027602,-48.34,25.879,-14.16,-50.293,1.0
1626295261.506667,20.02,-53.223,-6.348,83.49600000000001,1.0
1626295261.510573,3.906,-76.66,-18.066,31.25,1.0
1626295261.5144792,-59.57,3.906,-31.25,-113.281,1.0
1626295261.5183854,-63.477,17.09,-41.016000000000005,-91.79700000000001,1.0
1626295261.5222914,-0.977,-15.625,-28.809,55.176,1.0
1626295261.526198,32.715,-164.551,-1.465,79.102,1.0
1626295261.5301042,-31.738000000000003,-83.49600000000001,-13.184000000000001,-71.289,1.0
1626295261.5340102,-87.891,-1.465,-37.109,-142.578,1.0
1626295261.5379167,-41.992,18.555,-42.968999999999994,-10.254000000000001,1.0
1626295261.541823,7.812,21.973000000000003,-37.598,66.895,1.0
1626295261.5457292,-28.32,-130.859,-19.531,-46.875,1.0
1626295261.5496354,-86.426,-58.105,-19.531,-134.766,1.0
1626295261.5535417,-42.48,28.809,-18.555,-27.344,1.0
1626295261.557448,22.461,26.855,-10.254000000000001,75.684,1.0
1626295261.5613542,-4.395,-12.695,-18.066,-9.766,1.0
1626295261.5652604,-64.941,-107.42200000000001,-29.296999999999997,-125.488,1.0
1626295261.5691667,-66.406,-43.457,-44.922,-77.637,1.0
1626295261.573073,-8.301,-7.324,-41.504,48.828,1.0
1626295261.5769792,0.488,6.836,-45.898,24.901999999999997,1.0
1626295261.5808856,-62.988,-9.277000000000001,-56.641000000000005,-116.211,1.0
1626295261.5847917,-73.242,-58.593999999999994,-25.879,-107.91,1.0
1626295261.588698,-7.324,8.301,-1.465,38.086,1.0
1626295261.5926042,4.395,-1.465,-15.137,45.898,1.0
1626295261.5965104,-64.941,-7.812,-33.691,-107.91,1.0
1626295261.6004167,-85.93799999999999,-84.473,-32.715,-139.16,1.0
1626295261.604323,-16.602,-95.70299999999999,-34.18,9.766,1.0
1626295261.608229,17.09,-6.348,-26.366999999999997,73.242,1.0
1626295261.6121356,-42.48,7.324,-25.391,-59.082,1.0
1626295261.6160414,-91.309,11.719000000000001,-34.668,-155.762,1.0
1626295261.6199481,-35.645,-107.42200000000001,-14.648,-34.668,1.0
1626295261.623854,-25.879,-17.09,-16.602,92.773,1.0
1626295261.6277602,31.25,-28.809,-8.789,10.254000000000001,1.0
1626295261.631667,-15.625,-65.918,-42.48,-128.906,1.0
1626295261.635573,-80.566,-19.043,-60.059,-96.68,1.0
1626295261.639479,-61.035,-3.906,-29.296999999999997,45.41,1.0
1626295261.6433854,-0.977,-10.742,-4.883,28.809,1.0
1626295261.6472914,5.371,-74.219,-2.441,-125.0,1.0
1626295261.651198,-48.34,-71.289,-10.742,-127.441,1.0
1626295261.6551042,-71.777,0.977,-32.715,19.531,1.0
1626295261.6590104,-31.25,-2.441,-34.668,57.617,1.0
1626295261.6629167,-7.812,-16.113,-28.809,-65.43,1.0
1626295261.666823,-41.992,-149.414,-18.066,-133.30100000000002,1.0
1626295261.6707292,-65.918,-79.59,-30.761999999999997,1.0,1.0
1626295261.6746354,-20.996,33.203,-64.453,1.0,1.0
1626295261.6785414,16.602,34.18,-54.688,1.0,1.0
1626295261.682448,-9.277000000000001,6.836,-11.719000000000001,1.0,1.0
1626295261.6863542,-53.223,-123.04700000000001,3.906,1.0,1.0
1626295261.6902604,-34.668,-47.363,-4.883,1.0,1.0
1626295261.6941667,14.648,21.484,-5.859,1.0,1.0
1626295261.698073,-15.137,1.465,-27.831999999999997,1.0,1.0
1626295261.7019792,-81.543,-40.527,-33.691,1.0,1.0
1626295261.7058854,-57.617,-107.42200000000001,-6.348,1.0,1.0
1626295261.7097917,2.93,-20.996,-29.785,1.0,1.0
1626295261.713698,-1.953,5.859,-55.176,1.0,1.0
1626295261.7176042,-56.641000000000005,-5.371,-43.945,-116.211,1.0
1626295261.7215104,-49.316,-54.199,-26.366999999999997,-77.637,1.0
1626295261.725417,3.418,-88.37899999999999,-5.371,58.105,1.0
1626295261.729323,0.977,3.418,-4.883,45.898,1.0
1626295261.733229,-59.57,21.973000000000003,-22.461,-103.027,1.0
1626295261.7371356,-87.402,17.578,-29.296999999999997,-132.32399999999998,1.0
1626295261.7410414,-27.344,-44.922,-22.461,13.672,1.0
1626295261.7449477,13.672,-45.898,-31.738000000000003,71.289,1.0
1626295261.748854,-40.527,8.789,-53.223,-64.453,1.0
1626295261.7527602,-78.125,15.137,-47.363,-135.74200000000002,1.0
1626295261.756667,-18.066,7.812,-34.18,-8.301,1.0
1626295261.760573,20.996,-156.738,-41.992,81.055,1.0
1626295261.7644792,19.043,1.953,-35.156,72.266,1.0
1626295261.7683854,-12.695,-21.484,-29.785,-38.086,1.0
1626295261.7722914,-68.848,-68.848,-26.855,-135.254,1.0
1626295261.776198,-45.898,-14.16,-34.668,-41.504,1.0
1626295261.7801042,10.254000000000001,13.184000000000001,-50.781000000000006,72.266,1.0
1626295261.7840102,5.371,20.02,-27.831999999999997,14.648,1.0
1626295261.7879167,-66.895,-67.383,-14.648,-125.488,1.0
1626295261.791823,-76.66,-85.93799999999999,-26.855,-94.238,1.0
1626295261.7957292,-0.488,-8.789,-14.648,59.57,1.0
1626295261.7996354,7.324,20.02,-11.23,45.41,1.0
1626295261.8035417,-54.199,19.043,-25.391,-101.56200000000001,1.0
1626295261.807448,-64.941,-143.066,-25.391,-104.98,1.0
1626295261.8113542,-42.968999999999994,5.371,-13.184000000000001,41.016000000000005,1.0
1626295261.8152604,35.156,-18.066,11.719000000000001,89.844,1.0
1626295261.8191667,14.648,-96.191,-18.066,-44.922,1.0
1626295261.823073,-70.801,-21.973000000000003,-43.945,-115.234,1.0
1626295261.8269792,-83.49600000000001,0.977,-31.738000000000003,3.906,1.0
1626295261.8308856,-24.901999999999997,7.812,-24.414,74.707,1.0
1626295261.8347917,12.695,-79.102,-38.086,-28.32,1.0
1626295261.838698,-31.738000000000003,-103.027,-50.293,-130.371,1.0
1626295261.8426042,-85.93799999999999,-11.23,-56.641000000000005,-53.223,1.0
1626295261.8465104,-39.062,-9.277000000000001,-37.109,77.148,1.0
1626295261.8504167,33.691,4.395,-8.301,17.09,1.0
1626295261.854323,16.602,-106.934,1.953,-119.141,1.0
1626295261.858229,-57.617,-78.613,-14.648,1.0,1.0
1626295261.8621356,-51.758,-1.465,-41.504,1.0,1.0
1626295261.8660414,-5.859,9.277000000000001,-36.133,1.0,1.0
1626295261.8699481,-15.625,-3.418,-18.066,1.0,1.0
1626295261.873854,-41.992,-121.58200000000001,-7.324,1.0,1.0
1626295261.8777602,-43.945,-35.156,-13.184000000000001,1.0,1.0
1626295261.881667,0.977,28.809,-20.02,1.0,1.0
1626295261.885573,20.02,11.23,-31.25,1.0,1.0
1626295261.889479,-43.457,-27.831999999999997,-44.922,1.0,1.0
1626295261.8933854,-86.914,-120.605,-46.875,1.0,1.0
1626295261.8972914,-17.578,-28.809,-31.25,1.0,1.0
1626295261.901198,32.715,2.441,-16.113,1.0,1.0
1626295261.9051042,-31.738000000000003,-24.414,-20.996,-55.663999999999994,1.0
1626295261.9090104,-95.70299999999999,-43.945,-30.273000000000003,-154.785,1.0
1626295261.9129167,-49.316,-70.312,-12.695,-36.621,1.0
1626295261.916823,27.344,-3.418,-2.93,86.426,1.0
1626295261.9207292,-9.277000000000001,24.414,-25.391,-14.16,1.0
1626295261.9246354,-74.219,41.016000000000005,-35.645,-138.672,1.0
1626295261.9285414,-60.059,-66.406,-41.504,-70.312,1.0
1626295261.932448,-2.441,-105.469,-42.48,57.129,1.0
1626295261.9363542,-4.395,-21.973000000000003,-32.715,17.09,1.0
1626295261.9402604,-64.453,-5.859,-23.438000000000002,-115.723,1.0
1626295261.9441667,-74.219,3.418,-34.18,-104.00399999999999,1.0
1626295261.948073,-0.977,-119.141,-28.32,49.805,1.0
1626295261.9519792,-43.945,-24.901999999999997,-28.809,37.598,1.0
1626295261.9558854,-25.391,-41.992,-12.207,26.366999999999997,1.0
1626295261.9597917,-70.801,-103.027,6.836,-103.027,1.0
1626295261.963698,-96.68,-35.156,-11.23,-115.234,1.0
1626295261.9676042,-43.945,2.93,-22.461,23.926,1.0
1626295261.9715104,-7.324,14.648,-28.809,60.547,1.0
1626295261.975417,-52.733999999999995,-48.828,-25.879,-65.918,1.0
1626295261.979323,-98.145,-63.477,-12.695,-132.812,1.0
1626295261.983229,-54.688,-11.719000000000001,-12.207,-18.555,1.0
1626295261.9871356,5.371,-9.277000000000001,-7.812,66.406,1.0
1626295261.9910414,-34.668,-12.207,-28.32,-47.852,1.0
1626295261.9949477,-82.52,-142.09,-32.715,-135.254,1.0
1626295261.998854,-62.5,-72.75399999999999,-35.645,1.0,1.0
1626295262.0027602,-4.395,22.461,-33.691,1.0,1.0
1626295262.006667,-4.395,18.555,-13.184000000000001,1.0,1.0
1626295262.010573,-70.801,-28.809,-21.484,1.0,1.0
1626295262.0144792,-66.895,-148.438,-29.785,1.0,1.0
1626295262.0183854,-8.789,-41.504,-28.809,1.0,1.0
1626295262.0222914,-6.348,6.836,-38.574,1.0,1.0
1626295262.026198,-47.852,-3.418,-40.527,1.0,1.0
1626295262.0301042,-49.805,-5.859,-30.273000000000003,1.0,1.0
1626295262.0340102,-1.465,-83.984,-25.879,1.0,1.0
1626295262.0379167,16.602,-17.09,-23.438000000000002,1.0,1.0
1626295262.041823,-44.434,16.113,-32.715,1.0,1.0
1626295262.0457292,-94.238,9.766,-46.387,-153.809,1.0
1626295262.0496354,-35.156,-34.18,-31.25,-20.508000000000003,1.0
1626295262.0535417,28.809,-98.145,-33.203,78.125,1.0
1626295262.057448,-3.906,-37.109,-41.016000000000005,-18.066,1.0
1626295262.0613542,-73.242,-12.695,-48.828,-135.74200000000002,1.0
1626295262.0652604,-63.477,14.16,-49.805,-66.895,1.0
1626295262.0691667,9.277000000000001,-47.852,-19.043,66.895,1.0
1626295262.073073,9.277000000000001,-70.801,-3.906,20.508000000000003,1.0
1626295262.0769792,-49.316,6.348,-12.207,-109.863,1.0
1626295262.0808856,-58.593999999999994,15.625,-21.973000000000003,-87.891,1.0
1626295262.0847917,-1.953,2.441,-21.484,44.922,1.0
1626295262.088698,5.859,-135.74200000000002,-24.901999999999997,39.551,1.0
1626295262.0926042,-3.418,9.766,-32.227,23.926,1.0
1626295262.0965104,-64.453,-52.733999999999995,-51.27,-109.375,1.0
1626295262.1004167,-57.129,-94.727,-35.156,-73.73,1.0
1626295262.104323,1.953,-5.371,-6.348,59.57,1.0
1626295262.108229,5.371,12.695,-15.137,53.711000000000006,1.0
1626295262.1121356,-47.852,9.277000000000001,-21.484,-84.961,1.0
1626295262.1160414,-65.43,-65.918,-24.901999999999997,-109.863,1.0
1626295262.1199481,-13.184000000000001,-76.66,-36.133,23.438000000000002,1.0
1626295262.123854,19.531,5.859,-37.109,73.73,1.0
1626295262.1277602,-40.527,6.836,-46.387,-64.941,1.0
1626295262.131667,-93.75,-2.93,-41.504,-157.715,1.0
1626295262.135573,-49.316,-109.375,-29.785,-40.039,1.0
1626295262.139479,-58.593999999999994,-20.996,-37.109,70.801,1.0
1626295262.1433854,3.906,-26.855,-29.785,-1.465,1.0
1626295262.1472914,-22.461,-66.895,-40.527,-119.141,1.0
1626295262.151198,-68.848,-8.789,-21.484,-80.078,1.0
1626295262.1551042,-37.598,20.508000000000003,-2.93,51.27,1.0
1626295262.1590104,8.789,34.668,-24.414,28.809,1.0
1626295262.1629167,-17.578,-67.87100000000001,-33.691,-125.0,1.0
1626295262.166823,-91.79700000000001,-116.211,-33.203,-125.977,1.0
1626295262.1707292,-87.402,-42.48,-20.02,32.227,1.0
1626295262.1746354,-24.414,-26.855,-16.602,67.383,1.0
1626295262.1785414,-23.438000000000002,-34.668,-31.738000000000003,-70.312,1.0
1626295262.182448,-90.33200000000001,-164.551,-31.738000000000003,-146.484,1.0
1626295262.1863542,-114.258,-94.727,-49.805,1.0,1.0
1626295262.1902604,-41.504,6.348,-45.898,1.0,1.0
1626295262.1941667,-7.324,16.113,-24.901999999999997,1.0,1.0
1626295262.198073,-64.453,-29.785,-28.809,1.0,1.0
1626295262.2019792,-88.867,-175.293,-36.621,1.0,1.0
1626295262.2058854,-32.227,-57.617,-30.273000000000003,1.0,1.0
1626295262.2097917,27.831999999999997,27.344,-12.207,1.0,1.0
1626295262.213698,-0.488,37.109,-19.043,1.0,1.0
1626295262.2176042,-69.336,-15.625,-49.805,1.0,1.0
1626295262.2215104,-30.761999999999997,-114.258,-42.48,1.0,1.0
1626295262.225417,43.457,-14.648,-34.18,1.0,1.0
1626295262.229323,11.719000000000001,4.395,-43.457,1.0,1.0
1626295262.233229,-61.523,-6.348,-37.598,-142.578,1.0
1626295262.2371356,-65.43,-19.531,-35.645,-112.79299999999999,1.0
1626295262.2410414,3.906,-57.617,-26.855,38.574,1.0
1626295262.2449477,35.156,11.23,-24.414,46.387,1.0
1626295262.248854,-34.668,-12.695,-36.133,-101.56200000000001,1.0
1626295262.2527602,-65.43,-37.109,-27.831999999999997,-124.023,1.0
1626295262.256667,11.23,-78.613,-4.395,37.109,1.0
1626295262.260573,34.668,-75.684,-21.973000000000003,78.613,1.0
1626295262.2644792,-28.809,-6.348,-46.875,-68.359,1.0
1626295262.2683854,-80.566,-2.441,-54.688,-141.602,1.0
1626295262.2722914,-38.574,-0.488,-43.945,-19.531,1.0
1626295262.276198,28.32,-132.812,-19.531,92.285,1.0
1626295262.2801042,25.879,31.25,-27.831999999999997,80.078,1.0
1626295262.2840102,-29.296999999999997,-27.344,-29.296999999999997,-45.41,1.0
1626295262.2879167,-98.145,-95.70299999999999,-44.922,-149.90200000000002,1.0
1626295262.291823,-62.012,-17.09,-43.457,-49.316,1.0
1626295262.2957292,-3.418,-0.488,-28.32,60.547,1.0
1626295262.2996354,-20.508000000000003,4.395,-16.113,-11.23,1.0
1626295262.3035417,-76.66,-69.336,-23.926,-126.95299999999999,1.0
1626295262.307448,-52.733999999999995,-76.172,-31.25,-60.547,1.0
1626295262.3113542,20.02,19.043,-17.09,76.66,1.0
1626295262.3152604,7.812,31.25,-14.16,34.668,1.0
1626295262.3191667,-65.43,-8.301,-26.855,-111.816,1.0
1626295262.323073,-73.242,-139.16,-19.043,-100.586,1.0
1626295262.3269792,-2.93,-63.965,-3.418,44.434,1.0
1626295262.3308856,26.366999999999997,-18.555,-7.324,67.87100000000001,1.0
1626295262.3347917,-50.781000000000006,-30.273000000000003,-26.855,-87.891,1.0
1626295262.338698,-84.961,3.418,-24.901999999999997,-140.137,1.0
1626295262.3426042,-20.996,-107.42200000000001,-15.137,3.906,1.0
1626295262.3465104,27.344,-24.901999999999997,-12.207,85.93799999999999,1.0
1626295262.3504167,-8.789,31.738000000000003,-15.625,-17.578,1.0
1626295262.354323,-77.637,-0.977,-29.296999999999997,-127.441,1.0
1626295262.358229,-43.457,-22.949,-30.761999999999997,-41.504,1.0
1626295262.3621356,30.761999999999997,-74.219,-25.391,80.566,1.0
1626295262.3660414,-1.465,-21.973000000000003,-33.691,-10.742,1.0
1626295262.3699481,-72.266,-5.859,-34.668,-140.137,1.0
1626295262.373854,-59.57,11.719000000000001,-17.578,1.0,1.0
1626295262.3777602,16.602,-20.02,-2.441,1.0,1.0
1626295262.381667,21.484,-78.125,-23.438000000000002,1.0,1.0
1626295262.385573,-49.805,1.465,-49.805,1.0,1.0
1626295262.389479,-66.895,14.16,-40.527,1.0,1.0
1626295262.3933854,1.953,30.761999999999997,-14.648,1.0,1.0
1626295262.3972914,39.062,-41.504,-15.625,1.0,1.0
1626295262.401198,-24.901999999999997,-72.266,-31.738000000000003,1.0,1.0
1626295262.4051042,-88.867,9.277000000000001,-48.34,1.0,1.0
1626295262.4090104,-46.875,12.695,-43.945,1.0,1.0
1626295262.4129167,12.207,-2.441,-52.733999999999995,1.0,1.0
1626295262.416823,-26.366999999999997,-119.62899999999999,-67.383,1.0,1.0
1626295262.4207292,-90.33200000000001,-88.867,-44.922,1.0,1.0
1626295262.4246354,-60.547,-23.926,-24.414,1.0,1.0
1626295262.4285414,3.418,7.324,-24.414,1.0,1.0
1626295262.432448,-4.395,5.371,-31.25,1.0,1.0
1626295262.4363542,-67.87100000000001,-121.58200000000001,-34.668,1.0,1.0
1626295262.4402604,-84.473,-35.645,-48.828,1.0,1.0
1626295262.4441667,-16.602,31.25,-52.733999999999995,1.0,1.0
1626295262.448073,9.766,40.527,-34.668,1.0,1.0
1626295262.4519792,-64.453,-0.977,-38.086,1.0,1.0
1626295262.4558854,-77.637,-115.723,-35.156,1.0,1.0
1626295262.4597917,-3.418,-46.387,-22.949,1.0,1.0
1626295262.463698,25.391,11.23,-28.809,1.0,1.0
1626295262.4676042,-40.039,5.371,-28.809,-70.801,1.0
1626295262.4715104,-102.051,-33.203,-42.968999999999994,-161.621,1.0
1626295262.475417,-50.781000000000006,-54.199,-47.363,-39.062,1.0
1626295262.479323,13.184000000000001,2.93,-29.785,72.75399999999999,1.0
1626295262.483229,-24.901999999999997,9.766,-33.203,-29.785,1.0
1626295262.4871356,-81.543,20.996,-45.898,-141.602,1.0
1626295262.4910414,-60.547,-70.801,-36.621,-61.523,1.0
1626295262.4949477,-0.488,-104.98,-22.949,66.406,1.0
1626295262.498854,-11.719000000000001,-29.296999999999997,-28.809,11.719000000000001,1.0
1626295262.5027602,-72.266,-30.761999999999997,-36.621,-122.559,1.0
1626295262.506667,-66.406,-21.484,-18.066,-83.984,1.0
1626295262.510573,3.906,-100.586,-9.277000000000001,67.383,1.0
1626295262.5144792,4.883,19.531,-5.371,62.988,1.0
1626295262.5183854,-1.953,-46.875,-31.25,24.414,1.0
1626295262.5222914,-61.035,-104.00399999999999,-21.973000000000003,-107.91,1.0
1626295262.526198,-74.219,-13.184000000000001,-32.227,-101.56200000000001,1.0
1626295262.5301042,-3.906,38.086,-36.133,48.828,1.0
1626295262.5340102,26.855,38.574,-24.901999999999997,68.359,1.0
1626295262.5379167,-29.296999999999997,-66.406,-31.25,-70.801,1.0
1626295262.541823,-57.129,-95.215,-21.484,-103.516,1.0
1626295262.5457292,-3.906,-10.742,-13.672,29.296999999999997,1.0
1626295262.5496354,25.879,20.02,-22.461,85.93799999999999,1.0
1626295262.5535417,-38.574,9.766,-41.992,-52.246,1.0
1626295262.557448,-85.93799999999999,-133.789,-34.668,-140.625,1.0
1626295262.5613542,-41.504,-75.195,-15.137,1.0,1.0
1626295262.5652604,18.555,20.02,-35.645,1.0,1.0
1626295262.5691667,-8.301,2.93,-60.547,1.0,1.0
1626295262.573073,-83.008,-41.016000000000005,-57.129,1.0,1.0
1626295262.5769792,-64.453,-145.50799999999998,-24.901999999999997,1.0,1.0
1626295262.5808856,15.137,-43.457,-8.301,1.0,1.0
1626295262.5847917,22.949,1.953,-22.949,1.0,1.0
1626295262.588698,-67.87100000000001,-5.371,-53.223,1.0,1.0
1626295262.5926042,-84.473,-7.812,-50.781000000000006,1.0,1.0
1626295262.5965104,-3.418,-85.449,-40.527,1.0,1.0
1626295262.6004167,22.949,-17.578,-28.809,1.0,1.0
1626295262.604323,-35.645,2.441,-18.066,1.0,1.0
1626295262.608229,-87.402,-2.93,-30.761999999999997,-144.043,1.0
1626295262.6121356,-34.668,-33.691,-21.484,-22.461,1.0
1626295262.6160414,21.973000000000003,-86.426,-19.043,78.613,1.0
1626295262.6199481,-14.648,-20.996,-28.809,-22.461,1.0
1626295262.623854,-65.918,7.812,-22.461,-124.023,1.0
1626295262.6277602,-34.668,22.461,-35.156,-35.156,1.0
1626295262.631667,26.366999999999997,-67.87100000000001,-42.968999999999994,80.566,1.0
1626295262.635573,18.555,-88.37899999999999,-36.621,15.625,1.0
1626295262.639479,-51.27,12.695,-46.875,-115.723,1.0
1626295262.6433854,-59.082,19.043,-47.363,-73.73,1.0
1626295262.6472914,5.859,-2.441,-29.296999999999997,64.453,1.0
1626295262.651198,5.371,-144.531,-15.625,42.48,1.0
1626295262.6551042,-33.691,-18.066,-29.785,-12.207,1.0
1626295262.6590104,-88.37899999999999,-66.895,-29.785,-137.695,1.0
1626295262.6629167,-91.309,-143.066,-22.949,-109.375,1.0
1626295262.666823,-19.043,-40.039,-38.574,32.715,1.0
1626295262.6707292,1.953,-17.578,-35.645,44.922,1.0
1626295262.6746354,-56.152,-8.301,-21.484,-88.37899999999999,1.0
1626295262.6785414,-101.56200000000001,-73.242,-37.109,-136.23,1.0
1626295262.682448,-53.711000000000006,-83.008,-34.18,-4.883,1.0
1626295262.6863542,19.531,-4.883,-20.996,87.891,1.0
1626295262.6902604,-5.859,7.812,-24.901999999999997,-19.531,1.0
1626295262.6941667,-76.66,2.93,-23.438000000000002,-123.04700000000001,1.0
1626295262.698073,-80.566,-161.13299999999998,-39.551,-58.593999999999994,1.0
1626295262.7019792,-24.414,-5.859,-28.809,57.617,1.0
1626295262.7058854,17.578,-21.484,-14.16,3.906,1.0
1626295262.7097917,-23.926,-81.543,-38.086,-125.488,1.0
1626295262.713698,-69.336,-8.789,-37.598,-73.242,1.0
1626295262.7176042,-36.621,14.648,-14.648,45.898,1.0
1626295262.7215104,21.973000000000003,20.996,-29.296999999999997,28.32,1.0
1626295262.725417,-10.742,-83.984,-56.152,-104.00399999999999,1.0
1626295262.729323,-62.988,-105.95700000000001,-37.109,-97.16799999999999,1.0
1626295262.733229,-31.738000000000003,5.859,-11.23,49.805,1.0
1626295262.7371356,37.109,38.574,-6.348,49.316,1.0
1626295262.7410414,29.296999999999997,41.016000000000005,-19.043,-85.93799999999999,1.0
1626295262.7449477,-71.289,-140.625,-70.312,-134.766,1.0
1626295262.748854,-71.289,-7.812,-25.391,1.0,1.0
1626295262.7527602,-64.453,19.043,-17.578,1.0,1.0
1626295262.756667,6.348,23.926,-37.598,1.0,1.0
1626295262.760573,20.02,21.973000000000003,-40.039,1.0,1.0
1626295262.7644792,-47.852,8.301,-24.414,1.0,1.0
1626295262.7683854,-66.895,-11.23,-21.484,1.0,1.0
1626295262.7722914,11.23,-11.23,-6.836,1.0,1.0
1626295262.776198,31.738000000000003,-13.184000000000001,-6.836,1.0,1.0
1626295262.7801042,-34.668,-11.23,-24.414,1.0,1.0
1626295262.7840102,-67.87100000000001,17.578,-16.113,1.0,1.0
1626295262.7879167,-28.809,21.973000000000003,-32.715,1.0,1.0
1626295262.791823,5.371,-133.789,-56.152,1.0,1.0
1626295262.7957292,10.254000000000001,-35.645,-19.043,62.988,1.0
1626295262.7996354,-36.133,-41.504,-13.672,-55.663999999999994,1.0
1626295262.8035417,-101.56200000000001,-86.914,-35.645,-145.996,1.0
1626295262.807448,-64.941,-4.883,-36.133,-47.852,1.0
1626295262.8113542,2.93,20.508000000000003,-43.457,50.293,1.0
1626295262.8152604,-4.395,21.484,-36.621,-18.066,1.0
1626295262.8191667,-75.684,-76.66,-38.574,-136.719,1.0
1626295262.823073,-71.777,-95.70299999999999,-46.387,-86.426,1.0
1626295262.8269792,17.09,15.137,-18.066,63.965,1.0
1626295262.8308856,22.461,6.836,-5.371,35.156,1.0
1626295262.8347917,-57.617,-31.25,-17.578,-117.676,1.0
1626295262.838698,-93.75,-168.945,-38.574,-125.0,1.0
1626295262.8426042,-34.668,-94.727,-42.968999999999994,1.0,1.0
1626295262.8465104,18.066,8.301,-28.809,1.0,1.0
1626295262.8504167,-24.414,5.859,-21.484,1.0,1.0
1626295262.854323,-70.801,-2.441,-29.296999999999997,1.0,1.0
1626295262.858229,-38.574,-150.879,-35.156,1.0,1.0
1626295262.8621356,18.066,-56.641000000000005,-27.831999999999997,1.0,1.0
1626295262.8660414,-18.066,14.648,-27.831999999999997,1.0,1.0
1626295262.8699481,-69.824,18.555,-18.066,1.0,1.0
1626295262.873854,-26.855,-0.488,0.0,1.0,1.0
1626295262.8777602,45.41,-104.492,18.555,1.0,1.0
1626295262.881667,20.996,-55.176,3.418,1.0,1.0
1626295262.885573,-61.035,-40.039,-25.391,1.0,1.0
1626295262.889479,-64.941,3.906,-22.461,-71.777,1.0
1626295262.8933854,-21.973000000000003,-15.137,-32.715,38.086,1.0
1626295262.8972914,-30.273000000000003,-94.727,-41.016000000000005,0.977,1.0
1626295262.901198,-77.637,-8.301,-27.344,-125.0,1.0
1626295262.9051042,-79.102,19.043,-14.16,-106.445,1.0
1626295262.9090104,-8.301,31.738000000000003,1.465,43.945,1.0
1626295262.9129167,8.789,-63.965,-24.901999999999997,60.547,1.0
1626295262.916823,-39.062,-106.445,-44.434,-75.684,1.0
1626295262.9207292,-70.801,6.348,-32.227,-120.117,1.0
1626295262.9246354,-25.391,41.992,-27.344,11.23,1.0
1626295262.9285414,39.062,40.039,-15.625,99.12100000000001,1.0
1626295262.932448,-17.578,-120.605,-23.926,-31.738000000000003,1.0
1626295262.9363542,-92.285,-114.258,-34.668,-147.461,1.0
1626295262.9402604,-60.059,-14.16,-42.48,-56.152,1.0
1626295262.9441667,13.184000000000001,17.09,-17.09,70.312,1.0
1626295262.948073,-13.184000000000001,-14.648,-12.695,3.906,1.0
1626295262.9519792,-102.051,-163.57399999999998,-48.828,-152.344,1.0
1626295262.9558854,-82.031,-45.41,-43.945,-101.074,1.0
1626295262.9597917,9.766,46.875,-40.039,60.547,1.0
1626295262.963698,20.996,30.761999999999997,-50.781000000000006,36.621,1.0
1626295262.9676042,-55.176,-21.973000000000003,-41.504,-118.164,1.0
1626295262.9715104,-85.449,-124.023,-23.926,-129.395,1.0
1626295262.975417,-20.508000000000003,-40.039,-20.508000000000003,12.695,1.0
1626295262.979323,26.366999999999997,8.789,-11.719000000000001,59.57,1.0
1626295262.983229,-17.09,18.555,-3.418,-59.082,1.0
1626295262.9871356,-63.965,-24.414,-16.602,-127.441,1.0
1626295262.9910414,-41.992,-90.33200000000001,-43.945,-33.203,1.0
1626295262.9949477,25.391,-22.461,-42.48,74.219,1.0
1626295262.998854,16.113,10.742,-27.344,-0.488,1.0
1626295263.0027602,-55.663999999999994,40.039,-35.156,-118.652,1.0
1626295263.006667,-61.035,-52.733999999999995,-54.199,-64.941,1.0
1626295263.010573,-4.883,-86.426,-43.457,46.387,1.0
1626295263.0144792,0.488,8.789,-14.648,9.766,1.0
1626295263.0183854,-50.781000000000006,2.441,-2.93,-100.586,1.0
1626295263.0222914,-49.805,1.465,-13.184000000000001,-70.312,1.0
1626295263.026198,10.742,-104.98,-27.831999999999997,58.593999999999994,1.0
1626295263.0301042,40.039,28.32,-20.02,66.406,1.0
1626295263.0340102,8.301,-12.207,-42.968999999999994,-83.984,1.0
1626295263.0379167,-72.75399999999999,-93.75,-50.293,-109.863,1.0
1626295263.041823,-71.289,-45.898,-34.668,27.344,1.0
1626295263.0457292,-1.953,0.0,-36.133,31.738000000000003,1.0
1626295263.0496354,27.831999999999997,39.062,-20.996,-95.70299999999999,1.0
1626295263.0535417,-47.363,-48.828,-32.227,-150.879,1.0
1626295263.057448,-98.145,-99.609,-54.199,-32.227,1.0
1626295263.0613542,-37.598,-5.371,-33.691,76.66,1.0
1626295263.0652604,20.996,26.366999999999997,-9.766,-18.555,1.0
1626295263.0691667,-13.672,13.672,-7.812,-125.977,1.0
1626295263.073073,-97.656,-129.395,-41.992,-36.621,1.0
1626295263.0769792,-65.43,-94.727,-52.246,1.0,1.0
1626295263.0808856,15.137,-24.414,-40.039,1.0,1.0
1626295263.0847917,1.953,-6.348,-40.527,1.0,1.0
1626295263.088698,-63.965,3.906,-43.945,1.0,1.0
1626295263.0926042,-79.102,-102.051,-56.152,1.0,1.0
1626295263.0965104,-9.277000000000001,-27.344,-46.875,1.0,1.0
1626295263.1004167,5.371,22.949,-34.18,1.0,1.0
1626295263.104323,-62.5,22.949,-33.691,1.0,1.0
1626295263.108229,-77.148,-22.461,-26.366999999999997,1.0,1.0
1626295263.1121356,-1.465,-125.977,-28.32,1.0,1.0
1626295263.1160414,42.48,-22.949,-17.578,1.0,1.0
1626295263.1199481,-31.25,-12.207,-41.992,1.0,1.0
1626295263.123854,-78.613,-29.296999999999997,-58.105,-132.812,1.0
1626295263.1277602,-23.438000000000002,-49.316,-25.391,-0.977,1.0
1626295263.131667,33.691,-106.934,-0.488,91.79700000000001,1.0
1626295263.135573,9.277000000000001,-12.207,0.977,-7.812,1.0
1626295263.139479,-61.523,20.508000000000003,-25.879,-120.605,1.0
1626295263.1433854,-44.922,27.831999999999997,-29.785,-32.227,1.0
1626295263.1472914,8.301,-32.227,-33.691,81.543,1.0
1626295263.151198,-19.043,-76.66,-38.574,-3.906,1.0
1626295263.1551042,-77.148,-12.207,-33.203,-135.74200000000002,1.0
1626295263.1590104,-72.75399999999999,5.371,-32.227,-93.75,1.0
1626295263.1629167,3.906,11.719000000000001,-10.742,61.035,1.0
1626295263.166823,5.371,-125.488,-28.32,40.039,1.0
1626295263.1707292,-1.465,31.738000000000003,-24.414,14.16,1.0
1626295263.1746354,-80.078,-22.949,-57.617,-132.32399999999998,1.0
1626295263.1785414,-86.914,-80.078,-57.617,-101.56200000000001,1.0
1626295263.182448,-15.625,-20.02,-12.207,49.316,1.0
1626295263.1863542,3.906,6.836,-14.648,46.387,1.0
1626295263.1902604,-59.082,18.555,-47.852,-103.516,1.0
1626295263.1941667,-93.262,-70.312,-60.547,-131.836,1.0
1626295263.198073,-33.203,-88.37899999999999,-52.733999999999995,7.812,1.0
1626295263.2019792,14.648,-10.742,-34.18,57.617,1.0
1626295263.2058854,-27.831999999999997,-6.836,-24.414,-67.383,1.0
1626295263.2097917,-77.148,9.766,-41.016000000000005,-136.23,1.0
1626295263.213698,-46.875,-93.262,-51.758,-31.25,1.0
1626295263.2176042,-21.484,33.203,-14.648,18.066,1.0
1626295263.2215104,11.719000000000001,-44.434,-10.742,67.383,1.0
1626295263.225417,-45.898,-128.906,-35.645,-68.848,1.0
1626295263.229323,-93.262,-9.277000000000001,-42.48,-150.391,1.0
1626295263.233229,-51.27,25.879,-24.901999999999997,-39.062,1.0
1626295263.2371356,19.531,37.109,-13.672,82.52,1.0
1626295263.2410414,-10.254000000000001,-55.176,-35.156,-1.953,1.0
1626295263.2449477,-87.402,-115.234,-62.988,-145.50799999999998,1.0
1626295263.248854,-64.941,-4.883,-58.593999999999994,-83.008,1.0
1626295263.2527602,10.742,35.645,-22.461,67.383,1.0
1626295263.256667,12.207,22.949,0.0,33.203,1.0
1626295263.260573,-69.336,-172.852,-17.578,-126.465,1.0
1626295263.2644792,-69.336,-130.859,-11.719000000000001,1.0,1.0
1626295263.2683854,5.371,10.254000000000001,-23.438000000000002,1.0,1.0
1626295263.2722914,10.254000000000001,16.113,-41.992,1.0,1.0
1626295263.276198,-58.593999999999994,-11.23,-45.898,1.0,1.0
1626295263.2801042,-118.164,-177.24599999999998,-57.617,1.0,1.0
1626295263.2840102,-62.5,-87.402,-33.203,1.0,1.0
1626295263.2879167,5.371,-4.395,-20.508000000000003,1.0,1.0
1626295263.291823,-28.809,7.812,-34.668,1.0,1.0
1626295263.2957292,-79.102,-2.93,-38.086,1.0,1.0
1626295263.2996354,-59.57,-107.42200000000001,-33.203,1.0,1.0
1626295263.3035417,20.02,-10.254000000000001,-14.16,1.0,1.0
1626295263.307448,11.23,18.555,-22.461,1.0,1.0
1626295263.3113542,-75.195,-4.395,-34.668,-132.812,1.0
1626295263.3152604,-81.055,-40.527,-36.133,-95.215,1.0
1626295263.3191667,-20.508000000000003,-112.305,-43.945,38.086,1.0
1626295263.323073,-4.883,-29.785,-46.387,25.879,1.0
1626295263.3269792,-62.012,1.953,-37.598,-110.84,1.0
1626295263.3308856,-78.613,12.695,-25.879,-113.281,1.0
1626295263.3347917,-14.648,-65.918,-27.344,36.133,1.0
1626295263.338698,9.766,-110.352,-40.039,57.129,1.0
1626295263.3426042,-50.781000000000006,-26.855,-54.199,-88.37899999999999,1.0
1626295263.3465104,-81.055,-20.996,-35.156,-127.93,1.0
1626295263.3504167,-14.648,6.348,-6.348,22.461,1.0
1626295263.354323,19.531,-134.766,-28.32,83.008,1.0
1626295263.358229,36.621,41.992,-3.418,88.37899999999999,1.0
1626295263.3621356,-13.672,-7.324,-18.555,-48.828,1.0
1626295263.3660414,-87.891,-117.676,-64.941,-147.461,1.0
1626295263.3699481,-56.152,-47.852,-29.785,-41.504,1.0
1626295263.373854,7.324,3.906,7.324,60.059,1.0
1626295263.3777602,-11.23,30.273000000000003,5.859,-25.391,1.0
1626295263.381667,-84.961,-64.453,-20.996,-145.996,1.0
1626295263.385573,-68.848,-104.00399999999999,-56.641000000000005,-74.219,1.0
1626295263.389479,19.531,3.418,-34.18,74.707,1.0
1626295263.3933854,8.301,14.16,-10.742,16.602,1.0
1626295263.3972914,-65.918,-9.277000000000001,-27.344,-140.137,1.0
1626295263.401198,-87.891,-172.363,-43.457,-131.836,1.0
1626295263.4051042,-12.207,-113.77,-17.578,1.0,1.0
1626295263.4090104,27.344,11.23,-12.207,1.0,1.0
1626295263.4129167,-37.109,2.441,-21.484,1.0,1.0
1626295263.416823,-71.777,-18.066,-29.785,1.0,1.0
1626295263.4207292,-47.852,-160.156,-65.43,1.0,1.0
1626295263.4246354,10.254000000000001,-44.434,-39.062,1.0,1.0
1626295263.4285414,-32.715,25.879,-23.438000000000002,1.0,1.0
1626295263.432448,-86.426,0.977,-34.18,1.0,1.0
1626295263.4363542,-34.668,-20.508000000000003,-26.855,1.0,1.0
1626295263.4402604,10.742,-121.58200000000001,-36.133,1.0,1.0
