timestamps,TP9,AF7,AF8,TP10,Right AUX
1626295004.5613542,-32.715,-9.277000000000001,-23.438000000000002,-70.801,1.0
1626295004.5652604,-107.42200000000001,-25.879,-37.598,-178.71099999999998,1.0
1626295004.5691667,-50.781000000000006,-31.738000000000003,-53.223,-33.691,1.0
1626295004.573073,31.25,-44.434,-70.312,103.027,1.0
1626295004.5769792,23.438000000000002,26.855,-44.434,14.16,1.0
1626295004.5808856,-56.152,25.391,-35.645,-136.23,1.0
1626295004.5847917,-60.547,-36.133,-36.133,-77.148,1.0
1626295004.588698,19.043,-91.309,-9.277000000000001,91.79700000000001,1.0
1626295004.5926042,15.625,-55.663999999999994,-12.207,42.48,1.0
1626295004.5965104,-76.172,-2.93,-44.922,-149.90200000000002,1.0
1626295004.6004167,-82.52,-0.488,-42.968999999999994,-135.254,1.0
1626295004.604323,7.812,-2.93,-28.32,52.246,1.0
1626295004.608229,26.366999999999997,-7.324,-18.555,1.0,1.0
1626295004.6121356,7.812,2.441,-13.184000000000001,1.0,1.0
1626295004.6160414,-84.961,-30.761999999999997,-26.366999999999997,1.0,1.0
1626295004.6199481,-96.68,-74.219,-35.156,1.0,1.0
1626295004.623854,-6.348,-38.574,-31.738000000000003,1.0,1.0
1626295004.6277602,35.156,-23.926,-9.766,1.0,1.0
1626295004.631667,-22.461,-6.348,-13.672,1.0,1.0
1626295004.635573,-84.473,-65.43,-45.41,1.0,1.0
1626295004.639479,-38.086,-57.617,-36.621,1.0,1.0
1626295004.6433854,19.043,-2.93,-26.855,1.0,1.0
1626295004.6472914,-60.059,-19.531,-54.199,1.0,1.0
1626295004.651198,-137.695,-28.809,-63.965,1.0,1.0
1626295004.6551042,-74.219,-43.945,-4.883,-132.812,1.0
1626295004.6590104,-28.32,-32.227,-15.625,1.465,1.0
1626295004.6629167,31.25,-30.273000000000003,-28.809,109.863,1.0
1626295004.666823,-16.113,-68.848,-24.414,-16.602,1.0
1626295004.6707292,-107.91,-23.438000000000002,-41.992,-168.945,1.0
1626295004.6746354,-87.402,-5.859,-61.035,-80.078,1.0
1626295004.6785414,-2.441,-2.93,-55.663999999999994,77.148,1.0
1626295004.682448,4.395,-74.707,-40.527,23.926,1.0
1626295004.6863542,-72.75399999999999,-101.074,-32.715,-142.09,1.0
1626295004.6902604,-76.66,-28.32,-36.133,-102.539,1.0
1626295004.6941667,14.16,-8.789,-22.461,85.449,1.0
1626295004.698073,42.968999999999994,-20.508000000000003,-9.766,94.238,1.0
1626295004.7019792,21.973000000000003,24.901999999999997,-45.898,43.945,1.0
1626295004.7058854,-51.758,-4.395,-58.593999999999994,-129.88299999999998,1.0
1626295004.7097917,-71.289,-48.34,-34.668,-113.77,1.0
1626295004.713698,-15.625,-58.593999999999994,-25.879,47.363,1.0
1626295004.7176042,-3.418,-13.672,-52.733999999999995,47.363,1.0
1626295004.7215104,-72.266,-18.555,-53.223,-130.371,1.0
1626295004.725417,-104.98,-24.414,-50.293,-177.734,1.0
1626295004.729323,-22.461,-89.355,-31.738000000000003,4.395,1.0
1626295004.733229,36.621,-75.195,-10.742,97.656,1.0
1626295004.7371356,-28.32,-4.883,-23.926,-59.57,1.0
1626295004.7410414,-84.473,0.0,-29.785,-168.945,1.0
1626295004.7449477,-33.203,-9.277000000000001,-26.366999999999997,-32.715,1.0
1626295004.748854,-42.48,4.883,-18.555,1.0,1.0
1626295004.7527602,22.949,17.578,-16.113,1.0,1.0
1626295004.756667,-16.113,-24.901999999999997,-43.945,1.0,1.0
1626295004.760573,-70.801,-89.844,-68.848,1.0,1.0
1626295004.7644792,-40.527,-37.598,-53.711000000000006,1.0,1.0
1626295004.7683854,17.09,16.602,-31.25,1.0,1.0
1626295004.7722914,-12.695,24.901999999999997,-50.293,1.0,1.0
1626295004.776198,-81.055,-44.922,-31.25,1.0,1.0
1626295004.7801042,-64.941,-47.363,3.418,1.0,1.0
1626295004.7840102,1.953,15.625,-6.348,1.0,1.0
1626295004.7879167,2.441,13.184000000000001,-13.184000000000001,1.0,1.0
1626295004.791823,-81.055,-22.461,-24.414,1.0,1.0
1626295004.7957292,-68.848,-32.227,-19.043,-142.578,1.0
1626295004.7996354,-72.266,-15.625,-23.438000000000002,-113.281,1.0
1626295004.8035417,8.789,-16.113,-18.066,66.406,1.0
1626295004.807448,22.461,-52.246,-22.949,68.359,1.0
1626295004.8113542,-76.66,-36.621,-56.152,-132.32399999999998,1.0
1626295004.8152604,-115.234,-35.645,-51.27,-169.43400000000003,1.0
1626295004.8191667,-25.391,11.23,-16.602,18.066,1.0
1626295004.823073,20.508000000000003,-44.434,-11.719000000000001,87.402,1.0
1626295004.8269792,-39.062,-57.129,-39.062,-78.613,1.0
1626295004.8308856,-81.055,-1.953,-27.344,-166.016,1.0
1626295004.8347917,-14.648,-9.766,-6.348,-5.371,1.0
1626295004.838698,44.434,-13.672,-47.363,109.863,1.0
1626295004.8426042,43.945,-24.414,-14.648,106.934,1.0
1626295004.8465104,-23.926,-3.906,-35.645,-51.758,1.0
1626295004.8504167,-76.172,-28.809,-41.504,-154.785,1.0
1626295004.854323,-23.438000000000002,-69.824,-28.809,-23.926,1.0
1626295004.858229,29.785,2.441,-18.555,101.56200000000001,1.0
1626295004.8621356,-7.324,21.973000000000003,-35.645,1.465,1.0
1626295004.8660414,-70.801,10.742,-41.504,-144.043,1.0
1626295004.8699481,-57.129,-55.176,-18.066,-78.125,1.0
1626295004.873854,8.301,-66.406,-15.137,83.984,1.0
1626295004.8777602,21.973000000000003,-21.973000000000003,-36.621,56.152,1.0
1626295004.881667,-53.223,-52.246,-63.477,-120.605,1.0
1626295004.885573,-74.219,-55.663999999999994,-53.223,-123.04700000000001,1.0
1626295004.889479,-71.289,-6.348,-10.254000000000001,69.824,1.0
1626295004.8933854,-4.395,15.625,-9.766,109.375,1.0
1626295004.8972914,4.883,-11.23,-20.02,-94.727,1.0
1626295004.901198,-64.941,-57.617,-32.227,-190.43,1.0
1626295004.9051042,-74.707,-17.578,-20.02,-9.766,1.0
1626295004.9090104,5.859,6.836,-9.766,117.676,1.0
1626295004.9129167,37.109,1.465,-34.18,-36.133,1.0
1626295004.916823,-19.531,-75.684,-55.663999999999994,-183.59400000000002,1.0
1626295004.9207292,-68.848,-83.984,-28.32,-53.223,1.0
1626295004.9246354,-19.531,-7.812,-8.789,122.559,1.0
1626295004.9285414,29.785,11.719000000000001,-23.926,45.41,1.0
1626295004.932448,-21.484,-0.977,-32.715,-122.559,1.0
1626295004.9363542,-38.086,13.672,-34.18,-66.895,1.0
1626295004.9402604,-79.102,0.977,-23.926,-147.94899999999998,1.0
1626295004.9441667,-21.484,-16.113,-21.484,-3.906,1.0
1626295004.948073,54.199,-21.973000000000003,-6.348,129.395,1.0
1626295004.9519792,9.277000000000001,-19.043,-18.066,4.395,1.0
1626295004.9558854,-79.102,-37.598,-41.504,-148.92600000000002,1.0
1626295004.9597917,-54.688,0.488,-33.203,-69.824,1.0
1626295004.963698,35.645,-16.602,0.488,98.633,1.0
1626295004.9676042,28.32,-34.668,3.418,53.223,1.0
1626295004.9715104,-66.895,-13.672,-19.043,-138.672,1.0
1626295004.975417,-90.82,-9.766,-24.414,-131.34799999999998,1.0
1626295004.979323,-11.719000000000001,-13.184000000000001,-17.578,51.758,1.0
1626295004.983229,7.812,-19.043,-24.414,1.0,1.0
1626295004.9871356,13.184000000000001,-23.926,-42.48,1.0,1.0
1626295004.9910414,-64.453,-27.344,-52.733999999999995,1.0,1.0
1626295004.9949477,-84.473,-64.453,-48.34,1.0,1.0
1626295004.998854,-4.883,-22.949,-30.273000000000003,1.0,1.0
1626295005.0027602,29.785,5.371,-8.301,1.0,1.0
1626295005.006667,-44.434,13.184000000000001,-6.836,1.0,1.0
1626295005.010573,-81.543,-35.645,-18.555,1.0,1.0
1626295005.0144792,-4.883,-53.711000000000006,-27.831999999999997,1.0,1.0
1626295005.0183854,62.5,-19.531,-20.508000000000003,1.0,1.0
1626295005.0222914,-1.465,-24.414,-14.648,1.0,1.0
1626295005.026198,-89.844,-44.434,-36.621,1.0,1.0
1626295005.0301042,8.301,-2.441,-32.715,33.203,1.0
1626295005.0340102,-63.965,-33.691,-34.18,-138.184,1.0
1626295005.0379167,-75.195,-41.992,-33.203,-119.62899999999999,1.0
1626295005.041823,2.93,-30.761999999999997,-20.996,62.988,1.0
1626295005.0457292,30.761999999999997,-6.836,-26.366999999999997,84.961,1.0
1626295005.0496354,-41.504,-15.625,-29.785,-94.238,1.0
1626295005.0535417,-85.449,-31.25,-41.992,-156.738,1.0
1626295005.057448,-17.09,-69.336,-50.293,8.789,1.0
1626295005.0613542,42.968999999999994,-54.688,-28.32,104.98,1.0
1626295005.0652604,-24.414,-23.926,-22.949,-50.293,1.0
1626295005.0691667,-95.70299999999999,-27.344,-25.391,-168.945,1.0
1626295005.073073,-38.086,-4.883,-22.461,-25.391,1.0
1626295005.0769792,-19.043,-8.301,-0.977,1.0,1.0
1626295005.0808856,46.387,0.488,-6.348,1.0,1.0
1626295005.0847917,-13.672,-36.621,-42.968999999999994,1.0,1.0
1626295005.088698,-84.961,-74.707,-52.733999999999995,1.0,1.0
1626295005.0926042,-46.387,-39.551,-39.551,1.0,1.0
1626295005.0965104,24.901999999999997,0.0,-36.133,1.0,1.0
1626295005.1004167,-1.953,12.207,-45.41,1.0,1.0
1626295005.104323,-84.961,-33.203,-43.945,1.0,1.0
1626295005.108229,-77.637,-49.805,-27.344,1.0,1.0
1626295005.1121356,-6.836,-29.785,-26.366999999999997,1.0,1.0
1626295005.1160414,28.32,-6.836,-35.156,1.0,1.0
1626295005.1199481,-28.32,1.465,-38.574,1.0,1.0
1626295005.123854,-90.82,-3.418,-27.344,-149.414,1.0
1626295005.1277602,-79.102,9.277000000000001,-13.184000000000001,-95.70299999999999,1.0
1626295005.131667,11.23,-12.207,-6.836,87.402,1.0
1626295005.135573,9.766,-57.617,-18.066,61.523,1.0
1626295005.139479,-76.172,-42.968999999999994,-46.387,-125.488,1.0
1626295005.1433854,-93.75,-36.621,-48.828,-154.785,1.0
1626295005.1472914,-5.859,-20.508000000000003,-16.602,36.133,1.0
1626295005.151198,53.711000000000006,-36.621,-2.93,124.023,1.0
1626295005.1551042,-13.184000000000001,-64.941,-16.113,-39.062,1.0
1626295005.1590104,-87.402,-53.711000000000006,-33.691,-150.391,1.0
1626295005.1629167,-46.387,-34.18,-40.039,-20.996,1.0
1626295005.166823,14.16,-13.184000000000001,-39.062,97.656,1.0
1626295005.1707292,8.789,11.23,5.371,84.473,1.0
1626295005.1746354,-48.828,-20.508000000000003,-21.484,-65.43,1.0
1626295005.1785414,-117.18799999999999,-48.34,-51.758,-185.05900000000003,1.0
1626295005.182448,-57.617,-59.082,-21.973000000000003,-46.387,1.0
1626295005.1863542,13.184000000000001,-18.555,-8.789,95.215,1.0
1626295005.1902604,-16.602,-6.836,-26.366999999999997,-6.836,1.0
1626295005.1941667,-106.934,-43.945,-41.992,-181.15200000000002,1.0
1626295005.198073,-88.867,-91.309,-18.066,-110.84,1.0
1626295005.2019792,26.366999999999997,-52.733999999999995,19.531,97.656,1.0
1626295005.2058854,15.625,-23.438000000000002,-11.719000000000001,53.711000000000006,1.0
1626295005.2097917,-85.449,-22.949,-56.641000000000005,-145.50799999999998,1.0
1626295005.213698,-108.398,-17.578,-52.246,-146.484,1.0
1626295005.2176042,-63.477,-31.25,-23.926,39.062,1.0
1626295005.2215104,9.277000000000001,-18.555,-9.766,79.102,1.0
1626295005.225417,5.859,-21.484,-33.691,-104.492,1.0
1626295005.229323,-62.012,-56.152,-57.617,-172.363,1.0
1626295005.233229,-66.406,-8.789,-38.574,-0.488,1.0
1626295005.2371356,6.836,13.184000000000001,-5.859,96.191,1.0
1626295005.2410414,23.926,-19.043,-6.348,-43.457,1.0
1626295005.2449477,-40.039,-40.039,-15.625,-164.062,1.0
1626295005.248854,-99.609,-51.758,-32.715,-53.223,1.0
1626295005.2527602,-37.109,-37.598,-30.761999999999997,92.285,1.0
1626295005.256667,50.781000000000006,-27.344,-21.973000000000003,-4.395,1.0
1626295005.260573,-6.348,-36.133,-37.598,-163.086,1.0
1626295005.2644792,-45.898,-21.973000000000003,-60.059,-83.984,1.0
1626295005.2683854,-98.633,-29.296999999999997,-71.289,-180.66400000000002,1.0
1626295005.2722914,-48.34,-25.879,-74.707,-46.387,1.0
1626295005.276198,5.371,-44.922,-51.27,63.965,1.0
1626295005.2801042,-32.227,-10.742,-36.133,-50.781000000000006,1.0
1626295005.2840102,-100.586,6.348,-33.691,-182.12900000000002,1.0
1626295005.2879167,-67.383,7.324,-17.578,-92.285,1.0
1626295005.291823,10.742,-30.273000000000003,-26.855,71.289,1.0
1626295005.2957292,-6.836,-56.641000000000005,-44.434,10.742,1.0
1626295005.2996354,-93.262,-51.758,-56.152,-171.387,1.0
1626295005.3035417,-106.445,-38.086,-73.242,-152.344,1.0
1626295005.307448,-12.695,0.0,-44.922,38.086,1.0
1626295005.3113542,25.879,-4.883,-17.09,1.0,1.0
1626295005.3152604,39.551,-23.438000000000002,-3.906,1.0,1.0
1626295005.3191667,-41.504,-37.598,-43.457,1.0,1.0
1626295005.323073,-80.566,-50.781000000000006,-56.152,1.0,1.0
1626295005.3269792,3.906,8.301,-15.137,1.0,1.0
1626295005.3308856,51.758,24.414,-2.441,1.0,1.0
1626295005.3347917,-13.184000000000001,0.0,-28.32,1.0,1.0
1626295005.338698,-74.707,-53.711000000000006,-49.805,1.0,1.0
1626295005.3426042,-22.461,-54.199,-30.273000000000003,1.0,1.0
1626295005.3465104,37.109,-15.137,-4.395,1.0,1.0
1626295005.3504167,-18.555,-34.668,-17.578,1.0,1.0
1626295005.354323,-83.984,-51.758,-26.366999999999997,1.0,1.0
1626295005.358229,-64.453,0.0,-19.043,-128.906,1.0
1626295005.3621356,4.883,28.809,-35.156,31.25,1.0
1626295005.3660414,73.73,-1.465,-18.066,151.36700000000002,1.0
1626295005.3699481,-3.418,-66.895,-5.859,-7.324,1.0
1626295005.373854,-104.492,-27.831999999999997,-22.949,-173.828,1.0
1626295005.3777602,-86.914,-11.719000000000001,-33.691,-89.844,1.0
1626295005.381667,-2.93,-1.953,-32.227,77.148,1.0
1626295005.385573,-6.348,-60.547,-41.504,24.901999999999997,1.0
1626295005.389479,-74.707,-92.285,-43.457,-138.184,1.0
1626295005.3933854,-60.059,-24.901999999999997,-17.09,-88.37899999999999,1.0
1626295005.3972914,33.203,0.488,-7.812,103.027,1.0
1626295005.401198,52.733999999999995,6.348,-25.879,106.445,1.0
1626295005.4051042,51.27,2.93,-2.441,83.008,1.0
1626295005.4090104,-60.547,-26.855,-42.48,-129.88299999999998,1.0
1626295005.4129167,-98.145,-46.387,-55.176,-148.92600000000002,1.0
1626295005.416823,-29.785,-52.733999999999995,-39.062,27.344,1.0
1626295005.4207292,18.066,0.977,-32.715,70.312,1.0
1626295005.4246354,-36.621,6.348,-50.781000000000006,-89.844,1.0
1626295005.4285414,-89.355,-10.742,-59.082,-150.879,1.0
1626295005.432448,-36.133,-53.223,-46.387,2.441,1.0
1626295005.4363542,31.25,-60.059,-18.066,101.56200000000001,1.0
1626295005.4402604,-9.766,-13.672,-13.184000000000001,-28.809,1.0
1626295005.4441667,-76.172,-21.973000000000003,-29.296999999999997,-148.438,1.0
1626295005.448073,-36.133,-29.785,-19.531,-23.926,1.0
1626295005.4519792,-11.719000000000001,1.953,-43.457,11.719000000000001,1.0
1626295005.4558854,43.945,0.0,-26.366999999999997,104.98,1.0
1626295005.4597917,-7.812,-48.828,-23.926,-28.32,1.0
1626295005.463698,-83.49600000000001,-67.87100000000001,-9.277000000000001,-156.25,1.0
1626295005.4676042,-43.945,-7.324,-2.441,-42.48,1.0
1626295005.4715104,27.344,-6.836,-16.113,101.56200000000001,1.0
1626295005.475417,-3.906,-36.133,-26.855,5.371,1.0
1626295005.479323,-90.33200000000001,-74.219,-42.48,-167.48,1.0
1626295005.483229,-81.543,-47.852,-44.434,-112.305,1.0
1626295005.4871356,9.277000000000001,11.23,-31.738000000000003,76.66,1.0
1626295005.4910414,24.901999999999997,18.555,-17.578,68.848,1.0
1626295005.4949477,-37.598,8.789,-21.973000000000003,-94.727,1.0
1626295005.498854,-92.773,-5.371,-23.926,-162.59799999999998,1.0
1626295005.5027602,-84.473,-6.348,-17.578,-117.18799999999999,1.0
1626295005.506667,14.648,-35.156,-2.441,84.961,1.0
1626295005.510573,38.574,-74.707,4.395,92.773,1.0
1626295005.5144792,-47.363,-29.785,-16.113,-94.238,1.0
1626295005.5183854,-81.543,0.0,-21.973000000000003,-134.27700000000002,1.0
1626295005.5222914,-14.16,4.883,-20.996,32.715,1.0
1626295005.526198,15.137,-44.434,-28.809,88.37899999999999,1.0
1626295005.5301042,-57.129,-66.895,-38.574,-81.055,1.0
1626295005.5340102,-111.32799999999999,-22.949,-59.082,-179.688,1.0
1626295005.5379167,-54.688,-4.883,-52.733999999999995,-32.227,1.0
1626295005.541823,20.996,-21.973000000000003,-21.484,109.863,1.0
1626295005.5457292,23.438000000000002,-5.371,-18.066,100.586,1.0
1626295005.5496354,-18.066,10.254000000000001,-22.461,-42.968999999999994,1.0
1626295005.5535417,-78.125,0.0,-29.296999999999997,-162.59799999999998,1.0
1626295005.557448,-43.945,-40.039,-29.296999999999997,-44.434,1.0
1626295005.5613542,15.137,-20.996,-29.296999999999997,88.867,1.0
1626295005.5652604,-5.859,-28.32,-32.227,3.906,1.0
1626295005.5691667,-80.078,-29.785,-35.645,-152.344,1.0
1626295005.573073,-67.383,-62.988,-36.133,-88.37899999999999,1.0
1626295005.5769792,4.883,-61.035,-41.016000000000005,81.543,1.0
1626295005.5808856,11.23,11.719000000000001,-32.227,50.781000000000006,1.0
1626295005.5847917,-67.383,4.395,-24.901999999999997,-133.789,1.0
1626295005.588698,-101.56200000000001,-21.484,-29.296999999999997,-152.344,1.0
1626295005.5926042,-93.262,-22.949,-29.785,40.039,1.0
1626295005.5965104,12.207,-20.996,-12.207,93.262,1.0
1626295005.6004167,31.25,-32.715,-28.32,-88.867,1.0
1626295005.604323,-65.43,-60.059,-36.621,-167.96900000000002,1.0
1626295005.608229,-89.844,-19.043,-31.738000000000003,2.93,1.0
1626295005.6121356,-11.719000000000001,15.625,-35.156,110.84,1.0
1626295005.6160414,29.296999999999997,23.926,-20.996,-38.086,1.0
1626295005.6199481,-34.668,-54.688,-6.348,-183.59400000000002,1.0
1626295005.623854,-100.586,-91.79700000000001,-15.625,-70.801,1.0
1626295005.6277602,-45.41,-21.973000000000003,-28.32,91.309,1.0
1626295005.631667,31.25,-3.418,-41.504,20.02,1.0
1626295005.635573,-16.602,-26.855,-59.57,-152.832,1.0
1626295005.639479,-35.156,6.836,-27.831999999999997,-70.801,1.0
1626295005.6433854,-85.449,3.418,-42.48,-172.852,1.0
1626295005.6472914,-33.691,-16.113,-34.668,-40.039,1.0
1626295005.651198,33.691,-70.312,-24.901999999999997,90.33200000000001,1.0
1626295005.6551042,9.766,-39.062,-19.043,-5.859,1.0
1626295005.6590104,-53.711000000000006,-12.695,-22.461,-146.97299999999998,1.0
1626295005.6629167,-49.805,2.93,-54.199,-81.543,1.0
1626295005.666823,9.277000000000001,-19.043,-60.059,70.801,1.0
1626295005.6707292,2.93,-49.805,-45.898,22.949,1.0
1626295005.6746354,-78.613,-32.227,-46.875,-153.809,1.0
1626295005.6785414,-78.125,-5.371,-26.366999999999997,-129.395,1.0
1626295005.682448,17.09,11.23,-14.648,63.477,1.0
1626295005.6863542,32.715,25.391,6.836,1.0,1.0
1626295005.6902604,26.855,13.672,-5.859,1.0,1.0
1626295005.6941667,-68.848,-41.016000000000005,-25.879,1.0,1.0
1626295005.698073,-85.449,-72.266,-41.504,1.0,1.0
1626295005.7019792,-12.207,-14.648,-43.457,1.0,1.0
1626295005.7058854,20.02,13.184000000000001,-25.879,1.0,1.0
1626295005.7097917,-42.968999999999994,4.883,-37.109,1.0,1.0
1626295005.713698,-77.637,-56.152,-55.663999999999994,1.0,1.0
1626295005.7176042,-12.695,-60.547,-26.366999999999997,1.0,1.0
1626295005.7215104,30.761999999999997,-15.137,5.371,1.0,1.0
1626295005.725417,-32.715,-20.508000000000003,-11.23,1.0,1.0
1626295005.729323,-102.051,-19.531,-26.855,1.0,1.0
1626295005.733229,-108.398,-13.184000000000001,-47.363,-164.062,1.0
1626295005.7371356,-41.992,0.977,-21.484,-6.348,1.0
1626295005.7410414,28.809,-13.184000000000001,-16.602,109.375,1.0
1626295005.7449477,-8.301,-56.152,-27.831999999999997,-9.766,1.0
1626295005.748854,-77.148,-34.18,-34.18,-152.344,1.0
1626295005.7527602,-44.434,-22.461,-45.898,-56.641000000000005,1.0
1626295005.756667,34.18,-3.906,-45.898,105.469,1.0
1626295005.760573,23.438000000000002,-41.016000000000005,-15.137,45.898,1.0
1626295005.7644792,-58.105,-87.402,-10.254000000000001,-129.395,1.0
1626295005.7683854,-53.223,-36.133,-21.973000000000003,-96.68,1.0
1626295005.7722914,19.043,6.836,-16.113,80.566,1.0
1626295005.776198,21.973000000000003,-7.812,-22.949,68.848,1.0
1626295005.7801042,22.461,22.949,-8.789,45.898,1.0
1626295005.7840102,-57.129,19.531,-30.273000000000003,-124.023,1.0
1626295005.7879167,-74.707,-32.715,-34.18,-128.418,1.0
1626295005.791823,13.184000000000001,-60.059,-14.16,58.593999999999994,1.0
1626295005.7957292,59.082,12.695,-4.883,113.281,1.0
1626295005.7996354,-29.785,3.418,-24.414,-70.801,1.0
1626295005.8035417,-104.98,-5.371,-52.733999999999995,-160.645,1.0
1626295005.807448,-46.387,-38.574,-44.434,-8.789,1.0
1626295005.8113542,27.831999999999997,-63.477,-27.344,100.586,1.0
1626295005.8152604,-27.831999999999997,-35.645,-41.504,-45.898,1.0
1626295005.8191667,-97.16799999999999,-17.578,-50.781000000000006,-174.805,1.0
1626295005.823073,-36.133,13.672,-25.879,-43.457,1.0
1626295005.8269792,-9.766,7.812,-30.761999999999997,95.215,1.0
1626295005.8308856,25.391,6.348,-41.504,3.418,1.0
1626295005.8347917,-29.785,-16.113,-48.828,-140.137,1.0
1626295005.838698,-108.398,-60.547,-50.781000000000006,-82.52,1.0
1626295005.8426042,-80.078,-11.23,-35.156,62.012,1.0
1626295005.8465104,13.184000000000001,19.531,-13.184000000000001,27.831999999999997,1.0
1626295005.8504167,0.0,9.766,-25.879,-136.23,1.0
1626295005.854323,-79.59,-74.707,-37.598,-139.16,1.0
1626295005.858229,-59.082,-103.027,-18.066,49.805,1.0
1626295005.8621356,25.879,-25.879,-22.949,94.727,1.0
1626295005.8660414,30.761999999999997,22.461,-36.133,-75.684,1.0
1626295005.8699481,-55.176,11.23,-47.852,-130.859,1.0
1626295005.873854,-92.773,-25.879,-45.41,-159.18,1.0
1626295005.8777602,-89.844,-19.531,-39.062,-122.07,1.0
1626295005.881667,-10.742,-15.137,-20.996,57.617,1.0
1626295005.885573,0.488,-69.336,-27.831999999999997,54.688,1.0
1626295005.889479,-54.199,-37.598,-34.668,-105.95700000000001,1.0
1626295005.8933854,-54.199,-8.789,-18.066,-117.18799999999999,1.0
1626295005.8972914,9.766,-11.23,-9.277000000000001,51.27,1.0
1626295005.901198,35.645,-48.828,-31.25,104.98,1.0
1626295005.9051042,-36.133,-48.34,-71.777,-66.895,1.0
1626295005.9090104,-101.074,-9.277000000000001,-71.289,-171.875,1.0
1626295005.9129167,-35.156,2.93,-22.461,-23.438000000000002,1.0
1626295005.916823,49.805,2.93,-3.418,125.0,1.0
1626295005.9207292,46.875,-1.953,-11.719000000000001,117.18799999999999,1.0
1626295005.9246354,-14.16,0.977,-12.207,-34.668,1.0
1626295005.9285414,-73.73,-31.25,-22.461,-147.461,1.0
1626295005.932448,-37.598,-70.312,-30.273000000000003,-35.156,1.0
1626295005.9363542,24.414,-24.414,-27.344,94.727,1.0
1626295005.9402604,-5.859,-16.113,-20.996,-0.977,1.0
1626295005.9441667,-92.285,-27.344,-36.133,-168.945,1.0
1626295005.948073,-85.449,-59.57,-58.105,-111.816,1.0
1626295005.9519792,9.766,-47.852,-48.828,74.707,1.0
1626295005.9558854,47.852,14.648,-29.296999999999997,81.543,1.0
1626295005.9597917,-42.48,8.789,-25.879,-108.887,1.0
1626295005.963698,-97.656,-22.949,-22.461,-153.32,1.0
1626295005.9676042,-87.402,-38.086,-14.16,-117.676,1.0
1626295005.9715104,3.418,-4.395,-13.184000000000001,66.406,1.0
1626295005.975417,20.508000000000003,-14.16,-29.296999999999997,62.5,1.0
1626295005.979323,-72.266,-67.87100000000001,-38.086,-128.418,1.0
1626295005.983229,-108.887,-32.227,-41.504,-158.691,1.0
1626295005.9871356,-20.996,5.371,-19.043,38.574,1.0
1626295005.9910414,30.273000000000003,-0.488,-8.301,104.98,1.0
1626295005.9949477,-39.551,-55.176,-34.18,-70.801,1.0
1626295005.998854,-86.426,-58.593999999999994,-33.203,-151.36700000000002,1.0
1626295006.0027602,-23.438000000000002,-5.371,-29.296999999999997,8.301,1.0
1626295006.006667,43.945,-3.906,-32.227,124.512,1.0
1626295006.010573,7.812,-0.488,-9.277000000000001,2.93,1.0
1626295006.0144792,-28.32,-3.906,-13.672,-57.617,1.0
1626295006.0183854,-107.42200000000001,-34.668,-44.434,-181.15200000000002,1.0
1626295006.0222914,-59.57,-67.87100000000001,-43.457,-47.363,1.0
1626295006.026198,13.672,-94.727,-25.391,89.844,1.0
1626295006.0301042,-25.879,-31.738000000000003,-30.761999999999997,-29.785,1.0
1626295006.0340102,-96.191,-6.348,-57.129,-179.199,1.0
1626295006.0379167,-59.57,-8.301,-52.246,-76.66,1.0
1626295006.041823,30.273000000000003,-17.578,-32.715,105.469,1.0
1626295006.0457292,17.578,-32.715,-47.363,50.293,1.0
1626295006.0496354,-73.73,-23.438000000000002,-35.645,-144.531,1.0
1626295006.0535417,-85.93799999999999,-20.02,-18.066,-134.766,1.0
1626295006.057448,-19.043,-13.184000000000001,-40.039,35.156,1.0
1626295006.0613542,38.574,3.906,-14.648,1.0,1.0
1626295006.0652604,31.738000000000003,11.23,-21.973000000000003,1.0,1.0
1626295006.0691667,-71.289,-41.992,-19.531,1.0,1.0
1626295006.073073,-103.027,-95.70299999999999,-14.16,1.0,1.0
1626295006.0769792,-9.766,-11.719000000000001,-4.883,1.0,1.0
1626295006.0808856,37.598,32.715,-15.137,1.0,1.0
1626295006.0847917,-59.57,-7.324,-43.457,1.0,1.0
1626295006.088698,-119.141,-72.266,-34.18,1.0,1.0
1626295006.0926042,-34.18,-53.223,-11.719000000000001,1.0,1.0
1626295006.0965104,49.316,15.137,-19.531,1.0,1.0
1626295006.1004167,-12.207,5.859,-38.574,1.0,1.0
1626295006.104323,-94.238,-25.391,-40.039,1.0,1.0
1626295006.108229,-67.87100000000001,-37.598,-47.852,-133.789,1.0
1626295006.1121356,-12.207,-53.223,-15.625,11.719000000000001,1.0
1626295006.1160414,42.48,-27.831999999999997,-11.23,117.676,1.0
1626295006.1199481,-2.93,-37.598,-19.043,-7.812,1.0
1626295006.123854,-81.055,0.0,-33.691,-154.297,1.0
1626295006.1277602,-61.035,1.953,-50.781000000000006,-71.777,1.0
1626295006.131667,18.555,-4.395,-41.504,90.33200000000001,1.0
1626295006.135573,11.23,-68.359,-11.719000000000001,36.133,1.0
1626295006.139479,-69.824,-81.543,-6.836,-136.23,1.0
1626295006.1433854,-73.73,-10.254000000000001,-16.113,-106.934,1.0
1626295006.1472914,0.488,-15.137,-30.273000000000003,63.965,1.0
1626295006.151198,26.855,-15.625,-27.831999999999997,73.242,1.0
1626295006.1551042,19.531,-10.742,-29.785,51.27,1.0
1626295006.1590104,-59.57,3.906,-16.113,-127.441,1.0
1626295006.1629167,-74.707,-7.324,-16.113,-122.07,1.0
1626295006.166823,6.348,-37.109,-16.113,58.105,1.0
1626295006.1707292,36.621,-6.348,-5.859,93.75,1.0
1626295006.1746354,-55.176,-26.366999999999997,-32.715,-96.68,1.0
1626295006.1785414,-94.727,-8.301,-35.156,-156.738,1.0
1626295006.182448,-10.742,-26.366999999999997,-17.09,27.344,1.0
1626295006.1863542,41.992,-45.41,-22.949,114.74600000000001,1.0
1626295006.1902604,-20.02,-0.488,-36.133,-45.898,1.0
1626295006.1941667,-72.75399999999999,12.207,-28.32,-154.297,1.0
1626295006.198073,-20.508000000000003,23.926,-11.719000000000001,-21.973000000000003,1.0
1626295006.2019792,-36.133,-6.836,-52.246,89.844,1.0
1626295006.2058854,38.086,24.901999999999997,-10.742,-3.906,1.0
1626295006.2097917,-11.23,-4.883,-5.371,-145.50799999999998,1.0
1626295006.213698,-87.891,-71.777,-24.901999999999997,-84.473,1.0
1626295006.2176042,-35.645,-15.137,-17.09,71.777,1.0
1626295006.2215104,41.504,14.16,-18.066,34.668,1.0
1626295006.225417,-1.953,-3.906,-37.598,-129.88299999999998,1.0
1626295006.229323,-66.895,-62.988,-34.18,-130.859,1.0
1626295006.233229,-67.383,-80.078,-32.715,63.965,1.0
1626295006.2371356,-12.695,-14.648,-41.016000000000005,119.62899999999999,1.0
1626295006.2410414,15.625,9.766,-26.855,-63.965,1.0
1626295006.2449477,-42.968999999999994,1.953,-45.41,-157.227,1.0
1626295006.248854,-71.289,-24.901999999999997,-31.738000000000003,-130.859,1.0
1626295006.2527602,-60.547,-17.09,-5.859,-84.961,1.0
1626295006.256667,16.602,-21.973000000000003,-3.906,88.37899999999999,1.0
1626295006.260573,18.066,-66.406,-24.414,80.566,1.0
1626295006.2644792,-48.828,-8.301,-35.156,-88.37899999999999,1.0
1626295006.2683854,-93.75,-0.488,-32.715,-143.555,1.0
1626295006.2722914,-33.691,-25.879,-29.785,16.113,1.0
1626295006.276198,29.785,-75.195,-37.598,103.027,1.0
1626295006.2801042,-27.344,-80.566,-43.945,-58.593999999999994,1.0
1626295006.2840102,-85.93799999999999,-11.23,-41.016000000000005,-160.156,1.0
1626295006.2879167,-36.621,20.508000000000003,-37.598,-27.344,1.0
1626295006.291823,35.156,16.113,-25.391,94.238,1.0
1626295006.2957292,29.296999999999997,0.0,-41.504,95.215,1.0
1626295006.2996354,-15.137,2.441,-44.922,-44.434,1.0
1626295006.3035417,-67.87100000000001,-21.973000000000003,-41.992,-158.203,1.0
1626295006.307448,-39.062,-74.219,-33.203,-48.828,1.0
1626295006.3113542,33.691,-13.672,-35.156,100.098,1.0
1626295006.3152604,22.461,23.926,-37.598,26.855,1.0
1626295006.3191667,-57.129,23.438000000000002,-34.668,-141.602,1.0
1626295006.323073,-71.777,-28.32,-48.828,-108.398,1.0
1626295006.3269792,2.441,-42.968999999999994,-41.504,67.383,1.0
1626295006.3308856,20.996,14.16,-26.366999999999997,52.246,1.0
1626295006.3347917,-59.57,12.695,-35.645,-133.789,1.0
1626295006.338698,-83.008,2.441,-31.25,-144.531,1.0
1626295006.3426042,-74.219,-17.09,-53.711000000000006,-114.74600000000001,1.0
1626295006.3465104,15.625,7.812,-36.133,69.336,1.0
1626295006.3504167,24.414,-17.578,-30.761999999999997,63.477,1.0
1626295006.354323,-58.593999999999994,-84.473,-36.133,-119.62899999999999,1.0
1626295006.358229,-63.477,-7.812,-12.207,-112.305,1.0
1626295006.3621356,8.789,29.296999999999997,-3.418,62.988,1.0
1626295006.3660414,31.738000000000003,24.414,-16.602,96.68,1.0
1626295006.3699481,-42.48,-49.805,-43.945,-80.566,1.0
1626295006.373854,-72.75399999999999,-79.59,-49.316,-145.996,1.0
1626295006.3777602,-8.301,-11.23,-45.41,8.301,1.0
1626295006.381667,37.109,2.441,-51.27,103.027,1.0
1626295006.385573,-14.16,-6.836,-35.156,-20.02,1.0
1626295006.389479,-36.621,-1.953,-54.199,-63.477,1.0
1626295006.3933854,-96.191,-11.23,-55.176,-171.875,1.0
1626295006.3972914,-52.733999999999995,-20.508000000000003,-37.109,-42.48,1.0
1626295006.401198,11.719000000000001,-57.617,-32.715,86.426,1.0
1626295006.4051042,-4.883,-30.273000000000003,-18.555,-7.324,1.0
1626295006.4090104,-67.383,-11.23,-17.09,-154.297,1.0
1626295006.4129167,-46.387,-0.977,-11.23,-75.195,1.0
1626295006.416823,13.672,-48.34,-19.531,77.148,1.0
1626295006.4207292,13.672,-72.75399999999999,-24.901999999999997,39.062,1.0
1626295006.4246354,-56.152,-51.758,-25.879,-122.559,1.0
1626295006.4285414,-67.87100000000001,-44.922,-21.484,-117.18799999999999,1.0
1626295006.432448,22.461,4.395,-7.812,72.75399999999999,1.0
1626295006.4363542,17.578,-1.953,-42.48,1.0,1.0
1626295006.4402604,16.113,-24.901999999999997,-40.039,1.0,1.0
1626295006.4441667,-81.543,-54.199,-41.504,1.0,1.0
1626295006.448073,-111.816,-86.914,-38.086,1.0,1.0
1626295006.4519792,-21.484,-8.301,-19.043,1.0,1.0
1626295006.4558854,18.066,12.207,-20.02,1.0,1.0
1626295006.4597917,-42.968999999999994,0.488,-25.879,1.0,1.0
1626295006.463698,-96.68,-57.129,-39.062,1.0,1.0
1626295006.4676042,-37.598,-79.102,-42.968999999999994,1.0,1.0
1626295006.4715104,41.016000000000005,-12.695,-23.438000000000002,1.0,1.0
1626295006.475417,-14.648,-7.812,-25.391,1.0,1.0
1626295006.479323,-71.289,-3.418,-20.02,1.0,1.0
1626295006.483229,-82.031,-24.901999999999997,-40.527,-160.645,1.0
1626295006.4871356,-23.438000000000002,-6.836,-31.25,-11.23,1.0
1626295006.4910414,23.438000000000002,-24.901999999999997,-46.387,91.79700000000001,1.0
1626295006.4949477,-21.484,-76.172,-52.246,-37.109,1.0
1626295006.498854,-76.172,-19.531,-39.551,-165.03900000000002,1.0
1626295006.5027602,-29.785,-12.695,-23.438000000000002,-48.828,1.0
1626295006.506667,44.922,-18.555,-28.809,112.79299999999999,1.0
1626295006.510573,8.301,-45.41,-54.688,24.414,1.0
1626295006.5144792,-70.312,-51.758,-43.457,-155.273,1.0
1626295006.5183854,-73.73,17.578,-21.484,-124.023,1.0
1626295006.5222914,-8.789,20.02,-24.901999999999997,48.828,1.0
1626295006.526198,7.812,0.977,-35.156,62.012,1.0
1626295006.5301042,12.207,-3.906,-21.484,47.852,1.0
1626295006.5340102,-77.637,-22.949,-34.18,-135.254,1.0
1626295006.5379167,-94.727,-43.457,-37.109,-130.371,1.0
1626295006.541823,-12.207,-64.453,-38.574,52.733999999999995,1.0
1626295006.5457292,29.296999999999997,-16.602,-28.32,94.238,1.0
1626295006.5496354,-47.852,-19.043,-24.414,-83.49600000000001,1.0
1626295006.5535417,-81.055,6.836,-24.414,-139.648,1.0
1626295006.557448,-27.344,-40.039,-30.761999999999997,17.578,1.0
1626295006.5613542,13.184000000000001,-60.547,-31.25,96.191,1.0
1626295006.5652604,-22.461,8.789,-33.203,-31.738000000000003,1.0
1626295006.5691667,-91.309,-3.418,-35.156,-149.414,1.0
1626295006.573073,-58.105,-6.348,-13.184000000000001,-39.551,1.0
1626295006.5769792,-13.184000000000001,-8.301,-10.254000000000001,75.195,1.0
1626295006.5808856,10.742,-33.203,-37.598,-13.184000000000001,1.0
1626295006.5847917,-34.668,-46.387,-40.039,-147.94899999999998,1.0
1626295006.588698,-102.539,-78.613,-50.781000000000006,-78.125,1.0
1626295006.5926042,-67.383,-23.926,-52.246,92.285,1.0
1626295006.5965104,20.508000000000003,7.812,-32.715,48.34,1.0
1626295006.6004167,9.766,5.371,-29.296999999999997,-127.441,1.0
1626295006.604323,-85.449,-48.34,-42.968999999999994,-144.531,1.0
1626295006.608229,-82.52,-68.848,-24.901999999999997,32.715,1.0
1626295006.6121356,5.859,-12.695,-14.16,72.75399999999999,1.0
1626295006.6160414,4.395,-2.93,-32.227,-110.84,1.0
1626295006.6199481,-75.684,-10.742,-53.223,-150.391,1.0
1626295006.623854,-65.918,-27.831999999999997,-31.738000000000003,-131.836,1.0
1626295006.6277602,-86.426,10.742,-34.18,-125.977,1.0
1626295006.631667,-10.742,7.812,-26.366999999999997,52.733999999999995,1.0
1626295006.635573,10.254000000000001,-38.574,-36.133,62.988,1.0
1626295006.639479,-56.641000000000005,-15.625,-27.831999999999997,-103.516,1.0
1626295006.6433854,-87.891,-18.066,-18.555,-148.92600000000002,1.0
1626295006.6472914,-13.672,-20.996,-19.531,18.555,1.0
1626295006.651198,23.926,-43.945,-28.809,89.844,1.0
1626295006.6551042,-39.062,-73.73,-46.387,-64.453,1.0
1626295006.6590104,-90.82,-47.363,-39.551,-162.109,1.0
1626295006.6629167,-50.293,-12.695,-31.25,-32.715,1.0
1626295006.666823,3.906,9.277000000000001,-24.901999999999997,82.52,1.0
1626295006.6707292,39.062,2.441,-19.531,1.0,1.0
1626295006.6746354,15.625,13.184000000000001,-13.184000000000001,1.0,1.0
1626295006.6785414,-73.242,-35.156,-16.113,1.0,1.0
1626295006.682448,-69.824,-93.75,-54.688,1.0,1.0
1626295006.6863542,23.438000000000002,-19.043,-48.828,1.0,1.0
1626295006.6902604,1.465,-18.555,-23.926,1.0,1.0
1626295006.6941667,-95.70299999999999,-20.02,-44.434,1.0,1.0
1626295006.698073,-86.426,-20.02,-61.523,1.0,1.0
1626295006.7019792,14.648,-34.18,-27.344,1.0,1.0
1626295006.7058854,39.062,-0.977,1.465,1.0,1.0
1626295006.7097917,-45.41,-4.883,-17.09,1.0,1.0
1626295006.713698,-78.613,0.977,-27.344,1.0,1.0
1626295006.7176042,-58.593999999999994,0.0,-42.968999999999994,-93.262,1.0
1626295006.7215104,33.691,16.113,-9.277000000000001,90.33200000000001,1.0
1626295006.725417,44.434,-7.324,-20.996,83.49600000000001,1.0
1626295006.729323,-63.965,-74.219,-51.27,-122.07,1.0
1626295006.733229,-96.191,-39.551,-39.551,-152.832,1.0
1626295006.7371356,4.883,-9.277000000000001,-17.09,47.363,1.0
1626295006.7410414,57.617,4.395,-1.465,108.398,1.0
1626295006.7449477,-12.207,-74.707,-5.371,-60.547,1.0
1626295006.748854,-69.336,-104.98,-17.09,-150.879,1.0
1626295006.7527602,-22.949,-16.602,-24.901999999999997,-15.625,1.0
1626295006.756667,41.992,-4.395,-26.366999999999997,108.398,1.0
1626295006.760573,6.836,1.953,-33.691,-2.441,1.0
1626295006.7644792,-37.598,-4.883,-29.296999999999997,-61.035,1.0
1626295006.7683854,-98.145,-9.766,-38.574,-163.086,1.0
1626295006.7722914,-43.945,-18.066,-20.508000000000003,-23.926,1.0
1626295006.776198,19.531,-67.383,-30.273000000000003,98.633,1.0
1626295006.7801042,9.277000000000001,-20.508000000000003,-28.809,11.23,1.0
1626295006.7840102,-66.406,2.441,-24.414,-135.74200000000002,1.0
1626295006.7879167,-67.383,-28.809,-21.973000000000003,-71.777,1.0
1626295006.791823,9.766,-73.242,-6.836,97.656,1.0
1626295006.7957292,21.484,-61.035,0.977,72.75399999999999,1.0
1626295006.7996354,-60.547,-11.719000000000001,-1.465,-96.191,1.0
1626295006.8035417,-89.355,-16.113,-9.277000000000001,-100.098,1.0
1626295006.807448,-21.973000000000003,-23.438000000000002,-9.766,58.593999999999994,1.0
1626295006.8113542,-16.113,-34.18,-26.366999999999997,67.383,1.0
1626295006.8152604,9.277000000000001,-24.414,-17.09,-96.191,1.0
1626295006.8191667,-63.965,-43.945,-40.527,-135.74200000000002,1.0
1626295006.823073,-88.37899999999999,-81.055,-39.062,31.25,1.0
1626295006.8269792,-11.719000000000001,-27.831999999999997,-11.719000000000001,120.117,1.0
1626295006.8308856,24.901999999999997,6.836,-12.695,-36.621,1.0
1626295006.8347917,-40.527,15.137,0.0,-152.832,1.0
1626295006.838698,-116.699,-36.621,-23.438000000000002,-29.785,1.0
1626295006.8426042,-67.383,-58.593999999999994,-36.621,110.84,1.0
1626295006.8465104,16.113,-4.395,-17.578,30.273000000000003,1.0
1626295006.8504167,-26.366999999999997,-10.742,-34.18,-144.043,1.0
1626295006.854323,-88.867,-36.621,-32.227,-115.234,1.0
1626295006.858229,-94.727,-15.137,-40.039,-157.715,1.0
1626295006.8621356,-36.133,-1.465,-5.859,-13.184000000000001,1.0
1626295006.8660414,32.715,-35.645,-0.488,112.305,1.0
1626295006.8699481,-18.555,-104.00399999999999,-26.366999999999997,-18.066,1.0
1626295006.873854,-101.074,-56.152,-48.828,-176.27,1.0
1626295006.8777602,-49.805,-8.789,-37.598,-27.344,1.0
1626295006.881667,19.531,-11.719000000000001,-29.785,93.262,1.0
1626295006.885573,-45.898,-60.059,-47.363,-70.312,1.0
1626295006.889479,-106.445,-22.461,-49.316,-167.48,1.0
1626295006.8933854,-41.992,20.996,-21.484,-17.578,1.0
1626295006.8972914,52.246,40.039,-1.953,129.395,1.0
1626295006.901198,19.043,-14.648,-16.113,13.672,1.0
1626295006.9051042,-17.09,-40.527,-21.484,-40.039,1.0
1626295006.9090104,-77.637,-7.812,-29.785,-139.648,1.0
1626295006.9129167,-51.27,-58.105,-49.805,-33.203,1.0
1626295006.916823,12.207,-56.641000000000005,-43.457,93.262,1.0
1626295006.9207292,2.441,12.695,-24.901999999999997,16.602,1.0
1626295006.9246354,-86.426,5.859,-38.574,-152.832,1.0
1626295006.9285414,-82.52,-7.324,-43.945,-100.586,1.0
1626295006.932448,3.418,-65.43,-28.32,77.637,1.0
1626295006.9363542,20.02,-47.852,-21.973000000000003,58.105,1.0
1626295006.9402604,-58.593999999999994,6.836,-35.156,-114.258,1.0
1626295006.9441667,-79.59,15.137,-33.203,-116.211,1.0
1626295006.948073,-8.301,-47.852,-24.414,46.875,1.0
1626295006.9519792,13.184000000000001,-6.348,-31.25,61.523,1.0
1626295006.9558854,11.719000000000001,-11.719000000000001,-43.945,-90.82,1.0
1626295006.9597917,-69.336,-51.758,-43.945,-154.785,1.0
1626295006.963698,-81.543,-41.992,-28.32,0.488,1.0
1626295006.9676042,-8.789,-0.977,-16.602,82.52,1.0
1626295006.9715104,27.831999999999997,0.977,-30.273000000000003,-58.593999999999994,1.0
1626295006.975417,-27.344,-18.066,-36.621,-169.43400000000003,1.0
1626295006.979323,-83.984,-71.777,-25.879,-56.152,1.0
1626295006.983229,-12.695,-41.016000000000005,-16.602,104.98,1.0
1626295006.9871356,60.547,-3.418,-21.973000000000003,20.996,1.0
1626295006.9910414,5.859,4.395,-34.668,-142.578,1.0
1626295006.9949477,-86.426,-58.105,-60.547,-84.961,1.0
1626295006.998854,-86.426,-25.879,-23.926,-157.715,1.0
1626295007.0027602,-38.086,19.043,-17.578,-17.09,1.0
1626295007.006667,-3.906,-48.828,-26.366999999999997,83.984,1.0
1626295007.010573,-22.461,-56.152,-6.348,-13.184000000000001,1.0
1626295007.0144792,-74.219,-1.465,-15.137,-146.97299999999998,1.0
1626295007.0183854,-72.266,-11.23,-38.086,-83.49600000000001,1.0
1626295007.0222914,-2.441,-24.414,-28.809,81.543,1.0
1626295007.026198,5.859,-43.945,-32.227,42.48,1.0
1626295007.0301042,-62.012,-28.32,-49.316,-130.859,1.0
1626295007.0340102,-86.426,-24.414,-45.41,-129.395,1.0
1626295007.0379167,-2.93,-13.184000000000001,-10.254000000000001,61.523,1.0
1626295007.041823,13.184000000000001,-56.641000000000005,-18.555,72.75399999999999,1.0
1626295007.0457292,23.926,-19.531,-22.461,1.0,1.0
1626295007.0496354,-48.34,-0.977,-28.809,1.0,1.0
1626295007.0535417,-85.449,-36.621,-49.316,1.0,1.0
1626295007.057448,-14.648,-44.434,-38.086,1.0,1.0
1626295007.0613542,29.785,5.859,-37.109,1.0,1.0
1626295007.0652604,-33.691,0.0,-35.645,1.0,1.0
1626295007.0691667,-66.895,-27.831999999999997,-23.926,1.0,1.0
1626295007.073073,-20.996,-73.242,-37.109,1.0,1.0
1626295007.0769792,24.414,-43.945,-16.602,1.0,1.0
1626295007.0808856,-26.366999999999997,-35.645,-20.02,1.0,1.0
1626295007.0847917,-86.426,-9.766,-35.156,1.0,1.0
1626295007.088698,-48.828,-27.344,-40.039,1.0,1.0
1626295007.0926042,-35.645,-31.25,-31.738000000000003,-1.465,1.0
1626295007.0965104,27.831999999999997,-19.043,-34.18,112.79299999999999,1.0
1626295007.1004167,-22.461,-77.637,-53.711000000000006,-23.438000000000002,1.0
1626295007.104323,-98.633,-66.406,-59.57,-171.875,1.0
1626295007.108229,-67.383,-5.859,-33.203,-68.359,1.0
1626295007.1121356,20.996,12.207,-11.719000000000001,103.027,1.0
1626295007.1160414,16.602,-3.418,-15.137,40.527,1.0
1626295007.1199481,-83.984,-101.56200000000001,-44.922,-152.832,1.0
1626295007.123854,-88.867,-70.312,-42.48,-120.117,1.0
1626295007.1277602,12.207,-10.254000000000001,-22.461,75.195,1.0
1626295007.131667,45.41,27.344,-16.113,90.82,1.0
1626295007.135573,-52.246,-24.414,-54.199,-113.77,1.0
1626295007.139479,-52.733999999999995,-10.742,-31.25,-118.164,1.0
1626295007.1433854,-89.355,-19.043,-35.156,-120.605,1.0
1626295007.1472914,-22.949,-61.035,-37.109,42.968999999999994,1.0
1626295007.151198,5.859,-45.898,-32.715,64.941,1.0
1626295007.1551042,-58.593999999999994,-5.371,-38.086,-96.191,1.0
1626295007.1590104,-79.102,-18.066,-26.366999999999997,-134.766,1.0
1626295007.1629167,9.766,-20.02,-4.883,47.852,1.0
1626295007.166823,42.968999999999994,-54.688,-23.926,114.258,1.0
1626295007.1707292,-27.344,-15.625,-14.648,-47.852,1.0
1626295007.1746354,-91.309,12.207,-13.672,-155.273,1.0
1626295007.1785414,-45.41,15.625,-27.344,-31.25,1.0
1626295007.182448,8.789,-46.875,-26.855,84.473,1.0
1626295007.1863542,27.831999999999997,7.812,-11.719000000000001,-25.879,1.0
1626295007.1902604,-28.32,2.441,-16.602,-169.922,1.0
1626295007.1941667,-105.469,-54.688,-29.785,-92.285,1.0
1626295007.198073,-68.848,-54.199,-21.484,79.102,1.0
1626295007.2019792,27.831999999999997,-1.465,-18.555,24.901999999999997,1.0
1626295007.2058854,29.785,15.625,-37.109,-137.695,1.0
1626295007.2097917,-41.992,-2.441,-22.461,-105.469,1.0
1626295007.213698,-67.383,-57.617,-27.344,72.75399999999999,1.0
1626295007.2176042,-10.254000000000001,-29.296999999999997,-43.945,109.375,1.0
1626295007.2215104,-3.906,-4.883,-51.27,-93.262,1.0
1626295007.225417,-77.148,-10.742,-37.598,-172.852,1.0
1626295007.229323,-92.773,-58.105,-27.344,0.977,1.0
1626295007.233229,-60.059,-8.301,-25.879,-104.00399999999999,1.0
1626295007.2371356,37.109,-14.648,-24.414,95.70299999999999,1.0
1626295007.2410414,52.733999999999995,-57.617,-42.48,98.145,1.0
1626295007.2449477,-32.715,-54.688,-45.898,-91.309,1.0
1626295007.248854,-58.593999999999994,8.789,-17.578,-116.211,1.0
1626295007.2527602,26.366999999999997,46.387,2.93,75.684,1.0
1626295007.256667,64.453,18.555,-5.859,131.836,1.0
1626295007.260573,-31.738000000000003,-73.242,-25.391,-54.688,1.0
1626295007.2644792,-95.70299999999999,-44.922,-23.926,-159.18,1.0
1626295007.2683854,-29.296999999999997,-11.23,-7.324,-12.695,1.0
1626295007.2722914,48.34,-3.418,-5.859,122.559,1.0
1626295007.276198,20.02,-39.062,-18.066,21.973000000000003,1.0
1626295007.2801042,-26.366999999999997,-20.02,-51.758,-44.434,1.0
1626295007.2840102,-72.266,-16.113,-25.879,-141.113,1.0
1626295007.2879167,-34.18,-60.547,-2.441,-20.02,1.0
1626295007.291823,3.418,-62.012,-20.508000000000003,93.262,1.0
1626295007.2957292,-27.344,-20.02,-36.621,-5.859,1.0
1626295007.2996354,-88.867,-19.043,-42.968999999999994,-158.203,1.0
1626295007.3035417,-75.684,-13.184000000000001,-45.41,-96.191,1.0
1626295007.307448,-0.977,-63.477,-38.574,65.918,1.0
1626295007.3113542,21.484,-41.016000000000005,-30.761999999999997,54.688,1.0
1626295007.3152604,-49.805,-29.785,-24.901999999999997,-109.863,1.0
1626295007.3191667,-63.477,-6.348,-6.836,-109.863,1.0
1626295007.323073,1.953,-10.742,-17.578,54.199,1.0
1626295007.3269792,10.254000000000001,9.766,-4.883,68.848,1.0
1626295007.3308856,6.348,-13.184000000000001,-24.414,-90.33200000000001,1.0
1626295007.3347917,-87.402,-57.617,-53.711000000000006,-176.27,1.0
1626295007.338698,-91.79700000000001,-16.113,-54.688,-28.32,1.0
1626295007.3426042,-16.113,-8.789,-57.129,84.961,1.0
1626295007.3465104,12.207,-24.414,-41.016000000000005,-38.574,1.0
1626295007.3504167,-27.344,-20.508000000000003,-16.113,-151.36700000000002,1.0
1626295007.354323,-93.75,-75.195,-27.831999999999997,-48.34,1.0
1626295007.358229,-54.199,-27.831999999999997,-27.831999999999997,107.42200000000001,1.0
1626295007.3621356,22.461,19.531,-18.066,39.062,1.0
1626295007.3660414,-11.23,-11.23,-22.461,-147.94899999999998,1.0
1626295007.3699481,-90.82,-71.289,-40.039,-120.605,1.0
1626295007.373854,-75.195,-19.043,-15.137,-145.50799999999998,1.0
1626295007.3777602,-18.066,-33.203,-1.953,-2.441,1.0
1626295007.381667,23.438000000000002,-45.41,-19.531,104.98,1.0
1626295007.385573,-8.301,-32.227,-30.761999999999997,2.441,1.0
1626295007.389479,-85.93799999999999,-17.578,-34.668,-155.273,1.0
1626295007.3933854,-75.195,5.859,-25.879,-80.566,1.0
1626295007.3972914,7.324,14.648,-39.062,93.262,1.0
1626295007.401198,-4.883,-58.105,-72.266,29.785,1.0
1626295007.4051042,-68.848,-53.711000000000006,-51.27,-135.254,1.0
1626295007.4090104,-75.195,-34.18,-19.043,-114.258,1.0
1626295007.4129167,-6.836,-16.113,-11.719000000000001,54.199,1.0
1626295007.416823,33.691,-27.344,-28.32,87.402,1.0
1626295007.4207292,24.901999999999997,33.691,-31.25,1.0,1.0
1626295007.4246354,-60.547,16.113,-25.391,1.0,1.0
1626295007.4285414,-101.074,-81.055,-42.968999999999994,1.0,1.0
1626295007.432448,-25.391,-99.12100000000001,-47.363,1.0,1.0
1626295007.4363542,20.02,-32.715,-43.457,1.0,1.0
1626295007.4402604,-54.199,-9.766,-44.434,1.0,1.0
1626295007.4441667,-104.00399999999999,-2.93,-36.621,1.0,1.0
1626295007.448073,-44.434,-46.875,-33.203,1.0,1.0
1626295007.4519792,33.691,-17.578,-33.203,1.0,1.0
1626295007.4558854,7.812,23.438000000000002,-17.578,1.0,1.0
1626295007.4597917,-54.688,17.578,-8.301,1.0,1.0
1626295007.463698,-47.852,-61.523,-32.227,1.0,1.0
1626295007.4676042,-22.949,-3.418,-32.715,-17.09,1.0
1626295007.4715104,45.41,18.555,-18.555,104.00399999999999,1.0
1626295007.475417,-5.371,-18.555,-28.32,-20.508000000000003,1.0
1626295007.479323,-88.37899999999999,-3.418,-49.805,-171.875,1.0
1626295007.483229,-62.5,36.621,-64.941,-76.66,1.0
1626295007.4871356,35.645,20.996,-39.062,105.469,1.0
1626295007.4910414,30.761999999999997,-16.113,-30.761999999999997,48.828,1.0
1626295007.4949477,-68.848,-61.523,-45.41,-144.531,1.0
1626295007.498854,-67.87100000000001,-30.273000000000003,-19.531,-111.32799999999999,1.0
1626295007.5027602,3.906,0.0,-9.766,59.082,1.0
1626295007.506667,23.438000000000002,9.277000000000001,-22.949,57.617,1.0
1626295007.510573,-46.875,-20.508000000000003,-51.758,-111.816,1.0
1626295007.5144792,-62.5,-44.922,-20.02,-119.141,1.0
1626295007.5183854,-92.285,-43.457,-26.855,-120.117,1.0
1626295007.5222914,-25.391,-52.733999999999995,-33.691,45.898,1.0
1626295007.526198,9.277000000000001,-30.761999999999997,-26.366999999999997,70.801,1.0
1626295007.5301042,-43.945,-15.625,-27.344,-87.402,1.0
1626295007.5340102,-101.074,-24.414,-48.34,-161.621,1.0
1626295007.5379167,-57.617,-25.391,-37.598,-23.438000000000002,1.0
1626295007.541823,9.277000000000001,-51.27,-7.812,86.426,1.0
1626295007.5457292,-26.366999999999997,-25.391,-9.277000000000001,-38.574,1.0
1626295007.5496354,-90.33200000000001,-33.203,-26.366999999999997,-159.668,1.0
1626295007.5535417,-51.758,-51.27,-36.621,-42.968999999999994,1.0
1626295007.557448,19.531,-43.945,-31.738000000000003,100.586,1.0
1626295007.5613542,31.25,-11.719000000000001,-19.043,114.258,1.0
1626295007.5652604,-31.738000000000003,-5.859,-29.296999999999997,-44.922,1.0
1626295007.5691667,-124.512,-42.48,-56.152,-199.21900000000002,1.0
1626295007.573073,-83.49600000000001,-30.761999999999997,-36.621,-74.707,1.0
1626295007.5769792,9.766,-8.301,0.0,88.867,1.0
1626295007.5808856,7.812,-15.137,-1.465,17.578,1.0
1626295007.5847917,-70.801,-36.133,-25.391,-144.043,1.0
1626295007.588698,-76.172,-85.449,-38.574,-96.68,1.0
1626295007.5926042,4.883,-37.598,-38.086,74.707,1.0
1626295007.5965104,8.301,0.0,-20.508000000000003,47.852,1.0
1626295007.6004167,-70.801,-10.254000000000001,-26.855,-126.95299999999999,1.0
1626295007.604323,-99.609,-67.87100000000001,-43.457,-149.414,1.0
1626295007.608229,-86.426,-37.109,-71.289,-124.023,1.0
1626295007.6121356,1.465,15.625,-20.02,56.152,1.0
1626295007.6160414,8.301,-40.039,-25.391,41.992,1.0
1626295007.6199481,-66.406,-52.246,-37.109,-127.93,1.0
1626295007.623854,-85.449,-8.789,-23.438000000000002,-142.578,1.0
1626295007.6277602,4.883,-15.137,-7.812,51.758,1.0
1626295007.631667,56.641000000000005,-20.02,-14.16,122.07,1.0
1626295007.635573,-40.039,-70.801,-45.898,-69.824,1.0
1626295007.639479,-108.398,-44.434,-36.133,-177.734,1.0
1626295007.6433854,-44.922,-4.883,-21.973000000000003,-32.715,1.0
1626295007.6472914,35.156,30.761999999999997,-17.578,104.98,1.0
1626295007.651198,12.207,10.742,-22.461,4.395,1.0
1626295007.6551042,-24.414,-1.465,-44.434,-62.988,1.0
1626295007.6590104,-88.867,-6.836,-58.105,-179.688,1.0
1626295007.6629167,-34.18,-38.574,-47.852,-40.527,1.0
1626295007.666823,39.551,-32.227,-29.785,102.539,1.0
1626295007.6707292,-0.977,-3.906,-31.738000000000003,0.977,1.0
1626295007.6746354,-87.402,4.395,-52.246,-162.59799999999998,1.0
1626295007.6785414,-71.777,17.09,-47.363,-96.68,1.0
1626295007.682448,11.719000000000001,-35.156,-27.344,78.125,1.0
1626295007.6863542,23.926,-24.901999999999997,-8.301,64.453,1.0
1626295007.6902604,-44.922,-5.859,-13.672,-101.074,1.0
1626295007.6941667,-76.172,-6.348,-27.831999999999997,-120.117,1.0
1626295007.698073,-24.901999999999997,-32.227,-25.879,34.18,1.0
1626295007.7019792,10.254000000000001,-0.977,-15.625,81.055,1.0
1626295007.7058854,37.109,-0.488,-12.695,79.102,1.0
1626295007.7097917,-54.688,-66.895,-37.109,-117.18799999999999,1.0
1626295007.713698,-82.031,-52.246,-37.598,-138.672,1.0
1626295007.7176042,2.441,12.207,-16.113,55.663999999999994,1.0
1626295007.7215104,50.781000000000006,9.277000000000001,-15.137,117.18799999999999,1.0
1626295007.725417,-25.879,-13.672,-40.527,-59.082,1.0
1626295007.729323,-97.656,-79.102,-50.293,-163.086,1.0
1626295007.733229,-25.879,-42.48,-24.901999999999997,-1.953,1.0
1626295007.7371356,46.875,-7.324,-14.648,125.0,1.0
1626295007.7410414,-7.812,-2.93,-21.973000000000003,-10.742,1.0
1626295007.7449477,-103.516,-21.484,-32.227,-174.31599999999997,1.0
1626295007.748854,-102.051,-34.18,-36.621,-179.688,1.0
1626295007.7527602,-53.711000000000006,-32.715,-26.855,-42.48,1.0
1626295007.756667,2.441,-65.43,-36.133,78.125,1.0
1626295007.760573,-31.25,-64.941,-41.504,-35.645,1.0
1626295007.7644792,-102.051,-22.461,-35.156,-182.61700000000002,1.0
1626295007.7683854,-61.035,13.672,-20.508000000000003,-83.49600000000001,1.0
1626295007.7722914,32.227,38.086,-5.371,100.586,1.0
1626295007.776198,0.488,-36.133,-34.668,24.414,1.0
1626295007.7801042,-93.75,-61.035,-67.383,-168.945,1.0
1626295007.7840102,-96.191,-37.598,-49.316,-142.578,1.0
1626295007.7879167,-7.812,-21.973000000000003,-39.551,40.527,1.0
1626295007.791823,26.366999999999997,-37.109,-42.968999999999994,72.266,1.0
1626295007.7957292,43.945,-19.043,-22.949,1.0,1.0
1626295007.7996354,-45.898,-32.715,-33.691,1.0,1.0
1626295007.8035417,-79.59,-54.688,-24.901999999999997,1.0,1.0
1626295007.807448,-7.324,-24.901999999999997,-20.02,1.0,1.0
1626295007.8113542,20.508000000000003,11.719000000000001,-24.901999999999997,1.0,1.0
1626295007.8152604,-44.434,-14.16,-45.41,1.0,1.0
1626295007.8191667,-91.79700000000001,-21.973000000000003,-40.527,1.0,1.0
1626295007.823073,-35.156,-42.968999999999994,-5.371,1.0,1.0
1626295007.8269792,33.203,-30.273000000000003,-1.953,1.0,1.0
1626295007.8308856,-20.02,-31.25,-42.48,1.0,1.0
1626295007.8347917,-93.75,-37.109,-48.34,1.0,1.0
1626295007.838698,-53.711000000000006,-49.805,-15.625,1.0,1.0
1626295007.8426042,-26.366999999999997,-8.301,-20.508000000000003,-2.93,1.0
1626295007.8465104,39.062,3.418,-25.879,111.32799999999999,1.0
1626295007.8504167,6.348,-40.039,-15.625,0.488,1.0
1626295007.854323,-78.613,-56.152,-50.293,-154.785,1.0
1626295007.858229,-79.102,-16.602,-69.824,-88.867,1.0
1626295007.8621356,0.488,4.883,-37.109,81.055,1.0
1626295007.8660414,-0.977,-9.277000000000001,-22.949,29.296999999999997,1.0
1626295007.8699481,-104.00399999999999,-53.711000000000006,-37.109,-157.227,1.0
1626295007.873854,-104.98,-32.227,-34.18,-124.512,1.0
1626295007.8777602,-0.977,-21.484,-2.93,72.75399999999999,1.0
1626295007.881667,37.109,-40.039,5.859,87.402,1.0
1626295007.885573,-44.434,-37.109,-16.602,-96.191,1.0
1626295007.889479,-60.547,-41.992,-49.316,-143.555,1.0
1626295007.8933854,-66.895,-38.574,-41.016000000000005,-127.93,1.0
1626295007.8972914,8.301,-15.625,-29.785,46.387,1.0
1626295007.901198,16.113,-5.371,-32.715,56.641000000000005,1.0
1626295007.9051042,-63.477,-11.719000000000001,-34.18,-119.141,1.0
1626295007.9090104,-86.426,-23.438000000000002,-23.926,-160.156,1.0
1626295007.9129167,-1.953,-39.551,-15.137,21.484,1.0
1626295007.916823,34.18,-50.781000000000006,-18.066,98.145,1.0
1626295007.9207292,-26.366999999999997,-8.789,-25.879,-54.199,1.0
1626295007.9246354,-83.984,-10.254000000000001,-55.176,-167.96900000000002,1.0
1626295007.9285414,-57.129,-19.043,-59.082,-66.895,1.0
1626295007.932448,2.93,-45.898,-23.438000000000002,58.105,1.0
1626295007.9363542,29.785,-29.785,-2.93,-30.761999999999997,1.0
1626295007.9402604,13.184000000000001,-11.719000000000001,2.93,-182.61700000000002,1.0
1626295007.9441667,-62.988,-51.758,-22.461,-101.074,1.0
1626295007.948073,-51.758,-39.551,-27.344,102.051,1.0
1626295007.9519792,10.742,1.465,-21.973000000000003,74.707,1.0
1626295007.9558854,-14.648,-5.371,-27.344,-134.766,1.0
1626295007.9597917,-80.566,-25.391,-21.484,-157.227,1.0
1626295007.963698,-65.918,-87.891,-30.273000000000003,16.113,1.0
1626295007.9676042,17.578,-44.922,-57.617,66.895,1.0
1626295007.9715104,29.785,-20.996,-58.105,-104.492,1.0
1626295007.975417,-61.523,-22.949,-27.831999999999997,-193.84799999999998,1.0
1626295007.979323,-85.449,-28.809,-14.16,-35.645,1.0
1626295007.983229,-69.824,-30.273000000000003,-46.875,-104.492,1.0
1626295007.9871356,7.812,13.672,-28.32,66.895,1.0
1626295007.9910414,25.391,-39.551,-15.137,71.777,1.0
1626295007.9949477,-62.012,-58.593999999999994,-42.968999999999994,-121.58200000000001,1.0
1626295007.998854,-81.055,1.465,-35.156,-153.809,1.0
1626295008.0027602,-8.789,-1.953,-14.648,20.508000000000003,1.0
1626295008.006667,23.438000000000002,-10.254000000000001,-33.691,83.49600000000001,1.0
1626295008.010573,-32.715,-56.152,-45.41,-63.965,1.0
1626295008.0144792,-78.613,-49.805,-46.387,-154.297,1.0
1626295008.0183854,-22.461,-11.23,-37.598,-12.695,1.0
1626295008.0222914,40.039,18.066,-20.508000000000003,122.07,1.0
1626295008.026198,-3.906,-20.996,-21.484,2.441,1.0
1626295008.0301042,-2.93,3.906,-24.901999999999997,1.0,1.0
1626295008.0340102,-83.008,-14.16,-44.434,1.0,1.0
1626295008.0379167,-72.75399999999999,-72.75399999999999,-40.039,1.0,1.0
1626295008.041823,6.348,-52.246,-37.598,1.0,1.0
1626295008.0457292,-8.301,-3.418,-39.062,1.0,1.0
1626295008.0496354,-89.844,-10.742,-27.831999999999997,1.0,1.0
1626295008.0535417,-82.031,-11.719000000000001,-29.785,1.0,1.0
1626295008.057448,-3.418,-65.43,-45.898,1.0,1.0
1626295008.0613542,26.855,-37.598,-32.227,1.0,1.0
1626295008.0652604,-41.016000000000005,-10.254000000000001,-20.02,1.0,1.0
1626295008.0691667,-76.172,-12.207,-23.926,1.0,1.0
1626295008.073073,-13.184000000000001,-27.344,-32.715,1.0,1.0
1626295008.0769792,-27.344,-24.414,-21.484,56.641000000000005,1.0
1626295008.0808856,-19.531,-24.901999999999997,-22.949,40.527,1.0
1626295008.0847917,-75.195,-64.941,-38.574,-116.699,1.0
1626295008.088698,-103.027,-63.965,-36.621,-135.74200000000002,1.0
1626295008.0926042,-32.715,-14.16,-17.09,34.668,1.0
1626295008.0965104,19.043,-38.086,-9.766,98.145,1.0
1626295008.1004167,-44.922,-69.336,-20.996,-66.406,1.0
1626295008.104323,-99.12100000000001,-112.305,-38.086,-160.645,1.0
1626295008.108229,-30.761999999999997,-38.086,-13.184000000000001,-1.465,1.0
1626295008.1121356,28.32,25.391,-21.973000000000003,107.91,1.0
1626295008.1160414,-19.531,13.184000000000001,-50.781000000000006,-27.344,1.0
1626295008.1199481,-83.49600000000001,-20.996,-45.898,-163.57399999999998,1.0
1626295008.123854,-97.656,-34.668,-30.761999999999997,-172.852,1.0
1626295008.1277602,-54.688,1.953,-17.578,-41.016000000000005,1.0
1626295008.131667,15.137,-61.523,-25.879,85.93799999999999,1.0
1626295008.135573,-7.324,-96.191,-29.296999999999997,-17.09,1.0
1626295008.139479,-87.891,-29.296999999999997,-42.48,-168.457,1.0
1626295008.1433854,-75.684,9.277000000000001,-52.733999999999995,-98.633,1.0
1626295008.1472914,10.254000000000001,12.695,-35.645,69.336,1.0
1626295008.151198,11.719000000000001,-32.227,-22.949,32.715,1.0
1626295008.1551042,-76.172,-18.555,-54.199,-145.996,1.0
1626295008.1590104,-82.031,-5.371,-57.129,-135.254,1.0
1626295008.1629167,4.883,-4.395,-24.901999999999997,51.27,1.0
1626295008.166823,14.648,-29.296999999999997,-18.555,67.87100000000001,1.0
1626295008.1707292,2.441,-20.508000000000003,-12.695,1.0,1.0
1626295008.1746354,-74.707,-11.719000000000001,-27.344,1.0,1.0
1626295008.1785414,-101.56200000000001,-68.359,-42.48,1.0,1.0
1626295008.182448,-17.578,-38.086,-45.898,1.0,1.0
1626295008.1863542,32.715,30.273000000000003,-38.574,1.0,1.0
1626295008.1902604,-51.27,0.488,-38.574,1.0,1.0
1626295008.1941667,-107.42200000000001,-23.438000000000002,-19.531,1.0,1.0
1626295008.198073,-32.715,-51.27,5.859,1.0,1.0
1626295008.2019792,38.086,-26.366999999999997,-4.883,1.0,1.0
1626295008.2058854,-10.254000000000001,-17.09,-28.809,1.0,1.0
1626295008.2097917,-83.008,-3.418,-31.25,1.0,1.0
1626295008.213698,-53.711000000000006,-20.02,-31.738000000000003,1.0,1.0
1626295008.2176042,-36.621,-18.066,-41.016000000000005,-21.484,1.0
1626295008.2215104,16.602,-20.02,-19.531,91.79700000000001,1.0
1626295008.225417,-16.602,-53.711000000000006,-27.344,-21.973000000000003,1.0
1626295008.229323,-80.566,-49.316,-29.785,-162.109,1.0
1626295008.233229,-66.406,-13.184000000000001,-39.551,-81.543,1.0
1626295008.2371356,26.855,-4.395,-29.785,93.75,1.0
1626295008.2410414,25.879,-3.906,-26.855,39.551,1.0
1626295008.2449477,-68.359,-54.688,-48.34,-148.438,1.0
1626295008.248854,-69.824,-33.691,-33.203,-116.699,1.0
1626295008.2527602,13.672,-9.277000000000001,-26.855,66.406,1.0
1626295008.256667,33.203,-2.441,-37.598,81.055,1.0
1626295008.260573,-40.527,-9.277000000000001,-50.781000000000006,-87.402,1.0
1626295008.2644792,-83.49600000000001,-31.738000000000003,-51.758,-142.09,1.0
1626295008.2683854,-81.543,-33.203,-60.059,-120.605,1.0
1626295008.2722914,17.578,-69.824,-40.527,78.125,1.0
1626295008.276198,43.457,-47.363,-3.418,105.95700000000001,1.0
1626295008.2801042,-37.598,0.977,-3.906,-78.125,1.0
1626295008.2840102,-73.242,-20.02,-11.719000000000001,-136.23,1.0
1626295008.2879167,-4.395,-1.465,-4.883,26.855,1.0
1626295008.291823,24.414,-27.344,-17.578,100.098,1.0
1626295008.2957292,-30.273000000000003,-22.949,-16.602,-41.504,1.0
1626295008.2996354,-101.56200000000001,-13.672,-33.691,-171.875,1.0
1626295008.3035417,-66.895,5.859,-51.27,-63.477,1.0
1626295008.307448,11.719000000000001,1.465,-34.18,92.285,1.0
1626295008.3113542,69.336,2.93,-20.02,4.883,1.0
1626295008.3152604,14.648,-19.531,-23.926,-156.25,1.0
1626295008.3191667,-77.637,-55.176,-38.574,-83.008,1.0
1626295008.323073,-60.059,-50.293,-41.016000000000005,95.70299999999999,1.0
1626295008.3269792,21.484,-16.602,-26.366999999999997,40.039,1.0
1626295008.3308856,1.465,-0.488,-23.438000000000002,-160.645,1.0
1626295008.3347917,-88.37899999999999,3.906,-34.18,-151.855,1.0
1626295008.338698,-86.914,-28.809,-41.016000000000005,39.551,1.0
1626295008.3426042,15.137,3.418,-25.391,100.098,1.0
1626295008.3465104,35.645,21.484,-31.738000000000003,-79.102,1.0
1626295008.3504167,-45.41,-21.484,-35.645,-165.52700000000002,1.0
1626295008.354323,-66.895,-53.711000000000006,-12.207,14.648,1.0
1626295008.358229,-96.191,-20.996,-47.852,-128.906,1.0
1626295008.3621356,-13.184000000000001,-13.184000000000001,-43.945,48.828,1.0
1626295008.3660414,12.207,-42.48,-29.785,62.012,1.0
1626295008.3699481,-39.062,-37.109,-38.574,-94.727,1.0
1626295008.373854,-54.688,-1.953,-20.02,-123.04700000000001,1.0
1626295008.3777602,-0.488,-33.691,6.836,33.691,1.0
1626295008.381667,46.387,-35.156,-5.859,114.258,1.0
1626295008.385573,-25.879,-52.733999999999995,-28.32,-56.641000000000005,1.0
1626295008.389479,-87.891,-37.598,-36.133,-165.03900000000002,1.0
1626295008.3933854,-30.273000000000003,-16.113,-22.949,-15.625,1.0
1626295008.3972914,29.785,-2.441,-19.531,109.863,1.0
1626295008.401198,-4.395,-7.324,-39.551,2.441,1.0
1626295008.4051042,-6.836,-1.953,-30.761999999999997,-41.992,1.0
1626295008.4090104,-81.543,-17.578,-36.621,-168.945,1.0
1626295008.4129167,-37.598,-73.73,-25.879,-47.852,1.0
1626295008.416823,42.968999999999994,-66.895,-9.766,98.633,1.0
1626295008.4207292,5.371,-10.254000000000001,-41.992,0.977,1.0
1626295008.4246354,-79.102,-3.906,-56.152,-161.621,1.0
1626295008.4285414,-72.266,-11.23,-37.598,-103.027,1.0
1626295008.432448,1.465,-59.082,-30.273000000000003,63.477,1.0
1626295008.4363542,9.766,-23.438000000000002,-24.414,36.621,1.0
1626295008.4402604,-72.75399999999999,-13.184000000000001,-48.828,-146.484,1.0
1626295008.4441667,-88.37899999999999,-26.855,-47.363,-145.02,1.0
1626295008.448073,-0.977,-41.992,-27.344,47.363,1.0
1626295008.4519792,-4.395,-5.371,0.0,62.012,1.0
1626295008.4558854,4.883,-7.324,-9.766,58.593999999999994,1.0
1626295008.4597917,-92.773,-76.172,-36.621,-134.27700000000002,1.0
1626295008.463698,-118.164,-62.012,-54.688,-157.715,1.0
1626295008.4676042,-21.973000000000003,19.043,-42.48,34.668,1.0
1626295008.4715104,21.973000000000003,2.441,-23.926,91.79700000000001,1.0
1626295008.475417,-53.223,-30.273000000000003,-32.227,-80.078,1.0
1626295008.479323,-127.441,-82.52,-43.945,-192.38299999999998,1.0
1626295008.483229,-64.453,-35.645,-22.949,-39.062,1.0
1626295008.4871356,29.785,20.508000000000003,3.418,110.84,1.0
1626295008.4910414,0.0,3.906,-6.348,-0.488,1.0
1626295008.4949477,-82.031,-50.781000000000006,-21.484,-154.297,1.0
1626295008.498854,-88.37899999999999,-19.043,-41.992,-159.18,1.0
1626295008.5027602,-41.504,-7.812,-36.133,-33.691,1.0
1626295008.506667,10.742,-42.48,-35.156,81.543,1.0
1626295008.510573,-23.926,-41.016000000000005,-39.551,-25.879,1.0
1626295008.5144792,-93.75,-14.16,-44.434,-174.31599999999997,1.0
1626295008.5183854,-79.102,-17.09,-52.733999999999995,-107.91,1.0
1626295008.5222914,10.254000000000001,4.395,-40.527,73.242,1.0
1626295008.526198,11.719000000000001,-43.945,-27.831999999999997,35.156,1.0
1626295008.5301042,-68.848,-52.246,-19.043,-142.09,1.0
1626295008.5340102,-65.918,-17.578,0.977,-116.211,1.0
1626295008.5379167,20.996,-13.184000000000001,0.488,71.289,1.0
1626295008.541823,42.48,-34.18,-37.598,99.12100000000001,1.0
1626295008.5457292,21.484,-7.324,-2.441,1.0,1.0
1626295008.5496354,-74.707,-5.371,-33.691,1.0,1.0
1626295008.5535417,-106.445,-55.176,-55.663999999999994,1.0,1.0
1626295008.557448,-11.23,-30.761999999999997,-40.527,1.0,1.0
1626295008.5613542,40.527,10.254000000000001,-16.602,1.0,1.0
1626295008.5652604,-30.273000000000003,-35.156,-20.02,1.0,1.0
1626295008.5691667,-90.33200000000001,-31.25,-24.414,1.0,1.0
1626295008.573073,-43.945,-31.738000000000003,-21.484,1.0,1.0
1626295008.5769792,31.25,-6.348,-39.062,1.0,1.0
1626295008.5808856,0.488,-17.578,-43.945,1.0,1.0
1626295008.5847917,-68.359,-36.621,-32.227,1.0,1.0
1626295008.588698,-47.363,-36.621,-40.527,1.0,1.0
1626295008.5926042,-33.691,11.719000000000001,-29.785,-9.277000000000001,1.0
1626295008.5965104,25.879,-3.418,-21.484,111.32799999999999,1.0
1626295008.6004167,-21.484,-62.988,-23.438000000000002,-31.738000000000003,1.0
1626295008.604323,-99.609,-76.66,-18.066,-183.105,1.0
1626295008.608229,-59.082,-10.742,-16.602,-66.406,1.0
1626295008.6121356,25.391,0.488,-10.742,109.375,1.0
1626295008.6160414,14.648,-12.695,-7.324,46.387,1.0
1626295008.6199481,-61.035,-49.316,-29.785,-130.859,1.0
1626295008.623854,-76.172,-29.785,-20.996,-111.32799999999999,1.0
1626295008.6277602,-5.859,-11.719000000000001,3.418,62.012,1.0
1626295008.631667,29.296999999999997,-6.348,-4.395,86.914,1.0
1626295008.635573,-53.223,-46.387,-22.461,-94.238,1.0
1626295008.639479,-82.031,-22.461,-29.785,-129.88299999999998,1.0
1626295008.6433854,-81.543,-23.438000000000002,-0.977,-114.74600000000001,1.0
1626295008.6472914,5.371,-28.809,11.23,67.383,1.0
1626295008.651198,15.625,-37.109,-8.789,73.242,1.0
1626295008.6551042,-53.711000000000006,-25.391,-22.461,-98.145,1.0
1626295008.6590104,-85.93799999999999,-34.18,-48.34,-145.996,1.0
1626295008.6629167,-24.901999999999997,-19.531,-68.848,9.277000000000001,1.0
1626295008.666823,19.531,-48.34,-39.062,92.285,1.0
1626295008.6707292,-34.668,-44.434,-17.578,-53.223,1.0
1626295008.6746354,-103.027,-26.855,-20.508000000000003,-176.27,1.0
1626295008.6785414,-69.336,-23.926,-14.16,-61.035,1.0
1626295008.682448,13.672,-20.996,-14.16,88.37899999999999,1.0
1626295008.6863542,51.758,-16.113,-18.066,11.23,1.0
1626295008.6902604,-10.742,-11.719000000000001,-5.859,-140.625,1.0
1626295008.6941667,-102.051,-41.504,-32.715,-83.984,1.0
1626295008.698073,-73.242,-41.016000000000005,-51.758,82.52,1.0
1626295008.7019792,21.973000000000003,8.301,-14.648,59.082,1.0
1626295008.7058854,5.371,5.859,-20.996,-105.95700000000001,1.0
1626295008.7097917,-86.426,-15.625,-55.176,-120.605,1.0
1626295008.713698,-80.078,-52.246,-40.039,42.968999999999994,1.0
1626295008.7176042,7.812,-41.992,-17.09,91.79700000000001,1.0
1626295008.7215104,17.578,-20.996,-7.812,-72.266,1.0
1626295008.725417,-62.012,-32.227,-17.09,-156.738,1.0
1626295008.729323,-98.145,-63.477,-32.715,2.93,1.0
1626295008.733229,-81.055,-8.301,-36.133,-126.465,1.0
1626295008.7371356,12.695,17.09,-32.227,69.336,1.0
1626295008.7410414,22.461,-27.344,-32.715,65.918,1.0
1626295008.7449477,-60.547,-74.219,-48.34,-120.605,1.0
1626295008.748854,-99.12100000000001,-51.758,-50.293,-156.25,1.0
1626295008.7527602,-29.785,-25.391,-23.926,14.648,1.0
1626295008.756667,19.043,-3.418,-24.901999999999997,86.914,1.0
1626295008.760573,-62.012,-46.387,-61.035,-86.914,1.0
1626295008.7644792,-106.445,-26.855,-53.711000000000006,-185.05900000000003,1.0
1626295008.7683854,-35.645,1.953,-32.715,-32.715,1.0
1626295008.7722914,29.296999999999997,6.348,-16.113,104.98,1.0
1626295008.776198,4.395,-15.137,-16.113,10.742,1.0
1626295008.7801042,-19.531,-3.906,-44.922,1.0,1.0
1626295008.7840102,-73.73,-4.883,-29.785,1.0,1.0
1626295008.7879167,-44.922,-68.848,-16.113,1.0,1.0
1626295008.791823,4.883,-80.078,-17.578,1.0,1.0
1626295008.7957292,-3.906,-0.977,-14.648,1.0,1.0
1626295008.7996354,-67.87100000000001,8.301,-15.625,1.0,1.0
1626295008.8035417,-80.078,-23.438000000000002,-29.785,1.0,1.0
1626295008.807448,-9.277000000000001,-65.918,-27.831999999999997,1.0,1.0
1626295008.8113542,13.672,-38.574,-26.855,1.0,1.0
1626295008.8152604,-65.918,-5.859,-59.082,1.0,1.0
1626295008.8191667,-89.844,-10.254000000000001,-54.688,1.0,1.0
1626295008.823073,0.0,-29.785,-18.555,1.0,1.0
1626295008.8269792,19.531,-6.836,-6.348,79.59,1.0
1626295008.8308856,38.574,-10.742,-1.953,78.613,1.0
1626295008.8347917,-50.293,-68.359,-37.598,-114.258,1.0
1626295008.838698,-101.56200000000001,-68.359,-52.246,-163.57399999999998,1.0
1626295008.8426042,-8.789,-27.344,-12.695,21.484,1.0
1626295008.8465104,63.965,-24.414,12.695,112.79299999999999,1.0
1626295008.8504167,-7.324,-0.977,-27.344,-55.176,1.0
1626295008.854323,-111.816,-58.593999999999994,-81.055,-195.312,1.0
1626295008.858229,-49.316,-24.901999999999997,-50.293,-35.156,1.0
1626295008.8621356,36.133,19.043,-20.508000000000003,104.98,1.0
1626295008.8660414,-13.184000000000001,-13.184000000000001,-37.109,-30.761999999999997,1.0
1626295008.8699481,-80.078,-66.406,-44.922,-168.945,1.0
1626295008.873854,-85.449,-7.324,-27.831999999999997,-150.391,1.0
1626295008.8777602,-27.344,23.438000000000002,-5.371,-7.812,1.0
1626295008.881667,27.344,-24.901999999999997,-20.996,107.42200000000001,1.0
1626295008.885573,-4.395,-36.621,-39.062,0.488,1.0
1626295008.889479,-80.566,0.488,-43.457,-156.25,1.0
1626295008.8933854,-73.73,-3.418,-35.645,-84.961,1.0
1626295008.8972914,13.672,5.859,-16.602,93.75,1.0
1626295008.901198,24.901999999999997,-6.836,-3.418,66.895,1.0
1626295008.9051042,-42.48,-25.879,-5.859,-105.469,1.0
1626295008.9090104,-71.777,-41.016000000000005,-20.508000000000003,-119.62899999999999,1.0
1626295008.9129167,-3.418,-15.137,-30.761999999999997,50.293,1.0
1626295008.916823,31.25,-9.766,-29.296999999999997,82.52,1.0
1626295008.9207292,24.414,13.184000000000001,-28.32,-101.56200000000001,1.0
1626295008.9246354,-76.66,11.23,-60.059,-156.25,1.0
1626295008.9285414,-102.051,-34.668,-55.663999999999994,25.391,1.0
1626295008.932448,-18.066,-45.898,-25.879,126.465,1.0
1626295008.9363542,38.086,-16.113,-16.113,-32.227,1.0
1626295008.9402604,-36.621,-18.066,-29.785,-168.945,1.0
1626295008.9441667,-99.609,-10.742,-39.551,-44.922,1.0
1626295008.948073,-36.621,-39.062,-41.016000000000005,86.426,1.0
1626295008.9519792,48.34,-8.789,-26.366999999999997,-10.742,1.0
1626295008.9558854,11.23,8.789,-21.484,-165.52700000000002,1.0
1626295008.9597917,-75.195,-2.441,-22.461,-90.82,1.0
1626295008.963698,-44.922,-17.09,-5.859,100.586,1.0
1626295008.9676042,-57.129,-11.23,-6.348,-35.645,1.0
1626295008.9715104,19.043,-3.418,-3.418,95.70299999999999,1.0
1626295008.975417,-26.855,-51.27,-25.879,-19.531,1.0
1626295008.979323,-83.984,-51.27,-22.949,-152.344,1.0
1626295008.983229,-36.133,2.93,-14.648,-41.016000000000005,1.0
1626295008.9871356,42.48,-10.742,-31.738000000000003,115.234,1.0
1626295008.9910414,40.527,-32.227,-31.25,62.988,1.0
1626295008.9949477,-40.527,-44.922,-20.996,-109.375,1.0
1626295008.998854,-57.129,-20.02,-10.742,-102.539,1.0
1626295009.0027602,7.324,-3.418,-21.973000000000003,66.406,1.0
1626295009.006667,29.785,-19.043,-19.531,90.33200000000001,1.0
1626295009.010573,-48.34,-40.527,-9.277000000000001,-83.008,1.0
1626295009.0144792,-63.965,-20.996,-37.598,-137.695,1.0
1626295009.0183854,-73.242,-16.113,-26.855,-128.906,1.0
1626295009.0222914,21.973000000000003,-35.156,-16.602,70.801,1.0
1626295009.026198,45.898,-34.18,-29.296999999999997,103.027,1.0
1626295009.0301042,-51.758,-22.461,-38.574,-91.309,1.0
1626295009.0340102,-103.027,-28.32,-32.715,-166.50400000000002,1.0
1626295009.0379167,-33.203,-14.16,-24.901999999999997,-1.465,1.0
1626295009.041823,30.273000000000003,-40.527,-28.32,98.633,1.0
1626295009.0457292,-22.461,-53.711000000000006,-26.366999999999997,-37.109,1.0
1626295009.0496354,-102.539,-41.504,-30.761999999999997,-172.363,1.0
1626295009.0535417,-61.035,-15.625,-24.901999999999997,-60.547,1.0
1626295009.057448,23.438000000000002,-20.996,-13.672,95.70299999999999,1.0
1626295009.0613542,9.766,0.488,-22.461,77.637,1.0
1626295009.0652604,-41.992,-9.277000000000001,-41.992,-60.547,1.0
1626295009.0691667,-117.676,-55.663999999999994,-51.27,-191.895,1.0
1626295009.073073,-62.988,-66.406,-17.09,-67.383,1.0
1626295009.0769792,24.901999999999997,-20.508000000000003,-5.371,99.609,1.0
1626295009.0808856,5.859,1.465,-27.344,28.32,1.0
1626295009.0847917,-75.195,-5.859,-44.922,-142.578,1.0
1626295009.088698,-74.707,-41.992,-31.25,-101.074,1.0
1626295009.0926042,14.16,-41.992,-9.277000000000001,80.566,1.0
1626295009.0965104,35.156,-29.785,-29.296999999999997,80.566,1.0
1626295009.1004167,-49.805,-25.879,-43.945,-100.098,1.0
1626295009.104323,-100.586,-39.551,-40.527,-145.02,1.0
1626295009.108229,-71.777,-48.828,-17.09,-97.656,1.0
1626295009.1121356,-3.418,-32.227,-37.109,58.593999999999994,1.0
1626295009.1160414,10.254000000000001,-50.781000000000006,-29.785,58.593999999999994,1.0
1626295009.1199481,-61.523,-44.922,-21.973000000000003,-111.816,1.0
1626295009.123854,-101.074,0.977,-39.062,-161.13299999999998,1.0
1626295009.1277602,-7.812,3.906,-24.414,23.438000000000002,1.0
1626295009.131667,64.453,19.531,-6.836,126.465,1.0
1626295009.135573,-13.184000000000001,-20.02,-13.184000000000001,-35.156,1.0
1626295009.139479,-88.867,-31.738000000000003,-15.137,-159.668,1.0
1626295009.1433854,-31.25,-23.438000000000002,-6.836,-19.043,1.0
1626295009.1472914,33.691,-37.109,-15.625,106.934,1.0
1626295009.151198,-21.973000000000003,-40.039,-44.922,-16.602,1.0
1626295009.1551042,-16.113,-15.625,-33.691,1.0,1.0
1626295009.1590104,-76.172,-35.156,-17.578,1.0,1.0
1626295009.1629167,-42.48,-39.062,-21.484,1.0,1.0
1626295009.166823,22.461,-24.414,-13.672,1.0,1.0
1626295009.1707292,0.0,-17.09,-15.137,1.0,1.0
1626295009.1746354,-62.5,-47.852,-27.831999999999997,1.0,1.0
1626295009.1785414,-59.082,-49.316,-21.973000000000003,1.0,1.0
1626295009.182448,11.23,-29.785,-42.968999999999994,1.0,1.0
1626295009.1863542,31.738000000000003,-6.836,-62.5,1.0,1.0
1626295009.1902604,-61.523,-17.09,-61.523,1.0,1.0
1626295009.1941667,-96.68,-11.23,-44.434,1.0,1.0
1626295009.198073,-9.277000000000001,-12.207,-14.648,1.0,1.0
1626295009.2019792,-6.836,-15.625,-10.742,58.593999999999994,1.0
1626295009.2058854,16.602,-2.441,-25.391,59.57,1.0
1626295009.2097917,-63.965,-62.5,-40.039,-123.535,1.0
1626295009.213698,-112.305,-96.68,-76.66,-174.805,1.0
1626295009.2176042,-43.945,-30.273000000000003,-81.543,-2.441,1.0
1626295009.2215104,4.395,-9.277000000000001,-54.688,74.219,1.0
1626295009.225417,-47.363,-20.02,-30.273000000000003,-70.801,1.0
1626295009.229323,-97.656,-75.684,-13.672,-160.645,1.0
1626295009.233229,-39.551,-53.711000000000006,-15.625,-21.973000000000003,1.0
1626295009.2371356,13.672,-4.395,-30.761999999999997,90.33200000000001,1.0
1626295009.2410414,-29.785,9.277000000000001,-31.25,-22.949,1.0
1626295009.2449477,-90.33200000000001,-13.672,-23.438000000000002,-163.086,1.0
1626295009.248854,-85.93799999999999,7.324,-33.203,-150.391,1.0
1626295009.2527602,-56.152,-1.953,-12.207,-40.039,1.0
1626295009.256667,17.09,-16.602,-8.301,96.68,1.0
1626295009.260573,2.441,-25.391,-27.344,4.883,1.0
1626295009.2644792,-65.43,-34.668,-58.593999999999994,-145.50799999999998,1.0
1626295009.2683854,-53.711000000000006,-37.598,-42.48,-74.707,1.0
1626295009.2722914,22.949,-23.926,-14.16,84.961,1.0
1626295009.276198,20.996,-36.133,-16.113,44.922,1.0
1626295009.2801042,-61.523,-17.578,-35.156,-127.441,1.0
1626295009.2840102,-75.195,6.836,-36.621,-125.977,1.0
1626295009.2879167,-4.883,22.949,-32.227,43.945,1.0
1626295009.291823,14.16,-9.277000000000001,-47.852,60.547,1.0
1626295009.2957292,20.996,-8.301,-31.738000000000003,-105.95700000000001,1.0
1626295009.2996354,-68.359,-21.973000000000003,-51.27,-172.852,1.0
1626295009.3035417,-105.95700000000001,-60.059,-50.293,-33.203,1.0
1626295009.307448,-35.156,-46.875,-31.738000000000003,88.37899999999999,1.0
1626295009.3113542,22.949,-10.254000000000001,-5.859,-48.828,1.0
1626295009.3152604,-22.949,-18.555,-22.461,-175.293,1.0
1626295009.3191667,-68.359,-10.742,-41.992,-30.273000000000003,1.0
1626295009.323073,-7.324,-51.758,-30.761999999999997,106.445,1.0
1626295009.3269792,60.547,-47.363,-14.16,11.719000000000001,1.0
1626295009.3308856,1.953,-8.301,-13.184000000000001,-155.273,1.0
1626295009.3347917,-79.59,17.09,-19.043,-102.051,1.0
1626295009.338698,-43.457,1.953,-11.719000000000001,85.93799999999999,1.0
1626295009.3426042,-26.855,-18.066,-35.156,-22.949,1.0
1626295009.3465104,43.945,-5.859,-9.766,113.281,1.0
1626295009.3504167,-14.648,-37.109,-23.926,-18.066,1.0
1626295009.354323,-83.49600000000001,-36.133,-32.227,-161.13299999999998,1.0
1626295009.358229,-32.715,-3.418,-21.484,-48.828,1.0
1626295009.3621356,43.945,9.277000000000001,-2.441,111.32799999999999,1.0
1626295009.3660414,26.366999999999997,3.906,-0.977,49.316,1.0
1626295009.3699481,-72.266,-68.359,-25.879,-142.578,1.0
1626295009.373854,-75.195,-65.918,-13.184000000000001,-119.62899999999999,1.0
1626295009.3777602,19.531,-12.695,-2.93,81.055,1.0
1626295009.381667,28.32,0.0,-20.02,90.82,1.0
1626295009.385573,-70.801,-34.18,-33.691,-106.934,1.0
1626295009.389479,-78.125,-26.855,-22.461,1.0,1.0
1626295009.3933854,-81.543,-14.16,-33.691,1.0,1.0
1626295009.3972914,12.695,-39.062,-14.16,1.0,1.0
1626295009.401198,49.805,-34.668,-12.695,1.0,1.0
1626295009.4051042,-41.992,-13.672,-50.293,1.0,1.0
1626295009.4090104,-119.141,-41.992,-60.059,1.0,1.0
1626295009.4129167,-44.434,-17.09,-13.672,1.0,1.0
1626295009.416823,24.414,-40.527,-4.883,1.0,1.0
1626295009.4207292,-38.574,-42.48,-39.062,1.0,1.0
1626295009.4246354,-95.215,-11.23,-28.32,1.0,1.0
1626295009.4285414,-41.016000000000005,-16.602,-3.906,1.0,1.0
1626295009.432448,32.715,-38.086,-20.996,1.0,1.0
1626295009.4363542,36.133,-5.859,-14.16,113.281,1.0
1626295009.4402604,1.465,6.348,-16.113,-16.602,1.0
1626295009.4441667,-86.914,-38.086,-42.48,-169.922,1.0
1626295009.448073,-88.37899999999999,-82.031,-60.059,-88.867,1.0
1626295009.4519792,4.883,-29.785,-47.363,78.613,1.0
1626295009.4558854,11.23,3.418,-50.293,26.855,1.0
1626295009.4597917,-66.895,-0.488,-47.363,-145.996,1.0
1626295009.463698,-67.87100000000001,-50.293,-13.184000000000001,-109.863,1.0
1626295009.4676042,6.348,-21.973000000000003,-6.836,73.242,1.0
1626295009.4715104,18.555,9.277000000000001,-23.926,68.359,1.0
1626295009.475417,-47.363,-2.441,-30.761999999999997,-102.539,1.0
1626295009.479323,-73.73,-32.227,-26.855,-127.441,1.0
1626295009.483229,-79.59,-16.602,-24.901999999999997,-111.32799999999999,1.0
1626295009.4871356,4.395,4.395,-14.648,73.73,1.0
1626295009.4910414,31.738000000000003,-28.809,-21.484,86.914,1.0
1626295009.4949477,-44.922,-48.828,-49.316,-96.68,1.0
1626295009.498854,-79.59,-22.461,-34.18,-138.672,1.0
1626295009.5027602,-4.395,-11.719000000000001,-12.207,33.203,1.0
1626295009.506667,21.484,0.977,-46.875,94.727,1.0
1626295009.510573,-47.852,-31.25,-45.898,-68.359,1.0
1626295009.5144792,-100.098,-31.25,-23.926,-180.66400000000002,1.0
1626295009.5183854,-46.387,-14.16,-15.625,-42.48,1.0
1626295009.5222914,37.598,-28.809,-18.555,108.887,1.0
1626295009.526198,-1.465,-63.965,-36.621,1.953,1.0
1626295009.5301042,-10.254000000000001,8.301,-17.578,1.0,1.0
1626295009.5340102,-80.078,13.184000000000001,-7.812,1.0,1.0
1626295009.5379167,-43.945,-30.273000000000003,-13.184000000000001,1.0,1.0
1626295009.541823,35.645,-40.527,-8.789,1.0,1.0
1626295009.5457292,4.883,-12.695,-22.461,1.0,1.0
1626295009.5496354,-85.93799999999999,-28.809,-38.086,1.0,1.0
1626295009.5535417,-81.543,-23.438000000000002,-25.879,1.0,1.0
1626295009.557448,5.859,-33.203,-10.742,1.0,1.0
1626295009.5613542,25.391,-24.901999999999997,-20.02,1.0,1.0
1626295009.5652604,-46.387,3.906,-37.109,1.0,1.0
1626295009.5691667,-82.031,-1.465,-40.527,1.0,1.0
1626295009.573073,-7.812,-16.113,-21.973000000000003,1.0,1.0
1626295009.5769792,12.207,-17.578,-20.508000000000003,80.078,1.0
1626295009.5808856,25.391,-3.418,-20.508000000000003,72.266,1.0
1626295009.5847917,-51.27,-46.387,-11.23,-108.887,1.0
1626295009.588698,-88.867,-59.57,-40.527,-151.855,1.0
1626295009.5926042,-12.207,-2.93,-53.223,26.366999999999997,1.0
1626295009.5965104,43.945,-3.418,-20.02,104.492,1.0
1626295009.6004167,-41.504,-29.296999999999997,-46.387,-78.613,1.0
1626295009.604323,-115.234,-80.078,-61.035,-186.523,1.0
1626295009.608229,-45.898,-49.316,-20.508000000000003,-30.761999999999997,1.0
1626295009.6121356,34.668,12.207,-7.324,108.398,1.0
1626295009.6160414,-8.301,0.0,-13.672,-11.23,1.0
1626295009.6199481,-82.031,-35.156,-21.484,-168.457,1.0
1626295009.623854,-106.445,-17.09,-45.41,-173.34,1.0
1626295009.6277602,-53.223,-13.672,-26.366999999999997,-33.203,1.0
1626295009.631667,8.301,-74.707,-25.879,96.191,1.0
1626295009.635573,-15.137,-100.586,-31.738000000000003,2.93,1.0
1626295009.639479,-84.961,-52.733999999999995,-43.457,-148.92600000000002,1.0
1626295009.6433854,-82.031,-27.831999999999997,-31.25,-93.75,1.0
1626295009.6472914,3.906,9.277000000000001,-25.879,82.52,1.0
1626295009.651198,-3.418,-47.363,-46.387,39.551,1.0
1626295009.6551042,-75.195,-55.663999999999994,-23.438000000000002,-134.766,1.0
1626295009.6590104,-74.707,3.418,-16.113,-124.023,1.0
1626295009.6629167,-10.742,9.277000000000001,-24.414,37.109,1.0
1626295009.666823,14.648,-23.926,-31.25,67.383,1.0
1626295009.6707292,20.508000000000003,-21.973000000000003,-17.09,65.918,1.0
1626295009.6746354,-60.547,-13.184000000000001,-26.855,-121.58200000000001,1.0
1626295009.6785414,-82.52,-40.039,-31.738000000000003,-142.09,1.0
1626295009.682448,-4.883,-36.621,-17.09,41.504,1.0
1626295009.6863542,28.809,-5.859,-14.16,89.355,1.0
1626295009.6902604,-45.898,-2.441,-37.598,-85.93799999999999,1.0
1626295009.6941667,-96.68,0.0,-46.387,-164.062,1.0
1626295009.698073,-32.227,-54.199,-32.715,-11.23,1.0
1626295009.7019792,38.086,-34.18,-13.672,108.887,1.0
1626295009.7058854,-12.207,5.859,-23.926,-20.02,1.0
1626295009.7097917,-76.66,-5.371,-27.344,-151.855,1.0
1626295009.713698,-42.968999999999994,-41.504,-23.438000000000002,-49.316,1.0
1626295009.7176042,-22.461,0.0,-22.461,-11.719000000000001,1.0
1626295009.7215104,41.016000000000005,13.184000000000001,-28.809,105.469,1.0
1626295009.725417,-3.906,-50.781000000000006,-23.926,-10.742,1.0
1626295009.729323,-83.008,-72.75399999999999,-18.555,-154.785,1.0
1626295009.733229,-71.777,-30.273000000000003,-20.996,-82.031,1.0
1626295009.7371356,-2.441,-7.324,-31.25,75.195,1.0
1626295009.7410414,-0.977,14.648,-31.25,32.715,1.0
1626295009.7449477,-83.008,-47.852,-15.137,-143.555,1.0
1626295009.748854,-72.266,-52.733999999999995,-0.977,-104.98,1.0
1626295009.7527602,24.901999999999997,-13.672,10.742,88.867,1.0
1626295009.756667,27.831999999999997,-6.836,-13.672,80.566,1.0
1626295009.760573,-40.039,-18.555,-51.758,-95.215,1.0
1626295009.7644792,-63.477,-16.113,-27.344,1.0,1.0
1626295009.7683854,-83.008,-34.668,-24.901999999999997,1.0,1.0
1626295009.7722914,-27.831999999999997,-65.918,-39.551,1.0,1.0
1626295009.776198,9.277000000000001,-41.016000000000005,-37.598,1.0,1.0
1626295009.7801042,-49.316,-20.508000000000003,-49.805,1.0,1.0
1626295009.7840102,-83.984,-32.227,-69.824,1.0,1.0
1626295009.7879167,-21.484,-0.977,-47.363,1.0,1.0
1626295009.791823,21.973000000000003,-12.695,-2.93,1.0,1.0
1626295009.7957292,-40.527,-33.691,-0.977,1.0,1.0
1626295009.7996354,-114.258,-31.25,-11.23,1.0,1.0
1626295009.8035417,-84.473,-22.949,-1.953,1.0,1.0
1626295009.807448,-2.93,-36.133,3.906,1.0,1.0
1626295009.8113542,28.32,-11.23,-15.625,101.56200000000001,1.0
1626295009.8152604,-15.625,-17.09,-40.527,-37.598,1.0
1626295009.8191667,-81.055,-74.707,-39.551,-166.50400000000002,1.0
1626295009.823073,-36.621,-53.223,-17.09,-45.898,1.0
1626295009.8269792,34.18,7.324,-12.695,114.74600000000001,1.0
1626295009.8308856,18.066,-20.996,-19.043,40.039,1.0
1626295009.8347917,-56.641000000000005,-46.387,-25.879,-130.859,1.0
1626295009.838698,-62.012,-83.008,-32.227,-91.79700000000001,1.0
1626295009.8426042,5.371,-34.668,-38.574,80.078,1.0
1626295009.8465104,24.901999999999997,-1.465,-37.598,80.078,1.0
1626295009.8504167,-33.691,-17.578,-41.016000000000005,-87.402,1.0
1626295009.854323,-64.453,-40.527,-26.855,-122.559,1.0
1626295009.858229,-49.805,-13.672,-14.648,-95.215,1.0
1626295009.8621356,24.414,7.324,-24.414,85.449,1.0
1626295009.8660414,16.113,-60.059,-30.273000000000003,80.078,1.0
1626295009.8699481,-77.637,-77.637,-41.992,-109.863,1.0
1626295009.873854,-105.95700000000001,-14.16,-33.691,-153.32,1.0
1626295009.8777602,-31.25,-32.227,-4.883,21.484,1.0
1626295009.881667,15.625,-29.296999999999997,-6.836,95.215,1.0
1626295009.885573,-26.855,-49.805,-17.578,-46.387,1.0
1626295009.889479,-80.078,-27.831999999999997,-24.901999999999997,-141.113,1.0
1626295009.8933854,-55.663999999999994,-3.418,-23.926,-29.785,1.0
1626295009.8972914,0.0,-14.648,-27.831999999999997,93.75,1.0
1626295009.901198,-22.949,-27.831999999999997,-42.968999999999994,0.488,1.0
1626295009.9051042,-3.418,-8.789,-60.059,1.0,1.0
1626295009.9090104,-82.031,-21.973000000000003,-46.875,1.0,1.0
1626295009.9129167,-59.082,-102.051,-34.18,1.0,1.0
1626295009.916823,24.414,-77.637,-18.555,1.0,1.0
1626295009.9207292,4.883,13.672,-17.578,1.0,1.0
1626295009.9246354,-80.078,-3.418,-26.855,1.0,1.0
1626295009.9285414,-65.43,-8.301,-19.531,1.0,1.0
1626295009.932448,8.789,-65.918,-25.879,1.0,1.0
1626295009.9363542,8.301,-56.641000000000005,-40.039,1.0,1.0
1626295009.9402604,-60.547,-10.254000000000001,-50.781000000000006,1.0,1.0
1626295009.9441667,-80.566,-4.395,-47.852,1.0,1.0
1626295009.948073,-5.859,-3.906,-25.879,1.0,1.0
1626295009.9519792,12.695,12.695,5.859,78.125,1.0
1626295009.9558854,22.461,8.301,-22.949,70.801,1.0
1626295009.9597917,-67.87100000000001,-66.406,-50.781000000000006,-125.977,1.0
1626295009.963698,-84.473,-54.688,-32.715,-144.531,1.0
1626295009.9676042,2.93,10.254000000000001,-22.949,42.968999999999994,1.0
1626295009.9715104,50.781000000000006,0.488,-19.043,112.79299999999999,1.0
1626295009.975417,-15.137,-15.137,-29.296999999999997,-48.828,1.0
1626295009.979323,-92.285,-92.773,-61.523,-166.99200000000002,1.0
1626295009.983229,-44.434,-59.082,-56.152,-34.668,1.0
1626295009.9871356,28.809,24.414,-25.879,101.074,1.0
1626295009.9910414,-17.578,20.02,-17.09,-16.602,1.0
1626295009.9949477,-95.215,-10.742,-24.901999999999997,-173.34,1.0
1626295009.998854,-81.543,0.488,-36.621,-165.52700000000002,1.0
1626295010.0027602,-52.246,-19.043,-48.828,-41.504,1.0
1626295010.006667,4.883,-73.73,-35.156,81.543,1.0
1626295010.010573,-23.926,-83.984,-37.109,-21.484,1.0
1626295010.0144792,-83.49600000000001,-21.484,-53.223,-155.762,1.0
1626295010.0183854,-55.176,-2.441,-28.32,-75.195,1.0
1626295010.0222914,24.901999999999997,11.719000000000001,-9.277000000000001,94.727,1.0
1626295010.026198,8.301,-59.57,-38.574,45.898,1.0
1626295010.0301042,-75.684,-58.105,-41.992,-134.27700000000002,1.0
1626295010.0340102,-82.52,-7.324,-29.785,-120.117,1.0
1626295010.0379167,8.789,-4.883,-19.043,66.895,1.0
1626295010.041823,54.199,-8.301,-18.555,113.77,1.0
1626295010.0457292,31.25,-11.719000000000001,-13.184000000000001,-77.637,1.0
1626295010.0496354,-72.75399999999999,-23.438000000000002,-36.621,-160.645,1.0
1626295010.0535417,-106.445,-75.195,-36.133,17.09,1.0
1626295010.057448,-23.926,-60.059,-34.668,126.465,1.0
1626295010.0613542,34.668,6.836,-39.062,-22.949,1.0
1626295010.0652604,-15.625,-12.207,-33.691,-158.691,1.0
1626295010.0691667,-59.57,-11.719000000000001,-29.296999999999997,-42.48,1.0
1626295010.073073,-40.527,-52.246,-44.922,111.816,1.0
1626295010.0769792,12.207,-23.926,-32.715,32.715,1.0
1626295010.0808856,-17.578,12.695,-21.973000000000003,-145.50799999999998,1.0
1626295010.0847917,-84.961,0.0,-23.926,-70.801,1.0
1626295010.088698,-33.691,-19.531,-7.812,138.184,1.0
1626295010.0926042,-8.301,-17.578,-49.805,-0.977,1.0
1626295010.0965104,36.133,5.859,-37.598,103.027,1.0
1626295010.1004167,-22.461,-68.848,-53.223,-32.715,1.0
1626295010.104323,-98.145,-62.5,-51.27,-180.176,1.0
1626295010.108229,-60.059,17.09,-13.672,-82.52,1.0
1626295010.1121356,31.25,7.324,-22.461,96.191,1.0
1626295010.1160414,19.043,-2.441,-56.152,38.574,1.0
1626295010.1199481,-69.336,-32.227,-33.691,-143.555,1.0
1626295010.123854,-79.59,-20.996,-6.836,-126.465,1.0
1626295010.1277602,6.836,10.254000000000001,-5.371,55.663999999999994,1.0
1626295010.131667,26.366999999999997,-4.883,-20.508000000000003,75.684,1.0
1626295010.135573,-46.875,-54.199,-30.273000000000003,-96.191,1.0
1626295010.139479,-81.543,-9.277000000000001,-40.527,1.0,1.0
1626295010.1433854,-92.285,-9.766,-37.109,1.0,1.0
1626295010.1472914,-11.719000000000001,-61.523,-35.645,1.0,1.0
1626295010.151198,12.207,-49.316,-40.527,1.0,1.0
1626295010.1551042,-46.875,3.418,-40.039,1.0,1.0
1626295010.1590104,-82.52,-3.418,-27.344,1.0,1.0
1626295010.1629167,-21.484,0.488,-29.785,1.0,1.0
1626295010.166823,39.062,-53.711000000000006,-27.344,1.0,1.0
1626295010.1707292,-18.555,-53.223,-17.578,1.0,1.0
1626295010.1746354,-104.00399999999999,-41.016000000000005,-13.672,1.0,1.0
1626295010.1785414,-79.59,-36.133,-17.578,1.0,1.0
1626295010.182448,4.395,-14.16,-24.414,1.0,1.0
1626295010.1863542,34.668,-5.859,-35.645,105.469,1.0
1626295010.1902604,-14.648,-17.578,-50.781000000000006,-30.273000000000003,1.0
1626295010.1941667,-89.844,-67.87100000000001,-48.828,-171.387,1.0
1626295010.198073,-45.41,-49.805,-26.366999999999997,-52.733999999999995,1.0
1626295010.2019792,43.945,-1.465,-1.465,115.234,1.0
1626295010.2058854,23.926,-27.344,-13.672,42.48,1.0
1626295010.2097917,-52.246,4.883,-25.879,-125.977,1.0
1626295010.213698,-56.641000000000005,-42.48,-23.926,-93.262,1.0
1626295010.2176042,10.254000000000001,-50.781000000000006,-34.18,69.824,1.0
1626295010.2215104,14.648,4.883,-33.203,53.223,1.0
1626295010.225417,-73.73,-15.625,-34.668,-136.23,1.0
1626295010.229323,-94.727,-41.504,-30.761999999999997,-165.03900000000002,1.0
1626295010.233229,-68.848,6.836,-50.781000000000006,-115.234,1.0
1626295010.2371356,19.043,20.02,-24.414,68.848,1.0
1626295010.2410414,26.855,-70.312,-31.738000000000003,73.242,1.0
1626295010.2449477,-65.918,-116.699,-60.059,-117.18799999999999,1.0
1626295010.248854,-81.543,-46.875,-42.968999999999994,-150.879,1.0
1626295010.2527602,-8.301,-10.742,-35.645,19.043,1.0
1626295010.256667,32.715,20.508000000000003,-36.133,93.262,1.0
1626295010.260573,-12.695,-8.301,-30.761999999999997,-39.551,1.0
1626295010.2644792,-78.125,-17.578,-46.387,-154.785,1.0
1626295010.2683854,-36.621,12.695,-27.831999999999997,-27.831999999999997,1.0
1626295010.2722914,32.715,22.461,-20.508000000000003,114.74600000000001,1.0
1626295010.276198,0.488,-9.766,-33.691,9.766,1.0
1626295010.2801042,-16.602,0.977,-18.066,-153.32,1.0
1626295010.2840102,-100.586,-20.02,-38.086,-95.215,1.0
1626295010.2879167,-62.5,-87.402,-39.062,83.984,1.0
1626295010.291823,20.508000000000003,-66.895,-23.926,47.852,1.0
1626295010.2957292,1.465,11.719000000000001,-31.25,-134.766,1.0
1626295010.2996354,-73.73,-1.465,-38.574,-114.258,1.0
1626295010.3035417,-57.617,-4.883,-39.062,66.406,1.0
1626295010.307448,14.16,-41.504,-43.457,87.891,1.0
1626295010.3113542,20.02,-48.34,-40.527,-77.148,1.0
1626295010.3152604,-52.733999999999995,-24.414,-40.039,-153.32,1.0
1626295010.3191667,-88.37899999999999,0.0,-40.527,-9.766,1.0
1626295010.323073,-25.879,-1.465,-37.109,102.539,1.0
1626295010.3269792,0.977,-18.066,-29.785,65.918,1.0
1626295010.3308856,18.555,-34.668,-36.621,62.988,1.0
1626295010.3347917,-62.5,-87.402,-45.41,-109.375,1.0
1626295010.338698,-93.262,-75.195,-39.062,-144.531,1.0
1626295010.3426042,-22.949,5.859,-36.621,21.973000000000003,1.0
1626295010.3465104,30.761999999999997,17.578,-33.691,99.609,1.0
1626295010.3504167,-19.531,-2.93,-18.066,-42.968999999999994,1.0
1626295010.354323,-96.191,-69.824,-26.855,-166.016,1.0
1626295010.358229,-57.617,-46.387,-32.715,-44.434,1.0
1626295010.3621356,20.508000000000003,5.859,-22.461,95.70299999999999,1.0
1626295010.3660414,-6.348,-4.395,-30.761999999999997,-14.16,1.0
1626295010.3699481,-76.172,-45.41,-48.34,-155.762,1.0
1626295010.373854,-77.148,-30.273000000000003,-29.785,-142.09,1.0
1626295010.3777602,-24.414,20.996,-26.366999999999997,0.977,1.0
1626295010.381667,27.344,-45.898,-37.598,121.094,1.0
1626295010.385573,-17.09,-73.242,-36.621,-1.953,1.0
1626295010.389479,-78.613,-12.695,-13.672,-151.855,1.0
1626295010.3933854,-62.012,-4.883,-14.16,-87.402,1.0
1626295010.3972914,18.555,-2.441,-27.344,83.984,1.0
1626295010.401198,10.254000000000001,-65.43,-44.434,43.457,1.0
1626295010.4051042,-66.895,-51.758,-55.663999999999994,-135.74200000000002,1.0
1626295010.4090104,-74.707,3.418,-36.133,-129.395,1.0
1626295010.4129167,-8.789,1.953,-7.812,42.48,1.0
1626295010.416823,21.484,-34.18,-13.184000000000001,71.777,1.0
1626295010.4207292,25.391,-29.785,-10.254000000000001,-97.656,1.0
1626295010.4246354,-77.148,-17.09,-32.227,-157.715,1.0
1626295010.4285414,-104.98,-51.758,-24.901999999999997,5.371,1.0
1626295010.432448,-24.414,-33.203,-17.578,85.449,1.0
1626295010.4363542,25.391,12.695,-32.715,-70.312,1.0
1626295010.4402604,-32.227,-22.461,-39.551,-170.898,1.0
1626295010.4441667,-93.75,-18.066,-39.551,-44.434,1.0
1626295010.448073,-45.898,-32.227,-34.18,95.70299999999999,1.0
1626295010.4519792,41.504,-19.043,-6.348,4.395,1.0
1626295010.4558854,5.371,-14.16,-10.742,-169.43400000000003,1.0
1626295010.4597917,-94.238,-33.691,-32.715,-107.42200000000001,1.0
1626295010.463698,-50.781000000000006,-53.711000000000006,-10.742,88.37899999999999,1.0
1626295010.4676042,-18.066,-9.277000000000001,-33.691,-15.625,1.0
1626295010.4715104,41.992,8.789,-28.809,106.445,1.0
1626295010.475417,-18.066,-78.613,-40.039,-27.344,1.0
1626295010.479323,-100.586,-86.426,-45.898,-178.71099999999998,1.0
1626295010.483229,-57.129,2.441,-17.578,-71.777,1.0
1626295010.4871356,15.137,4.883,-14.16,85.93799999999999,1.0
1626295010.4910414,-4.395,-7.324,-25.879,22.461,1.0
1626295010.4949477,-79.102,-58.593999999999994,-36.133,-148.438,1.0
1626295010.498854,-68.359,-40.039,-31.25,-119.62899999999999,1.0
1626295010.5027602,24.414,2.93,-3.418,70.801,1.0
1626295010.506667,42.48,0.977,-5.859,84.961,1.0
1626295010.510573,-47.852,-24.901999999999997,-30.273000000000003,-109.375,1.0
1626295010.5144792,-58.593999999999994,-20.508000000000003,-8.301,-131.34799999999998,1.0
1626295010.5183854,-94.238,9.766,-35.156,-143.555,1.0
1626295010.5222914,-33.203,-32.227,-46.875,23.926,1.0
1626295010.526198,8.789,-49.316,-39.551,68.359,1.0
1626295010.5301042,-47.852,-4.395,-50.293,-87.891,1.0
1626295010.5340102,-80.566,-11.23,-54.199,-141.602,1.0
1626295010.5379167,-16.602,0.0,-28.809,14.16,1.0
1626295010.541823,24.901999999999997,-59.082,-28.809,98.145,1.0
1626295010.5457292,-33.203,-72.266,-40.039,-42.48,1.0
1626295010.5496354,-100.098,-31.25,-52.733999999999995,-166.50400000000002,1.0
1626295010.5535417,-57.617,-21.973000000000003,-69.824,-54.199,1.0
1626295010.557448,26.366999999999997,-27.831999999999997,-35.156,104.98,1.0
1626295010.5613542,24.901999999999997,8.301,-10.742,98.145,1.0
1626295010.5652604,-25.879,23.926,-22.949,-38.086,1.0
1626295010.5691667,-94.727,-58.105,-34.668,-178.71099999999998,1.0
1626295010.573073,-63.477,-83.008,-38.574,-75.195,1.0
1626295010.5769792,15.625,-11.23,-37.598,87.402,1.0
1626295010.5808856,3.418,-0.977,-35.645,17.578,1.0
1626295010.5847917,-84.961,1.465,-34.18,-156.738,1.0
1626295010.588698,-102.051,-69.824,-36.621,-134.766,1.0
1626295010.5926042,-15.625,-56.641000000000005,-20.02,47.363,1.0
1626295010.5965104,12.207,-9.277000000000001,-25.879,66.406,1.0
1626295010.6004167,-49.316,-26.855,-56.152,-95.70299999999999,1.0
1626295010.604323,-73.73,-43.457,-30.761999999999997,-134.27700000000002,1.0
1626295010.608229,-89.355,-16.602,-28.809,-125.977,1.0
1626295010.6121356,-15.137,-4.883,-42.968999999999994,45.41,1.0
1626295010.6160414,0.0,-69.824,-55.176,53.223,1.0
1626295010.6199481,-62.988,-71.777,-42.968999999999994,-106.445,1.0
1626295010.623854,-70.801,10.254000000000001,-16.602,-123.535,1.0
1626295010.6277602,-1.465,5.859,-24.414,45.898,1.0
1626295010.631667,52.246,5.859,-28.32,129.88299999999998,1.0
1626295010.635573,-5.859,-51.758,-22.949,-24.414,1.0
1626295010.639479,-81.543,-48.828,-19.531,-152.344,1.0
1626295010.6433854,-50.293,-2.93,-19.043,-39.551,1.0
1626295010.6472914,2.93,-2.93,-18.555,81.543,1.0
1626295010.651198,-22.949,-18.555,-14.16,-10.254000000000001,1.0
1626295010.6551042,-33.691,-64.941,-37.109,-160.645,1.0
1626295010.6590104,-95.70299999999999,-30.761999999999997,-48.34,-79.102,1.0
1626295010.6629167,-38.574,-47.852,-36.133,104.00399999999999,1.0
1626295010.666823,41.992,-38.574,-35.645,53.711000000000006,1.0
1626295010.6707292,4.883,19.043,-42.968999999999994,-127.93,1.0
1626295010.6746354,-78.125,3.418,-42.48,-121.58200000000001,1.0
1626295010.6785414,-60.059,-3.906,-38.574,73.73,1.0
1626295010.682448,17.578,-38.086,-24.901999999999997,102.539,1.0
1626295010.6863542,18.066,-33.203,-15.625,-104.492,1.0
1626295010.6902604,-67.383,-36.133,-31.738000000000003,-173.828,1.0
1626295010.6941667,-76.172,-42.968999999999994,-43.457,-7.324,1.0
1626295010.698073,12.207,-23.438000000000002,-34.668,78.125,1.0
1626295010.7019792,8.301,-6.836,-30.761999999999997,84.961,1.0
1626295010.7058854,20.996,0.0,-47.852,75.195,1.0
1626295010.7097917,-68.848,-61.523,-50.293,-111.816,1.0
1626295010.713698,-100.586,-80.078,-42.48,-142.578,1.0
1626295010.7176042,-14.648,2.441,-24.414,37.109,1.0
1626295010.7215104,32.715,13.672,-8.301,110.84,1.0
1626295010.725417,-31.738000000000003,-1.953,-27.344,-47.363,1.0
1626295010.729323,-98.633,-48.34,-44.434,-154.785,1.0
1626295010.733229,-49.805,-77.637,-46.387,-21.973000000000003,1.0
1626295010.7371356,19.531,-34.668,-40.527,106.445,1.0
1626295010.7410414,-21.973000000000003,-2.93,-26.855,-8.301,1.0
1626295010.7449477,-108.887,-42.48,-27.344,-170.41,1.0
1626295010.748854,-104.492,-24.414,-50.293,-184.57,1.0
1626295010.7527602,-60.059,-18.555,-26.855,-54.688,1.0
1626295010.756667,31.25,-60.547,5.371,106.445,1.0
1626295010.760573,3.906,-73.73,-9.766,7.812,1.0
1626295010.7644792,-82.52,-24.414,-41.992,-164.551,1.0
1626295010.7683854,-64.941,-22.949,-36.133,-90.33200000000001,1.0
1626295010.7722914,25.879,1.953,-2.93,90.33200000000001,1.0
1626295010.776198,20.996,-46.387,-28.809,46.387,1.0
1626295010.7801042,-68.848,-62.5,-75.195,-140.625,1.0
1626295010.7840102,-86.914,-22.949,-57.129,-138.184,1.0
1626295010.7879167,-9.277000000000001,-15.137,-17.578,46.387,1.0
1626295010.791823,22.461,-22.949,-16.602,75.195,1.0
1626295010.7957292,27.831999999999997,-15.137,-8.301,80.566,1.0
1626295010.7996354,-70.801,-27.344,-36.133,-112.79299999999999,1.0
1626295010.8035417,-115.234,-88.867,-58.593999999999994,-154.785,1.0
1626295010.807448,-42.968999999999994,-68.848,-45.898,10.254000000000001,1.0
1626295010.8113542,21.484,-3.418,-36.621,81.055,1.0
1626295010.8152604,-28.809,-20.02,-44.434,-68.848,1.0
1626295010.8191667,-88.867,-17.578,-34.668,-161.13299999999998,1.0
1626295010.823073,-41.992,-15.137,-19.531,-19.531,1.0
1626295010.8269792,10.742,-8.789,-23.926,92.773,1.0
1626295010.8308856,-36.621,-34.18,-41.504,-43.945,1.0
1626295010.8347917,-103.027,-38.086,-43.457,-189.94099999999997,1.0
1626295010.838698,-74.219,-25.391,-30.273000000000003,-85.93799999999999,1.0
1626295010.8426042,-40.527,-16.602,-15.137,-25.391,1.0
1626295010.8465104,36.621,10.254000000000001,-5.859,109.863,1.0
1626295010.8504167,-0.488,-44.434,-29.296999999999997,-3.418,1.0
1626295010.854323,-78.125,-72.75399999999999,-34.18,-150.879,1.0
1626295010.858229,-56.152,-22.461,-19.043,-68.359,1.0
1626295010.8621356,12.207,-19.043,-31.738000000000003,79.102,1.0
1626295010.8660414,-1.953,-9.766,-35.645,22.949,1.0
1626295010.8699481,-84.473,-80.078,-36.621,-153.32,1.0
1626295010.873854,-87.402,-63.477,-47.852,-132.32399999999998,1.0
1626295010.8777602,-3.906,15.137,-57.617,51.27,1.0
1626295010.881667,32.227,18.066,-53.711000000000006,80.078,1.0
1626295010.885573,-35.156,-8.789,-50.293,-86.426,1.0
1626295010.889479,-56.152,3.418,-55.663999999999994,1.0,1.0
1626295010.8933854,-75.195,10.742,-28.32,1.0,1.0
1626295010.8972914,2.93,-55.176,4.395,1.0,1.0
1626295010.901198,43.945,-67.87100000000001,6.836,1.0,1.0
1626295010.9051042,-51.758,-30.761999999999997,-31.25,1.0,1.0
1626295010.9090104,-105.469,-43.945,-37.598,1.0,1.0
1626295010.9129167,-24.414,-21.484,-34.18,1.0,1.0
1626295010.916823,27.831999999999997,-7.324,-56.641000000000005,1.0,1.0
1626295010.9207292,-35.645,3.906,-47.852,1.0,1.0
1626295010.9246354,-104.00399999999999,-1.953,-19.043,1.0,1.0
1626295010.9285414,-57.129,-16.602,-11.23,1.0,1.0
1626295010.932448,26.366999999999997,-22.949,-14.648,1.0,1.0
1626295010.9363542,30.273000000000003,6.348,-24.414,104.00399999999999,1.0
1626295010.9402604,-15.137,-9.766,-29.785,-20.508000000000003,1.0
1626295010.9441667,-89.844,-92.773,-44.922,-165.52700000000002,1.0
1626295010.948073,-57.617,-83.008,-28.809,-63.477,1.0
1626295010.9519792,33.691,9.766,-14.16,106.934,1.0
1626295010.9558854,19.043,16.602,-39.551,36.133,1.0
1626295010.9597917,-72.266,1.953,-29.296999999999997,-142.09,1.0
1626295010.963698,-75.684,-47.852,-6.836,-107.42200000000001,1.0
1626295010.9676042,9.277000000000001,-39.551,-17.09,68.848,1.0
1626295010.9715104,32.715,-11.719000000000001,-23.926,75.684,1.0
1626295010.975417,-38.086,-31.25,-17.09,-90.82,1.0
1626295010.979323,-77.637,-20.02,-21.484,-133.789,1.0
1626295010.983229,-74.219,-48.828,-25.391,-116.211,1.0
1626295010.9871356,-4.395,-39.551,-34.668,54.688,1.0
1626295010.9910414,27.344,-48.828,-54.199,79.102,1.0
1626295010.9949477,-37.598,-43.945,-30.273000000000003,-83.008,1.0
1626295010.998854,-76.172,-5.371,-13.672,-139.648,1.0
1626295011.0027602,-10.742,14.16,-30.273000000000003,20.508000000000003,1.0
1626295011.006667,45.898,21.973000000000003,-33.203,114.74600000000001,1.0
1626295011.010573,-20.02,-36.133,-39.062,-39.062,1.0
1626295011.0144792,-93.262,-62.012,-45.41,-150.391,1.0
1626295011.0183854,-46.875,-37.598,-24.414,-22.461,1.0
1626295011.0222914,19.043,-32.715,-20.508000000000003,104.00399999999999,1.0
1626295011.026198,-8.789,-30.761999999999997,-31.25,2.93,1.0
1626295011.0301042,-14.648,-0.977,-12.207,-151.36700000000002,1.0
1626295011.0340102,-88.37899999999999,-6.836,-15.625,-69.824,1.0
1626295011.0379167,-73.242,-71.289,-27.831999999999997,124.512,1.0
1626295011.041823,2.441,-67.383,-28.809,93.75,1.0
1626295011.0457292,4.883,-11.719000000000001,-19.531,-102.051,1.0
1626295011.0496354,-89.355,-57.617,-39.062,-121.094,1.0
1626295011.0535417,-95.215,-60.059,-33.691,52.246,1.0
1626295011.057448,9.766,-42.968999999999994,-1.953,86.426,1.0
1626295011.0613542,29.785,-25.391,3.418,-62.988,1.0
1626295011.0652604,-59.082,-22.461,-22.949,-139.16,1.0
1626295011.0691667,-100.586,-14.648,-49.316,-2.441,1.0
1626295011.073073,-33.203,-14.16,-55.663999999999994,108.398,1.0
1626295011.0769792,36.133,3.906,-33.203,89.844,1.0
1626295011.0808856,58.593999999999994,4.883,-29.785,104.00399999999999,1.0
1626295011.0847917,-59.57,-79.102,-33.691,-118.652,1.0
1626295011.088698,-120.117,-84.473,-33.203,-185.547,1.0
1626295011.0926042,-41.992,5.371,-30.761999999999997,-3.906,1.0
1626295011.0965104,20.508000000000003,2.93,-36.621,80.078,1.0
1626295011.1004167,-37.109,-17.578,-41.992,-71.289,1.0
1626295011.104323,-99.609,-83.49600000000001,-37.598,-175.78099999999998,1.0
1626295011.108229,-53.711000000000006,-61.035,-41.016000000000005,-41.992,1.0
1626295011.1121356,25.879,11.719000000000001,-46.387,94.727,1.0
1626295011.1160414,-2.441,13.184000000000001,-36.621,-7.812,1.0
1626295011.1199481,-88.37899999999999,-2.93,-29.296999999999997,-162.109,1.0
1626295011.123854,-86.914,-8.301,-26.855,1.0,1.0
1626295011.1277602,-53.711000000000006,6.348,-39.551,1.0,1.0
1626295011.131667,2.93,-52.733999999999995,-52.733999999999995,1.0,1.0
1626295011.135573,-24.901999999999997,-57.129,-41.992,1.0,1.0
1626295011.139479,-99.12100000000001,-2.93,-50.293,1.0,1.0
1626295011.1433854,-69.336,3.418,-35.645,1.0,1.0
1626295011.1472914,22.461,1.465,-18.066,1.0,1.0
1626295011.151198,19.531,-64.941,-38.086,1.0,1.0
1626295011.1551042,-62.988,-70.312,-43.945,1.0,1.0
1626295011.1590104,-77.148,-20.996,-25.391,1.0,1.0
1626295011.1629167,0.977,-2.93,-19.531,1.0,1.0
1626295011.166823,51.27,-21.973000000000003,-12.207,1.0,1.0
1626295011.1707292,25.391,-27.831999999999997,-18.555,77.637,1.0
1626295011.1746354,-52.246,-13.184000000000001,-26.366999999999997,-106.934,1.0
1626295011.1785414,-95.215,-62.5,-37.109,-144.531,1.0
1626295011.182448,-26.366999999999997,-52.733999999999995,-43.457,24.901999999999997,1.0
1626295011.1863542,34.18,12.207,-41.504,94.727,1.0
1626295011.1902604,-37.598,-9.277000000000001,-47.852,-75.684,1.0
1626295011.1941667,-97.16799999999999,-9.277000000000001,-42.968999999999994,-166.99200000000002,1.0
1626295011.198073,-42.48,-56.641000000000005,-30.761999999999997,-20.02,1.0
1626295011.2019792,29.785,-60.059,-22.461,103.027,1.0
1626295011.2058854,-9.277000000000001,-35.645,-28.32,-15.137,1.0
1626295011.2097917,-82.52,-43.945,-28.809,-154.297,1.0
1626295011.213698,-49.805,-15.625,-13.184000000000001,-51.27,1.0
1626295011.2176042,-36.621,-17.09,-19.531,-12.695,1.0
1626295011.2215104,50.781000000000006,-5.859,-5.859,125.977,1.0
1626295011.225417,4.883,-59.082,-42.968999999999994,6.348,1.0
1626295011.229323,-92.285,-57.617,-61.035,-165.52700000000002,1.0
1626295011.233229,-64.453,10.742,-33.691,-73.73,1.0
1626295011.2371356,20.996,3.418,-39.551,91.309,1.0
1626295011.2410414,4.883,-32.227,-51.758,26.855,1.0
1626295011.2449477,-78.613,-77.637,-42.968999999999994,-137.695,1.0
1626295011.248854,-89.844,-52.246,-14.648,-124.023,1.0
1626295011.2527602,-0.488,-11.23,-4.395,61.523,1.0
1626295011.256667,33.691,-22.461,-8.301,92.773,1.0
1626295011.260573,-61.523,-47.852,-43.457,-112.305,1.0
1626295011.2644792,-48.828,-15.625,-41.992,1.0,1.0
1626295011.2683854,-75.195,-24.414,-52.733999999999995,1.0,1.0
1626295011.2722914,-8.301,-91.79700000000001,-53.711000000000006,1.0,1.0
1626295011.276198,22.461,-68.848,-36.621,1.0,1.0
1626295011.2801042,-53.223,-6.348,-35.156,1.0,1.0
1626295011.2840102,-101.074,-27.831999999999997,-36.621,1.0,1.0
1626295011.2879167,-25.391,-1.953,-5.859,1.0,1.0
1626295011.291823,22.949,-42.968999999999994,-6.836,1.0,1.0
1626295011.2957292,-16.113,-44.922,-31.25,1.0,1.0
1626295011.2996354,-76.66,-2.93,-43.457,1.0,1.0
1626295011.3035417,-48.34,2.93,-25.879,1.0,1.0
1626295011.307448,29.296999999999997,-19.531,-23.926,1.0,1.0
1626295011.3113542,31.25,-23.926,-44.434,104.00399999999999,1.0
1626295011.3152604,-22.461,-6.836,-47.852,-37.109,1.0
1626295011.3191667,-91.309,-78.125,-28.809,-168.457,1.0
1626295011.323073,-61.035,-65.43,-20.02,-59.57,1.0
1626295011.3269792,20.508000000000003,17.09,-21.484,99.12100000000001,1.0
1626295011.3308856,22.461,-1.953,-5.371,47.363,1.0
1626295011.3347917,-52.246,-1.465,-14.16,-115.234,1.0
1626295011.338698,-75.684,-56.641000000000005,-38.086,-106.934,1.0
1626295011.3426042,11.23,-46.875,-26.366999999999997,75.195,1.0
1626295011.3465104,43.457,10.254000000000001,-8.301,93.75,1.0
1626295011.3504167,-45.41,-1.953,-36.133,-91.79700000000001,1.0
1626295011.354323,-79.59,-14.16,-47.852,-133.30100000000002,1.0
1626295011.358229,-56.152,-22.949,-15.137,-93.262,1.0
1626295011.3621356,16.602,-10.254000000000001,-14.648,71.289,1.0
1626295011.3660414,16.113,-47.363,-26.855,63.477,1.0
1626295011.3699481,-55.176,-60.547,-32.715,-104.00399999999999,1.0
1626295011.373854,-81.543,-6.836,-32.227,-141.602,1.0
1626295011.3777602,-23.438000000000002,-20.996,-36.133,13.184000000000001,1.0
1626295011.381667,28.32,-22.461,-30.273000000000003,103.027,1.0
1626295011.385573,-24.901999999999997,-58.593999999999994,-34.18,-41.992,1.0
1626295011.389479,-79.59,-42.968999999999994,-30.761999999999997,-153.32,1.0
1626295011.3933854,-31.738000000000003,-1.953,-27.831999999999997,-21.484,1.0
1626295011.3972914,38.086,18.066,-26.855,116.211,1.0
1626295011.401198,-4.395,3.906,-43.945,2.441,1.0
1626295011.4051042,2.441,12.695,-17.578,-172.852,1.0
1626295011.4090104,-84.961,-20.508000000000003,-32.715,-104.98,1.0
1626295011.4129167,-51.27,-82.52,-43.457,72.266,1.0
1626295011.416823,45.41,-62.012,-20.996,54.688,1.0
1626295011.4207292,25.391,-3.418,-12.207,-140.625,1.0
1626295011.4246354,-67.383,-18.066,-40.039,-144.531,1.0
1626295011.4285414,-49.316,13.672,-25.879,49.805,1.0
1626295011.432448,37.598,-49.316,-3.418,79.59,1.0
1626295011.4363542,21.973000000000003,-63.965,-33.203,-87.402,1.0
1626295011.4402604,-63.965,-10.254000000000001,-63.477,-165.52700000000002,1.0
1626295011.4441667,-67.383,-5.371,-45.898,-6.836,1.0
1626295011.448073,23.438000000000002,13.184000000000001,-11.719000000000001,114.74600000000001,1.0
1626295011.4519792,12.695,2.93,-7.324,79.59,1.0
1626295011.4558854,29.296999999999997,23.438000000000002,-18.066,73.242,1.0
1626295011.4597917,-60.547,-77.637,-48.34,-123.535,1.0
1626295011.463698,-83.49600000000001,-90.33200000000001,-42.968999999999994,-149.414,1.0
1626295011.4676042,14.648,3.906,-3.906,45.898,1.0
1626295011.4715104,46.875,0.488,-11.23,104.492,1.0
1626295011.475417,-26.366999999999997,1.465,-24.414,-57.129,1.0
1626295011.479323,-88.867,-44.434,-50.293,-163.086,1.0
1626295011.483229,-23.926,-33.691,-50.781000000000006,-15.625,1.0
1626295011.4871356,45.898,1.953,-18.066,120.117,1.0
1626295011.4910414,-4.395,-11.719000000000001,-16.113,-4.395,1.0
1626295011.4949477,-76.172,-20.508000000000003,-21.973000000000003,-154.297,1.0
1626295011.498854,-107.42200000000001,-2.93,-24.414,1.0,1.0
1626295011.5027602,-58.593999999999994,22.461,-10.742,1.0,1.0
1626295011.506667,18.066,-31.738000000000003,-11.719000000000001,1.0,1.0
1626295011.510573,-4.883,-52.733999999999995,-27.831999999999997,1.0,1.0
1626295011.5144792,-73.242,-10.254000000000001,-40.039,1.0,1.0
1626295011.5183854,-59.57,-14.16,-32.715,1.0,1.0
1626295011.5222914,28.809,0.488,-21.973000000000003,1.0,1.0
1626295011.526198,28.809,-50.293,-38.086,1.0,1.0
1626295011.5301042,-56.641000000000005,-81.055,-42.968999999999994,1.0,1.0
1626295011.5340102,-68.359,-28.32,-15.625,1.0,1.0
1626295011.5379167,-2.93,-2.441,-16.113,1.0,1.0
1626295011.541823,0.977,-6.348,-50.293,1.0,1.0
1626295011.5457292,-7.812,-6.348,-53.711000000000006,43.457,1.0
1626295011.5496354,-76.172,-20.508000000000003,-21.484,-131.836,1.0
1626295011.5535417,-83.008,-70.801,-16.113,-137.207,1.0
1626295011.557448,-6.836,-74.707,-21.973000000000003,39.551,1.0
1626295011.5613542,18.066,-26.855,-38.574,78.613,1.0
1626295011.5652604,-59.082,-28.32,-61.523,-84.961,1.0
1626295011.5691667,-94.727,-29.785,-32.227,-154.297,1.0
1626295011.573073,-50.293,-73.242,-12.695,-24.901999999999997,1.0
1626295011.5769792,-5.859,-30.273000000000003,-19.043,77.148,1.0
1626295011.5808856,-33.203,19.531,-26.366999999999997,-27.831999999999997,1.0
1626295011.5847917,-87.402,-4.883,-16.602,-157.227,1.0
1626295011.588698,-63.965,-24.901999999999997,-15.625,-64.453,1.0
1626295011.5926042,-50.781000000000006,-4.395,-31.25,-34.668,1.0
1626295011.5965104,27.831999999999997,-2.93,-8.789,101.56200000000001,1.0
1626295011.6004167,-24.901999999999997,-86.426,-34.668,-27.831999999999997,1.0
1626295011.604323,-98.145,-88.37899999999999,-44.434,-170.41,1.0
1626295011.608229,-43.457,-7.324,-20.02,-56.152,1.0
1626295011.6121356,36.621,-1.465,-15.137,110.84,1.0
1626295011.6160414,28.809,11.23,-22.949,60.059,1.0
1626295011.6199481,-68.359,-43.945,-42.968999999999994,-132.812,1.0
1626295011.623854,-80.078,-42.48,-33.203,-117.676,1.0
1626295011.6277602,9.277000000000001,1.465,-7.812,72.266,1.0
1626295011.631667,26.366999999999997,-8.301,-20.508000000000003,86.426,1.0
1626295011.635573,-55.176,-19.531,-52.246,-91.79700000000001,1.0
1626295011.639479,-46.875,-23.926,-26.366999999999997,1.0,1.0
1626295011.6433854,-77.148,-9.277000000000001,-33.203,1.0,1.0
1626295011.6472914,-27.344,-75.684,-35.645,1.0,1.0
1626295011.651198,20.508000000000003,-46.387,-23.926,1.0,1.0
1626295011.6551042,-31.25,18.555,-28.32,1.0,1.0
1626295011.6590104,-96.68,-6.348,-54.199,1.0,1.0
1626295011.6629167,-46.387,-8.789,-44.922,1.0,1.0
1626295011.666823,3.906,-46.387,-35.156,1.0,1.0
1626295011.6707292,-31.738000000000003,-54.199,-46.387,1.0,1.0
1626295011.6746354,-82.031,-40.039,-45.41,1.0,1.0
1626295011.6785414,-38.086,-26.855,-25.391,1.0,1.0
1626295011.682448,35.156,-13.184000000000001,-16.113,1.0,1.0
1626295011.6863542,-2.441,-21.484,-24.414,63.965,1.0
1626295011.6902604,-30.273000000000003,-13.184000000000001,-28.809,-45.41,1.0
1626295011.6941667,-108.887,-86.914,-39.551,-191.40599999999998,1.0
1626295011.698073,-70.312,-95.70299999999999,-20.508000000000003,-78.613,1.0
1626295011.7019792,18.066,-24.414,-10.254000000000001,88.37899999999999,1.0
1626295011.7058854,2.441,-23.926,-29.785,17.578,1.0
1626295011.7097917,-65.918,4.395,-48.34,-130.859,1.0
1626295011.713698,-81.055,-57.129,-38.574,-113.77,1.0
1626295011.7176042,-7.324,-42.968999999999994,-20.508000000000003,50.293,1.0
1626295011.7215104,2.93,6.836,-36.621,41.992,1.0
1626295011.725417,-81.543,-20.996,-41.016000000000005,-143.066,1.0
1626295011.729323,-103.516,-24.901999999999997,-27.344,-165.03900000000002,1.0
1626295011.733229,-82.52,-26.855,-42.48,-135.74200000000002,1.0
1626295011.7371356,9.277000000000001,4.395,-28.32,53.711000000000006,1.0
1626295011.7410414,16.602,-74.219,-44.434,65.918,1.0
1626295011.7449477,-47.852,-78.613,-35.645,-96.68,1.0
1626295011.748854,-66.895,-6.348,-19.043,-128.906,1.0
1626295011.7527602,-17.09,-0.488,-31.25,20.996,1.0
1626295011.756667,41.992,23.926,-0.977,110.84,1.0
1626295011.760573,-23.926,-65.43,-17.09,-44.434,1.0
1626295011.7644792,-120.117,-76.66,-64.941,-183.59400000000002,1.0
1626295011.7683854,-82.52,-10.742,-51.27,-66.406,1.0
1626295011.7722914,7.324,1.465,-24.901999999999997,88.37899999999999,1.0
1626295011.776198,-5.859,-12.207,-16.602,6.836,1.0
1626295011.7801042,-8.301,-1.465,-37.598,-34.668,1.0
1626295011.7840102,-86.426,8.301,-42.968999999999994,-164.062,1.0
1626295011.7879167,-77.148,-60.059,-41.504,-72.75399999999999,1.0
1626295011.791823,12.207,-68.848,-32.715,91.79700000000001,1.0
1626295011.7957292,12.207,10.254000000000001,-11.719000000000001,33.203,1.0
1626295011.7996354,-77.637,-8.301,-14.648,-145.50799999999998,1.0
1626295011.8035417,-79.59,-2.441,-16.113,-97.656,1.0
1626295011.807448,-2.441,-48.34,-27.344,70.801,1.0
1626295011.8113542,19.043,-79.102,-37.598,57.129,1.0
1626295011.8152604,-52.733999999999995,-51.758,-39.551,-111.816,1.0
1626295011.8191667,-78.125,-27.831999999999997,-45.898,-133.789,1.0
1626295011.823073,-9.766,-19.531,-41.992,29.785,1.0
1626295011.8269792,0.488,18.066,-36.133,53.711000000000006,1.0
1626295011.8308856,15.625,37.598,-40.527,52.246,1.0
1626295011.8347917,-67.87100000000001,-68.359,-46.387,-134.766,1.0
1626295011.838698,-87.402,-119.62899999999999,-32.715,-158.203,1.0
1626295011.8426042,-1.465,-3.418,-10.254000000000001,32.715,1.0
1626295011.8465104,40.039,27.831999999999997,-8.301,100.586,1.0
1626295011.8504167,-20.02,21.973000000000003,-16.113,-52.246,1.0
1626295011.854323,-89.844,-39.551,-43.457,-168.457,1.0
1626295011.858229,-30.761999999999997,-44.922,-36.621,-26.855,1.0
1626295011.8621356,50.781000000000006,2.441,-20.508000000000003,115.234,1.0
1626295011.8660414,6.836,4.883,-37.109,-10.254000000000001,1.0
1626295011.8699481,-72.266,-20.996,-66.895,-169.922,1.0
1626295011.873854,-79.59,-8.301,-36.133,1.0,1.0
1626295011.8777602,-30.761999999999997,12.695,-10.742,1.0,1.0
1626295011.881667,23.438000000000002,-79.102,-8.789,1.0,1.0
1626295011.885573,-29.296999999999997,-118.652,-41.016000000000005,1.0,1.0
1626295011.889479,-90.33200000000001,-14.648,-54.688,1.0,1.0
1626295011.8933854,-75.195,-15.625,-47.852,1.0,1.0
1626295011.8972914,7.812,-9.277000000000001,-20.02,1.0,1.0
1626295011.901198,6.836,-54.199,-36.133,1.0,1.0
1626295011.9051042,-92.285,-71.289,-67.383,1.0,1.0
1626295011.9090104,-98.145,-16.113,-38.574,1.0,1.0
1626295011.9129167,0.488,6.836,-3.906,1.0,1.0
1626295011.916823,41.992,7.812,-3.906,1.0,1.0
1626295011.9207292,19.043,-26.855,-14.648,59.57,1.0
1626295011.9246354,-75.195,-13.184000000000001,-31.25,-130.371,1.0
1626295011.9285414,-103.027,-71.289,-47.363,-155.762,1.0
1626295011.932448,-16.602,-96.191,-33.691,25.391,1.0
1626295011.9363542,41.992,3.906,2.441,94.727,1.0
1626295011.9402604,-28.809,17.578,-15.137,-74.707,1.0
1626295011.9441667,-76.66,2.93,-35.645,-150.391,1.0
1626295011.948073,-24.414,-48.34,-31.25,1.465,1.0
1626295011.9519792,30.273000000000003,-47.363,-28.809,108.398,1.0
1626295011.9558854,-15.625,-16.113,-48.34,-18.555,1.0
1626295011.9597917,-98.633,-20.02,-55.176,-166.016,1.0
1626295011.963698,-71.289,-7.812,-30.761999999999997,-68.848,1.0
1626295011.9676042,-45.898,-11.719000000000001,-2.93,-41.504,1.0
1626295011.9715104,32.715,-11.719000000000001,8.301,89.844,1.0
1626295011.975417,-3.906,-60.059,-20.02,-26.855,1.0
1626295011.979323,-85.93799999999999,-76.172,-31.738000000000003,-176.27,1.0
1626295011.983229,-40.039,-10.254000000000001,-18.555,-62.012,1.0
1626295011.9871356,50.293,6.348,-10.254000000000001,116.699,1.0
1626295011.9910414,22.949,13.672,-17.578,43.945,1.0
1626295011.9949477,-80.078,-71.777,-48.34,-152.344,1.0
1626295011.998854,-84.473,-72.75399999999999,-48.828,-127.93,1.0
1626295012.0027602,-0.488,12.207,-20.508000000000003,52.733999999999995,1.0
1626295012.006667,35.156,15.137,-12.695,86.426,1.0
1626295012.010573,-20.508000000000003,-12.695,-21.973000000000003,-70.801,1.0
1626295012.0144792,-64.453,1.465,-18.066,-120.605,1.0
1626295012.0183854,-85.93799999999999,0.0,-8.789,30.761999999999997,1.0
1626295012.0222914,0.488,-77.637,-11.719000000000001,92.285,1.0
1626295012.026198,37.598,-73.73,-15.625,-63.477,1.0
1626295012.0301042,-27.831999999999997,3.906,-16.113,-173.828,1.0
1626295012.0340102,-79.102,-20.508000000000003,-29.785,-50.293,1.0
1626295012.0379167,-22.461,-18.066,-29.296999999999997,89.355,1.0
1626295012.041823,25.879,-52.733999999999995,-28.809,-6.348,1.0
1626295012.0457292,-26.366999999999997,-41.504,-30.761999999999997,-156.738,1.0
1626295012.0496354,-92.285,-15.137,-43.457,-81.543,1.0
1626295012.0535417,-56.641000000000005,-3.906,-57.617,83.49600000000001,1.0
1626295012.057448,9.277000000000001,7.324,-39.062,49.805,1.0
1626295012.0613542,38.086,15.625,-16.113,110.352,1.0
1626295012.0652604,2.441,20.508000000000003,-25.879,-11.719000000000001,1.0
1626295012.0691667,-87.402,-88.867,-46.875,-175.293,1.0
1626295012.073073,-59.082,-125.488,-40.039,-70.312,1.0
1626295012.0769792,32.227,-36.133,-13.672,104.00399999999999,1.0
1626295012.0808856,11.719000000000001,-16.602,-23.926,23.926,1.0
1626295012.0847917,-81.055,-7.324,-61.035,-166.016,1.0
1626295012.088698,-98.145,-71.289,-63.965,-144.043,1.0
1626295012.0926042,-18.066,-35.156,-41.016000000000005,39.062,1.0
1626295012.0965104,13.184000000000001,36.621,-27.831999999999997,52.246,1.0
1626295012.1004167,-54.199,23.926,-29.296999999999997,-114.74600000000001,1.0
1626295012.104323,-74.219,6.348,-12.207,-129.395,1.0
1626295012.108229,-93.262,-17.578,-32.715,-130.859,1.0
1626295012.1121356,6.348,-13.184000000000001,-20.02,63.477,1.0
1626295012.1160414,42.968999999999994,-54.199,-23.926,83.49600000000001,1.0
1626295012.1199481,-40.039,-59.082,-55.663999999999994,-97.16799999999999,1.0
1626295012.123854,-99.609,-12.207,-55.176,-161.621,1.0
1626295012.1277602,-31.25,-14.648,-20.02,3.906,1.0
1626295012.131667,35.156,5.371,-12.695,98.145,1.0
1626295012.135573,-27.344,-76.66,-35.156,-57.617,1.0
1626295012.139479,-73.242,-77.148,-36.621,-153.809,1.0
1626295012.1433854,-31.25,-13.672,-21.973000000000003,-32.715,1.0
1626295012.1472914,7.324,-20.508000000000003,-33.203,72.75399999999999,1.0
1626295012.151198,-25.391,-3.906,-42.968999999999994,-25.879,1.0
1626295012.1551042,-23.926,9.277000000000001,-37.109,-37.598,1.0
1626295012.1590104,-82.52,2.93,-26.855,-154.785,1.0
1626295012.1629167,-42.48,-81.543,-40.527,-41.992,1.0
1626295012.166823,34.18,-106.934,-18.066,103.516,1.0
1626295012.1707292,38.086,-18.066,-0.977,40.527,1.0
1626295012.1746354,-62.5,-10.254000000000001,-26.855,-138.184,1.0
1626295012.1785414,-84.961,6.348,-36.621,-113.77,1.0
1626295012.182448,-7.324,-47.852,-29.785,54.688,1.0
1626295012.1863542,7.812,-50.293,-44.434,48.828,1.0
1626295012.1902604,-64.941,-2.441,-50.781000000000006,-123.535,1.0
1626295012.1941667,-93.262,1.953,-28.809,-142.09,1.0
1626295012.198073,-26.366999999999997,9.277000000000001,-22.461,26.855,1.0
1626295012.2019792,46.875,5.371,0.0,97.656,1.0
1626295012.2058854,49.316,12.207,-5.371,83.984,1.0
1626295012.2097917,-66.895,-87.402,-55.176,-125.977,1.0
1626295012.213698,-105.95700000000001,-100.586,-71.777,-175.78099999999998,1.0
1626295012.2176042,-19.531,0.977,-27.831999999999997,7.324,1.0
1626295012.2215104,14.16,3.418,-29.785,70.801,1.0
1626295012.225417,-43.457,-3.418,-41.992,-77.637,1.0
1626295012.229323,-83.008,-61.035,-43.945,-166.016,1.0
1626295012.233229,-11.719000000000001,-49.805,-45.41,-13.672,1.0
