timestamps,TP9,AF7,AF8,TP10,Right AUX
1626062413.1276698,51.27,-51.27,-48.828,368.652,1.0
1626062413.131576,0.0,-17.09,-47.363,113.281,1.0
1626062413.1354823,-96.191,-8.301,-30.273000000000003,-404.29699999999997,1.0
1626062413.1393886,-80.078,-19.043,-19.043,-265.625,1.0
1626062413.1432948,24.901999999999997,-0.977,-26.366999999999997,282.22700000000003,1.0
1626062413.147201,22.949,-26.855,-38.574,246.582,1.0
1626062413.1511073,-84.961,-43.457,-38.574,-300.781,1.0
1626062413.1550138,-103.516,-26.366999999999997,-27.831999999999997,-363.77,1.0
1626062413.1589198,-3.906,-25.391,-16.113,179.199,1.0
1626062413.162826,37.109,-38.574,-12.695,344.23800000000006,1.0
1626062413.1667323,-46.875,-60.547,-32.227,-157.715,1.0
1626062413.1706386,-104.98,-43.945,-47.852,-438.965,1.0
1626062413.1745448,-18.555,-16.602,-26.366999999999997,1.0,1.0
1626062413.178451,67.87100000000001,-12.695,4.883,1.0,1.0
1626062413.182357,0.0,-1.465,-12.207,1.0,1.0
1626062413.1862638,-105.95700000000001,-13.184000000000001,-44.434,1.0,1.0
1626062413.1901696,-55.663999999999994,-23.926,-24.414,1.0,1.0
1626062413.1940763,49.805,-20.02,-0.977,1.0,1.0
1626062413.197982,28.32,-29.785,-9.277000000000001,1.0,1.0
1626062413.2018883,-86.426,-38.086,-31.738000000000003,1.0,1.0
1626062413.205795,-92.773,-43.945,-39.551,1.0,1.0
1626062413.209701,20.508000000000003,-40.527,-40.039,1.0,1.0
1626062413.213607,42.968999999999994,-24.414,-35.645,1.0,1.0
1626062413.2175136,-62.012,-33.203,-47.363,1.0,1.0
1626062413.2214196,-109.375,-43.457,-54.688,1.0,1.0
1626062413.225326,-14.648,-35.156,-16.602,1.0,1.0
1626062413.2292323,47.852,-29.785,-13.184000000000001,1.0,1.0
1626062413.2331386,-38.086,-18.066,-41.016000000000005,1.0,1.0
1626062413.2370448,-111.32799999999999,-18.555,-35.156,1.0,1.0
1626062413.240951,-38.086,-44.922,-19.043,1.0,1.0
1626062413.2448573,50.293,-55.176,-14.16,1.0,1.0
1626062413.2487636,-7.324,-24.414,-18.066,1.0,1.0
1626062413.2526696,-103.027,-5.371,-24.901999999999997,1.0,1.0
1626062413.256576,-66.895,-16.602,-29.785,1.0,1.0
1626062413.2604823,31.25,-29.296999999999997,-29.785,1.0,1.0
1626062413.2643886,35.156,-17.578,-24.901999999999997,1.0,1.0
1626062413.2682948,-62.012,-26.855,-27.344,-313.47700000000003,1.0
1626062413.272201,-76.66,-45.898,-24.414,-302.73400000000004,1.0
1626062413.2761073,38.574,-35.645,-0.977,258.789,1.0
1626062413.2800136,53.223,-36.133,-8.301,343.26199999999994,1.0
1626062413.2839198,-62.5,-38.574,-33.691,-197.75400000000002,1.0
1626062413.287826,-105.469,-22.461,-51.758,-398.43800000000005,1.0
1626062413.2917323,-12.695,-21.484,-50.293,94.238,1.0
1626062413.2956386,55.663999999999994,-30.273000000000003,-19.531,391.602,1.0
1626062413.299545,-24.414,-30.761999999999997,-10.254000000000001,-44.922,1.0
1626062413.303451,-112.79299999999999,-21.973000000000003,-18.066,-442.871,1.0
1626062413.307357,-55.176,-24.414,-22.461,-91.79700000000001,1.0
1626062413.3112638,33.691,-22.461,-15.625,372.07,1.0
1626062413.3151696,29.296999999999997,-16.113,-32.715,109.375,1.0
1626062413.3190758,-13.672,1.465,-26.366999999999997,-405.76199999999994,1.0
1626062413.322982,-93.262,-15.137,-20.02,-234.863,1.0
1626062413.3268883,-58.105,-46.387,-16.602,314.453,1.0
1626062413.330795,30.273000000000003,-34.18,-22.461,249.512,1.0
1626062413.334701,8.301,-22.949,-21.484,-297.85200000000003,1.0
1626062413.3386073,-83.984,-50.293,-24.414,-342.285,1.0
1626062413.3425136,-73.73,-80.566,-39.062,188.477,1.0
1626062413.3464196,29.785,-58.105,-34.18,346.68,1.0
1626062413.350326,53.711000000000006,-8.789,-16.602,-145.50799999999998,1.0
1626062413.3542323,-44.922,-10.254000000000001,-21.484,-427.246,1.0
1626062413.3581383,-85.449,-26.855,-35.645,-5.859,1.0
1626062413.3620448,-0.488,-24.901999999999997,-42.48,1.0,1.0
1626062413.365951,51.27,-31.25,-45.41,1.0,1.0
1626062413.3698573,-22.949,-30.273000000000003,-20.508000000000003,1.0,1.0
1626062413.3737636,-96.191,-21.484,-8.301,1.0,1.0
1626062413.3776698,-36.133,-26.366999999999997,-30.761999999999997,1.0,1.0
1626062413.381576,30.273000000000003,-35.645,-54.199,1.0,1.0
1626062413.3854823,-32.715,-34.668,-52.246,1.0,1.0
1626062413.3893886,-125.977,-46.875,-36.621,1.0,1.0
1626062413.3932948,-77.637,-46.875,-22.949,1.0,1.0
1626062413.397201,26.855,-48.34,-27.831999999999997,1.0,1.0
1626062413.4011073,12.207,-50.781000000000006,-38.574,1.0,1.0
1626062413.4050138,-89.844,-40.527,-30.761999999999997,1.0,1.0
1626062413.4089198,-96.68,-30.273000000000003,-15.625,-299.805,1.0
1626062413.412826,-5.859,-29.785,-30.761999999999997,237.305,1.0
1626062413.4167323,18.555,-31.25,-47.852,300.781,1.0
1626062413.4206386,-73.73,-49.805,-45.41,-235.352,1.0
1626062413.4245448,-117.676,-63.965,-36.133,-416.01599999999996,1.0
1626062413.428451,-16.113,-35.156,-23.438000000000002,96.191,1.0
1626062413.432357,51.758,-12.695,-25.879,383.789,1.0
1626062413.4362638,-30.273000000000003,-26.855,-27.344,-60.547,1.0
1626062413.4401696,-122.07,-42.968999999999994,-30.273000000000003,-443.35900000000004,1.0
1626062413.4440763,-45.898,-16.113,-16.113,-62.988,1.0
1626062413.447982,57.617,-23.438000000000002,-7.812,389.648,1.0
1626062413.4518883,2.441,-44.434,-26.855,101.074,1.0
1626062413.455795,-111.816,-30.273000000000003,-60.059,-420.41,1.0
1626062413.459701,-93.75,-18.066,-67.383,-244.141,1.0
1626062413.463607,24.901999999999997,-14.16,-38.086,313.965,1.0
1626062413.4675136,20.996,-27.831999999999997,-29.296999999999997,237.305,1.0
1626062413.4714196,-95.70299999999999,-46.875,-46.875,-322.26599999999996,1.0
1626062413.475326,-106.445,-57.617,-49.316,-351.56199999999995,1.0
1626062413.4792323,18.066,-37.598,-21.484,222.65599999999998,1.0
1626062413.4831386,55.663999999999994,-30.761999999999997,-10.742,324.707,1.0
1626062413.4870448,-36.621,-36.621,-30.761999999999997,-202.148,1.0
1626062413.490951,-75.684,-16.113,-47.363,-378.906,1.0
1626062413.4948573,-12.695,-22.461,-44.434,62.012,1.0
1626062413.4987636,40.527,-33.203,-38.086,366.699,1.0
1626062413.5026696,-19.531,-22.461,-35.645,-28.32,1.0
1626062413.506576,-101.56200000000001,-36.133,-28.32,-430.664,1.0
1626062413.5104823,-47.852,-55.663999999999994,-23.926,-108.398,1.0
1626062413.5143886,48.828,-40.527,-27.344,361.32800000000003,1.0
1626062413.5182948,13.184000000000001,-39.062,-39.062,133.789,1.0
1626062413.522201,-79.59,-37.109,-33.691,-375.48800000000006,1.0
1626062413.5261073,-69.824,-20.996,-13.672,-248.047,1.0
1626062413.5300136,6.348,-31.25,-25.879,267.578,1.0
1626062413.5339198,1.953,-29.785,-45.898,239.74599999999998,1.0
1626062413.537826,-82.52,-26.366999999999997,-35.645,-279.785,1.0
1626062413.5417323,-116.699,-44.922,-58.593999999999994,-381.836,1.0
1626062413.5456386,-6.348,-43.457,-66.895,151.855,1.0
1626062413.549545,-1.465,-59.082,-28.809,361.32800000000003,1.0
1626062413.553451,25.879,-61.523,-29.785,-126.95299999999999,1.0
1626062413.557357,-58.105,-32.715,-29.785,-416.01599999999996,1.0
1626062413.5612638,-93.75,-18.555,-35.645,-5.371,1.0
1626062413.5651696,-16.113,-21.973000000000003,-43.457,366.211,1.0
1626062413.5690758,37.109,-15.137,-56.152,22.461,1.0
1626062413.572982,-39.551,-13.184000000000001,-65.43,-423.34,1.0
1626062413.5768883,-114.74600000000001,-20.508000000000003,-34.18,-161.13299999999998,1.0
1626062413.580795,-45.898,-44.922,-7.324,340.82,1.0
1626062413.584701,44.922,-41.016000000000005,-12.695,180.176,1.0
1626062413.5886073,-5.371,-37.598,-21.973000000000003,-357.42199999999997,1.0
1626062413.5925136,-97.16799999999999,-30.273000000000003,-26.366999999999997,-312.012,1.0
1626062413.5964196,-58.593999999999994,-11.719000000000001,-38.086,1.0,1.0
1626062413.600326,39.062,-11.23,-40.039,1.0,1.0
1626062413.6042323,28.809,-3.906,-21.484,1.0,1.0
1626062413.6081383,-69.824,-11.719000000000001,-26.366999999999997,1.0,1.0
1626062413.6120448,-85.93799999999999,-20.508000000000003,-39.062,1.0,1.0
1626062413.615951,18.555,-21.484,-37.598,1.0,1.0
1626062413.6198573,42.48,-26.855,-54.688,1.0,1.0
1626062413.6237636,-53.711000000000006,-36.133,-55.176,1.0,1.0
1626062413.6276698,-97.656,-40.039,-24.414,1.0,1.0
1626062413.631576,-18.066,-17.578,-30.761999999999997,1.0,1.0
1626062413.6354823,43.457,-7.812,-49.316,1.0,1.0
1626062413.6393886,-31.25,-33.203,-52.246,1.0,1.0
1626062413.6432948,-103.027,-49.316,-34.18,-444.336,1.0
1626062413.647201,-27.831999999999997,-45.898,-25.391,-76.172,1.0
1626062413.6511073,55.176,-20.02,-38.574,381.836,1.0
1626062413.6550138,-13.672,-24.901999999999997,-34.18,102.051,1.0
1626062413.6589198,-121.58200000000001,-32.227,-24.901999999999997,-419.92199999999997,1.0
1626062413.662826,-86.426,-15.625,-20.996,-253.418,1.0
1626062413.6667323,22.949,-16.602,-31.25,299.316,1.0
1626062413.6706386,5.859,-26.366999999999997,-55.176,223.63299999999998,1.0
1626062413.6745448,-101.074,-40.527,-59.082,-324.219,1.0
1626062413.678451,-110.84,-40.039,-43.457,-366.699,1.0
1626062413.682357,-10.742,-31.738000000000003,-35.645,154.297,1.0
1626062413.6862638,45.41,-0.977,-25.879,343.75,1.0
1626062413.6901696,48.34,-17.578,-14.16,293.945,1.0
1626062413.6940763,-47.852,-33.691,-21.484,-236.328,1.0
1626062413.697982,-101.074,-37.598,-24.901999999999997,-388.67199999999997,1.0
1626062413.7018883,-21.973000000000003,-56.641000000000005,-37.598,111.32799999999999,1.0
1626062413.705795,41.504,-55.176,-38.086,348.145,1.0
1626062413.709701,-34.668,-29.785,-32.715,-109.375,1.0
1626062413.713607,-115.723,-9.277000000000001,-49.805,-457.031,1.0
1626062413.7175136,-45.898,-16.602,-30.273000000000003,-49.805,1.0
1626062413.7214196,45.41,-31.25,-0.977,381.348,1.0
1626062413.725326,5.859,-35.645,-16.602,57.617,1.0
1626062413.7292323,-113.77,-63.965,-41.504,-442.38300000000004,1.0
1626062413.7331386,-85.93799999999999,-52.246,-26.855,-214.355,1.0
1626062413.7370448,33.691,-11.23,-17.578,1.0,1.0
1626062413.740951,21.973000000000003,-8.789,-41.016000000000005,1.0,1.0
1626062413.7448573,-75.195,-46.387,-33.203,1.0,1.0
1626062413.7487636,-90.82,-74.219,-31.25,1.0,1.0
1626062413.7526696,12.207,-54.688,-39.062,1.0,1.0
1626062413.756576,46.387,-34.668,-34.18,1.0,1.0
1626062413.7604823,-71.777,-31.25,-37.598,1.0,1.0
1626062413.7643886,-116.699,-25.391,-22.949,1.0,1.0
1626062413.7682948,-14.16,-18.066,-26.366999999999997,1.0,1.0
1626062413.772201,37.598,-22.461,-41.016000000000005,1.0,1.0
1626062413.7761073,-42.968999999999994,-33.203,-42.48,1.0,1.0
1626062413.7800136,-126.95299999999999,-32.715,-35.645,1.0,1.0
1626062413.7839198,-48.828,-39.551,-26.366999999999997,1.0,1.0
1626062413.787826,56.641000000000005,-41.504,-31.738000000000003,1.0,1.0
1626062413.7917323,12.207,-49.316,-33.691,1.0,1.0
1626062413.7956386,-92.773,-50.293,-38.574,1.0,1.0
1626062413.799545,-74.219,-21.973000000000003,-35.156,1.0,1.0
1626062413.803451,39.062,-8.301,-24.901999999999997,1.0,1.0
1626062413.807357,29.785,-21.484,-51.758,1.0,1.0
1626062413.8112638,-84.473,-38.574,-66.895,1.0,1.0
1626062413.8151696,-103.516,-53.223,-60.547,1.0,1.0
1626062413.8190758,10.742,-45.41,-42.48,1.0,1.0
1626062413.822982,52.246,-36.621,-27.344,1.0,1.0
1626062413.8268883,-41.016000000000005,-35.156,-20.508000000000003,1.0,1.0
1626062413.830795,-100.098,-22.949,-20.508000000000003,-424.805,1.0
1626062413.834701,-17.578,-15.137,-23.926,41.016000000000005,1.0
1626062413.8386073,65.918,-19.043,-27.831999999999997,395.996,1.0
1626062413.8425136,1.953,-28.809,-32.715,2.93,1.0
1626062413.8464196,-88.37899999999999,-42.968999999999994,-21.484,-423.82800000000003,1.0
1626062413.850326,-50.293,-35.645,-27.344,-119.141,1.0
1626062413.8542323,41.992,-27.831999999999997,-38.086,356.934,1.0
1626062413.8581383,11.23,-39.062,-37.109,128.418,1.0
1626062413.8620448,-89.844,-29.785,-42.968999999999994,-388.67199999999997,1.0
1626062413.865951,-65.918,-18.555,-33.203,-250.488,1.0
1626062413.8698573,37.598,-27.831999999999997,-30.761999999999997,291.504,1.0
1626062413.8737636,45.41,-30.761999999999997,-39.062,279.785,1.0
1626062413.8776698,-63.965,-42.48,-31.25,-269.531,1.0
1626062413.881576,-107.91,-38.086,-39.062,-383.789,1.0
1626062413.8854823,-0.977,-26.366999999999997,-37.598,147.461,1.0
1626062413.8893886,53.711000000000006,-36.133,-27.831999999999997,357.42199999999997,1.0
1626062413.8932948,-28.809,-65.918,-56.641000000000005,-124.512,1.0
1626062413.897201,-84.473,-57.617,-67.87100000000001,-414.06199999999995,1.0
1626062413.9011073,0.0,-15.137,-24.414,22.461,1.0
1626062413.9050138,56.641000000000005,-20.02,-23.438000000000002,384.277,1.0
1626062413.9089198,-22.949,-26.366999999999997,-29.785,13.184000000000001,1.0
1626062413.912826,-97.656,-21.484,-27.344,-434.082,1.0
1626062413.9167323,-56.641000000000005,-23.438000000000002,-42.968999999999994,-170.41,1.0
1626062413.9206386,34.668,-26.855,-32.227,333.00800000000004,1.0
1626062413.9245448,35.156,-34.18,-11.719000000000001,162.59799999999998,1.0
1626062413.928451,-10.254000000000001,-21.973000000000003,-13.672,-380.85900000000004,1.0
1626062413.932357,-123.535,-27.344,-30.273000000000003,-317.383,1.0
1626062413.9362638,-100.098,-37.598,-39.551,234.863,1.0
1626062413.9401696,21.973000000000003,-33.691,-28.809,298.828,1.0
1626062413.9440763,22.461,-33.203,-34.18,-238.77,1.0
1626062413.947982,-83.49600000000001,-39.551,-41.992,-420.41,1.0
1626062413.9518883,-112.305,-36.621,-28.809,81.055,1.0
1626062413.955795,-11.719000000000001,-20.508000000000003,-19.043,335.93800000000005,1.0
1626062413.959701,37.109,-14.16,-20.02,-124.512,1.0
1626062413.963607,-66.895,-25.879,-36.621,-476.56199999999995,1.0
1626062413.9675136,-121.094,-34.18,-44.434,-83.008,1.0
1626062413.9714196,-35.156,-37.598,-42.968999999999994,1.0,1.0
1626062413.975326,25.391,-27.831999999999997,-45.898,1.0,1.0
1626062413.9792323,-39.551,-21.973000000000003,-37.598,1.0,1.0
1626062413.9831386,-129.395,-55.663999999999994,-49.805,1.0,1.0
1626062413.9870448,-67.383,-42.48,-43.945,1.0,1.0
1626062413.990951,33.691,-5.371,-25.391,1.0,1.0
1626062413.9948573,-2.93,-48.828,-27.831999999999997,1.0,1.0
1626062413.9987636,-93.75,-80.078,-30.761999999999997,1.0,1.0
1626062414.0026696,-79.102,-33.691,-36.621,1.0,1.0
1626062414.006576,14.16,-14.16,-45.898,1.0,1.0
1626062414.0104823,16.113,-13.184000000000001,-49.316,1.0,1.0
1626062414.0143886,-71.289,-15.625,-33.203,1.0,1.0
1626062414.0182948,-90.33200000000001,-39.062,-48.34,-377.441,1.0
1626062414.022201,6.836,-30.273000000000003,-58.105,157.715,1.0
1626062414.0261073,48.34,-13.184000000000001,-34.668,337.89099999999996,1.0
1626062414.0300136,-54.688,-34.18,-26.366999999999997,-169.922,1.0
1626062414.0339198,-114.258,-47.363,-15.625,-443.848,1.0
1626062414.037826,-26.855,-38.574,-16.602,21.484,1.0
1626062414.0417323,64.941,-23.438000000000002,-17.578,410.156,1.0
1626062414.0456386,-2.441,-46.875,-16.602,28.809,1.0
1626062414.049545,-126.465,-74.219,-65.918,-447.754,1.0
1626062414.053451,-83.49600000000001,-41.016000000000005,-66.406,-165.03900000000002,1.0
1626062414.057357,22.949,-3.906,-38.574,339.355,1.0
1626062414.0612638,3.418,-0.488,-39.551,153.809,1.0
1626062414.0651696,-13.672,-11.719000000000001,-38.086,41.504,1.0
1626062414.0690758,-99.12100000000001,-25.391,-33.203,-422.36300000000006,1.0
1626062414.072982,-51.758,-20.508000000000003,-21.973000000000003,-189.94099999999997,1.0
1626062414.0768883,45.41,-43.457,-39.062,322.26599999999996,1.0
1626062414.080795,23.926,-48.828,-50.781000000000006,193.359,1.0
1626062414.084701,-80.566,-37.598,-32.715,-349.60900000000004,1.0
1626062414.0886073,-86.914,-54.199,-27.831999999999997,-333.00800000000004,1.0
1626062414.0925136,24.414,-43.945,-35.645,221.19099999999997,1.0
1626062414.0964196,44.922,-30.761999999999997,-46.875,314.941,1.0
1626062414.100326,-58.105,-17.578,-50.781000000000006,-217.285,1.0
1626062414.1042323,-111.816,-41.992,-49.805,-424.805,1.0
1626062414.1081383,-26.855,-66.406,-35.645,63.965,1.0
1626062414.1120448,9.277000000000001,-17.578,-21.484,200.195,1.0
1626062414.115951,52.733999999999995,-25.879,-23.926,354.004,1.0
1626062414.1198573,-48.828,-27.344,-24.901999999999997,-167.48,1.0
1626062414.1237636,-127.93,-20.508000000000003,-35.156,-446.289,1.0
1626062414.1276698,-37.109,-18.555,-36.621,19.531,1.0
1626062414.131576,55.176,-20.996,-11.23,398.926,1.0
1626062414.1354823,-20.02,-25.879,-18.555,9.277000000000001,1.0
1626062414.1393886,-121.094,-35.156,-37.109,-437.98800000000006,1.0
1626062414.1432948,-75.195,-39.551,-37.598,-136.719,1.0
1626062414.147201,44.434,-17.578,-21.973000000000003,375.48800000000006,1.0
1626062414.1511073,23.926,-8.789,-18.066,167.48,1.0
1626062414.1550138,-81.543,-22.949,-28.809,-369.14099999999996,1.0
1626062414.1589198,-73.242,-38.574,-40.039,1.0,1.0
1626062414.162826,7.812,-32.715,-56.641000000000005,1.0,1.0
1626062414.1667323,35.156,-11.23,-25.391,1.0,1.0
1626062414.1706386,-49.316,-15.137,-11.719000000000001,1.0,1.0
1626062414.1745448,-96.191,-32.715,-22.949,1.0,1.0
1626062414.178451,-7.324,-45.41,-29.296999999999997,1.0,1.0
1626062414.182357,37.598,-42.48,-41.992,1.0,1.0
1626062414.1862638,-55.176,-28.32,-42.48,1.0,1.0
1626062414.1901696,-123.535,-22.461,-32.227,1.0,1.0
1626062414.1940763,-53.223,-24.901999999999997,-22.461,1.0,1.0
1626062414.197982,26.855,-42.48,-34.18,1.0,1.0
1626062414.2018883,-17.09,-52.733999999999995,-49.805,1.0,1.0
1626062414.205795,-103.027,-41.016000000000005,-50.293,-433.105,1.0
1626062414.209701,-61.035,-43.457,-25.879,-175.293,1.0
1626062414.213607,42.968999999999994,-55.176,-13.672,344.23800000000006,1.0
1626062414.2175136,27.344,-41.504,-38.086,203.613,1.0
1626062414.2214196,-69.824,-13.184000000000001,-41.992,-333.00800000000004,1.0
1626062414.225326,-90.33200000000001,4.395,-25.391,-320.312,1.0
1626062414.2292323,7.324,4.883,-15.137,222.65599999999998,1.0
1626062414.2331386,36.133,-13.672,-19.531,303.711,1.0
1626062414.2370448,-72.75399999999999,-51.27,-32.715,-238.28099999999998,1.0
1626062414.240951,-119.141,-57.129,-42.968999999999994,-418.457,1.0
1626062414.2448573,-23.438000000000002,-38.086,-40.527,86.914,1.0
1626062414.2487636,46.875,-25.879,-37.598,375.48800000000006,1.0
1626062414.2526696,33.203,-20.508000000000003,-28.809,316.895,1.0
1626062414.256576,-65.918,-35.156,-22.949,-191.40599999999998,1.0
1626062414.2604823,-124.512,-50.781000000000006,-22.949,-429.199,1.0
1626062414.2643886,-39.551,-47.852,-27.831999999999997,33.203,1.0
1626062414.2682948,37.109,-27.831999999999997,-28.809,370.11699999999996,1.0
1626062414.272201,-24.414,-18.066,-35.156,-17.09,1.0
1626062414.2761073,-123.535,-37.598,-49.316,-437.98800000000006,1.0
1626062414.2800136,-82.52,-49.316,-33.691,-134.27700000000002,1.0
1626062414.2839198,32.715,-39.062,-17.09,358.398,1.0
1626062414.287826,20.508000000000003,-18.066,-32.227,150.879,1.0
1626062414.2917323,-84.473,-37.598,-36.133,-374.51199999999994,1.0
1626062414.2956386,-70.801,-60.547,-14.16,-247.55900000000003,1.0
1626062414.299545,24.414,-49.805,-18.555,1.0,1.0
1626062414.303451,5.859,-25.879,-46.875,1.0,1.0
1626062414.307357,-92.773,-7.812,-44.434,1.0,1.0
1626062414.3112638,-103.027,-2.441,-27.344,1.0,1.0
1626062414.3151696,7.812,-12.207,-20.996,1.0,1.0
1626062414.3190758,41.992,-25.391,-24.901999999999997,1.0,1.0
1626062414.322982,-42.968999999999994,-29.296999999999997,-29.296999999999997,1.0,1.0
1626062414.3268883,-89.355,-65.43,-14.648,1.0,1.0
1626062414.330795,-14.16,-77.148,-20.02,1.0,1.0
1626062414.334701,45.898,-26.855,-27.831999999999997,1.0,1.0
1626062414.3386073,-32.715,-4.883,-25.879,1.0,1.0
1626062414.3425136,-114.74600000000001,-7.324,-33.203,1.0,1.0
1626062414.3464196,-70.312,-21.484,-33.203,1.0,1.0
1626062414.350326,9.766,-41.016000000000005,-22.949,1.0,1.0
1626062414.3542323,3.418,-23.438000000000002,-4.395,1.0,1.0
1626062414.3581383,-89.355,-29.785,-26.366999999999997,1.0,1.0
1626062414.3620448,-82.031,-59.57,-56.152,1.0,1.0
1626062414.365951,32.715,-52.733999999999995,-41.992,1.0,1.0
1626062414.3698573,37.598,-30.761999999999997,-20.996,1.0,1.0
1626062414.3737636,-78.613,-20.02,-16.113,1.0,1.0
1626062414.3776698,-125.977,-35.645,-34.668,1.0,1.0
1626062414.381576,-15.625,-25.879,-34.18,1.0,1.0
1626062414.3854823,55.663999999999994,-6.348,-12.695,1.0,1.0
1626062414.3893886,-27.831999999999997,-22.461,-10.254000000000001,1.0,1.0
1626062414.3932948,-113.281,-43.945,-33.691,1.0,1.0
1626062414.397201,-32.715,-38.574,-32.227,1.0,1.0
1626062414.4011073,75.684,-36.133,-18.066,1.0,1.0
1626062414.4050138,18.066,-65.918,-40.039,1.0,1.0
1626062414.4089198,-81.055,-85.93799999999999,-27.831999999999997,1.0,1.0
1626062414.412826,-63.965,-66.895,-15.137,1.0,1.0
1626062414.4167323,29.296999999999997,-32.227,-30.273000000000003,1.0,1.0
1626062414.4206386,26.366999999999997,-8.789,-37.598,1.0,1.0
1626062414.4245448,-70.312,-7.324,-32.715,1.0,1.0
1626062414.428451,-78.613,-16.602,-18.555,1.0,1.0
1626062414.432357,24.414,-21.973000000000003,-24.901999999999997,1.0,1.0
1626062414.4362638,78.125,-27.831999999999997,-21.973000000000003,1.0,1.0
1626062414.4401696,-19.043,-59.57,-13.184000000000001,-166.016,1.0
1626062414.4440763,-84.473,-74.219,-16.113,-392.09,1.0
1626062414.447982,7.812,-29.785,-23.926,97.656,1.0
1626062414.4518883,55.663999999999994,-20.02,-43.457,383.789,1.0
1626062414.455795,-29.785,-32.715,-30.273000000000003,-45.41,1.0
1626062414.459701,-117.18799999999999,-22.461,-17.09,-439.45300000000003,1.0
1626062414.463607,-56.152,-20.02,-20.996,-86.914,1.0
1626062414.4675136,47.363,-38.086,-31.738000000000003,381.348,1.0
1626062414.4714196,6.348,-41.992,-39.062,114.258,1.0
1626062414.475326,-96.191,-20.508000000000003,-28.32,-406.25,1.0
1626062414.4792323,-88.867,-18.555,-17.09,-264.16,1.0
1626062414.4831386,10.742,-29.785,-8.301,277.832,1.0
1626062414.4870448,30.761999999999997,-50.293,-39.062,229.49200000000002,1.0
1626062414.490951,0.488,-54.199,-49.316,-309.082,1.0
1626062414.4948573,-106.934,-48.828,-47.363,-349.121,1.0
1626062414.4987636,-104.98,-13.672,-38.574,171.875,1.0
1626062414.5026696,0.0,-0.488,-27.831999999999997,323.242,1.0
1626062414.506576,24.414,-11.23,-29.296999999999997,-169.43400000000003,1.0
1626062414.5104823,-69.824,-29.785,-25.879,-445.31199999999995,1.0
1626062414.5143886,-108.398,-32.715,-25.391,-1.953,1.0
1626062414.5182948,0.977,-40.527,-17.578,373.04699999999997,1.0
1626062414.522201,69.824,-49.316,-19.531,0.977,1.0
1626062414.5261073,-26.855,-47.363,-33.203,-442.871,1.0
1626062414.5300136,-106.934,-31.25,-34.668,-142.578,1.0
1626062414.5339198,-42.48,-15.137,-37.598,1.0,1.0
1626062414.537826,40.527,-5.859,-42.968999999999994,1.0,1.0
1626062414.5417323,-5.371,-4.395,-44.922,1.0,1.0
1626062414.5456386,-100.098,-21.973000000000003,-40.527,1.0,1.0
1626062414.549545,-61.035,-43.457,-26.855,1.0,1.0
1626062414.553451,41.504,-27.831999999999997,-29.296999999999997,1.0,1.0
1626062414.557357,31.738000000000003,-22.949,-44.922,1.0,1.0
1626062414.5612638,-66.406,-40.039,-41.016000000000005,1.0,1.0
1626062414.5651696,-69.824,-33.691,-33.203,1.0,1.0
1626062414.5690758,30.761999999999997,-24.901999999999997,-30.273000000000003,1.0,1.0
1626062414.572982,41.992,-29.296999999999997,-29.296999999999997,1.0,1.0
1626062414.5768883,-53.223,-30.273000000000003,-31.738000000000003,1.0,1.0
1626062414.580795,-92.773,-33.691,-31.25,-409.668,1.0
1626062414.584701,-2.441,-11.23,-18.066,90.82,1.0
1626062414.5886073,60.547,2.441,-13.672,380.371,1.0
1626062414.5925136,-17.09,-20.02,-35.156,-65.918,1.0
1626062414.5964196,-96.191,-31.738000000000003,-41.504,-439.45300000000003,1.0
1626062414.600326,-31.25,-39.551,-42.48,-61.035,1.0
1626062414.6042323,55.663999999999994,-28.32,-48.34,383.789,1.0
1626062414.6081383,-1.465,-25.879,-32.715,97.656,1.0
1626062414.6120448,-111.816,-44.922,-27.344,-411.13300000000004,1.0
1626062414.615951,-90.33200000000001,-40.527,-33.691,-229.98,1.0
1626062414.6198573,23.926,-23.438000000000002,-13.184000000000001,316.895,1.0
1626062414.6237636,25.879,-24.901999999999997,-12.207,248.047,1.0
1626062414.6276698,15.137,-16.602,-20.02,158.691,1.0
1626062414.631576,-96.191,-26.366999999999997,-32.227,-385.254,1.0
1626062414.6354823,-76.172,-41.504,-29.296999999999997,-256.836,1.0
1626062414.6393886,28.809,-35.645,-21.973000000000003,289.551,1.0
1626062414.6432948,23.926,-26.855,-17.578,265.137,1.0
1626062414.647201,-68.359,-34.668,-14.648,-259.277,1.0
1626062414.6511073,-84.473,-65.43,-23.438000000000002,-355.957,1.0
1626062414.6550138,-2.441,-57.129,-30.273000000000003,154.785,1.0
1626062414.6589198,28.32,-20.508000000000003,-24.414,349.121,1.0
1626062414.662826,-58.593999999999994,-26.855,-22.949,-142.578,1.0
1626062414.6667323,-107.91,-48.828,-34.668,-436.035,1.0
1626062414.6706386,-20.508000000000003,-40.527,-25.879,7.812,1.0
1626062414.6745448,45.41,-23.438000000000002,-14.648,1.0,1.0
1626062414.678451,-20.996,-41.992,-22.949,1.0,1.0
1626062414.682357,-104.98,-47.852,-58.593999999999994,1.0,1.0
1626062414.6862638,-59.082,-27.344,-76.172,1.0,1.0
1626062414.6901696,41.016000000000005,-31.25,-36.133,1.0,1.0
1626062414.6940763,-3.906,-43.457,-28.32,1.0,1.0
1626062414.697982,-114.258,-42.48,-39.062,1.0,1.0
1626062414.7018883,-95.70299999999999,-44.434,-23.438000000000002,1.0,1.0
1626062414.705795,15.137,-56.641000000000005,-11.719000000000001,1.0,1.0
1626062414.709701,40.039,-59.082,-18.066,1.0,1.0
1626062414.713607,-45.41,-40.039,-27.831999999999997,1.0,1.0
1626062414.7175136,-94.727,-39.062,-28.809,1.0,1.0
1626062414.7214196,-21.973000000000003,-47.852,-20.508000000000003,1.0,1.0
1626062414.725326,28.32,-27.831999999999997,-19.043,1.0,1.0
1626062414.7292323,-47.852,-18.066,-45.898,1.0,1.0
1626062414.7331386,-134.766,-48.34,-51.758,1.0,1.0
1626062414.7370448,-61.523,-53.711000000000006,-40.039,1.0,1.0
1626062414.740951,37.598,-35.645,-51.27,1.0,1.0
1626062414.7448573,-6.348,-26.366999999999997,-35.645,1.0,1.0
1626062414.7487636,-95.215,-27.831999999999997,-13.184000000000001,1.0,1.0
1626062414.7526696,-77.637,-25.879,-6.836,1.0,1.0
1626062414.756576,23.438000000000002,-12.207,-6.836,1.0,1.0
1626062414.7604823,6.836,-10.254000000000001,-33.203,1.0,1.0
1626062414.7643886,-88.37899999999999,-35.156,-47.363,1.0,1.0
1626062414.7682948,-101.074,-61.035,-37.109,1.0,1.0
1626062414.772201,6.348,-41.016000000000005,-15.137,1.0,1.0
1626062414.7761073,52.733999999999995,-22.949,0.0,1.0,1.0
1626062414.7800136,-40.039,-57.617,-29.296999999999997,1.0,1.0
1626062414.7839198,-94.727,-79.59,-53.223,1.0,1.0
1626062414.787826,-32.227,-43.945,-38.574,1.0,1.0
1626062414.7917323,33.203,-15.625,-11.719000000000001,1.0,1.0
1626062414.7956386,-30.761999999999997,-13.184000000000001,-10.742,1.0,1.0
1626062414.799545,-118.164,-24.414,-25.879,1.0,1.0
1626062414.803451,-58.105,-27.344,-18.555,1.0,1.0
1626062414.807357,36.621,-28.809,-17.09,1.0,1.0
1626062414.8112638,8.301,-17.578,-44.434,1.0,1.0
1626062414.8151696,-88.867,-16.602,-46.387,-389.648,1.0
1626062414.8190758,-78.125,-36.133,-19.531,-247.55900000000003,1.0
1626062414.822982,19.531,-28.809,-16.602,291.992,1.0
1626062414.8268883,15.625,-29.785,-26.855,244.62900000000002,1.0
1626062414.830795,-79.59,-41.504,-25.391,-284.18,1.0
1626062414.834701,-98.145,-71.289,-7.812,-346.191,1.0
1626062414.8386073,0.0,-63.965,-2.93,173.34,1.0
1626062414.8425136,33.691,-27.344,-30.273000000000003,343.75,1.0
1626062414.8464196,-68.848,-34.18,-39.062,-173.34,1.0
1626062414.850326,-118.164,-39.062,-19.531,-421.38699999999994,1.0
1626062414.8542323,-25.879,-24.414,-24.901999999999997,43.945,1.0
1626062414.8581383,58.593999999999994,-12.207,-36.621,392.09,1.0
1626062414.8620448,-87.402,-22.461,-20.508000000000003,1.0,1.0
1626062414.865951,31.738000000000003,-11.23,-15.625,1.0,1.0
1626062414.8698573,32.715,-26.366999999999997,-21.973000000000003,1.0,1.0
1626062414.8737636,-78.125,-38.086,-33.203,1.0,1.0
1626062414.8776698,-104.00399999999999,-49.805,-39.551,1.0,1.0
1626062414.881576,-11.23,-43.945,-36.133,1.0,1.0
1626062414.8854823,22.949,-33.203,-41.016000000000005,1.0,1.0
1626062414.8893886,-72.266,-52.733999999999995,-41.016000000000005,1.0,1.0
1626062414.8932948,-131.836,-59.57,-32.715,1.0,1.0
1626062414.897201,-40.039,-53.711000000000006,-30.761999999999997,1.0,1.0
1626062414.9011073,39.062,-46.875,-41.504,1.0,1.0
1626062414.9050138,-16.602,-34.18,-45.898,1.0,1.0
1626062414.9089198,-105.95700000000001,-36.133,-51.758,1.0,1.0
1626062414.912826,-66.895,-25.391,-71.777,1.0,1.0
1626062414.9167323,41.504,-20.996,-46.387,1.0,1.0
1626062414.9206386,13.184000000000001,-47.852,-4.883,1.0,1.0
1626062414.9245448,-96.191,-50.781000000000006,-16.602,1.0,1.0
1626062414.928451,-96.68,-37.109,-41.016000000000005,1.0,1.0
1626062414.932357,12.695,-30.761999999999997,-22.949,1.0,1.0
1626062414.9362638,39.062,-34.668,-26.855,1.0,1.0
1626062414.9401696,-61.035,-36.621,-59.57,1.0,1.0
1626062414.9440763,-98.145,-22.461,-46.875,1.0,1.0
1626062414.947982,-0.488,-35.156,-23.926,1.0,1.0
1626062414.9518883,55.176,-46.875,-16.113,1.0,1.0
1626062414.955795,-32.715,-29.296999999999997,-23.926,-110.352,1.0
1626062414.959701,-99.12100000000001,-21.484,-38.086,-417.969,1.0
1626062414.963607,-27.831999999999997,-32.227,-35.645,0.488,1.0
1626062414.9675136,37.598,-42.968999999999994,-41.992,376.465,1.0
1626062414.9714196,-24.414,-36.621,-54.199,20.996,1.0
1626062414.975326,-102.539,-24.901999999999997,-33.203,-429.199,1.0
1626062414.9792323,-48.34,-7.324,-15.137,-156.738,1.0
1626062414.9831386,48.828,-18.555,-24.901999999999997,347.168,1.0
1626062414.9870448,21.484,-55.663999999999994,-36.133,179.199,1.0
1626062414.990951,-73.73,-43.945,-48.34,-343.75,1.0
1626062414.9948573,-61.035,-27.344,-58.105,-280.27299999999997,1.0
1626062414.9987636,32.715,-48.34,-24.414,253.90599999999998,1.0
1626062415.0026696,41.992,-62.988,-45.898,289.062,1.0
1626062415.006576,36.621,-44.434,-41.992,-251.953,1.0
1626062415.0104823,-71.777,-27.344,-15.625,-419.92199999999997,1.0
1626062415.0143886,-105.95700000000001,-36.133,-17.578,89.844,1.0
1626062415.0182948,-13.184000000000001,-25.879,-20.02,379.88300000000004,1.0
1626062415.022201,30.761999999999997,-11.719000000000001,-13.672,-72.75399999999999,1.0
1626062415.0261073,-56.641000000000005,-14.16,-18.066,-442.871,1.0
1626062415.0300136,-124.512,-18.555,-32.227,-57.617,1.0
1626062415.0339198,-43.457,-18.066,-32.227,390.625,1.0
1626062415.037826,38.574,-18.066,-23.438000000000002,104.492,1.0
1626062415.0417323,-31.738000000000003,-30.273000000000003,-26.855,-410.645,1.0
1626062415.0456386,-117.18799999999999,-47.363,-31.738000000000003,-217.285,1.0
1626062415.049545,-63.965,-41.016000000000005,-45.41,-131.34799999999998,1.0
1626062415.053451,35.156,-16.113,-48.828,351.56199999999995,1.0
1626062415.057357,11.23,-1.465,-39.062,127.441,1.0
1626062415.0612638,-108.398,-24.901999999999997,-35.156,-407.227,1.0
1626062415.0651696,-102.539,-33.203,-20.508000000000003,-286.621,1.0
1626062415.0690758,0.977,-29.296999999999997,-23.438000000000002,259.76599999999996,1.0
1626062415.072982,0.488,-36.133,-29.785,227.051,1.0
1626062415.0768883,-94.727,-31.738000000000003,-31.738000000000003,-300.781,1.0
1626062415.080795,-130.371,-31.25,-34.18,-383.789,1.0
1626062415.084701,-43.457,-23.438000000000002,-23.926,113.77,1.0
1626062415.0886073,-4.395,-17.578,-29.296999999999997,294.922,1.0
1626062415.0925136,-110.84,-30.273000000000003,-41.504,-215.82,1.0
1626062415.0964196,-23.926,-46.875,-26.855,168.945,1.0
1626062415.100326,-116.699,-26.855,-12.207,-363.281,1.0
1626062415.1042323,-119.141,-17.09,-12.695,-351.56199999999995,1.0
1626062415.1081383,-14.648,-35.645,-12.695,197.75400000000002,1.0
1626062415.1120448,26.366999999999997,-55.663999999999994,-12.695,308.594,1.0
1626062415.115951,-57.617,-58.105,-23.438000000000002,-198.73,1.0
1626062415.1198573,-99.12100000000001,-47.852,-32.227,-397.461,1.0
1626062415.1237636,-10.254000000000001,-38.574,-27.344,87.402,1.0
1626062415.1276698,53.711000000000006,-38.574,-33.691,398.926,1.0
1626062415.131576,-2.441,-32.715,-25.879,-6.836,1.0
1626062415.1354823,-78.125,-44.434,-37.598,-398.43800000000005,1.0
1626062415.1393886,2.441,-38.086,-32.227,-26.366999999999997,1.0
1626062415.1432948,99.609,-39.551,-27.344,1.0,1.0
1626062415.147201,35.645,-56.641000000000005,-33.691,1.0,1.0
1626062415.1511073,-59.57,-72.75399999999999,-29.296999999999997,1.0,1.0
1626062415.1550138,-12.207,-73.242,-13.672,1.0,1.0
1626062415.1589198,102.539,-50.293,-1.953,1.0,1.0
1626062415.162826,73.73,-61.523,-41.016000000000005,1.0,1.0
1626062415.1667323,-36.621,-54.688,-51.27,1.0,1.0
1626062415.1706386,-41.016000000000005,-50.293,-17.578,1.0,1.0
1626062415.1745448,56.641000000000005,-47.363,-5.371,1.0,1.0
1626062415.178451,98.145,-20.996,-11.23,1.0,1.0
1626062415.182357,0.488,-24.414,-34.18,1.0,1.0
1626062415.1862638,-58.593999999999994,-41.016000000000005,-38.574,1.0,1.0
1626062415.1901696,34.668,-45.898,-25.391,1.0,1.0
1626062415.1940763,118.164,-58.105,-41.992,1.0,1.0
1626062415.197982,62.012,-42.968999999999994,-52.246,1.0,1.0
1626062415.2018883,-42.48,-21.973000000000003,-43.945,1.0,1.0
1626062415.205795,-12.207,-28.809,-27.831999999999997,1.0,1.0
1626062415.209701,93.75,-19.043,-16.113,1.0,1.0
1626062415.213607,73.242,-17.09,-20.02,1.0,1.0
1626062415.2175136,-20.508000000000003,-37.598,-16.602,1.0,1.0
1626062415.2214196,-9.277000000000001,-54.199,-13.184000000000001,1.0,1.0
1626062415.225326,99.609,-41.504,-19.043,1.0,1.0
1626062415.2292323,120.117,-22.461,-21.973000000000003,1.0,1.0
1626062415.2331386,10.254000000000001,-20.508000000000003,-17.578,1.0,1.0
1626062415.2370448,-37.598,-23.438000000000002,-27.344,1.0,1.0
1626062415.240951,58.105,-14.648,-34.668,1.0,1.0
1626062415.2448573,120.117,-14.648,-27.831999999999997,1.0,1.0
1626062415.2487636,34.18,-36.133,-33.691,1.0,1.0
1626062415.2526696,-26.366999999999997,-59.082,-22.461,1.0,1.0
1626062415.256576,33.691,-62.012,-18.555,1.0,1.0
1626062415.2604823,109.863,-20.996,-29.296999999999997,1.0,1.0
1626062415.2643886,63.965,-9.277000000000001,-23.926,1.0,1.0
1626062415.2682948,-46.387,-40.039,-27.831999999999997,1.0,1.0
1626062415.272201,-9.277000000000001,-22.949,-30.273000000000003,1.0,1.0
1626062415.2761073,93.75,-15.137,-44.922,1.0,1.0
1626062415.2800136,64.941,-37.598,-49.316,1.0,1.0
1626062415.2839198,-40.039,-28.32,-27.831999999999997,-304.199,1.0
1626062415.287826,-45.898,-24.901999999999997,-20.02,-274.902,1.0
1626062415.2917323,52.246,-20.02,-19.043,274.902,1.0
1626062415.2956386,78.125,-24.901999999999997,-23.926,354.49199999999996,1.0
1626062415.299545,-27.831999999999997,-46.875,-34.18,-190.43,1.0
1626062415.303451,-74.219,-47.852,-24.414,-373.04699999999997,1.0
1626062415.307357,15.625,-49.316,-26.366999999999997,128.418,1.0
1626062415.3112638,62.988,-52.246,-40.039,396.48400000000004,1.0
1626062415.3151696,-22.949,-52.733999999999995,-40.039,-51.27,1.0
1626062415.3190758,-82.031,-35.156,-21.484,-403.809,1.0
1626062415.322982,-6.348,-34.668,-25.391,-25.879,1.0
1626062415.3268883,76.66,-41.016000000000005,-36.621,418.457,1.0
1626062415.330795,68.848,-39.062,-27.344,406.25,1.0
1626062415.334701,-10.254000000000001,-40.039,-41.504,-1.465,1.0
1626062415.3386073,-96.191,-23.438000000000002,-49.805,-420.898,1.0
1626062415.3425136,-48.34,-44.434,-37.109,-117.18799999999999,1.0
1626062415.3464196,43.457,-35.156,-18.066,354.004,1.0
1626062415.350326,13.184000000000001,-5.859,-24.901999999999997,141.113,1.0
1626062415.3542323,-82.52,-6.836,-47.363,-372.07,1.0
1626062415.3581383,-67.87100000000001,-16.113,-49.805,-254.395,1.0
1626062415.3620448,37.598,-11.719000000000001,-22.461,290.527,1.0
1626062415.365951,52.246,-11.719000000000001,-2.441,287.10900000000004,1.0
1626062415.3698573,-42.968999999999994,-41.504,-7.324,-250.977,1.0
1626062415.3737636,-76.172,-57.129,-12.695,-356.934,1.0
1626062415.3776698,4.883,-57.129,-27.831999999999997,1.0,1.0
1626062415.381576,60.547,-55.176,-38.574,1.0,1.0
1626062415.3854823,-8.789,-29.785,-41.504,1.0,1.0
1626062415.3893886,-89.844,-26.366999999999997,-41.504,1.0,1.0
1626062415.3932948,-24.901999999999997,-34.668,-17.09,1.0,1.0
1626062415.397201,52.246,-29.296999999999997,-20.996,1.0,1.0
1626062415.4011073,-2.441,-33.203,-23.926,1.0,1.0
1626062415.4050138,-92.773,-27.831999999999997,-11.719000000000001,1.0,1.0
1626062415.4089198,-56.152,-22.949,-12.695,1.0,1.0
1626062415.412826,43.945,-23.438000000000002,-18.555,1.0,1.0
1626062415.4167323,21.484,-24.414,-41.504,1.0,1.0
1626062415.4206386,-80.566,-23.926,-43.457,1.0,1.0
1626062415.4245448,-78.613,-32.227,-29.785,-299.805,1.0
1626062415.428451,17.09,-50.293,-31.738000000000003,246.09400000000002,1.0
1626062415.432357,37.109,-48.828,-42.968999999999994,303.711,1.0
1626062415.4362638,-58.593999999999994,-38.574,-45.898,-227.53900000000002,1.0
1626062415.4401696,-100.098,-37.109,-26.855,-392.57800000000003,1.0
1626062415.4440763,-0.488,-20.996,-7.812,124.512,1.0
1626062415.447982,58.593999999999994,-3.418,-20.02,393.555,1.0
1626062415.4518883,-24.901999999999997,-2.441,-45.898,-69.336,1.0
1626062415.455795,-105.469,-10.254000000000001,-47.363,-438.965,1.0
1626062415.459701,-37.598,-29.785,-22.461,-46.387,1.0
1626062415.463607,54.688,-55.663999999999994,-12.695,396.973,1.0
1626062415.4675136,15.625,-43.945,-9.277000000000001,105.469,1.0
1626062415.4714196,-90.33200000000001,-56.641000000000005,-35.156,-393.555,1.0
1626062415.475326,-77.148,-72.266,-72.266,-209.47299999999998,1.0
1626062415.4792323,40.039,-22.461,-41.992,333.00800000000004,1.0
1626062415.4831386,36.621,-11.719000000000001,-7.812,238.28099999999998,1.0
1626062415.4870448,-71.777,-23.438000000000002,-17.578,-315.43,1.0
1626062415.490951,-91.79700000000001,-10.742,-23.438000000000002,-326.172,1.0
1626062415.4948573,9.277000000000001,-5.371,-23.926,222.168,1.0
1626062415.4987636,39.062,-19.531,-24.901999999999997,315.918,1.0
1626062415.5026696,-60.547,-42.48,-24.414,-208.984,1.0
1626062415.506576,-101.56200000000001,-37.109,-19.043,-402.832,1.0
1626062415.5104823,-14.648,-32.715,-27.344,62.012,1.0
1626062415.5143886,48.34,-28.32,-23.438000000000002,375.48800000000006,1.0
1626062415.5182948,8.301,-35.645,-21.973000000000003,348.145,1.0
1626062415.522201,27.344,-2.441,-38.574,-146.484,1.0
1626062415.5261073,-69.824,-8.301,-54.199,-418.945,1.0
1626062415.5300136,-104.492,-37.109,-56.641000000000005,18.555,1.0
1626062415.5339198,-10.742,-27.344,-42.48,374.023,1.0
1626062415.537826,57.617,-24.414,-13.184000000000001,-4.883,1.0
1626062415.5417323,-11.719000000000001,-18.066,-16.602,-453.125,1.0
1626062415.5456386,-86.426,1.953,-25.879,-161.621,1.0
1626062415.549545,-30.761999999999997,-20.508000000000003,0.977,336.426,1.0
1626062415.553451,42.48,-54.199,-14.16,174.805,1.0
1626062415.557357,-13.184000000000001,-62.012,-64.453,-354.004,1.0
1626062415.5612638,-111.816,-50.293,-41.504,-295.41,1.0
1626062415.5651696,-68.359,-48.34,-2.441,1.0,1.0
1626062415.5690758,32.715,-35.156,-7.812,1.0,1.0
1626062415.572982,19.043,-4.395,-22.949,1.0,1.0
1626062415.5768883,-81.543,2.93,-29.296999999999997,1.0,1.0
1626062415.580795,-93.262,-3.418,-25.879,1.0,1.0
1626062415.584701,-6.836,-18.066,-32.715,1.0,1.0
1626062415.5886073,24.414,-39.062,-41.016000000000005,1.0,1.0
1626062415.5925136,-51.758,-50.781000000000006,-53.223,1.0,1.0
1626062415.5964196,-95.70299999999999,-39.551,-46.875,1.0,1.0
1626062415.600326,1.465,-31.25,-37.109,1.0,1.0
1626062415.6042323,44.434,-46.387,-61.523,1.0,1.0
1626062415.6081383,-29.785,-23.926,-39.062,1.0,1.0
1626062415.6120448,-84.961,12.695,-0.977,-434.082,1.0
1626062415.615951,-27.831999999999997,-1.953,4.883,-76.172,1.0
1626062415.6198573,53.223,-20.508000000000003,-8.301,372.559,1.0
1626062415.6237636,2.93,-18.555,-36.133,96.191,1.0
1626062415.6276698,-97.16799999999999,-28.809,-39.551,-408.20300000000003,1.0
1626062415.631576,-63.965,-33.691,-23.926,-221.19099999999997,1.0
1626062415.6354823,50.293,-26.855,-12.695,319.824,1.0
1626062415.6393886,41.016000000000005,-38.574,-35.156,239.25799999999998,1.0
1626062415.6432948,-79.59,-49.316,-57.617,-320.312,1.0
1626062415.647201,-100.586,-54.688,-46.875,-367.18800000000005,1.0
1626062415.6511073,9.277000000000001,-27.831999999999997,-28.32,184.082,1.0
1626062415.6550138,48.828,-23.438000000000002,-31.25,342.285,1.0
1626062415.6589198,15.625,-23.926,-19.043,275.879,1.0
1626062415.662826,-79.102,-16.602,-32.227,-267.578,1.0
1626062415.6667323,-109.863,-24.414,-41.992,-375.0,1.0
1626062415.6706386,-10.254000000000001,-46.875,-45.41,148.438,1.0
1626062415.6745448,54.199,-49.316,-37.109,362.793,1.0
1626062415.678451,-16.602,-48.828,-14.648,-104.98,1.0
1626062415.682357,-95.215,-39.062,-21.973000000000003,-426.75800000000004,1.0
1626062415.6862638,-47.363,-14.16,-37.598,-31.25,1.0
1626062415.6901696,33.691,-19.531,-37.598,363.77,1.0
1626062415.6940763,0.488,-39.551,-38.086,40.039,1.0
1626062415.697982,-87.891,-41.504,-33.691,-420.41,1.0
1626062415.7018883,-35.645,-19.043,-15.137,-151.36700000000002,1.0
1626062415.705795,61.035,-6.348,-17.09,1.0,1.0
1626062415.709701,10.254000000000001,-28.32,-30.273000000000003,1.0,1.0
1626062415.713607,-100.098,-36.133,-41.504,1.0,1.0
1626062415.7175136,-81.055,-35.645,-44.434,1.0,1.0
1626062415.7214196,31.738000000000003,-48.34,-28.32,1.0,1.0
1626062415.725326,34.668,-43.945,-32.227,1.0,1.0
1626062415.7292323,-60.547,-39.551,-30.761999999999997,1.0,1.0
1626062415.7331386,-95.215,-54.199,-24.901999999999997,1.0,1.0
1626062415.7370448,-11.719000000000001,-38.086,-32.715,1.0,1.0
1626062415.740951,47.852,-12.695,-15.625,1.0,1.0
1626062415.7448573,-27.344,-27.831999999999997,-10.254000000000001,1.0,1.0
1626062415.7487636,-104.492,-56.641000000000005,-20.996,1.0,1.0
1626062415.7526696,-35.156,-61.035,-12.207,1.0,1.0
1626062415.756576,48.34,-47.363,-7.812,1.0,1.0
1626062415.7604823,-17.09,-35.156,-13.184000000000001,1.0,1.0
1626062415.7643886,-109.863,-38.574,-23.926,1.0,1.0
1626062415.7682948,-58.593999999999994,-34.668,-21.973000000000003,1.0,1.0
1626062415.772201,26.855,-50.781000000000006,-23.926,1.0,1.0
1626062415.7761073,11.719000000000001,-56.152,-32.715,1.0,1.0
1626062415.7800136,-76.172,-38.086,-22.949,1.0,1.0
1626062415.7839198,-103.516,-47.363,-20.02,1.0,1.0
1626062415.787826,2.93,-37.109,-15.625,1.0,1.0
1626062415.7917323,54.688,-33.203,-9.766,1.0,1.0
1626062415.7956386,-44.434,-37.598,-33.691,1.0,1.0
1626062415.799545,-117.18799999999999,-31.25,-50.293,1.0,1.0
1626062415.803451,-33.691,-36.621,-35.156,1.0,1.0
1626062415.807357,48.34,-32.227,-20.508000000000003,1.0,1.0
1626062415.8112638,-24.414,-40.039,-29.785,1.0,1.0
1626062415.8151696,-107.42200000000001,-45.898,-35.156,1.0,1.0
1626062415.8190758,-58.593999999999994,-56.641000000000005,-55.176,1.0,1.0
1626062415.822982,41.016000000000005,-50.293,-48.828,1.0,1.0
1626062415.8268883,22.949,-25.879,-9.277000000000001,1.0,1.0
1626062415.830795,-71.289,-22.461,-8.789,1.0,1.0
1626062415.834701,-54.688,-2.93,-22.949,1.0,1.0
1626062415.8386073,31.738000000000003,10.742,-9.277000000000001,1.0,1.0
1626062415.8425136,22.949,-8.789,-16.602,1.0,1.0
1626062415.8464196,-79.102,-22.949,-34.668,-297.363,1.0
1626062415.850326,-103.516,-24.414,-24.901999999999997,-378.906,1.0
1626062415.8542323,1.953,-36.133,-14.648,153.809,1.0
1626062415.8581383,45.41,-30.273000000000003,-26.855,349.60900000000004,1.0
1626062415.8620448,-45.898,-46.875,-47.852,-136.719,1.0
1626062415.865951,-104.98,-83.008,-43.945,-416.99199999999996,1.0
1626062415.8698573,-15.137,-46.387,-20.996,33.691,1.0
1626062415.8737636,58.105,4.395,-22.949,389.16,1.0
1626062415.8776698,-31.25,-7.324,-30.761999999999997,-7.812,1.0
1626062415.881576,-116.211,-15.625,-19.043,-445.31199999999995,1.0
1626062415.8854823,-62.5,-18.555,-25.879,-154.785,1.0
1626062415.8893886,36.621,-23.926,-24.414,353.027,1.0
1626062415.8932948,36.621,-26.855,-28.809,179.688,1.0
1626062415.897201,-22.461,-39.551,-51.758,-363.77,1.0
1626062415.9011073,-118.164,-41.016000000000005,-55.663999999999994,-285.645,1.0
1626062415.9050138,-68.848,-38.574,-48.34,258.301,1.0
1626062415.9089198,40.039,-47.363,-30.761999999999997,288.086,1.0
1626062415.912826,22.461,-77.148,-36.133,-256.836,1.0
1626062415.9167323,-80.566,-59.57,-36.133,-398.926,1.0
1626062415.9206386,-97.656,-16.113,-22.461,119.62899999999999,1.0
1626062415.9245448,-4.395,-16.113,-32.227,358.398,1.0
1626062415.928451,27.344,-28.32,-38.086,-96.68,1.0
1626062415.932357,-68.848,-47.852,-30.273000000000003,-433.594,1.0
1626062415.9362638,-114.74600000000001,-53.711000000000006,-27.344,-39.062,1.0
1626062415.9401696,-25.391,-54.688,-38.574,1.0,1.0
1626062415.9440763,45.41,-31.25,-42.968999999999994,1.0,1.0
1626062415.947982,-17.09,-12.695,-28.32,1.0,1.0
1626062415.9518883,-106.934,-41.016000000000005,-35.645,1.0,1.0
1626062415.955795,-56.641000000000005,-58.593999999999994,-42.48,1.0,1.0
1626062415.959701,37.109,-61.523,-38.574,1.0,1.0
1626062415.963607,-1.465,-53.711000000000006,-45.41,1.0,1.0
1626062415.9675136,-90.82,-24.414,-37.109,1.0,1.0
1626062415.9714196,-69.824,-10.742,-27.831999999999997,1.0,1.0
1626062415.975326,27.831999999999997,-25.879,-32.227,1.0,1.0
1626062415.9792323,19.531,-52.246,-28.809,1.0,1.0
1626062415.9831386,-93.262,-44.922,-20.508000000000003,1.0,1.0
1626062415.9870448,-110.84,-25.879,-28.809,-370.11699999999996,1.0
1626062415.990951,-9.277000000000001,-30.273000000000003,-33.691,167.96900000000002,1.0
1626062415.9948573,37.598,-33.691,-25.391,324.707,1.0
1626062415.9987636,-64.941,-42.968999999999994,-39.062,-197.266,1.0
1626062416.0026696,-124.023,-43.945,-35.156,-455.566,1.0
1626062416.006576,-36.133,-41.504,-20.996,18.066,1.0
1626062416.0104823,36.133,-53.711000000000006,-24.901999999999997,368.164,1.0
1626062416.0143886,-22.461,-39.062,-35.156,-11.23,1.0
1626062416.0182948,-114.258,-35.645,-30.273000000000003,-437.01199999999994,1.0
1626062416.022201,-69.336,-43.457,-37.598,-139.648,1.0
1626062416.0261073,39.062,-20.02,-39.062,359.375,1.0
1626062416.0300136,13.672,-4.395,-16.113,160.645,1.0
1626062416.0339198,-1.953,-3.418,-27.344,46.875,1.0
1626062416.037826,-111.816,-19.531,-34.18,-431.152,1.0
1626062416.0417323,-60.059,-41.016000000000005,-23.926,-174.31599999999997,1.0
1626062416.0456386,42.48,-42.968999999999994,-17.578,337.89099999999996,1.0
1626062416.049545,24.414,-29.296999999999997,-15.137,189.453,1.0
1626062416.053451,-75.684,-31.25,-24.414,-342.773,1.0
1626062416.057357,-87.891,-39.551,-31.738000000000003,-314.453,1.0
1626062416.0612638,11.719000000000001,-40.527,-34.668,219.238,1.0
1626062416.0651696,36.621,-37.598,-41.992,299.805,1.0
1626062416.0690758,-60.547,-25.391,-47.852,-229.98,1.0
1626062416.072982,-110.84,-20.02,-56.641000000000005,-417.48,1.0
1626062416.0768883,-19.043,-10.254000000000001,-35.645,88.867,1.0
1626062416.080795,13.184000000000001,-12.207,-8.789,369.14099999999996,1.0
1626062416.084701,46.387,-2.93,-12.207,-72.75399999999999,1.0
1626062416.0886073,-46.875,-14.16,-20.508000000000003,-429.68800000000005,1.0
1626062416.0925136,-105.469,-35.645,-19.043,-49.805,1.0
1626062416.0964196,-25.879,-46.875,-10.254000000000001,391.11300000000006,1.0
1626062416.100326,47.363,-50.781000000000006,-14.16,94.238,1.0
1626062416.1042323,-8.301,-55.176,-33.691,-409.668,1.0
1626062416.1081383,-96.191,-56.152,-41.504,-214.355,1.0
1626062416.1120448,-47.852,-42.968999999999994,-33.203,312.5,1.0
1626062416.115951,53.223,-10.254000000000001,-23.926,229.00400000000002,1.0
1626062416.1198573,20.02,-5.371,-25.879,-327.637,1.0
1626062416.1237636,-79.59,-10.254000000000001,-28.32,-353.027,1.0
1626062416.1276698,-80.078,-14.648,-36.133,1.0,1.0
1626062416.131576,11.719000000000001,-24.414,-45.41,1.0,1.0
1626062416.1354823,37.598,-24.901999999999997,-27.831999999999997,1.0,1.0
1626062416.1393886,-62.5,-32.227,-29.296999999999997,1.0,1.0
1626062416.1432948,-97.656,-32.227,-32.227,1.0,1.0
1626062416.147201,-19.531,-44.922,-37.598,1.0,1.0
1626062416.1511073,25.391,-46.387,-33.691,1.0,1.0
1626062416.1550138,-39.551,-25.391,-21.973000000000003,1.0,1.0
1626062416.1589198,-100.098,-40.039,-35.156,1.0,1.0
1626062416.162826,-26.366999999999997,-52.246,-42.968999999999994,1.0,1.0
1626062416.1667323,56.152,-49.316,-51.27,1.0,1.0
1626062416.1706386,2.441,-62.988,-38.574,1.0,1.0
1626062416.1745448,-97.656,-37.109,-30.273000000000003,-426.75800000000004,1.0
1626062416.178451,-61.035,4.395,-26.855,-164.062,1.0
1626062416.182357,45.898,13.672,-12.695,348.63300000000004,1.0
1626062416.1862638,20.02,-7.324,-19.043,167.48,1.0
1626062416.1901696,-81.055,-19.043,-15.625,-368.164,1.0
1626062416.1940763,-71.777,-24.414,-17.09,-288.574,1.0
1626062416.197982,24.414,-33.203,-32.715,249.512,1.0
1626062416.2018883,28.809,-25.391,-33.203,287.10900000000004,1.0
1626062416.205795,-67.383,-32.715,-31.738000000000003,-248.047,1.0
1626062416.209701,-91.79700000000001,-42.968999999999994,-20.996,-393.555,1.0
1626062416.213607,2.441,-43.945,-18.066,112.79299999999999,1.0
1626062416.2175136,60.547,-24.414,-11.23,367.18800000000005,1.0
1626062416.2214196,40.527,-6.836,-26.855,315.43,1.0
1626062416.225326,-53.711000000000006,-39.551,-22.949,-203.125,1.0
1626062416.2292323,-112.79299999999999,-57.129,-14.648,-425.781,1.0
1626062416.2331386,-32.715,-49.316,-19.531,49.805,1.0
1626062416.2370448,34.18,-21.973000000000003,-17.578,339.355,1.0
1626062416.240951,-34.668,-8.301,-26.366999999999997,-78.125,1.0
1626062416.2448573,-109.863,-12.207,-34.668,-439.45300000000003,1.0
1626062416.2487636,-43.945,-31.25,-31.738000000000003,-90.33200000000001,1.0
1626062416.2526696,45.41,-57.129,-25.879,366.211,1.0
1626062416.256576,-0.488,-40.039,-26.366999999999997,107.42200000000001,1.0
1626062416.2604823,-109.375,-11.719000000000001,-39.062,-406.25,1.0
1626062416.2643886,-87.402,-21.973000000000003,-45.41,-249.023,1.0
1626062416.2682948,5.371,-48.828,-56.641000000000005,279.297,1.0
1626062416.272201,1.465,-48.34,-43.945,229.98,1.0
1626062416.2761073,-87.891,-41.504,-22.949,-301.758,1.0
1626062416.2800136,-102.539,-28.809,-14.16,-360.84,1.0
1626062416.2839198,4.395,-7.812,-7.812,182.12900000000002,1.0
1626062416.287826,38.574,-18.066,-25.879,346.68,1.0
1626062416.2917323,-43.945,-47.363,-33.691,-145.996,1.0
1626062416.2956386,-80.566,-63.477,-11.23,-395.02,1.0
1626062416.299545,3.418,-40.039,-22.949,51.27,1.0
1626062416.303451,68.848,-2.93,-45.898,395.996,1.0
1626062416.307357,-18.066,-14.16,-47.852,-4.883,1.0
1626062416.3112638,-115.723,-39.062,-35.156,-452.63699999999994,1.0
1626062416.3151696,-59.082,-27.344,-16.113,1.0,1.0
1626062416.3190758,41.992,-8.789,-10.254000000000001,1.0,1.0
1626062416.322982,17.09,-11.719000000000001,-18.066,1.0,1.0
1626062416.3268883,-104.98,-33.203,-52.733999999999995,1.0,1.0
1626062416.330795,-103.027,-25.391,-60.547,1.0,1.0
1626062416.334701,21.484,-17.09,-33.691,1.0,1.0
1626062416.3386073,49.805,-46.387,-5.859,1.0,1.0
1626062416.3425136,-60.547,-63.477,-20.996,1.0,1.0
1626062416.3464196,-111.816,-65.43,-46.875,1.0,1.0
1626062416.350326,-10.254000000000001,-46.387,-40.527,1.0,1.0
1626062416.3542323,53.711000000000006,-16.602,-54.199,1.0,1.0
1626062416.3581383,-19.531,-11.23,-44.434,1.0,1.0
1626062416.3620448,-107.91,-37.598,-25.391,1.0,1.0
1626062416.365951,-51.27,-48.34,-40.527,1.0,1.0
1626062416.3698573,56.641000000000005,-28.809,-24.901999999999997,1.0,1.0
1626062416.3737636,-2.441,-40.039,-15.137,1.0,1.0
1626062416.3776698,-107.91,-47.363,-11.719000000000001,1.0,1.0
1626062416.381576,-72.266,-33.203,-9.766,1.0,1.0
1626062416.3854823,22.949,-25.879,-29.296999999999997,1.0,1.0
1626062416.3893886,16.113,-40.527,-36.133,1.0,1.0
1626062416.3932948,-86.426,-68.359,-28.809,1.0,1.0
1626062416.397201,-95.215,-59.57,-33.203,1.0,1.0
1626062416.4011073,10.254000000000001,-39.551,-47.852,1.0,1.0
1626062416.4050138,38.086,-16.602,-45.898,1.0,1.0
1626062416.4089198,-54.199,-5.859,-42.968999999999994,-221.68,1.0
1626062416.412826,-104.492,-20.02,-47.363,-409.18,1.0
1626062416.4167323,-16.602,-30.273000000000003,-40.527,80.078,1.0
1626062416.4206386,45.898,-38.086,-20.508000000000003,358.398,1.0
1626062416.4245448,-22.461,-33.691,-23.926,-62.988,1.0
1626062416.428451,-96.68,-36.133,-54.688,-429.199,1.0
1626062416.432357,-39.551,-38.574,-27.344,-69.336,1.0
1626062416.4362638,48.828,-38.086,2.93,372.559,1.0
1626062416.4401696,-8.301,-61.523,-13.672,91.79700000000001,1.0
1626062416.4440763,-110.352,-54.199,-24.414,-403.32,1.0
1626062416.447982,-80.078,-27.344,-41.992,-217.285,1.0
1626062416.4518883,28.809,-36.133,-37.598,318.848,1.0
1626062416.455795,59.082,-40.527,0.488,240.234,1.0
1626062416.459701,30.761999999999997,-42.968999999999994,-31.25,-312.012,1.0
1626062416.463607,-88.37899999999999,-40.527,-47.852,-335.93800000000005,1.0
1626062416.4675136,-73.242,-32.227,-15.625,214.355,1.0
1626062416.4714196,36.621,-13.672,-10.254000000000001,360.352,1.0
1626062416.475326,40.039,-16.602,-22.949,-161.621,1.0
1626062416.4792323,-54.688,-18.066,-21.973000000000003,-415.527,1.0
1626062416.4831386,-79.102,-16.602,-15.625,41.992,1.0
1626062416.4870448,7.812,-31.25,-37.109,364.25800000000004,1.0
1626062416.490951,61.523,-30.761999999999997,-49.316,-19.531,1.0
1626062416.4948573,-22.461,-28.32,-28.32,-445.31199999999995,1.0
1626062416.4987636,-94.727,-36.133,-6.836,-135.254,1.0
1626062416.5026696,-38.086,-61.035,-13.184000000000001,1.0,1.0
1626062416.506576,39.062,-76.66,-32.715,1.0,1.0
1626062416.5104823,-11.719000000000001,-60.547,-39.062,1.0,1.0
1626062416.5143886,-122.07,-45.41,-48.34,1.0,1.0
1626062416.5182948,-78.613,-24.901999999999997,-45.898,1.0,1.0
1626062416.522201,27.831999999999997,-24.414,-30.761999999999997,1.0,1.0
1626062416.5261073,9.766,-42.968999999999994,-24.901999999999997,1.0,1.0
1626062416.5300136,-83.49600000000001,-45.41,-20.996,1.0,1.0
1626062416.5339198,-90.82,-28.32,-27.831999999999997,1.0,1.0
1626062416.537826,7.324,-11.719000000000001,-26.855,1.0,1.0
1626062416.5417323,19.531,-33.203,-33.691,1.0,1.0
1626062416.5456386,-75.684,-64.941,-75.684,1.0,1.0
1626062416.549545,-100.098,-67.383,-72.266,-394.043,1.0
1626062416.553451,-2.441,-33.691,-18.066,124.512,1.0
1626062416.557357,50.293,-1.953,2.441,383.789,1.0
1626062416.5612638,-51.27,-10.254000000000001,-11.23,-95.70299999999999,1.0
1626062416.5651696,-128.418,-21.484,-18.555,-459.473,1.0
1626062416.5690758,-51.27,-12.695,-24.901999999999997,-59.082,1.0
1626062416.572982,49.805,-11.719000000000001,-27.344,388.67199999999997,1.0
1626062416.5768883,0.488,-31.738000000000003,-37.598,79.59,1.0
1626062416.580795,-113.281,-51.27,-48.828,-427.246,1.0
1626062416.584701,-79.102,-33.203,-31.738000000000003,-214.84400000000002,1.0
1626062416.5886073,24.901999999999997,-24.901999999999997,-26.366999999999997,314.453,1.0
1626062416.5925136,19.043,-20.02,-15.137,218.75,1.0
1626062416.5964196,26.855,-58.105,-54.199,114.74600000000001,1.0
1626062416.600326,-28.32,-71.289,-39.062,-398.926,1.0
1626062416.6042323,-98.145,-63.477,-28.809,-257.324,1.0
1626062416.6081383,-54.688,-33.691,-29.296999999999997,293.945,1.0
1626062416.6120448,47.363,-0.488,-20.508000000000003,277.832,1.0
1626062416.615951,14.16,-22.949,-28.809,-264.64799999999997,1.0
1626062416.6198573,-101.074,-33.691,-49.316,-363.77,1.0
1626062416.6237636,-79.102,-29.785,-28.32,159.668,1.0
1626062416.6276698,36.621,-42.48,2.441,332.031,1.0
1626062416.631576,52.733999999999995,-35.156,5.371,-146.97299999999998,1.0
1626062416.6354823,-55.663999999999994,-41.992,-11.23,-411.13300000000004,1.0
1626062416.6393886,-98.145,-37.598,-10.742,13.672,1.0
1626062416.6432948,-12.695,-23.438000000000002,-16.602,1.0,1.0
1626062416.647201,42.48,-26.366999999999997,-33.203,1.0,1.0
1626062416.6511073,-29.296999999999997,-43.457,-52.733999999999995,1.0,1.0
1626062416.6550138,-114.258,-52.246,-68.848,1.0,1.0
1626062416.6589198,-38.574,-24.901999999999997,-47.852,1.0,1.0
1626062416.662826,63.965,-19.043,-27.344,1.0,1.0
1626062416.6667323,10.742,-44.434,-19.531,1.0,1.0
1626062416.6706386,-83.49600000000001,-57.617,-17.578,1.0,1.0
1626062416.6745448,-69.824,-67.383,-21.973000000000003,1.0,1.0
1626062416.678451,24.901999999999997,-42.968999999999994,-15.625,1.0,1.0
1626062416.682357,20.996,-9.277000000000001,-18.555,1.0,1.0
1626062416.6862638,-80.078,-8.301,-25.879,1.0,1.0
1626062416.6901696,-92.285,-26.366999999999997,-29.785,1.0,1.0
1626062416.6940763,6.836,-48.34,-42.968999999999994,1.0,1.0
1626062416.697982,44.434,-38.086,-50.293,1.0,1.0
1626062416.7018883,-53.711000000000006,-28.809,-53.711000000000006,1.0,1.0
1626062416.705795,-102.539,-25.879,-37.109,1.0,1.0
1626062416.709701,-10.254000000000001,-25.391,-34.18,1.0,1.0
1626062416.713607,64.453,-25.879,-35.645,1.0,1.0
1626062416.7175136,-12.695,-31.25,-19.043,1.0,1.0
1626062416.7214196,-118.652,-30.761999999999997,-26.366999999999997,1.0,1.0
1626062416.725326,-62.012,-21.484,-27.344,1.0,1.0
1626062416.7292323,20.508000000000003,-33.691,-39.551,1.0,1.0
1626062416.7331386,-24.414,-47.852,-57.129,1.0,1.0
1626062416.7370448,-114.258,-53.711000000000006,-49.805,-412.10900000000004,1.0
1626062416.740951,-83.49600000000001,-41.504,-38.086,-238.28099999999998,1.0
1626062416.7448573,22.949,-47.852,-32.715,299.805,1.0
1626062416.7487636,9.766,-55.663999999999994,-47.852,227.051,1.0
1626062416.7526696,-85.93799999999999,-49.316,-41.504,-311.52299999999997,1.0
1626062416.756576,-89.844,-45.898,-24.901999999999997,-348.63300000000004,1.0
1626062416.7604823,14.648,-37.109,-21.484,191.895,1.0
1626062416.7643886,45.41,-35.156,-30.273000000000003,342.773,1.0
1626062416.7682948,-57.617,-36.133,-47.852,-180.66400000000002,1.0
1626062416.772201,-107.42200000000001,-18.555,-50.293,-427.246,1.0
1626062416.7761073,-30.273000000000003,-26.855,-45.898,32.715,1.0
1626062416.7800136,50.293,-26.366999999999997,-28.809,391.602,1.0
1626062416.7839198,70.801,-35.156,-32.227,376.95300000000003,1.0
1626062416.787826,-23.438000000000002,-43.457,-36.133,-112.305,1.0
1626062416.7917323,-101.56200000000001,-41.504,-18.555,-437.5,1.0
1626062416.7956386,-45.898,-42.48,-20.02,-36.133,1.0
1626062416.799545,33.691,-27.831999999999997,-19.043,365.23400000000004,1.0
1626062416.803451,-12.695,-16.113,-11.719000000000001,49.316,1.0
1626062416.807357,-99.12100000000001,-29.785,-12.207,-411.13300000000004,1.0
1626062416.8112638,-79.59,-59.082,-23.438000000000002,-191.40599999999998,1.0
1626062416.8151696,0.488,-56.152,-43.945,308.105,1.0
1626062416.8190758,0.488,-36.621,-45.898,180.176,1.0
1626062416.822982,-96.191,-29.785,-44.922,-354.49199999999996,1.0
1626062416.8268883,-97.16799999999999,-8.301,-34.668,-313.965,1.0
1626062416.830795,-8.301,-20.508000000000003,-32.715,1.0,1.0
1626062416.834701,-1.953,-55.663999999999994,-34.668,1.0,1.0
1626062416.8386073,-80.566,-49.316,-28.809,1.0,1.0
1626062416.8425136,-121.58200000000001,-55.663999999999994,-42.48,1.0,1.0
1626062416.8464196,-25.391,-54.688,-29.785,1.0,1.0
1626062416.850326,37.598,-39.062,-24.414,1.0,1.0
1626062416.8542323,-46.875,-43.457,-38.086,1.0,1.0
1626062416.8581383,-107.42200000000001,-34.18,-25.391,1.0,1.0
1626062416.8620448,-44.922,-27.831999999999997,-19.043,1.0,1.0
1626062416.865951,37.598,-18.066,-31.25,1.0,1.0
1626062416.8698573,-12.207,-14.16,-67.87100000000001,1.0,1.0
1626062416.8737636,-112.79299999999999,-21.484,-48.828,1.0,1.0
1626062416.8776698,-77.148,-41.016000000000005,-0.977,1.0,1.0
1626062416.881576,23.926,-55.663999999999994,-5.371,1.0,1.0
1626062416.8854823,19.043,-42.968999999999994,-28.32,1.0,1.0
1626062416.8893886,-86.914,-36.621,-43.945,1.0,1.0
1626062416.8932948,-100.098,-35.156,-33.691,1.0,1.0
1626062416.897201,12.695,-20.02,-13.672,1.0,1.0
1626062416.9011073,48.34,-23.438000000000002,-8.301,1.0,1.0
1626062416.9050138,-51.758,-47.852,-23.438000000000002,1.0,1.0
1626062416.9089198,-113.281,-47.363,-43.945,1.0,1.0
1626062416.912826,-19.043,-13.672,-37.109,1.0,1.0
1626062416.9167323,54.199,1.465,-22.461,1.0,1.0
1626062416.9206386,-9.766,3.906,-10.742,1.0,1.0
1626062416.9245448,-108.887,-28.32,-22.461,-440.43,1.0
1626062416.928451,-73.242,-52.246,-31.25,-132.812,1.0
1626062416.932357,46.875,-24.901999999999997,-18.555,374.023,1.0
1626062416.9362638,13.184000000000001,-35.156,-48.828,143.066,1.0
1626062416.9401696,-99.609,-53.223,-43.945,-389.648,1.0
1626062416.9440763,-94.238,-42.48,-25.879,-262.695,1.0
1626062416.947982,9.277000000000001,-42.48,-35.156,278.809,1.0
1626062416.9518883,31.738000000000003,-39.551,-16.602,262.207,1.0
1626062416.955795,-71.777,-25.391,-10.742,-284.668,1.0
1626062416.959701,-104.98,-18.066,-24.901999999999997,-375.48800000000006,1.0
1626062416.963607,-3.906,-21.484,-38.574,154.297,1.0
1626062416.9675136,41.016000000000005,-25.879,-35.645,348.63300000000004,1.0
1626062416.9714196,-47.363,-23.438000000000002,-39.062,-148.92600000000002,1.0
1626062416.975326,-106.445,-26.855,-82.031,-444.824,1.0
1626062416.9792323,-26.855,-33.203,-68.359,-2.93,1.0
1626062416.9831386,26.366999999999997,-57.617,-20.508000000000003,359.375,1.0
1626062416.9870448,-35.645,-55.663999999999994,-10.742,-4.395,1.0
1626062416.990951,-105.95700000000001,-18.066,-16.602,-435.54699999999997,1.0
1626062416.9948573,-53.711000000000006,-26.366999999999997,-36.621,-156.25,1.0
1626062416.9987636,54.688,-43.457,-49.316,355.957,1.0
1626062417.0026696,21.973000000000003,-32.227,-35.156,183.105,1.0
1626062417.006576,-97.16799999999999,-26.366999999999997,-13.672,-370.11699999999996,1.0
1626062417.0104823,-90.33200000000001,-29.296999999999997,-2.441,-307.617,1.0
1626062417.0143886,18.555,-23.438000000000002,-12.695,250.0,1.0
1626062417.0182948,13.184000000000001,-17.578,-36.133,279.297,1.0
1626062417.022201,-3.418,-20.996,-39.551,-268.555,1.0
1626062417.0261073,-89.844,-37.109,-34.668,-406.25,1.0
1626062417.0300136,-100.098,-48.34,-47.363,96.68,1.0
1626062417.0339198,0.0,-30.761999999999997,-40.527,347.168,1.0
1626062417.037826,34.18,-26.855,-41.992,-105.469,1.0
1626062417.0417323,-69.336,-51.758,-51.27,-448.24199999999996,1.0
1626062417.0456386,-115.723,-55.663999999999994,-44.922,-41.016000000000005,1.0
1626062417.049545,-23.438000000000002,-41.992,-27.831999999999997,386.23,1.0
1626062417.053451,45.41,-32.227,-21.484,74.707,1.0
1626062417.057357,-24.414,-41.992,-29.785,-425.293,1.0
1626062417.0612638,-99.12100000000001,-33.691,-32.715,-217.285,1.0
1626062417.0651696,-56.152,-10.254000000000001,-43.457,1.0,1.0
1626062417.0690758,32.227,-24.414,-40.039,1.0,1.0
1626062417.072982,19.043,-41.992,-20.996,1.0,1.0
1626062417.0768883,-97.656,-42.48,-37.109,1.0,1.0
1626062417.080795,-81.055,-25.879,-32.715,1.0,1.0
1626062417.084701,26.366999999999997,-33.691,-26.855,1.0,1.0
1626062417.0886073,17.578,-49.805,-40.039,1.0,1.0
1626062417.0925136,-74.219,-46.387,-26.366999999999997,1.0,1.0
1626062417.0964196,-92.773,-45.41,-22.461,1.0,1.0
1626062417.100326,7.812,-14.648,-20.508000000000003,1.0,1.0
1626062417.1042323,50.293,-8.301,-20.996,1.0,1.0
1626062417.1081383,-28.809,-28.32,-21.973000000000003,1.0,1.0
1626062417.1120448,-93.262,-47.852,-31.738000000000003,-419.434,1.0
1626062417.115951,-29.296999999999997,-51.758,-39.062,28.32,1.0
1626062417.1198573,45.41,-14.648,-29.296999999999997,378.906,1.0
1626062417.1237636,-35.156,-17.09,-30.273000000000003,-24.901999999999997,1.0
1626062417.1276698,-118.164,-34.668,-31.25,-454.59,1.0
1626062417.131576,-56.152,-34.18,-42.48,-150.391,1.0
1626062417.1354823,47.363,-34.18,-39.062,348.63300000000004,1.0
1626062417.1393886,20.996,-32.715,-20.996,158.203,1.0
1626062417.1432948,-92.285,-40.039,-20.996,-383.789,1.0
1626062417.147201,-85.93799999999999,-44.922,-39.551,-298.828,1.0
1626062417.1511073,16.113,-45.898,-40.039,241.21099999999998,1.0
1626062417.1550138,32.227,-29.296999999999997,-18.066,265.625,1.0
1626062417.1589198,22.461,-14.648,-32.227,205.56599999999997,1.0
1626062417.162826,-87.402,-14.648,-47.852,-340.82,1.0
1626062417.1667323,-87.891,-4.883,-39.062,-315.918,1.0
1626062417.1706386,-1.953,-15.137,-36.133,215.332,1.0
1626062417.1745448,26.366999999999997,-36.133,-27.831999999999997,293.945,1.0
1626062417.178451,-49.805,-49.805,-18.555,-208.00799999999998,1.0
1626062417.182357,-104.492,-60.059,-50.781000000000006,-400.879,1.0
1626062417.1862638,-20.508000000000003,-65.43,-46.387,74.707,1.0
1626062417.1901696,41.992,-56.641000000000005,-19.043,362.305,1.0
1626062417.1940763,-31.738000000000003,-20.996,-18.066,-63.477,1.0
1626062417.197982,-124.023,-11.719000000000001,-24.901999999999997,-449.707,1.0
1626062417.2018883,-60.547,-14.648,-28.32,-78.613,1.0
1626062417.205795,50.781000000000006,-7.324,-21.484,1.0,1.0
1626062417.209701,7.812,-13.672,-29.296999999999997,1.0,1.0
1626062417.213607,-100.586,-38.086,-41.504,1.0,1.0
1626062417.2175136,-77.637,-53.223,-35.156,1.0,1.0
1626062417.2214196,30.273000000000003,-42.48,-21.484,1.0,1.0
1626062417.225326,13.184000000000001,-63.477,-33.691,1.0,1.0
1626062417.2292323,-90.33200000000001,-57.617,-49.316,1.0,1.0
1626062417.2331386,-91.79700000000001,-32.227,-36.621,1.0,1.0
1626062417.2370448,6.348,-35.645,-33.203,1.0,1.0
1626062417.240951,49.316,-30.761999999999997,-36.621,1.0,1.0
1626062417.2448573,-56.152,-43.457,-55.663999999999994,1.0,1.0
1626062417.2487636,-112.305,-39.062,-55.663999999999994,1.0,1.0
1626062417.2526696,-10.742,-32.227,-36.621,35.645,1.0
1626062417.256576,58.105,-29.785,-27.344,376.465,1.0
1626062417.2604823,-6.836,-14.16,-21.973000000000003,-10.254000000000001,1.0
1626062417.2643886,-106.934,-26.855,-33.691,-450.684,1.0
1626062417.2682948,-56.641000000000005,-40.039,-30.273000000000003,-107.42200000000001,1.0
1626062417.272201,42.968999999999994,-35.645,-25.391,325.195,1.0
1626062417.2761073,4.883,-36.133,-39.551,53.223,1.0
1626062417.2800136,-79.59,-15.137,-38.574,-363.77,1.0
1626062417.2839198,-79.59,-26.366999999999997,-38.086,-253.90599999999998,1.0
1626062417.287826,9.277000000000001,-54.688,-30.273000000000003,274.414,1.0
1626062417.2917323,16.113,-33.691,-29.785,261.719,1.0
1626062417.2956386,-70.801,-21.973000000000003,-22.949,-270.996,1.0
1626062417.299545,-104.98,-41.016000000000005,-21.973000000000003,1.0,1.0
1626062417.303451,-21.973000000000003,-31.25,-41.504,1.0,1.0
1626062417.307357,41.504,-18.555,-40.039,1.0,1.0
1626062417.3112638,-40.039,-52.246,-21.484,1.0,1.0
1626062417.3151696,-108.887,-48.34,-1.953,1.0,1.0
1626062417.3190758,-41.992,-39.551,-28.32,1.0,1.0
1626062417.322982,36.133,-51.27,-54.688,1.0,1.0
1626062417.3268883,-0.977,-32.715,-57.617,1.0,1.0
1626062417.330795,-83.49600000000001,-32.227,-41.504,1.0,1.0
1626062417.334701,-52.733999999999995,-34.668,-16.602,1.0,1.0
1626062417.3386073,24.414,-30.273000000000003,-39.062,1.0,1.0
1626062417.3425136,2.93,-38.086,-33.691,1.0,1.0
1626062417.3464196,44.922,-28.809,-27.344,380.371,1.0
1626062417.350326,-32.227,-47.852,-38.574,-45.898,1.0
1626062417.3542323,-99.12100000000001,-36.621,-37.598,-415.527,1.0
1626062417.3581383,-44.922,-26.366999999999997,-32.715,-78.613,1.0
1626062417.3620448,38.574,-19.043,-21.973000000000003,366.699,1.0
1626062417.365951,-0.977,-19.531,-13.672,124.023,1.0
1626062417.3698573,-94.727,-32.715,-19.531,-385.254,1.0
1626062417.3737636,-72.266,-31.738000000000003,-20.996,-237.305,1.0
1626062417.3776698,27.344,-17.09,-20.02,299.316,1.0
1626062417.381576,43.457,-12.695,-21.484,265.137,1.0
1626062417.3854823,-65.43,-28.32,-32.715,-289.062,1.0
1626062417.3893886,-96.191,-7.812,-27.344,-362.305,1.0
1626062417.3932948,-5.371,-25.879,-33.691,1.0,1.0
1626062417.397201,26.366999999999997,-70.801,-57.129,1.0,1.0
1626062417.4011073,-49.805,-53.223,-38.574,1.0,1.0
1626062417.4050138,-109.863,-37.598,-19.531,1.0,1.0
1626062417.4089198,-31.738000000000003,-19.043,-9.277000000000001,1.0,1.0
1626062417.412826,49.805,-3.418,-12.207,1.0,1.0
1626062417.4167323,-14.16,-20.996,-31.738000000000003,1.0,1.0
1626062417.4206386,-102.051,-33.691,-33.203,1.0,1.0
1626062417.4245448,-59.57,-36.133,-24.901999999999997,1.0,1.0
1626062417.428451,34.668,-27.831999999999997,-27.344,1.0,1.0
1626062417.432357,8.301,-52.733999999999995,-52.246,1.0,1.0
1626062417.4362638,-81.055,-62.5,-62.988,1.0,1.0
1626062417.4401696,-67.87100000000001,-12.207,-36.133,1.0,1.0
1626062417.4440763,24.414,5.859,-8.789,1.0,1.0
1626062417.447982,24.414,-12.695,-4.883,1.0,1.0
1626062417.4518883,-89.355,-40.039,-17.578,1.0,1.0
1626062417.455795,-115.723,-39.062,-21.484,1.0,1.0
1626062417.459701,-5.371,-14.648,-21.484,1.0,1.0
1626062417.463607,59.57,-16.602,-24.414,1.0,1.0
1626062417.4675136,-18.066,-27.344,-41.016000000000005,1.0,1.0
1626062417.4714196,-106.445,-36.133,-59.57,1.0,1.0
1626062417.475326,-39.551,-38.574,-37.598,1.0,1.0
1626062417.4792323,62.5,-30.273000000000003,-23.926,1.0,1.0
1626062417.4831386,16.602,-12.207,-32.715,1.0,1.0
1626062417.4870448,-107.91,-36.621,-58.593999999999994,1.0,1.0
1626062417.490951,-92.285,-51.27,-49.805,1.0,1.0
1626062417.4948573,33.203,-40.039,-26.366999999999997,1.0,1.0
1626062417.4987636,36.621,-59.57,-29.785,1.0,1.0
1626062417.5026696,-65.43,-41.504,-20.02,1.0,1.0
1626062417.506576,-85.93799999999999,-27.831999999999997,-30.273000000000003,1.0,1.0
1626062417.5104823,12.695,-25.879,-26.366999999999997,1.0,1.0
1626062417.5143886,47.852,-17.578,-19.531,1.0,1.0
1626062417.5182948,-37.109,-30.761999999999997,-40.039,1.0,1.0
1626062417.522201,-82.031,-27.831999999999997,-41.504,1.0,1.0
1626062417.5261073,-22.461,-20.996,-44.434,1.0,1.0
1626062417.5300136,33.691,-14.648,-43.457,1.0,1.0
1626062417.5339198,-36.621,-14.16,-38.574,-82.031,1.0
1626062417.537826,-106.934,-27.344,-40.039,-461.426,1.0
1626062417.5417323,-35.645,-41.016000000000005,-45.898,-93.75,1.0
1626062417.5456386,45.898,-29.296999999999997,-44.922,352.051,1.0
1626062417.549545,-9.766,0.488,-56.641000000000005,72.75399999999999,1.0
1626062417.553451,-113.281,13.184000000000001,-66.406,-444.336,1.0
1626062417.557357,-91.309,12.207,-56.152,-285.156,1.0
1626062417.5612638,7.812,-6.836,-60.059,244.141,1.0
1626062417.5651696,5.859,-0.977,-80.078,175.78099999999998,1.0
1626062417.5690758,-92.285,27.344,-83.008,-373.04699999999997,1.0
1626062417.572982,-114.74600000000001,20.02,-71.777,-418.457,1.0
1626062417.5768883,-13.184000000000001,31.738000000000003,-74.707,117.676,1.0
1626062417.580795,16.602,9.766,-68.848,271.48400000000004,1.0
1626062417.584701,20.508000000000003,21.973000000000003,-65.918,-228.516,1.0
1626062417.5886073,-81.543,3.418,-63.965,-485.352,1.0
1626062417.5925136,-113.77,-35.645,-59.082,-4.395,1.0
1626062417.5964196,1.465,-25.391,-41.992,352.539,1.0
1626062417.600326,57.617,4.395,-52.246,-55.176,1.0
1626062417.6042323,-40.527,0.488,-87.891,-491.699,1.0
1626062417.6081383,-109.863,0.488,-73.73,-167.48,1.0
1626062417.6120448,-54.688,-20.02,-54.688,334.473,1.0
1626062417.615951,48.34,-20.996,-46.387,124.512,1.0
1626062417.6198573,-2.93,-21.973000000000003,-53.711000000000006,-412.10900000000004,1.0
1626062417.6237636,-117.18799999999999,-31.738000000000003,-55.663999999999994,-318.35900000000004,1.0
1626062417.6276698,-80.078,-32.227,-45.898,1.0,1.0
1626062417.631576,22.461,-12.695,-52.733999999999995,1.0,1.0
1626062417.6354823,30.273000000000003,18.066,-47.852,1.0,1.0
1626062417.6393886,-64.453,7.812,-42.48,1.0,1.0
1626062417.6432948,-85.449,-6.836,-47.852,1.0,1.0
1626062417.647201,-1.953,-25.879,-55.176,1.0,1.0
1626062417.6511073,12.695,-41.504,-64.941,1.0,1.0
1626062417.6550138,-69.336,-39.062,-57.129,1.0,1.0
1626062417.6589198,-115.234,-35.156,-60.547,1.0,1.0
1626062417.662826,-26.855,-19.043,-52.733999999999995,1.0,1.0
1626062417.6667323,31.25,-34.668,-40.527,1.0,1.0
1626062417.6706386,-46.387,-41.016000000000005,-41.992,1.0,1.0
1626062417.6745448,-105.95700000000001,-0.977,-31.25,-451.17199999999997,1.0
1626062417.678451,-29.296999999999997,6.348,-16.113,-48.34,1.0
1626062417.682357,67.87100000000001,-16.602,-7.324,402.832,1.0
1626062417.6862638,4.395,-49.316,-38.086,90.82,1.0
1626062417.6901696,-104.492,-45.898,-65.43,-420.41,1.0
1626062417.6940763,-72.266,-7.324,-53.711000000000006,-213.86700000000002,1.0
1626062417.697982,40.527,-4.883,-28.32,321.777,1.0
1626062417.7018883,41.504,-19.531,-26.366999999999997,229.00400000000002,1.0
1626062417.705795,-71.289,-32.227,-41.992,-318.35900000000004,1.0
1626062417.709701,-78.613,-17.578,-36.133,-326.172,1.0
1626062417.713607,19.531,-7.324,-35.156,213.86700000000002,1.0
1626062417.7175136,45.898,-5.371,-44.922,324.219,1.0
1626062417.7214196,24.901999999999997,-16.113,-40.039,254.395,1.0
1626062417.725326,-76.172,-36.621,-38.574,-286.133,1.0
1626062417.7292323,-109.863,-45.898,-35.645,-377.93,1.0
1626062417.7331386,-27.344,-65.918,-28.32,134.27700000000002,1.0
1626062417.7370448,24.414,-41.992,-16.602,326.66,1.0
1626062417.740951,-53.223,-17.578,-31.25,-158.203,1.0
1626062417.7448573,-108.398,-20.508000000000003,-33.203,-443.35900000000004,1.0
1626062417.7487636,-31.25,-23.438000000000002,-30.761999999999997,-4.395,1.0
1626062417.7526696,32.227,-25.391,-41.504,361.816,1.0
1626062417.756576,-20.508000000000003,-30.273000000000003,-45.898,5.859,1.0
1626062417.7604823,-97.16799999999999,-62.012,-44.434,-431.152,1.0
1626062417.7643886,-42.968999999999994,-50.293,-18.555,-143.555,1.0
1626062417.7682948,45.41,-29.296999999999997,-14.16,1.0,1.0
1626062417.772201,7.324,-32.715,-39.551,1.0,1.0
1626062417.7761073,-90.82,-8.789,-49.316,1.0,1.0
1626062417.7800136,-90.82,-11.719000000000001,-46.387,1.0,1.0
1626062417.7839198,13.672,-16.602,-29.296999999999997,1.0,1.0
1626062417.787826,34.668,-13.184000000000001,-21.484,1.0,1.0
1626062417.7917323,-57.129,-25.391,-16.602,1.0,1.0
1626062417.7956386,-89.844,-26.366999999999997,-12.207,1.0,1.0
1626062417.799545,-3.906,-18.066,-17.09,1.0,1.0
1626062417.803451,50.293,-39.551,-22.949,1.0,1.0
1626062417.807357,-39.551,-67.383,-51.758,1.0,1.0
1626062417.8112638,-119.141,-59.57,-53.711000000000006,1.0,1.0
1626062417.8151696,-41.504,-30.761999999999997,-22.461,1.0,1.0
1626062417.8190758,41.992,-3.418,-29.785,1.0,1.0
1626062417.822982,-1.953,7.324,-24.414,1.0,1.0
1626062417.8268883,-101.56200000000001,0.977,-10.254000000000001,1.0,1.0
1626062417.830795,-77.637,-16.602,-17.578,1.0,1.0
1626062417.834701,27.831999999999997,-24.414,-20.508000000000003,1.0,1.0
1626062417.8386073,30.761999999999997,-21.484,-25.879,1.0,1.0
1626062417.8425136,-72.266,-55.176,-31.25,1.0,1.0
1626062417.8464196,-102.051,-78.613,-39.551,1.0,1.0
1626062417.850326,16.113,-40.527,-39.062,1.0,1.0
1626062417.8542323,63.965,-20.508000000000003,-30.761999999999997,1.0,1.0
1626062417.8581383,-39.551,-18.066,-24.901999999999997,1.0,1.0
1626062417.8620448,-118.164,-23.438000000000002,-31.25,1.0,1.0
1626062417.865951,-34.18,-27.831999999999997,-25.879,1.0,1.0
1626062417.8698573,48.828,-30.761999999999997,-13.184000000000001,1.0,1.0
1626062417.8737636,-23.438000000000002,-48.34,-32.227,1.0,1.0
1626062417.8776698,-113.77,-49.805,-36.133,1.0,1.0
1626062417.881576,-68.848,-29.296999999999997,-22.949,1.0,1.0
1626062417.8854823,29.296999999999997,-39.062,-28.32,1.0,1.0
1626062417.8893886,1.465,-44.922,-39.551,1.0,1.0
1626062417.8932948,-106.445,-40.527,-51.758,1.0,1.0
1626062417.897201,-88.37899999999999,-56.152,-39.551,1.0,1.0
1626062417.9011073,2.441,-63.965,-38.086,1.0,1.0
1626062417.9050138,2.441,-37.598,-43.945,1.0,1.0
1626062417.9089198,-80.566,-14.16,-41.504,-307.129,1.0
1626062417.912826,-103.516,-17.09,-44.434,-363.281,1.0
1626062417.9167323,2.441,-29.785,-40.527,179.688,1.0
1626062417.9206386,47.363,-49.805,-43.457,338.379,1.0
1626062417.9245448,-25.879,-38.086,-40.039,-154.785,1.0
1626062417.928451,-83.008,-27.831999999999997,-24.901999999999997,-400.39099999999996,1.0
1626062417.932357,-29.296999999999997,-25.879,-30.761999999999997,31.738000000000003,1.0
1626062417.9362638,35.645,-9.766,-40.039,366.211,1.0
1626062417.9401696,-34.18,-28.32,-36.133,-19.531,1.0
1626062417.9440763,-111.32799999999999,-35.645,-35.156,-442.38300000000004,1.0
1626062417.947982,-41.992,-24.414,-29.785,-133.789,1.0
1626062417.9518883,77.637,-43.945,-13.672,376.95300000000003,1.0
1626062417.955795,62.5,-31.25,-6.836,164.062,1.0
1626062417.959701,11.719000000000001,-19.531,-30.761999999999997,-391.602,1.0
1626062417.963607,-92.285,2.441,-36.133,-294.922,1.0
1626062417.9675136,-80.566,-10.742,-52.733999999999995,246.582,1.0
1626062417.9714196,33.203,-11.719000000000001,-45.898,257.324,1.0
1626062417.975326,35.645,-25.391,-19.531,-280.27299999999997,1.0
1626062417.9792323,-66.895,-72.75399999999999,-23.926,-392.09,1.0
1626062417.9831386,-86.426,-59.082,-39.062,141.602,1.0
1626062417.9870448,-6.348,-26.366999999999997,-38.086,358.88699999999994,1.0
1626062417.990951,29.296999999999997,-2.441,-32.227,-134.27700000000002,1.0
1626062417.9948573,-60.059,-14.648,-47.852,-453.61300000000006,1.0
1626062417.9987636,-98.145,-45.41,-28.32,-16.602,1.0
1626062418.0026696,-15.625,-31.25,-21.484,1.0,1.0
1626062418.006576,22.949,-38.086,-62.988,1.0,1.0
1626062418.0104823,-36.621,-42.48,-56.641000000000005,1.0,1.0
1626062418.0143886,-99.12100000000001,-36.133,-30.273000000000003,1.0,1.0
1626062418.0182948,-40.039,-39.551,-25.879,1.0,1.0
1626062418.022201,36.133,-38.086,-28.32,1.0,1.0
1626062418.0261073,-9.277000000000001,-14.648,-25.391,1.0,1.0
1626062418.0300136,-77.637,1.953,-13.184000000000001,1.0,1.0
1626062418.0339198,-57.617,-23.438000000000002,-22.949,1.0,1.0
1626062418.037826,38.086,-42.48,-26.366999999999997,1.0,1.0
1626062418.0417323,27.344,-56.641000000000005,-27.344,1.0,1.0
1626062418.0456386,-75.684,-62.5,-41.504,1.0,1.0
1626062418.049545,-94.238,-57.617,-59.57,-341.79699999999997,1.0
1626062418.053451,-20.02,-27.831999999999997,-54.199,167.48,1.0
1626062418.057357,20.996,-0.488,-22.461,302.73400000000004,1.0
1626062418.0612638,-66.406,-28.809,-25.391,-198.24200000000002,1.0
1626062418.0651696,-109.863,-17.09,-30.761999999999997,-423.82800000000003,1.0
1626062418.0690758,-12.207,-1.465,-24.414,57.617,1.0
1626062418.072982,56.641000000000005,-24.901999999999997,-29.296999999999997,383.301,1.0
1626062418.0768883,-11.719000000000001,-41.016000000000005,-25.391,-18.066,1.0
1626062418.080795,-104.98,-45.41,-31.738000000000003,-439.45300000000003,1.0
1626062418.084701,-51.758,-27.344,-36.621,-120.605,1.0
1626062418.0886073,39.551,-38.574,-32.715,352.051,1.0
1626062418.0925136,10.742,-47.852,-36.133,129.395,1.0
1626062418.0964196,0.488,-18.555,-32.715,30.273000000000003,1.0
1626062418.100326,-97.656,-14.16,-46.875,-431.64099999999996,1.0
1626062418.1042323,-69.336,-11.719000000000001,-34.18,-165.03900000000002,1.0
1626062418.1081383,29.785,-15.137,-33.691,339.355,1.0
1626062418.1120448,25.879,-16.602,-41.504,175.78099999999998,1.0
1626062418.115951,-58.593999999999994,-21.973000000000003,-45.41,-343.75,1.0
1626062418.1198573,-61.523,-46.875,-39.062,-287.10900000000004,1.0
1626062418.1237636,49.316,-29.785,-20.508000000000003,256.836,1.0
1626062418.1276698,57.617,-21.484,-20.996,292.969,1.0
1626062418.131576,-52.246,-34.18,-16.113,-241.699,1.0
1626062418.1354823,-88.37899999999999,-33.203,-22.949,-391.602,1.0
1626062418.1393886,-6.348,-3.418,-43.457,104.492,1.0
1626062418.1432948,19.531,-19.531,-37.109,349.60900000000004,1.0
1626062418.147201,56.152,-44.922,-39.551,-109.863,1.0
1626062418.1511073,-41.504,-39.551,-26.855,-438.965,1.0
1626062418.1550138,-102.539,-32.715,-30.273000000000003,-47.363,1.0
1626062418.1589198,-16.602,-19.531,-30.761999999999997,372.07,1.0
1626062418.162826,55.176,-7.324,-19.043,58.105,1.0
1626062418.1667323,-19.043,-23.926,-18.555,-434.57,1.0
1626062418.1706386,-98.145,-31.25,-13.672,-210.449,1.0
1626062418.1745448,-33.691,-38.086,-20.996,336.914,1.0
1626062418.178451,77.148,-49.316,-11.23,225.58599999999998,1.0
1626062418.182357,41.504,-51.27,-24.901999999999997,-342.773,1.0
1626062418.1862638,-92.773,-23.926,-54.688,-348.145,1.0
1626062418.1901696,-91.79700000000001,-10.254000000000001,-46.875,-258.301,1.0
1626062418.1940763,13.184000000000001,-13.184000000000001,-27.344,281.25,1.0
1626062418.197982,19.531,-18.066,-19.531,236.328,1.0
1626062418.2018883,-84.961,-35.156,-33.691,-312.012,1.0
1626062418.205795,-103.027,-30.761999999999997,-36.133,-361.816,1.0
1626062418.209701,2.93,-44.922,-26.855,186.035,1.0
1626062418.213607,41.504,-47.363,-25.391,342.285,1.0
1626062418.2175136,-44.434,-27.344,-26.855,-157.227,1.0
1626062418.2214196,-102.539,-31.25,-28.809,-428.223,1.0
1626062418.225326,-22.949,-23.926,-9.766,13.672,1.0
1626062418.2292323,55.176,-36.621,-14.16,373.04699999999997,1.0
1626062418.2331386,-18.066,-71.777,-46.387,-9.277000000000001,1.0
1626062418.2370448,26.366999999999997,-10.742,-37.109,297.85200000000003,1.0
1626062418.240951,-68.848,-20.02,-31.25,-220.215,1.0
1626062418.2448573,-110.84,-25.391,-26.855,-410.156,1.0
1626062418.2487636,-26.855,-44.922,-35.645,84.961,1.0
1626062418.2526696,30.273000000000003,-35.645,-41.504,351.074,1.0
1626062418.256576,-21.973000000000003,-26.366999999999997,-25.391,-69.824,1.0
1626062418.2604823,-85.93799999999999,-66.895,-23.438000000000002,-406.25,1.0
1626062418.2643886,-33.691,-78.613,-29.296999999999997,-53.223,1.0
1626062418.2682948,44.434,-68.359,-39.551,377.441,1.0
1626062418.272201,-11.23,-39.551,-49.316,88.867,1.0
1626062418.2761073,-113.77,-4.395,-42.48,-414.551,1.0
1626062418.2800136,-83.49600000000001,19.531,-18.066,-224.609,1.0
1626062418.2839198,12.695,0.488,-20.02,1.0,1.0
1626062418.287826,3.418,-39.062,-36.621,1.0,1.0
1626062418.2917323,-85.93799999999999,-48.828,-30.761999999999997,1.0,1.0
1626062418.2956386,-113.77,-50.781000000000006,-46.387,1.0,1.0
1626062418.299545,-6.348,-68.359,-36.133,1.0,1.0
1626062418.303451,33.203,-87.402,-21.973000000000003,1.0,1.0
1626062418.307357,-65.43,-49.316,-26.366999999999997,1.0,1.0
1626062418.3112638,-114.74600000000001,-5.859,-41.504,1.0,1.0
1626062418.3151696,-27.831999999999997,5.371,-44.434,1.0,1.0
1626062418.3190758,50.293,7.812,-11.23,1.0,1.0
1626062418.322982,-30.761999999999997,-14.16,-28.809,1.0,1.0
1626062418.3268883,-113.281,-26.366999999999997,-43.945,1.0,1.0
1626062418.330795,-40.039,-33.691,-15.625,1.0,1.0
1626062418.334701,56.152,-40.039,-30.761999999999997,1.0,1.0
1626062418.3386073,29.296999999999997,-22.461,-45.41,1.0,1.0
1626062418.3425136,-89.355,-40.039,-48.828,1.0,1.0
1626062418.3464196,-102.539,-27.344,-32.227,1.0,1.0
1626062418.350326,10.254000000000001,-21.973000000000003,-10.742,1.0,1.0
1626062418.3542323,37.109,-31.25,-18.555,1.0,1.0
1626062418.3581383,-56.641000000000005,-10.254000000000001,-25.879,1.0,1.0
1626062418.3620448,-103.516,-41.016000000000005,-46.875,1.0,1.0
1626062418.365951,0.488,-56.641000000000005,-45.41,1.0,1.0
1626062418.3698573,68.359,-31.738000000000003,-25.879,1.0,1.0
1626062418.3737636,-16.602,-7.324,-23.926,1.0,1.0
1626062418.3776698,-93.262,-29.785,-36.133,1.0,1.0
1626062418.381576,-25.391,-50.781000000000006,-24.901999999999997,1.0,1.0
1626062418.3854823,69.336,-13.672,-7.324,1.0,1.0
1626062418.3893886,6.348,-4.395,-24.901999999999997,1.0,1.0
1626062418.3932948,-101.56200000000001,-26.366999999999997,-40.039,1.0,1.0
1626062418.397201,-76.66,-57.617,-46.875,1.0,1.0
1626062418.4011073,39.062,-53.711000000000006,-37.109,1.0,1.0
1626062418.4050138,26.366999999999997,-3.418,-28.809,1.0,1.0
1626062418.4089198,-84.961,-19.043,-39.062,1.0,1.0
1626062418.412826,-47.363,-45.898,-45.41,1.0,1.0
1626062418.4167323,30.273000000000003,-35.156,-53.223,1.0,1.0
1626062418.4206386,4.395,-24.901999999999997,-29.785,1.0,1.0
1626062418.4245448,-83.984,-21.973000000000003,-49.316,-399.902,1.0
1626062418.428451,-64.453,-27.831999999999997,-62.012,-184.57,1.0
1626062418.432357,38.086,-33.203,-15.137,334.961,1.0
1626062418.4362638,27.344,-48.828,6.836,205.56599999999997,1.0
1626062418.4401696,-73.242,-49.316,-11.719000000000001,-347.656,1.0
1626062418.4440763,-89.844,-48.828,-33.203,-337.89099999999996,1.0
1626062418.447982,11.23,-43.457,-28.809,212.891,1.0
1626062418.4518883,30.273000000000003,-20.508000000000003,-44.434,287.10900000000004,1.0
1626062418.455795,-68.359,-16.602,-56.641000000000005,-248.047,1.0
1626062418.459701,-100.098,-10.742,-35.156,-419.92199999999997,1.0
1626062418.463607,-10.742,-10.254000000000001,-48.34,81.055,1.0
1626062418.4675136,54.688,-25.391,-45.41,366.699,1.0
1626062418.4714196,55.663999999999994,-3.906,-27.831999999999997,347.168,1.0
1626062418.475326,-48.828,-12.207,-18.066,-173.828,1.0
1626062418.4792323,-126.465,-20.02,-28.809,-449.219,1.0
1626062418.4831386,-48.34,-41.992,-33.691,6.348,1.0
1626062418.4870448,46.875,-34.668,-29.785,369.629,1.0
1626062418.490951,-1.953,-29.296999999999997,-32.715,8.301,1.0
1626062418.4948573,-92.773,-57.617,-43.457,-411.13300000000004,1.0
1626062418.4987636,-52.733999999999995,-72.266,-37.598,-117.676,1.0
1626062418.5026696,29.296999999999997,-31.738000000000003,-34.18,348.63300000000004,1.0
1626062418.506576,1.465,-4.395,-26.855,137.695,1.0
1626062418.5104823,-95.70299999999999,-22.461,-23.438000000000002,-375.48800000000006,1.0
1626062418.5143886,-86.914,-25.391,-21.484,-268.555,1.0
1626062418.5182948,13.184000000000001,-41.992,-33.203,1.0,1.0
1626062418.522201,29.296999999999997,-51.758,-41.016000000000005,1.0,1.0
1626062418.5261073,-66.895,-44.434,-33.691,1.0,1.0
1626062418.5300136,-89.355,-30.273000000000003,-30.761999999999997,1.0,1.0
1626062418.5339198,16.602,-21.973000000000003,-29.296999999999997,1.0,1.0
1626062418.537826,49.316,-31.25,-49.316,1.0,1.0
1626062418.5417323,-30.273000000000003,-17.578,-44.922,1.0,1.0
1626062418.5456386,-86.914,-3.906,-35.645,1.0,1.0
1626062418.549545,-6.348,2.441,-29.296999999999997,1.0,1.0
1626062418.553451,79.102,-6.836,-31.738000000000003,1.0,1.0
1626062418.557357,12.695,-33.691,-45.41,1.0,1.0
1626062418.5612638,-76.172,-43.457,-38.086,1.0,1.0
1626062418.5651696,-23.926,-27.831999999999997,-28.32,-129.395,1.0
1626062418.5690758,82.52,-29.296999999999997,-22.949,377.441,1.0
1626062418.572982,52.733999999999995,-21.484,-30.273000000000003,206.543,1.0
1626062418.5768883,-57.617,-4.395,-40.039,-339.355,1.0
1626062418.580795,-57.617,-13.184000000000001,-37.109,-292.48,1.0
1626062418.584701,51.758,-32.227,-35.645,268.066,1.0
1626062418.5886073,85.449,-38.086,-30.273000000000003,345.70300000000003,1.0
1626062418.5925136,-21.484,-22.461,-38.086,-201.66,1.0
1626062418.5964196,-78.125,-4.395,-65.918,-382.324,1.0
1626062418.600326,10.254000000000001,13.672,-59.082,125.977,1.0
1626062418.6042323,64.941,11.719000000000001,-22.461,384.277,1.0
1626062418.6081383,-13.184000000000001,-27.831999999999997,-4.395,-64.453,1.0
1626062418.6120448,-13.672,-22.461,-18.555,-143.555,1.0
1626062418.615951,-89.844,-27.344,-34.668,-384.277,1.0
1626062418.6198573,-15.137,-15.625,-23.438000000000002,76.66,1.0
1626062418.6237636,42.968999999999994,-9.766,-29.296999999999997,375.48800000000006,1.0
1626062418.6276698,-26.855,-17.09,-27.831999999999997,-41.992,1.0
1626062418.631576,-104.00399999999999,-25.879,-7.324,-436.523,1.0
1626062418.6354823,-34.668,-18.555,0.977,-86.426,1.0
1626062418.6393886,46.875,-27.344,-29.296999999999997,366.699,1.0
1626062418.6432948,-1.465,-36.133,-50.781000000000006,125.0,1.0
1626062418.647201,-92.773,-34.18,-41.016000000000005,-373.535,1.0
1626062418.6511073,-74.707,-22.461,-27.344,-239.25799999999998,1.0
1626062418.6550138,33.691,-4.883,-2.93,301.758,1.0
1626062418.6589198,51.27,-23.438000000000002,-17.578,251.465,1.0
1626062418.662826,40.039,-6.348,-0.488,-305.176,1.0
1626062418.6667323,-73.73,-28.32,-22.461,-370.605,1.0
1626062418.6706386,-94.727,-43.457,-61.035,176.75799999999998,1.0
1626062418.6745448,30.761999999999997,-12.695,-35.645,355.469,1.0
1626062418.678451,51.758,-7.812,-7.812,-158.203,1.0
1626062418.682357,-43.945,-16.113,-9.766,-437.5,1.0
1626062418.6862638,-94.238,-26.366999999999997,-37.598,22.461,1.0
1626062418.6901696,-12.207,-36.133,-46.387,379.395,1.0
1626062418.6940763,58.105,-32.715,-33.691,-6.348,1.0
1626062418.697982,-20.02,-36.621,-37.598,-448.73,1.0
1626062418.7018883,-90.82,-41.016000000000005,-32.227,-150.879,1.0
1626062418.705795,-25.391,-46.387,-41.992,1.0,1.0
1626062418.709701,55.663999999999994,-31.25,-38.086,1.0,1.0
1626062418.713607,9.277000000000001,-28.32,-21.973000000000003,1.0,1.0
1626062418.7175136,-78.125,-32.227,-21.484,1.0,1.0
1626062418.7214196,-49.805,-28.809,-32.715,1.0,1.0
1626062418.725326,36.621,-32.227,-40.527,1.0,1.0
1626062418.7292323,36.621,-8.789,-38.086,1.0,1.0
1626062418.7331386,-74.707,-8.789,-54.688,1.0,1.0
1626062418.7370448,-97.16799999999999,-18.066,-41.016000000000005,1.0,1.0
1626062418.740951,14.16,-20.508000000000003,-8.301,1.0,1.0
1626062418.7448573,36.621,-43.945,-12.207,1.0,1.0
1626062418.7487636,-54.688,-62.012,-21.973000000000003,1.0,1.0
1626062418.7526696,-93.262,-67.383,-26.855,-402.832,1.0
1626062418.756576,-19.043,-52.733999999999995,-34.668,75.195,1.0
1626062418.7604823,41.504,-15.137,-29.296999999999997,367.676,1.0
1626062418.7643886,-33.203,-9.277000000000001,-42.48,-71.777,1.0
1626062418.7682948,-109.375,-28.809,-56.152,-455.07800000000003,1.0
1626062418.772201,-49.316,-29.785,-56.641000000000005,-97.16799999999999,1.0
1626062418.7761073,55.176,-20.508000000000003,-43.945,363.77,1.0
1626062418.7800136,7.324,-48.34,-46.387,93.75,1.0
1626062418.7839198,-112.305,-57.129,-41.992,-424.316,1.0
1626062418.787826,-91.309,-34.18,-13.184000000000001,-259.277,1.0
1626062418.7917323,18.555,-10.742,-6.348,288.086,1.0
1626062418.7956386,26.855,-15.625,-17.578,243.16400000000002,1.0
1626062418.799545,8.301,-18.066,-13.184000000000001,144.531,1.0
1626062418.803451,-92.773,-24.414,-27.831999999999997,-375.0,1.0
1626062418.807357,-98.145,-45.898,-36.133,-294.434,1.0
1626062418.8112638,-0.488,-55.663999999999994,-19.043,234.863,1.0
1626062418.8151696,22.461,-46.387,-20.996,259.76599999999996,1.0
1626062418.8190758,-79.102,-43.945,-47.363,-277.832,1.0
1626062418.822982,-96.191,-61.523,-33.203,-385.254,1.0
1626062418.8268883,0.488,-57.617,-28.32,141.602,1.0
1626062418.830795,46.875,-7.812,-27.831999999999997,362.793,1.0
1626062418.834701,-34.668,2.93,-24.414,-109.375,1.0
1626062418.8386073,-110.352,-16.113,-37.598,-430.176,1.0
1626062418.8425136,-38.574,-12.207,-24.901999999999997,-19.531,1.0
1626062418.8464196,30.761999999999997,-20.508000000000003,-33.691,1.0,1.0
1626062418.850326,-16.113,-31.738000000000003,-37.598,1.0,1.0
1626062418.8542323,-97.656,-29.785,-20.996,1.0,1.0
1626062418.8581383,-51.27,-30.273000000000003,-10.254000000000001,1.0,1.0
1626062418.8620448,57.129,-51.27,-6.348,1.0,1.0
1626062418.865951,11.23,-74.219,-27.344,1.0,1.0
1626062418.8698573,-83.49600000000001,-20.996,-47.852,1.0,1.0
1626062418.8737636,-80.078,16.602,-45.898,1.0,1.0
1626062418.8776698,9.766,-9.277000000000001,-19.531,1.0,1.0
1626062418.881576,32.715,-35.156,-13.184000000000001,1.0,1.0
1626062418.8854823,-81.055,-51.27,-41.992,1.0,1.0
1626062418.8893886,-117.676,-20.996,-35.645,1.0,1.0
1626062418.8932948,-13.672,-4.883,-15.137,1.0,1.0
1626062418.897201,43.945,-26.366999999999997,-24.414,1.0,1.0
1626062418.9011073,-45.898,-35.156,-42.48,1.0,1.0
1626062418.9050138,-129.395,-37.109,-43.945,1.0,1.0
1626062418.9089198,-46.387,-47.852,-21.973000000000003,1.0,1.0
1626062418.912826,48.828,-55.176,-19.531,1.0,1.0
1626062418.9167323,5.859,-25.879,-33.203,1.0,1.0
1626062418.9206386,-88.37899999999999,0.488,-43.945,1.0,1.0
1626062418.9245448,-61.035,-23.438000000000002,-33.203,1.0,1.0
1626062418.928451,42.48,-32.227,-24.414,1.0,1.0
1626062418.932357,31.738000000000003,-17.09,-32.227,1.0,1.0
1626062418.9362638,-73.73,-13.672,-41.992,1.0,1.0
1626062418.9401696,-107.42200000000001,-36.133,-55.176,1.0,1.0
1626062418.9440763,-3.418,-52.246,-35.645,1.0,1.0
1626062418.947982,48.34,-61.523,-24.414,1.0,1.0
1626062418.9518883,-45.898,-82.031,-40.039,1.0,1.0
1626062418.955795,-105.469,-50.781000000000006,-57.129,1.0,1.0
1626062418.959701,-26.366999999999997,-1.465,-67.87100000000001,1.0,1.0
1626062418.963607,52.246,13.184000000000001,-39.062,1.0,1.0
1626062418.9675136,-18.066,-3.906,-25.391,1.0,1.0
1626062418.9714196,-99.12100000000001,-16.113,-26.855,1.0,1.0
1626062418.975326,-54.688,-27.344,-40.039,1.0,1.0
1626062418.9792323,32.227,-32.227,-47.852,1.0,1.0
1626062418.9831386,4.395,-34.18,-27.344,1.0,1.0
1626062418.9870448,-112.79299999999999,-49.316,-28.32,-406.73800000000006,1.0
1626062418.990951,-95.215,-40.039,-27.831999999999997,-272.461,1.0
1626062418.9948573,6.836,-28.809,-29.296999999999997,261.719,1.0
1626062418.9987636,1.953,-31.25,-33.203,228.02700000000002,1.0
1626062419.0026696,-86.914,-22.461,-28.32,-298.34,1.0
1626062419.006576,-100.586,-17.09,-39.551,-375.0,1.0
1626062419.0104823,14.648,-27.831999999999997,-34.18,178.71099999999998,1.0
1626062419.0143886,61.523,-47.363,-16.113,377.441,1.0
1626062419.0182948,-37.598,-55.176,-8.301,-131.836,1.0
1626062419.022201,-108.887,-38.086,-12.695,-426.27,1.0
1626062419.0261073,-36.133,-24.901999999999997,-21.484,1.465,1.0
1626062419.0300136,45.898,-24.414,-18.066,372.559,1.0
1626062419.0339198,51.27,-34.668,-3.906,21.484,1.0
1626062419.037826,-26.366999999999997,-15.137,-7.324,-429.199,1.0
1626062419.0417323,-105.95700000000001,-17.09,-24.901999999999997,-163.57399999999998,1.0
1626062419.0456386,-49.316,-20.02,-42.48,342.773,1.0
1626062419.049545,41.504,-12.695,-36.621,171.387,1.0
1626062419.053451,14.648,-2.441,-14.648,-379.395,1.0
1626062419.057357,-94.727,-17.09,-18.555,-312.012,1.0
1626062419.0612638,-75.195,-32.227,-31.25,240.72299999999998,1.0
1626062419.0651696,42.968999999999994,-58.593999999999994,-25.879,290.527,1.0
1626062419.0690758,24.414,-62.5,-24.414,-260.742,1.0
1626062419.072982,-91.309,-23.438000000000002,-35.645,-431.152,1.0
1626062419.0768883,-97.16799999999999,-8.301,-33.203,98.145,1.0
1626062419.080795,-1.953,-24.901999999999997,-39.062,1.0,1.0
1626062419.084701,46.387,-19.531,-30.273000000000003,1.0,1.0
1626062419.0886073,-49.316,-30.273000000000003,-14.648,1.0,1.0
1626062419.0925136,-118.164,-44.922,-16.113,1.0,1.0
1626062419.0964196,-15.625,-30.761999999999997,-4.883,1.0,1.0
1626062419.100326,46.387,-26.855,-4.395,1.0,1.0
1626062419.1042323,-28.32,-52.246,-0.488,1.0,1.0
1626062419.1081383,-111.816,-62.012,-1.953,1.0,1.0
1626062419.1120448,-62.988,-43.945,-5.859,1.0,1.0
1626062419.115951,22.461,-72.75399999999999,-9.766,1.0,1.0
1626062419.1198573,-24.414,-69.336,-43.945,1.0,1.0
1626062419.1237636,-110.84,-21.973000000000003,-52.246,1.0,1.0
1626062419.1276698,-80.078,-10.742,-29.785,-242.188,1.0
1626062419.131576,24.414,-3.906,-13.672,306.64099999999996,1.0
1626062419.1354823,19.531,-18.066,-22.461,262.207,1.0
1626062419.1393886,-88.37899999999999,-37.109,-30.273000000000003,-300.293,1.0
1626062419.1432948,-96.68,-46.387,-11.23,-354.98,1.0
1626062419.147201,20.02,-54.199,-3.418,196.77700000000002,1.0
1626062419.1511073,62.988,-54.688,-12.695,362.305,1.0
1626062419.1550138,-41.992,-49.316,-20.996,-157.715,1.0
1626062419.1589198,-109.375,-49.805,-21.973000000000003,-431.64099999999996,1.0
1626062419.162826,-29.296999999999997,-47.363,-11.719000000000001,29.785,1.0
1626062419.1667323,46.387,-25.391,-13.184000000000001,395.50800000000004,1.0
1626062419.1706386,-12.695,-13.184000000000001,-27.831999999999997,22.949,1.0
1626062419.1745448,-35.156,-15.625,-25.391,-103.027,1.0
1626062419.178451,-109.375,-6.348,-29.785,-431.64099999999996,1.0
1626062419.182357,-36.621,-21.484,-28.32,-20.508000000000003,1.0
1626062419.1862638,41.504,-30.761999999999997,-18.555,372.559,1.0
1626062419.1901696,-2.93,-29.296999999999997,-10.254000000000001,52.733999999999995,1.0
1626062419.1940763,-97.656,-35.645,-11.719000000000001,-401.855,1.0
1626062419.197982,-76.66,-52.733999999999995,-25.391,-179.688,1.0
1626062419.2018883,11.719000000000001,-43.457,-43.945,313.965,1.0
1626062419.205795,1.465,-15.625,-40.039,180.66400000000002,1.0
1626062419.209701,-94.238,-27.344,-33.203,-350.098,1.0
1626062419.213607,-99.12100000000001,-29.785,-39.062,-321.777,1.0
1626062419.2175136,8.789,-22.949,-30.273000000000003,231.93400000000003,1.0
1626062419.2214196,24.901999999999997,-43.457,-24.414,304.199,1.0
1626062419.225326,15.625,-30.761999999999997,-19.531,-230.46900000000002,1.0
1626062419.2292323,-78.613,-36.621,-9.277000000000001,-402.832,1.0
1626062419.2331386,-93.262,-31.25,-26.855,95.70299999999999,1.0
1626062419.2370448,18.555,3.418,-35.645,370.605,1.0
1626062419.240951,48.34,3.418,-28.809,-98.145,1.0
1626062419.2448573,-45.898,-16.602,-20.996,-458.00800000000004,1.0
1626062419.2487636,-107.42200000000001,-34.18,-17.578,-62.5,1.0
1626062419.2526696,-40.039,-46.875,-27.831999999999997,379.395,1.0
1626062419.256576,44.434,-45.898,-15.625,97.656,1.0
1626062419.2604823,-20.02,-51.758,-11.23,-410.645,1.0
1626062419.2643886,-110.84,-60.059,-32.227,-222.168,1.0
1626062419.2682948,-69.824,-54.688,-51.27,1.0,1.0
1626062419.272201,40.527,-30.273000000000003,-51.758,1.0,1.0
1626062419.2761073,26.366999999999997,-11.23,-26.366999999999997,1.0,1.0
1626062419.2800136,-91.79700000000001,-15.137,-12.207,1.0,1.0
1626062419.2839198,-93.262,-3.906,-21.973000000000003,1.0,1.0
1626062419.287826,-5.371,-37.598,-34.18,1.0,1.0
1626062419.2917323,20.02,-65.918,-18.066,1.0,1.0
1626062419.2956386,-68.848,-43.457,-26.855,1.0,1.0
1626062419.299545,-97.16799999999999,-25.391,-39.062,1.0,1.0
1626062419.303451,-4.395,-21.973000000000003,-41.504,1.0,1.0
1626062419.307357,19.531,-18.555,-56.641000000000005,1.0,1.0
1626062419.3112638,-54.199,-19.043,-42.48,1.0,1.0
1626062419.3151696,-114.74600000000001,-31.25,-39.062,-456.543,1.0
1626062419.3190758,-48.828,-34.668,-48.34,-33.691,1.0
1626062419.322982,43.457,-25.391,-42.968999999999994,362.305,1.0
1626062419.3268883,-20.508000000000003,-21.484,-50.781000000000006,6.836,1.0
1626062419.330795,-117.18799999999999,-40.527,-47.363,-448.24199999999996,1.0
1626062419.334701,-63.965,-34.18,-32.715,-167.96900000000002,1.0
1626062419.3386073,42.968999999999994,-19.531,-39.551,343.75,1.0
1626062419.3425136,7.812,-28.809,-46.875,157.227,1.0
1626062419.3464196,-106.445,-23.926,-44.922,-392.09,1.0
1626062419.350326,-92.285,-15.137,-37.598,-328.125,1.0
1626062419.3542323,15.137,-14.16,-33.203,223.145,1.0
1626062419.3581383,32.227,-3.906,-37.109,281.738,1.0
1626062419.3620448,32.227,-24.414,-19.531,191.895,1.0
1626062419.365951,-61.523,-16.602,-20.996,-331.055,1.0
1626062419.3698573,-75.684,-32.227,-25.391,-326.172,1.0
1626062419.3737636,-1.465,-41.992,-44.434,195.312,1.0
1626062419.3776698,41.504,-21.973000000000003,-38.086,319.336,1.0
1626062419.381576,-40.039,-4.883,-39.062,-190.918,1.0
1626062419.3854823,-99.609,-11.719000000000001,-46.387,-409.668,1.0
1626062419.3893886,-22.949,-29.296999999999997,-30.273000000000003,62.012,1.0
1626062419.3932948,48.34,-34.668,-19.043,377.93,1.0
1626062419.397201,-16.602,-32.227,-25.879,-22.949,1.0
1626062419.4011073,-107.91,-38.574,-37.598,-423.82800000000003,1.0
1626062419.4050138,-47.852,-37.598,-30.273000000000003,-92.285,1.0
1626062419.4089198,32.715,-58.593999999999994,-36.621,353.027,1.0
1626062419.412826,-11.23,-57.129,-44.922,103.516,1.0
1626062419.4167323,-96.191,-23.438000000000002,-44.434,-390.13699999999994,1.0
1626062419.4206386,-70.312,-10.742,-35.645,-245.605,1.0
1626062419.4245448,14.16,-14.648,-22.949,284.668,1.0
1626062419.428451,-0.977,-29.296999999999997,-35.156,228.516,1.0
1626062419.432357,-94.238,-41.992,-39.551,-314.453,1.0
1626062419.4362638,-104.00399999999999,-48.34,-36.621,-300.781,1.0
1626062419.4401696,-7.812,-41.504,-32.227,190.43,1.0
1626062419.4440763,38.574,-39.551,-34.668,320.312,1.0
1626062419.447982,-42.48,-51.27,-35.645,-155.273,1.0
1626062419.4518883,-97.16799999999999,-58.593999999999994,-32.227,-436.035,1.0
1626062419.455795,-28.32,-44.922,-41.992,1.0,1.0
1626062419.459701,30.761999999999997,-14.648,-43.457,1.0,1.0
1626062419.463607,-39.062,-16.113,-38.086,1.0,1.0
1626062419.4675136,-127.93,-40.039,-39.062,1.0,1.0
1626062419.4714196,-67.383,-37.109,-34.18,1.0,1.0
1626062419.475326,40.527,-21.973000000000003,-22.461,1.0,1.0
1626062419.4792323,10.742,-33.203,-20.996,1.0,1.0
1626062419.4831386,-102.051,-50.293,-25.391,1.0,1.0
1626062419.4870448,-96.191,-40.039,-25.391,1.0,1.0
1626062419.490951,-1.953,-44.434,-40.039,1.0,1.0
1626062419.4948573,-1.465,-61.523,-56.152,1.0,1.0
1626062419.4987636,-90.82,-55.663999999999994,-42.48,1.0,1.0
1626062419.5026696,-110.352,-51.27,-44.922,1.0,1.0
1626062419.506576,-8.789,-21.973000000000003,-62.5,1.0,1.0
1626062419.5104823,46.387,9.277000000000001,-50.293,1.0,1.0
1626062419.5143886,-42.968999999999994,-2.441,-35.645,1.0,1.0
1626062419.5182948,-119.62899999999999,-31.25,-33.203,1.0,1.0
1626062419.522201,-53.711000000000006,-35.645,-35.156,1.0,1.0
1626062419.5261073,40.527,-34.668,-29.785,1.0,1.0
1626062419.5300136,5.859,-53.711000000000006,-32.227,1.0,1.0
1626062419.5339198,-95.70299999999999,-54.688,-40.527,1.0,1.0
1626062419.537826,-74.219,-38.086,-29.785,1.0,1.0
1626062419.5417323,29.785,-20.508000000000003,-21.973000000000003,1.0,1.0
1626062419.5456386,18.066,3.906,-30.273000000000003,1.0,1.0
1626062419.549545,-84.961,4.395,-35.645,-342.773,1.0
1626062419.553451,-80.078,-2.93,-21.973000000000003,-313.965,1.0
1626062419.557357,11.719000000000001,-13.672,-28.32,225.09799999999998,1.0
1626062419.5612638,25.391,-29.785,-42.48,305.176,1.0
1626062419.5651696,-63.965,-45.41,-43.457,-223.63299999999998,1.0
1626062419.5690758,-102.539,-64.453,-40.527,-402.344,1.0
1626062419.572982,6.348,-56.152,-14.648,113.77,1.0
1626062419.5768883,66.895,-48.828,-13.184000000000001,396.48400000000004,1.0
1626062419.580795,-22.461,-62.5,-32.227,-48.828,1.0
1626062419.584701,-104.98,-43.457,-39.551,-430.664,1.0
1626062419.5886073,-47.852,-16.113,-36.621,-76.66,1.0
1626062419.5925136,43.945,-0.977,-24.901999999999997,365.723,1.0
1626062419.5964196,30.273000000000003,-13.672,-29.296999999999997,113.77,1.0
1626062419.600326,-42.968999999999994,-31.25,-39.062,-381.836,1.0
1626062419.6042323,-123.04700000000001,-50.293,-27.831999999999997,-228.516,1.0
1626062419.6081383,-65.918,-32.227,-16.113,309.082,1.0
1626062419.6120448,38.574,-19.043,-25.391,247.55900000000003,1.0
1626062419.615951,4.883,-32.715,-42.48,-304.199,1.0
1626062419.6198573,-107.42200000000001,-47.852,-42.968999999999994,-353.027,1.0
1626062419.6237636,-102.539,-57.129,-34.668,181.15200000000002,1.0
1626062419.6276698,2.441,-71.777,-34.18,339.844,1.0
1626062419.631576,17.578,-54.199,-27.831999999999997,-170.898,1.0
1626062419.6354823,-80.078,-41.504,-18.555,-441.895,1.0
1626062419.6393886,-113.77,-48.34,-25.879,29.296999999999997,1.0
1626062419.6432948,-32.227,-38.574,-47.852,1.0,1.0
1626062419.647201,15.625,-12.207,-47.363,1.0,1.0
1626062419.6511073,-61.035,-31.25,-42.968999999999994,1.0,1.0
1626062419.6550138,-134.766,-60.059,-48.34,1.0,1.0
1626062419.6589198,-60.547,-39.551,-41.992,1.0,1.0
1626062419.662826,17.578,-41.504,-44.922,1.0,1.0
1626062419.6667323,-27.831999999999997,-70.312,-42.48,1.0,1.0
1626062419.6706386,-105.95700000000001,-78.613,-40.527,1.0,1.0
1626062419.6745448,-66.406,-48.34,-43.945,1.0,1.0
1626062419.678451,33.691,-33.203,-46.387,1.0,1.0
1626062419.682357,6.836,-50.781000000000006,-42.48,1.0,1.0
1626062419.6862638,-93.75,-42.968999999999994,-37.109,1.0,1.0
1626062419.6901696,-90.33200000000001,-28.32,-29.785,-306.152,1.0
1626062419.6940763,16.113,-7.812,-18.555,249.023,1.0
1626062419.697982,33.203,-9.766,-32.227,314.453,1.0
1626062419.7018883,-78.125,-44.434,-43.945,-230.957,1.0
1626062419.705795,-113.77,-52.246,-29.785,-398.43800000000005,1.0
1626062419.709701,-10.742,-52.246,-17.09,107.42200000000001,1.0
1626062419.713607,61.523,-57.129,-16.113,390.13699999999994,1.0
1626062419.7175136,-30.761999999999997,-50.781000000000006,-33.203,-71.777,1.0
1626062419.7214196,-129.88299999999998,-39.062,-35.645,-452.148,1.0
1626062419.725326,-59.57,-18.066,-30.761999999999997,-62.988,1.0
1626062419.7292323,42.48,-10.742,-31.25,368.652,1.0
1626062419.7331386,4.395,-24.414,-21.973000000000003,83.984,1.0
1626062419.7370448,-23.926,-45.898,-53.711000000000006,-36.621,1.0
1626062419.740951,-95.70299999999999,-26.855,-45.898,-433.105,1.0
1626062419.7448573,-42.48,-10.742,-35.156,-111.32799999999999,1.0
1626062419.7487636,39.062,-11.23,-34.668,341.79699999999997,1.0
1626062419.7526696,8.789,-12.695,-30.761999999999997,118.652,1.0
1626062419.756576,-96.191,-53.711000000000006,-27.344,-383.789,1.0
1626062419.7604823,-83.984,-74.219,-23.438000000000002,-252.93,1.0
1626062419.7643886,30.761999999999997,-41.016000000000005,-19.043,298.34,1.0
1626062419.7682948,38.574,-11.719000000000001,-20.996,282.22700000000003,1.0
1626062419.772201,-72.75399999999999,-28.32,-37.109,-277.344,1.0
1626062419.7761073,-107.91,-50.293,-35.156,-374.51199999999994,1.0
1626062419.7800136,-11.23,-34.18,-24.901999999999997,153.32,1.0
1626062419.7839198,23.438000000000002,-27.344,-41.992,1.0,1.0
1626062419.787826,-67.87100000000001,-32.227,-44.434,1.0,1.0
1626062419.7917323,-123.04700000000001,-23.926,-32.227,1.0,1.0
1626062419.7956386,-41.504,-64.453,-30.273000000000003,1.0,1.0
1626062419.799545,57.129,-91.309,-14.16,1.0,1.0
1626062419.803451,-1.953,-55.176,-18.555,1.0,1.0
1626062419.807357,-111.32799999999999,-23.438000000000002,-25.879,1.0,1.0
1626062419.8112638,-68.359,-19.043,-26.855,1.0,1.0
1626062419.8151696,27.344,-19.043,-49.805,1.0,1.0
1626062419.8190758,-5.371,-20.508000000000003,-55.176,1.0,1.0
1626062419.822982,-110.84,-24.414,-46.875,1.0,1.0
1626062419.8268883,-88.37899999999999,-16.113,-30.273000000000003,1.0,1.0
1626062419.830795,25.879,-18.555,-20.996,1.0,1.0
1626062419.834701,45.41,-26.366999999999997,-21.484,1.0,1.0
1626062419.8386073,-56.152,-40.039,-22.461,1.0,1.0
1626062419.8425136,-106.445,-30.273000000000003,-25.879,1.0,1.0
1626062419.8464196,1.953,-25.879,-20.996,1.0,1.0
1626062419.850326,71.777,-33.203,-26.366999999999997,1.0,1.0
1626062419.8542323,-4.395,0.0,-29.296999999999997,1.0,1.0
1626062419.8581383,-87.402,-9.277000000000001,-32.715,1.0,1.0
1626062419.8620448,-31.25,-38.086,-29.785,1.0,1.0
1626062419.865951,59.57,-12.207,-17.578,1.0,1.0
1626062419.8698573,10.742,-0.977,-23.926,1.0,1.0
1626062419.8737636,-86.914,-5.371,-28.32,1.0,1.0
1626062419.8776698,-62.012,-27.344,-40.039,1.0,1.0
1626062419.881576,48.828,-39.062,-46.875,1.0,1.0
1626062419.8854823,32.715,-34.18,-45.41,1.0,1.0
1626062419.8893886,-73.73,-42.48,-36.133,1.0,1.0
1626062419.8932948,-69.824,-50.781000000000006,-18.555,1.0,1.0
1626062419.897201,27.344,-42.48,-29.785,1.0,1.0
1626062419.9011073,59.082,-14.648,-33.203,1.0,1.0
1626062419.9050138,-57.617,-22.949,-34.668,1.0,1.0
1626062419.9089198,-107.91,-22.461,-26.366999999999997,1.0,1.0
1626062419.912826,-14.648,-19.531,-21.484,1.0,1.0
1626062419.9167323,32.227,-41.016000000000005,-33.203,1.0,1.0
1626062419.9206386,-29.785,-43.457,-31.25,1.0,1.0
1626062419.9245448,-101.074,-59.57,-33.691,-444.824,1.0
1626062419.928451,-29.296999999999997,-50.781000000000006,-28.32,-82.52,1.0
1626062419.932357,52.733999999999995,-23.438000000000002,-29.785,366.699,1.0
1626062419.9362638,-14.16,-36.133,-53.711000000000006,83.984,1.0
1626062419.9401696,-102.051,-34.668,-54.688,-403.809,1.0
1626062419.9440763,-71.289,-28.32,-38.086,-235.352,1.0
1626062419.947982,31.738000000000003,-27.831999999999997,-30.273000000000003,296.875,1.0
1626062419.9518883,14.648,-44.922,-45.898,220.703,1.0
1626062419.955795,-104.00399999999999,-68.359,-60.059,-333.496,1.0
1626062419.959701,-107.91,-46.875,-41.504,-367.18800000000005,1.0
1626062419.963607,0.488,-30.273000000000003,-25.879,170.41,1.0
1626062419.9675136,52.246,-32.227,-16.113,346.68,1.0
1626062419.9714196,36.621,-36.133,-23.438000000000002,291.504,1.0
1626062419.975326,-90.82,-59.57,-29.785,-267.09,1.0
1626062419.9792323,-126.95299999999999,-40.527,-42.48,-394.043,1.0
1626062419.9831386,-36.621,-30.273000000000003,-37.109,118.652,1.0
1626062419.9870448,9.766,-38.574,-10.742,346.191,1.0
1626062419.990951,-73.73,-54.688,-7.812,-127.93,1.0
1626062419.9948573,-134.766,-56.641000000000005,-12.207,-438.477,1.0
1626062419.9987636,-68.359,-52.246,-10.254000000000001,-30.761999999999997,1.0
1626062420.0026696,12.207,-60.059,-23.926,357.42199999999997,1.0
1626062420.006576,-28.809,-67.87100000000001,-32.715,31.738000000000003,1.0
1626062420.0104823,-115.723,-68.359,-15.625,-428.223,1.0
1626062420.0143886,-66.406,-50.293,-1.953,-173.34,1.0
1626062420.0182948,19.531,-56.641000000000005,-19.531,1.0,1.0
1626062420.022201,-4.883,-58.105,-27.831999999999997,1.0,1.0
1626062420.0261073,-100.098,-48.34,-30.761999999999997,1.0,1.0
1626062420.0300136,-110.352,-36.621,-34.18,1.0,1.0
1626062420.0339198,-19.043,-20.508000000000003,-32.227,1.0,1.0
1626062420.037826,4.395,-38.086,-34.18,1.0,1.0
1626062420.0417323,-71.777,-40.527,-21.973000000000003,1.0,1.0
1626062420.0456386,-116.699,-46.387,-14.648,1.0,1.0
1626062420.049545,-36.621,-41.992,-19.531,1.0,1.0
1626062420.053451,25.391,-20.508000000000003,-34.668,1.0,1.0
1626062420.057357,-46.875,-41.992,-55.663999999999994,1.0,1.0
1626062420.0612638,-118.652,-62.5,-43.945,1.0,1.0
1626062420.0651696,-59.082,-55.663999999999994,-30.273000000000003,1.0,1.0
1626062420.0690758,40.527,-31.25,-33.691,1.0,1.0
1626062420.072982,12.695,-15.137,-33.203,1.0,1.0
1626062420.0768883,-93.75,-29.296999999999997,-36.621,1.0,1.0
1626062420.080795,-73.242,-21.484,-34.18,1.0,1.0
1626062420.084701,27.344,-7.324,-27.344,1.0,1.0
1626062420.0886073,18.555,-24.901999999999997,-33.203,1.0,1.0
1626062420.0925136,-88.37899999999999,-61.035,-34.668,1.0,1.0
1626062420.0964196,-114.258,-70.312,-32.227,1.0,1.0
1626062420.100326,8.789,-47.852,-24.901999999999997,1.0,1.0
1626062420.1042323,44.922,-45.41,-27.344,1.0,1.0
1626062420.1081383,-76.172,-41.016000000000005,-35.645,1.0,1.0
1626062420.1120448,-136.719,-41.016000000000005,-53.711000000000006,-443.35900000000004,1.0
1626062420.115951,-41.504,-28.32,-61.035,32.715,1.0
1626062420.1198573,33.203,-20.996,-50.781000000000006,368.164,1.0
1626062420.1237636,-27.831999999999997,-39.062,-39.062,-23.438000000000002,1.0
1626062420.1276698,-101.074,-41.016000000000005,-28.32,-417.969,1.0
1626062420.131576,-74.707,-60.547,-32.715,-122.559,1.0
1626062420.1354823,14.648,-56.152,-30.761999999999997,336.426,1.0
1626062420.1393886,-10.742,-32.227,-39.551,124.512,1.0
1626062420.1432948,-99.609,-22.949,-37.598,-371.582,1.0
1626062420.147201,-77.637,-34.668,-26.366999999999997,-247.55900000000003,1.0
1626062420.1511073,5.859,-60.547,-42.968999999999994,268.066,1.0
1626062420.1550138,26.366999999999997,-38.574,-31.25,271.48400000000004,1.0
1626062420.1589198,-58.105,-15.625,-19.043,-259.277,1.0
1626062420.162826,-94.238,-24.901999999999997,-27.344,-356.445,1.0
1626062420.1667323,-15.137,-40.527,-39.551,146.484,1.0
1626062420.1706386,22.461,-45.41,-44.434,323.242,1.0
1626062420.1745448,-50.781000000000006,-40.527,-37.109,-139.648,1.0
1626062420.178451,-111.32799999999999,-35.645,-40.039,-416.99199999999996,1.0
1626062420.182357,-32.227,-32.227,-47.363,9.277000000000001,1.0
1626062420.1862638,48.828,-46.387,-35.645,379.395,1.0
1626062420.1901696,-20.508000000000003,-58.593999999999994,-27.344,25.391,1.0
1626062420.1940763,-105.469,-48.828,-20.02,-408.20300000000003,1.0
1626062420.197982,-62.5,-35.645,-18.555,-147.461,1.0
1626062420.2018883,26.855,-20.996,-26.855,339.844,1.0
1626062420.205795,38.086,-20.02,-6.836,159.668,1.0
1626062420.209701,-11.719000000000001,-28.32,-24.414,-374.023,1.0
1626062420.213607,-106.445,-37.598,-43.945,-300.781,1.0
1626062420.2175136,-91.309,-60.059,-41.504,258.789,1.0
1626062420.2214196,37.598,-50.781000000000006,-11.23,304.688,1.0
1626062420.225326,63.965,-36.621,-5.371,-243.16400000000002,1.0
1626062420.2292323,-53.223,-46.387,-31.738000000000003,-377.93,1.0
1626062420.2331386,-90.82,-51.758,-45.41,140.137,1.0
1626062420.2370448,5.371,-48.828,-35.156,391.602,1.0
1626062420.240951,39.551,-30.273000000000003,-23.926,-77.637,1.0
1626062420.2448573,-58.105,-33.203,-28.32,-441.406,1.0
1626062420.2487636,-117.676,-39.551,-28.32,-46.875,1.0
1626062420.2526696,-47.852,-37.598,-34.18,1.0,1.0
1626062420.256576,28.809,-31.738000000000003,-42.48,1.0,1.0
1626062420.2604823,-12.207,-34.668,-46.387,1.0,1.0
1626062420.2643886,-93.75,-44.434,-55.663999999999994,1.0,1.0
1626062420.2682948,-43.945,-37.598,-45.41,1.0,1.0
1626062420.272201,41.992,-35.156,-48.34,1.0,1.0
1626062420.2761073,13.672,-31.738000000000003,-42.968999999999994,1.0,1.0
1626062420.2800136,-71.777,-23.926,-18.066,1.0,1.0
1626062420.2839198,-64.453,-21.973000000000003,-14.16,1.0,1.0
1626062420.287826,14.16,-40.039,-37.598,1.0,1.0
1626062420.2917323,7.324,-65.43,-49.805,1.0,1.0
1626062420.2956386,-80.078,-43.945,-32.715,1.0,1.0
1626062420.299545,-93.262,-27.831999999999997,-17.578,-358.88699999999994,1.0
1626062420.303451,1.953,-23.926,-8.789,168.457,1.0
1626062420.307357,34.18,-19.043,-25.391,326.172,1.0
1626062420.3112638,-66.895,-37.109,-65.43,-175.78099999999998,1.0
1626062420.3151696,-112.79299999999999,-57.617,-59.082,-413.574,1.0
1626062420.3190758,-23.438000000000002,-65.918,-36.621,32.227,1.0
1626062420.322982,51.758,-42.48,-20.508000000000003,381.348,1.0
1626062420.3268883,-24.901999999999997,-33.203,-32.715,-6.348,1.0
1626062420.330795,-127.441,-39.551,-46.875,-453.61300000000006,1.0
1626062420.334701,-70.312,-13.184000000000001,-26.366999999999997,-146.484,1.0
1626062420.3386073,43.457,-18.555,-11.23,350.098,1.0
1626062420.3425136,25.391,-38.086,-29.296999999999997,160.156,1.0
1626062420.3464196,-20.02,-49.316,-22.461,37.598,1.0
1626062420.350326,-122.559,-49.805,-24.414,-427.246,1.0
1626062420.3542323,-82.52,-41.992,-35.645,-206.543,1.0
1626062420.3581383,25.391,-41.504,-38.574,312.5,1.0
1626062420.3620448,31.738000000000003,-30.273000000000003,-20.02,204.59,1.0
1626062420.365951,-70.801,-55.176,-27.831999999999997,-336.426,1.0
1626062420.3698573,-91.309,-67.383,-23.926,-327.637,1.0
1626062420.3737636,2.93,-53.223,-13.672,214.84400000000002,1.0
1626062420.3776698,23.926,-37.598,-26.366999999999997,301.27,1.0
1626062420.381576,-68.848,-31.25,-36.621,-225.09799999999998,1.0
1626062420.3854823,-114.258,-46.875,-42.48,-416.99199999999996,1.0
1626062420.3893886,-23.438000000000002,-25.879,-29.785,81.543,1.0
1626062420.3932948,22.461,-18.066,-33.691,1.0,1.0
1626062420.397201,-44.922,-39.551,-34.18,1.0,1.0
1626062420.4011073,-92.773,-39.062,-26.855,1.0,1.0
1626062420.4050138,-26.366999999999997,-61.035,-25.879,1.0,1.0
1626062420.4089198,51.27,-65.43,-16.113,1.0,1.0
1626062420.412826,-28.809,-56.152,-37.598,1.0,1.0
1626062420.4167323,-113.77,-30.761999999999997,-50.781000000000006,1.0,1.0
1626062420.4206386,-43.945,-12.207,-60.059,1.0,1.0
1626062420.4245448,42.48,-12.207,-64.453,1.0,1.0
1626062420.428451,7.324,-11.23,-33.691,1.0,1.0
1626062420.432357,-110.84,-49.805,-28.32,1.0,1.0
1626062420.4362638,-106.445,-67.87100000000001,-19.531,1.0,1.0
1626062420.4401696,13.672,-45.898,-22.949,196.28900000000002,1.0
1626062420.4440763,61.523,-26.366999999999997,-26.855,355.957,1.0
1626062420.447982,-32.227,-27.831999999999997,-26.366999999999997,-154.785,1.0
1626062420.4518883,-112.305,-44.922,-35.645,-431.64099999999996,1.0
1626062420.455795,-19.531,-21.973000000000003,-22.461,44.434,1.0
1626062420.459701,61.035,-20.508000000000003,-27.344,397.461,1.0
1626062420.463607,-10.742,-26.855,-42.968999999999994,0.977,1.0
1626062420.4675136,-101.56200000000001,-23.926,-49.805,-425.781,1.0
1626062420.4714196,-54.688,-34.668,-44.434,-128.906,1.0
1626062420.475326,43.945,-43.457,-29.296999999999997,356.445,1.0
1626062420.4792323,24.414,-20.996,-25.879,153.809,1.0
1626062420.4831386,-63.477,-12.207,-13.184000000000001,-356.934,1.0
1626062420.4870448,-75.195,-49.805,-19.043,1.0,1.0
1626062420.490951,29.296999999999997,-53.711000000000006,-29.785,1.0,1.0
1626062420.4948573,47.363,-24.414,-30.273000000000003,1.0,1.0
1626062420.4987636,-60.547,-15.137,-40.039,1.0,1.0
1626062420.5026696,-88.867,-15.625,-41.992,1.0,1.0
1626062420.506576,-4.883,-29.296999999999997,-42.48,1.0,1.0
1626062420.5104823,53.711000000000006,-20.996,-31.738000000000003,1.0,1.0
1626062420.5143886,-22.949,-21.484,-26.855,1.0,1.0
1626062420.5182948,-89.355,-20.508000000000003,-25.391,1.0,1.0
1626062420.522201,-24.901999999999997,-29.296999999999997,-27.344,1.0,1.0
1626062420.5261073,48.828,-55.176,-39.551,1.0,1.0
1626062420.5300136,28.809,-21.484,-21.484,1.0,1.0
1626062420.5339198,-67.87100000000001,-25.391,-21.973000000000003,-388.67199999999997,1.0
1626062420.537826,-49.805,-35.156,-26.366999999999997,-151.855,1.0
1626062420.5417323,33.203,-31.738000000000003,-33.203,332.031,1.0
1626062420.5456386,5.859,-62.012,-55.663999999999994,170.41,1.0
1626062420.549545,-75.684,-48.828,-56.152,-334.473,1.0
1626062420.553451,-74.707,-29.296999999999997,-44.922,-288.086,1.0
1626062420.557357,24.414,-24.901999999999997,-17.09,249.023,1.0
1626062420.5612638,39.551,-28.32,-9.277000000000001,298.828,1.0
1626062420.5651696,-52.246,-25.879,-8.301,-229.98,1.0
1626062420.5690758,-89.844,-28.32,-2.93,-381.836,1.0
1626062420.572982,-2.93,-35.156,-19.531,125.0,1.0
1626062420.5768883,55.176,-25.391,-23.926,375.977,1.0
1626062420.580795,34.18,0.488,-29.785,-99.609,1.0
1626062420.584701,-69.824,-30.761999999999997,-29.296999999999997,-458.496,1.0
1626062420.5886073,-128.906,-49.316,-35.156,-60.547,1.0
1626062420.5925136,-53.711000000000006,-46.875,-38.574,375.0,1.0
1626062420.5964196,37.598,-26.366999999999997,-17.578,74.219,1.0
1626062420.600326,-11.23,-29.296999999999997,-13.184000000000001,-434.57,1.0
1626062420.6042323,-86.426,-42.48,-12.207,-218.262,1.0
1626062420.6081383,-52.246,-57.617,-18.066,316.895,1.0
1626062420.6120448,21.973000000000003,-32.715,-27.831999999999997,225.58599999999998,1.0
1626062420.615951,-3.418,-10.254000000000001,-29.785,-325.195,1.0
1626062420.6198573,-98.145,-29.785,-32.715,-368.164,1.0
1626062420.6237636,-81.543,-28.32,-32.227,188.477,1.0
1626062420.6276698,21.484,-23.438000000000002,-43.945,1.0,1.0
1626062420.631576,41.504,-15.137,-26.855,1.0,1.0
1626062420.6354823,-59.082,-36.133,-31.738000000000003,1.0,1.0
1626062420.6393886,-92.773,-45.41,-54.688,1.0,1.0
1626062420.6432948,8.789,-23.438000000000002,-35.156,1.0,1.0
1626062420.647201,34.18,-45.898,-17.578,1.0,1.0
1626062420.6511073,-48.34,-57.129,-12.207,1.0,1.0
1626062420.6550138,-107.91,-38.574,-25.391,1.0,1.0
1626062420.6589198,-40.039,-11.719000000000001,-28.809,1.0,1.0
1626062420.662826,40.527,-10.254000000000001,-19.043,1.0,1.0
1626062420.6667323,-29.785,-40.527,-36.621,1.0,1.0
1626062420.6706386,-109.863,-32.227,-42.48,1.0,1.0
1626062420.6745448,-54.199,-22.949,-33.691,-147.94899999999998,1.0
1626062420.678451,43.457,-39.062,-34.18,342.773,1.0
1626062420.682357,15.137,-32.227,-42.48,160.645,1.0
1626062420.6862638,-91.309,-29.785,-41.504,-369.14099999999996,1.0
1626062420.6901696,-82.52,-29.785,-19.043,-291.992,1.0
1626062420.6940763,17.09,-18.555,-17.09,251.465,1.0
1626062420.697982,35.156,-12.695,-19.531,291.504,1.0
1626062420.7018883,-70.312,-42.968999999999994,-27.831999999999997,-259.76599999999996,1.0
1626062420.705795,-114.74600000000001,-44.922,-46.387,-403.32,1.0
1626062420.709701,-15.625,-19.531,-42.48,121.58200000000001,1.0
1626062420.713607,47.363,-15.625,-29.785,359.86300000000006,1.0
1626062420.7175136,-26.855,-30.761999999999997,-36.621,-95.215,1.0
1626062420.7214196,-46.387,-36.621,-31.25,-205.56599999999997,1.0
1626062420.725326,-89.355,-23.926,-25.879,-398.926,1.0
