timestamps,TP9,AF7,AF8,TP10,Right AUX
1626062888.4401696,1.465,-55.663999999999994,-36.133,122.559,1.0
1626062888.4440763,-23.438000000000002,-46.875,-38.086,-79.59,1.0
1626062888.447982,-40.527,-27.831999999999997,-48.34,-181.15200000000002,1.0
1626062888.4518883,-24.414,-14.648,-34.668,-3.906,1.0
1626062888.455795,-7.812,-24.414,-6.836,134.27700000000002,1.0
1626062888.459701,-28.32,-44.434,-11.719000000000001,-17.09,1.0
1626062888.463607,-54.688,-23.926,-32.715,-186.523,1.0
1626062888.4675136,-51.758,-11.719000000000001,-49.805,-83.008,1.0
1626062888.4714196,-27.344,-39.062,-54.199,98.145,1.0
1626062888.475326,-15.137,-39.551,-46.387,34.18,1.0
1626062888.4792323,-52.733999999999995,-37.598,-49.316,-177.24599999999998,1.0
1626062888.4831386,-46.875,-20.996,-57.617,-132.32399999999998,1.0
1626062888.4870448,-1.953,3.418,-25.879,98.633,1.0
1626062888.490951,-8.301,-21.973000000000003,1.465,91.309,1.0
1626062888.4948573,-58.593999999999994,-69.336,-25.391,-147.94899999999998,1.0
1626062888.4987636,-71.777,-63.477,-36.621,-189.453,1.0
1626062888.5026696,-41.016000000000005,-47.363,-33.203,22.461,1.0
1626062888.506576,-21.973000000000003,-37.109,-49.316,107.91,1.0
1626062888.5104823,-34.668,-26.366999999999997,-61.523,-66.406,1.0
1626062888.5143886,-59.082,-37.598,-32.227,-187.988,1.0
1626062888.5182948,-50.781000000000006,-36.133,-14.648,-34.18,1.0
1626062888.522201,-20.02,-30.761999999999997,-35.645,120.117,1.0
1626062888.5261073,-13.184000000000001,-39.062,-40.527,3.418,1.0
1626062888.5300136,-37.598,-31.738000000000003,-46.875,-171.387,1.0
1626062888.5339198,-38.574,-17.09,-26.366999999999997,-73.73,1.0
1626062888.537826,-42.968999999999994,-32.227,-31.25,132.812,1.0
1626062888.5417323,-13.672,-19.043,-24.414,57.617,1.0
1626062888.5456386,-31.25,-23.438000000000002,-45.41,-168.945,1.0
1626062888.549545,-55.176,-31.738000000000003,-42.968999999999994,-122.07,1.0
1626062888.553451,-20.508000000000003,-15.137,-17.578,100.098,1.0
1626062888.557357,5.371,-25.879,-40.039,119.62899999999999,1.0
1626062888.5612638,-12.695,-35.156,-52.733999999999995,-103.027,1.0
1626062888.5651696,-36.133,-34.668,-32.715,-182.61700000000002,1.0
1626062888.5690758,-48.828,-26.855,-26.855,43.945,1.0
1626062888.572982,-34.668,-18.066,-30.761999999999997,160.156,1.0
1626062888.5768883,-0.488,-20.02,-17.578,-22.949,1.0
1626062888.580795,-16.602,-28.809,-41.504,-80.078,1.0
1626062888.584701,-50.293,-35.645,-62.988,-178.22299999999998,1.0
1626062888.5886073,-26.366999999999997,-29.296999999999997,-41.504,19.043,1.0
1626062888.5925136,-0.977,-27.344,-33.203,141.602,1.0
1626062888.5964196,-26.366999999999997,-28.809,-41.016000000000005,-34.18,1.0
1626062888.600326,-56.641000000000005,-38.574,-41.016000000000005,-200.195,1.0
1626062888.6042323,-52.246,-57.617,-42.968999999999994,-76.172,1.0
1626062888.6081383,-17.09,-42.48,-40.039,115.234,1.0
1626062888.6120448,-2.441,-17.578,-30.761999999999997,32.715,1.0
1626062888.615951,-40.039,-21.484,-38.086,-175.293,1.0
1626062888.6198573,-49.316,-22.949,-32.715,-119.141,1.0
1626062888.6237636,-22.461,-42.968999999999994,-17.578,89.355,1.0
1626062888.6276698,-18.066,-61.035,-29.785,68.848,1.0
1626062888.631576,-43.457,-40.039,-50.293,-140.137,1.0
1626062888.6354823,-51.27,-8.789,-34.668,-158.691,1.0
1626062888.6393886,-42.968999999999994,-2.93,-40.039,27.831999999999997,1.0
1626062888.6432948,-30.273000000000003,-18.555,-50.781000000000006,93.262,1.0
1626062888.647201,-38.574,-29.785,-26.366999999999997,-80.566,1.0
1626062888.6511073,-52.733999999999995,-21.973000000000003,-32.715,-177.24599999999998,1.0
1626062888.6550138,-32.227,-31.25,-65.918,-3.906,1.0
1626062888.6589198,7.812,-54.688,-35.645,140.625,1.0
1626062888.662826,-7.324,-53.223,-10.742,-11.719000000000001,1.0
1626062888.6667323,-62.5,-36.133,-25.391,-200.195,1.0
1626062888.6706386,-48.34,-22.461,-17.09,-72.75399999999999,1.0
1626062888.6745448,-59.082,-31.738000000000003,-56.641000000000005,-50.781000000000006,1.0
1626062888.678451,-24.901999999999997,-21.484,-50.781000000000006,104.492,1.0
1626062888.682357,-26.366999999999997,-38.574,-40.527,-21.973000000000003,1.0
1626062888.6862638,-38.086,-58.593999999999994,-42.48,-184.57,1.0
1626062888.6901696,-12.207,-53.711000000000006,-40.039,-62.012,1.0
1626062888.6940763,2.441,-47.363,-42.48,131.34799999999998,1.0
1626062888.697982,-19.043,-43.945,-28.32,49.805,1.0
1626062888.7018883,-46.875,-40.527,-1.953,-164.062,1.0
1626062888.705795,-47.852,-42.968999999999994,-1.465,-138.672,1.0
1626062888.709701,-31.25,-33.203,-21.484,67.87100000000001,1.0
1626062888.713607,-31.738000000000003,-26.366999999999997,-32.715,82.031,1.0
1626062888.7175136,-51.758,-22.461,-39.062,-124.023,1.0
1626062888.7214196,-41.016000000000005,-5.859,-30.761999999999997,1.0,1.0
1626062888.725326,-4.883,1.953,-19.043,1.0,1.0
1626062888.7292323,3.418,-20.02,-26.366999999999997,1.0,1.0
1626062888.7331386,-15.137,-37.109,-50.293,1.0,1.0
1626062888.7370448,-34.18,-30.761999999999997,-50.293,1.0,1.0
1626062888.740951,-18.555,-50.781000000000006,-21.973000000000003,1.0,1.0
1626062888.7448573,5.859,-62.012,-26.855,1.0,1.0
1626062888.7487636,5.859,-34.668,-36.621,1.0,1.0
1626062888.7526696,-9.277000000000001,-22.461,-21.484,1.0,1.0
1626062888.756576,-14.648,-34.668,-18.066,1.0,1.0
1626062888.7604823,11.23,-6.836,-13.672,1.0,1.0
1626062888.7643886,17.578,14.648,-18.066,1.0,1.0
1626062888.7682948,-15.625,-23.926,-32.227,1.0,1.0
1626062888.772201,-40.039,-45.41,-60.547,1.0,1.0
1626062888.7761073,-23.926,-32.227,-65.918,1.0,1.0
1626062888.7800136,-9.277000000000001,-29.296999999999997,-52.246,1.0,1.0
1626062888.7839198,-28.32,-33.203,-45.898,1.0,1.0
1626062888.787826,-30.273000000000003,-13.672,-28.809,1.0,1.0
1626062888.7917323,-4.395,-20.02,-15.137,1.0,1.0
1626062888.7956386,3.906,-46.387,-12.207,1.0,1.0
1626062888.799545,-16.602,-33.691,-20.996,1.0,1.0
1626062888.803451,-31.25,3.418,-12.695,1.0,1.0
1626062888.807357,-29.296999999999997,4.395,-15.137,1.0,1.0
1626062888.8112638,-8.301,-21.484,-25.391,1.0,1.0
1626062888.8151696,2.93,-33.691,-23.438000000000002,1.0,1.0
1626062888.8190758,-12.207,-31.25,-40.527,1.0,1.0
1626062888.822982,-17.09,-17.09,-50.781000000000006,1.0,1.0
1626062888.8268883,-8.301,-11.719000000000001,-32.715,1.0,1.0
1626062888.830795,-21.484,-18.066,-47.363,1.0,1.0
1626062888.834701,-37.109,-21.973000000000003,-52.733999999999995,1.0,1.0
1626062888.8386073,-27.831999999999997,-34.18,-27.344,1.0,1.0
1626062888.8425136,9.766,-29.785,-5.371,1.0,1.0
1626062888.8464196,17.09,-23.926,0.0,1.0,1.0
1626062888.850326,-19.043,-39.062,-20.996,1.0,1.0
1626062888.8542323,-45.898,-59.57,-68.359,1.0,1.0
1626062888.8581383,-8.789,-23.926,-52.246,1.0,1.0
1626062888.8620448,17.09,8.301,-13.184000000000001,153.809,1.0
1626062888.865951,-23.438000000000002,-15.625,-27.344,-24.414,1.0
1626062888.8698573,-61.523,-24.414,-40.039,-204.59,1.0
1626062888.8737636,-35.645,-13.672,-31.25,-67.383,1.0
1626062888.8776698,5.371,-11.23,-27.344,139.648,1.0
1626062888.881576,-8.301,-20.02,-42.48,50.781000000000006,1.0
1626062888.8854823,-37.598,-37.598,-43.945,-152.344,1.0
1626062888.8893886,-41.504,-48.34,-46.875,-119.141,1.0
1626062888.8932948,-33.203,-52.246,-66.895,76.66,1.0
1626062888.897201,-28.32,-48.34,-44.434,84.961,1.0
1626062888.9011073,-39.062,-13.184000000000001,-20.508000000000003,-108.887,1.0
1626062888.9050138,-62.012,-16.113,-41.992,-165.03900000000002,1.0
1626062888.9089198,-41.992,-33.691,-32.715,-143.066,1.0
1626062888.912826,-7.324,-33.203,-35.645,82.52,1.0
1626062888.9167323,0.977,-32.227,-36.621,111.32799999999999,1.0
1626062888.9206386,-25.391,-27.344,-32.227,-103.516,1.0
1626062888.9245448,-51.758,-22.461,-35.156,-179.688,1.0
1626062888.928451,-47.852,-15.137,-33.691,18.555,1.0
1626062888.932357,-20.508000000000003,-6.836,-18.066,129.88299999999998,1.0
1626062888.9362638,-29.296999999999997,-25.391,-18.555,-55.663999999999994,1.0
1626062888.9401696,-46.875,-41.016000000000005,-31.738000000000003,-190.43,1.0
1626062888.9440763,-24.414,-20.996,-25.391,-25.879,1.0
1626062888.947982,8.301,-24.901999999999997,-8.789,147.94899999999998,1.0
1626062888.9518883,-6.348,-44.434,-20.02,22.461,1.0
1626062888.955795,-47.852,-35.645,-44.922,1.0,1.0
1626062888.959701,-59.082,-34.668,-32.227,1.0,1.0
1626062888.963607,-40.039,-53.223,-36.133,1.0,1.0
1626062888.9675136,-29.785,-25.879,-49.316,1.0,1.0
1626062888.9714196,-55.663999999999994,-2.93,-28.809,1.0,1.0
1626062888.975326,-62.5,-14.648,-20.996,1.0,1.0
1626062888.9792323,-18.066,-22.461,-12.695,1.0,1.0
1626062888.9831386,-4.395,-48.34,-24.414,1.0,1.0
1626062888.9870448,-42.968999999999994,-58.593999999999994,-38.086,1.0,1.0
1626062888.990951,-70.312,-43.945,-41.992,1.0,1.0
1626062888.9948573,-39.062,-35.156,-25.391,1.0,1.0
1626062888.9987636,-21.973000000000003,-40.039,-24.414,1.0,1.0
1626062889.0026696,-55.663999999999994,-34.18,-57.617,1.0,1.0
1626062889.006576,-72.266,-14.648,-50.781000000000006,1.0,1.0
1626062889.0104823,-41.992,-0.977,-32.227,1.0,1.0
1626062889.0143886,2.93,-8.301,-14.16,1.0,1.0
1626062889.0182948,-1.953,-38.086,-5.371,1.0,1.0
1626062889.022201,-27.344,-27.831999999999997,-2.93,1.0,1.0
1626062889.0261073,-33.203,-16.602,-7.812,1.0,1.0
1626062889.0300136,-10.742,-47.363,-13.672,1.0,1.0
1626062889.0339198,5.859,-56.152,-17.578,1.0,1.0
1626062889.037826,-27.344,-30.273000000000003,-41.016000000000005,1.0,1.0
1626062889.0417323,-52.246,-18.555,-55.663999999999994,1.0,1.0
1626062889.0456386,-16.113,-37.109,-46.387,1.0,1.0
1626062889.049545,3.906,-26.366999999999997,-28.809,125.977,1.0
1626062889.053451,-43.945,-7.324,-20.996,-103.516,1.0
1626062889.057357,-81.543,-35.156,-23.438000000000002,-225.58599999999998,1.0
1626062889.0612638,-36.621,-29.785,-14.16,-19.531,1.0
1626062889.0651696,22.461,-5.371,14.648,153.809,1.0
1626062889.0690758,-4.395,-34.668,-0.488,-1.953,1.0
1626062889.072982,-54.688,-49.805,-53.223,-199.707,1.0
1626062889.0768883,-47.363,-38.574,-53.711000000000006,-93.262,1.0
1626062889.080795,-29.785,-47.852,-38.086,95.70299999999999,1.0
1626062889.084701,-27.344,-33.203,-25.879,24.414,1.0
1626062889.0886073,-42.48,0.0,-29.296999999999997,-171.875,1.0
1626062889.0925136,-50.293,-15.625,-47.852,-143.066,1.0
1626062889.0964196,-8.301,-44.922,-19.043,89.844,1.0
1626062889.100326,18.555,-48.34,0.488,117.676,1.0
1626062889.1042323,-32.227,-44.434,-25.391,-120.117,1.0
1626062889.1081383,-81.543,-45.41,-57.129,-206.055,1.0
1626062889.1120448,-58.105,-42.48,-54.688,-4.883,1.0
1626062889.115951,-21.973000000000003,-23.438000000000002,-34.668,106.934,1.0
1626062889.1198573,-26.855,-11.23,-47.852,-59.57,1.0
1626062889.1237636,-37.598,-30.761999999999997,-58.105,-175.78099999999998,1.0
1626062889.1276698,-15.625,-36.621,-44.434,-5.859,1.0
1626062889.131576,1.953,-29.785,-15.625,145.50799999999998,1.0
1626062889.1354823,-4.883,-9.277000000000001,-6.348,12.207,1.0
1626062889.1393886,-37.109,2.93,-25.391,-174.805,1.0
1626062889.1432948,-56.152,-48.828,-36.621,-95.70299999999999,1.0
1626062889.147201,-58.593999999999994,-39.062,-43.945,104.00399999999999,1.0
1626062889.1511073,-15.137,-18.066,-36.133,61.523,1.0
1626062889.1550138,-2.441,-5.859,-8.301,-144.531,1.0
1626062889.1589198,-26.366999999999997,-17.578,-8.789,-120.117,1.0
1626062889.162826,-36.621,-13.672,-29.785,105.95700000000001,1.0
1626062889.1667323,-27.831999999999997,-22.949,-46.387,123.04700000000001,1.0
1626062889.1706386,-20.02,-49.316,-46.387,-105.469,1.0
1626062889.1745448,-39.062,-48.34,-39.062,-188.965,1.0
1626062889.178451,-55.663999999999994,-36.133,-47.852,16.602,1.0
1626062889.182357,-29.296999999999997,-46.875,-50.781000000000006,139.16,1.0
1626062889.1862638,-3.906,-37.598,-19.531,-36.621,1.0
1626062889.1901696,-36.621,-26.855,-9.277000000000001,1.0,1.0
1626062889.1940763,-68.359,-46.875,-36.621,1.0,1.0
1626062889.197982,-40.527,-34.668,-41.016000000000005,1.0,1.0
1626062889.2018883,-9.766,-27.831999999999997,-25.879,1.0,1.0
1626062889.205795,-20.508000000000003,-37.598,-28.809,1.0,1.0
1626062889.209701,-47.363,-24.414,-60.547,1.0,1.0
1626062889.213607,-36.133,-19.531,-62.988,1.0,1.0
1626062889.2175136,-0.488,-32.715,-23.926,1.0,1.0
1626062889.2214196,-9.277000000000001,-35.645,-31.25,1.0,1.0
1626062889.225326,-48.34,-31.25,-32.715,1.0,1.0
1626062889.2292323,-50.293,-35.645,-13.672,1.0,1.0
1626062889.2331386,-40.039,-50.293,-42.48,1.0,1.0
1626062889.2370448,-30.273000000000003,-45.898,-57.617,60.059,1.0
1626062889.240951,-34.18,-39.062,-40.039,-136.23,1.0
1626062889.2448573,-60.547,-37.109,-43.457,-173.828,1.0
1626062889.2487636,-38.574,-12.695,-58.593999999999994,44.434,1.0
1626062889.2526696,-8.301,-12.695,-64.941,127.93,1.0
1626062889.256576,-25.391,-36.621,-41.992,-73.73,1.0
1626062889.2604823,-20.508000000000003,-35.645,-15.625,-163.57399999999998,1.0
1626062889.2643886,8.789,-39.551,-5.859,29.296999999999997,1.0
1626062889.2682948,2.93,-29.785,-9.766,141.602,1.0
1626062889.272201,-37.598,-28.809,-29.296999999999997,-41.992,1.0
1626062889.2761073,-65.43,-46.875,-37.109,-215.332,1.0
1626062889.2800136,-26.855,-46.875,-13.672,-61.523,1.0
1626062889.2839198,-40.039,-52.733999999999995,-49.805,-30.761999999999997,1.0
1626062889.287826,-8.789,-35.645,-16.113,136.23,1.0
1626062889.2917323,-12.695,-9.277000000000001,-16.113,8.301,1.0
1626062889.2956386,-45.898,-49.316,-38.574,-189.453,1.0
1626062889.299545,-38.086,-74.707,-18.066,-90.33200000000001,1.0
1626062889.303451,-17.578,-39.062,-10.742,116.211,1.0
1626062889.307357,-22.461,-32.227,-36.133,46.875,1.0
1626062889.3112638,-32.715,-27.344,-38.086,-155.273,1.0
1626062889.3151696,-37.109,-35.645,-26.855,-134.766,1.0
1626062889.3190758,-21.973000000000003,-48.34,-21.973000000000003,82.031,1.0
1626062889.322982,-12.207,-22.461,-6.348,114.74600000000001,1.0
1626062889.3268883,-42.48,-9.766,-18.066,-105.95700000000001,1.0
1626062889.330795,-65.43,-24.414,-50.293,1.0,1.0
1626062889.334701,-45.41,-39.551,-60.059,1.0,1.0
1626062889.3386073,-23.926,-61.523,-44.434,1.0,1.0
1626062889.3425136,-42.48,-54.199,-42.48,1.0,1.0
1626062889.3464196,-63.477,-33.691,-39.551,1.0,1.0
1626062889.350326,-19.043,-18.066,-30.761999999999997,1.0,1.0
1626062889.3542323,16.602,-20.02,-40.039,1.0,1.0
1626062889.3581383,-6.348,-41.992,-22.949,1.0,1.0
1626062889.3620448,-46.875,-43.945,-7.812,1.0,1.0
1626062889.365951,-67.87100000000001,-37.109,-38.574,1.0,1.0
1626062889.3698573,-50.781000000000006,-25.391,-56.152,1.0,1.0
1626062889.3737636,-40.527,-16.113,-49.805,1.0,1.0
1626062889.3776698,-54.199,-20.02,-58.105,1.0,1.0
1626062889.381576,-53.711000000000006,-46.875,-71.289,1.0,1.0
1626062889.3854823,-16.113,-50.293,-43.457,1.0,1.0
1626062889.3893886,0.488,-31.25,-9.277000000000001,1.0,1.0
1626062889.3932948,-40.039,-11.719000000000001,-37.109,1.0,1.0
1626062889.397201,-55.663999999999994,0.0,-62.5,1.0,1.0
1626062889.4011073,-22.461,-25.879,-29.296999999999997,1.0,1.0
1626062889.4050138,-5.371,-63.965,-30.761999999999997,1.0,1.0
1626062889.4089198,-38.574,-64.453,-51.758,1.0,1.0
1626062889.412826,-75.684,-49.805,-46.875,1.0,1.0
1626062889.4167323,-50.781000000000006,-20.996,-27.831999999999997,1.0,1.0
1626062889.4206386,-13.184000000000001,-7.812,-28.32,1.0,1.0
1626062889.4245448,-6.836,-31.738000000000003,-43.457,1.0,1.0
1626062889.428451,-30.273000000000003,-51.27,-30.761999999999997,1.0,1.0
1626062889.432357,-41.016000000000005,-21.484,-25.391,1.0,1.0
1626062889.4362638,-0.488,8.789,-41.504,1.0,1.0
1626062889.4401696,3.418,-20.02,-41.016000000000005,1.0,1.0
1626062889.4440763,-42.48,-44.922,-35.156,1.0,1.0
1626062889.447982,-52.246,-43.945,-33.203,1.0,1.0
1626062889.4518883,-19.531,-53.223,-26.855,1.0,1.0
1626062889.455795,-13.184000000000001,-61.035,-32.715,1.0,1.0
1626062889.459701,-41.504,-38.086,-33.691,1.0,1.0
1626062889.463607,-60.547,-10.254000000000001,-23.926,1.0,1.0
1626062889.4675136,-44.922,-14.648,-32.227,1.0,1.0
1626062889.4714196,-7.812,-30.761999999999997,-32.227,126.95299999999999,1.0
1626062889.475326,-4.395,-17.09,-29.785,-7.812,1.0
1626062889.4792323,-48.828,-32.715,-70.312,-189.94099999999997,1.0
1626062889.4831386,-55.176,-60.547,-66.895,-86.914,1.0
1626062889.4870448,-14.16,-39.062,-32.715,107.42200000000001,1.0
1626062889.490951,-8.789,-22.461,-32.227,38.574,1.0
1626062889.4948573,-41.992,-39.551,-41.016000000000005,-171.387,1.0
1626062889.4987636,-53.223,-35.156,-38.574,-147.461,1.0
1626062889.5026696,-31.25,-12.207,-23.438000000000002,69.824,1.0
1626062889.506576,-29.296999999999997,-10.254000000000001,-24.414,66.406,1.0
1626062889.5104823,-38.574,-3.418,-28.32,-145.50799999999998,1.0
1626062889.5143886,-31.738000000000003,-7.324,-39.551,-175.293,1.0
1626062889.5182948,-63.477,-23.926,-41.016000000000005,-135.74200000000002,1.0
1626062889.522201,-53.711000000000006,-43.457,-22.461,67.87100000000001,1.0
1626062889.5261073,-47.363,-51.758,-43.457,83.008,1.0
1626062889.5300136,-54.688,-31.738000000000003,-46.875,-117.676,1.0
1626062889.5339198,-62.988,-30.273000000000003,-43.945,-185.547,1.0
1626062889.537826,-29.296999999999997,-15.137,-40.527,31.738000000000003,1.0
1626062889.5417323,4.395,-20.996,-36.133,160.156,1.0
1626062889.5456386,-1.953,-40.039,-45.898,-21.973000000000003,1.0
1626062889.549545,-3.906,-20.02,-35.156,-150.391,1.0
1626062889.553451,-16.113,-29.785,-20.02,-8.789,1.0
1626062889.557357,-15.137,-29.785,-13.672,149.414,1.0
1626062889.5612638,-12.207,-18.555,-24.414,31.738000000000003,1.0
1626062889.5651696,-52.733999999999995,-29.785,-38.574,1.0,1.0
1626062889.5690758,-65.43,-39.551,-42.48,1.0,1.0
1626062889.572982,-24.414,-24.901999999999997,-47.852,1.0,1.0
1626062889.5768883,0.0,-16.113,-41.992,1.0,1.0
1626062889.580795,-38.574,-48.34,-33.203,1.0,1.0
1626062889.584701,-58.593999999999994,-47.363,-29.785,1.0,1.0
1626062889.5886073,-9.766,-32.227,-39.551,1.0,1.0
1626062889.5925136,20.02,-39.551,-34.668,1.0,1.0
1626062889.5964196,-9.766,-27.831999999999997,-32.227,1.0,1.0
1626062889.600326,-43.945,-24.414,-43.457,1.0,1.0
1626062889.6042323,-32.227,-34.18,-35.156,1.0,1.0
1626062889.6081383,-8.789,-39.551,-30.761999999999997,1.0,1.0
1626062889.6120448,-25.879,-40.527,-22.461,-27.344,1.0
1626062889.615951,-39.062,-19.043,-19.043,-180.176,1.0
1626062889.6198573,-48.828,-22.949,-56.641000000000005,-55.176,1.0
1626062889.6237636,-24.414,-19.043,-64.453,126.465,1.0
1626062889.6276698,-3.906,-21.973000000000003,-33.691,42.968999999999994,1.0
1626062889.631576,-25.391,-60.547,-10.742,-161.621,1.0
1626062889.6354823,-16.113,-45.898,-9.277000000000001,-98.145,1.0
1626062889.6393886,7.324,-8.789,-35.156,118.164,1.0
1626062889.6432948,-9.277000000000001,-10.254000000000001,-43.945,83.984,1.0
1626062889.647201,-40.527,-20.508000000000003,-26.366999999999997,-146.97299999999998,1.0
1626062889.6511073,-44.922,-35.156,-11.23,-175.78099999999998,1.0
1626062889.6550138,-34.668,-39.551,-23.926,36.621,1.0
1626062889.6589198,-27.831999999999997,-41.016000000000005,-45.41,104.98,1.0
1626062889.662826,-24.414,-34.668,-34.18,-75.195,1.0
1626062889.6667323,-41.016000000000005,-23.926,-23.438000000000002,-179.199,1.0
1626062889.6706386,-19.531,-6.836,-17.578,11.719000000000001,1.0
1626062889.6745448,14.16,-40.039,-21.973000000000003,161.621,1.0
1626062889.678451,-6.836,-66.406,-69.336,-2.93,1.0
1626062889.682357,-44.922,-27.344,-64.453,-187.5,1.0
1626062889.6862638,-53.223,-31.738000000000003,-19.043,-82.52,1.0
1626062889.6901696,-14.16,-21.973000000000003,-7.812,126.465,1.0
1626062889.6940763,1.465,-0.488,-20.996,66.895,1.0
1626062889.697982,-41.016000000000005,-31.25,-36.621,-163.086,1.0
1626062889.7018883,-48.828,-40.527,-32.715,-140.137,1.0
1626062889.705795,-11.23,-22.461,-18.066,86.914,1.0
1626062889.709701,-7.812,-38.086,-20.02,90.82,1.0
1626062889.713607,-26.366999999999997,-45.898,-31.738000000000003,-124.512,1.0
1626062889.7175136,-23.926,-46.875,-49.805,-164.551,1.0
1626062889.7214196,-12.207,-58.593999999999994,-57.129,33.691,1.0
1626062889.725326,-20.996,-37.598,-36.133,108.398,1.0
1626062889.7292323,-34.18,-30.273000000000003,-22.461,-70.312,1.0
1626062889.7331386,-43.945,-32.227,-22.949,-189.94099999999997,1.0
1626062889.7370448,-22.461,-15.625,-23.438000000000002,-14.648,1.0
1626062889.740951,-2.93,-18.555,-29.785,145.996,1.0
1626062889.7448573,-16.113,-31.738000000000003,-29.785,11.719000000000001,1.0
1626062889.7487636,-48.34,-35.156,-19.043,-179.199,1.0
1626062889.7526696,-83.984,-38.086,-48.34,-94.727,1.0
1626062889.756576,-54.688,-20.02,-44.434,115.723,1.0
1626062889.7604823,-0.977,-34.668,-8.301,58.105,1.0
1626062889.7643886,-26.855,-55.663999999999994,-6.348,-156.25,1.0
1626062889.7682948,-66.406,-41.016000000000005,-9.277000000000001,-147.94899999999998,1.0
1626062889.772201,-66.406,-34.18,-18.066,59.082,1.0
1626062889.7761073,-55.663999999999994,-40.527,-54.688,96.68,1.0
1626062889.7800136,-35.645,-33.203,-59.57,-118.652,1.0
1626062889.7839198,-46.387,-40.039,-53.223,-192.38299999999998,1.0
1626062889.787826,-48.34,-43.457,-31.25,17.578,1.0
1626062889.7917323,-29.296999999999997,-35.645,-24.414,117.18799999999999,1.0
1626062889.7956386,-20.508000000000003,-42.48,-36.621,-69.336,1.0
1626062889.799545,-52.246,-37.598,-45.898,1.0,1.0
1626062889.803451,-70.312,-36.621,-53.223,1.0,1.0
1626062889.807357,-37.598,-48.828,-48.34,1.0,1.0
1626062889.8112638,-18.066,-35.156,-37.109,1.0,1.0
1626062889.8151696,-50.293,-38.086,-41.504,1.0,1.0
1626062889.8190758,-86.426,-58.593999999999994,-56.152,1.0,1.0
1626062889.822982,-59.57,-16.602,-36.133,1.0,1.0
1626062889.8268883,-31.25,-11.23,-19.531,1.0,1.0
1626062889.830795,-38.086,-21.484,-28.32,1.0,1.0
1626062889.834701,-54.199,-23.438000000000002,-26.855,1.0,1.0
1626062889.8386073,-50.293,-53.711000000000006,-24.901999999999997,1.0,1.0
1626062889.8425136,-17.578,-46.387,-45.898,1.0,1.0
1626062889.8464196,-10.742,-25.391,-60.059,89.355,1.0
1626062889.850326,-44.434,-32.227,-58.593999999999994,-136.23,1.0
1626062889.8542323,-58.105,-40.039,-53.711000000000006,-171.875,1.0
1626062889.8581383,-34.18,-38.574,-34.18,50.293,1.0
1626062889.8620448,-11.719000000000001,-38.574,-13.184000000000001,129.88299999999998,1.0
1626062889.865951,-38.574,-38.574,-14.648,-79.59,1.0
1626062889.8698573,-71.289,-33.203,-25.391,-206.543,1.0
1626062889.8737636,-60.059,-32.715,-31.738000000000003,-32.227,1.0
1626062889.8776698,-27.831999999999997,-47.852,-23.926,128.418,1.0
1626062889.881576,-14.648,-45.41,-22.949,3.906,1.0
1626062889.8854823,-58.105,-51.27,-49.316,-188.965,1.0
1626062889.8893886,-69.336,-53.711000000000006,-63.965,-92.285,1.0
1626062889.8932948,-40.527,-9.277000000000001,-41.992,-31.25,1.0
1626062889.897201,0.488,-0.488,-47.363,150.391,1.0
1626062889.9011073,9.766,-18.066,-38.086,40.527,1.0
1626062889.9050138,-20.02,-36.133,-30.273000000000003,-152.344,1.0
1626062889.9089198,-43.945,-44.922,-34.668,-85.93799999999999,1.0
1626062889.912826,-25.391,-41.992,-35.156,118.652,1.0
1626062889.9167323,-18.066,-43.945,-35.645,63.965,1.0
1626062889.9206386,-59.57,-64.941,-39.551,-176.75799999999998,1.0
1626062889.9245448,-66.895,-52.733999999999995,-34.668,-166.016,1.0
1626062889.928451,-36.621,-18.555,-33.203,63.965,1.0
1626062889.932357,-27.831999999999997,-29.296999999999997,-35.156,91.309,1.0
1626062889.9362638,-41.504,-36.621,-31.738000000000003,-117.18799999999999,1.0
1626062889.9401696,-43.945,-28.32,-32.715,-174.805,1.0
1626062889.9440763,-10.254000000000001,-17.09,-20.996,40.039,1.0
1626062889.947982,3.418,-13.672,-22.949,136.719,1.0
1626062889.9518883,-19.043,-21.973000000000003,-43.457,-49.805,1.0
1626062889.955795,-33.203,-30.273000000000003,-55.176,-181.641,1.0
1626062889.959701,-14.648,-43.945,-48.34,-17.09,1.0
1626062889.963607,0.977,-44.922,-34.668,150.391,1.0
1626062889.9675136,-19.043,-23.926,-22.949,18.555,1.0
1626062889.9714196,-44.434,-14.648,-26.366999999999997,-183.105,1.0
1626062889.975326,-36.621,-17.578,-34.18,-101.56200000000001,1.0
1626062889.9792323,0.977,-15.137,-23.438000000000002,125.977,1.0
1626062889.9831386,3.906,-26.855,-29.296999999999997,91.79700000000001,1.0
1626062889.9870448,-29.296999999999997,-34.18,-29.785,1.0,1.0
1626062889.990951,-40.039,-31.738000000000003,-20.508000000000003,1.0,1.0
1626062889.9948573,-27.344,-33.691,-44.434,1.0,1.0
1626062889.9987636,-17.09,-42.968999999999994,-42.48,1.0,1.0
1626062890.0026696,-35.156,-44.434,-55.176,1.0,1.0
1626062890.006576,-45.41,-17.09,-62.5,1.0,1.0
1626062890.0104823,-14.16,-17.578,-38.086,1.0,1.0
1626062890.0143886,-3.418,-51.27,-39.062,1.0,1.0
1626062890.0182948,-29.296999999999997,-38.086,-47.852,1.0,1.0
1626062890.022201,-48.828,-25.391,-43.457,1.0,1.0
1626062890.0261073,-20.508000000000003,-28.809,-11.23,1.0,1.0
1626062890.0300136,3.906,-20.508000000000003,-5.371,1.0,1.0
1626062890.0339198,-39.551,-45.898,-48.34,-1.953,1.0
1626062890.037826,-78.613,-46.875,-52.246,-219.727,1.0
1626062890.0417323,-69.824,-30.761999999999997,-52.733999999999995,-156.738,1.0
1626062890.0456386,-35.156,-58.105,-56.641000000000005,66.895,1.0
1626062890.049545,-20.508000000000003,-54.688,-36.621,63.477,1.0
1626062890.053451,-51.758,-26.366999999999997,-52.246,-162.109,1.0
1626062890.057357,-46.387,-13.672,-53.223,-177.734,1.0
1626062890.0612638,-15.137,-41.992,-43.945,49.316,1.0
1626062890.0651696,-1.953,-43.945,-22.461,121.094,1.0
1626062890.0690758,-3.906,-4.883,10.742,-58.105,1.0
1626062890.072982,-35.156,-30.761999999999997,-11.23,-177.24599999999998,1.0
1626062890.0768883,-18.555,-38.086,-25.879,0.0,1.0
1626062890.080795,10.254000000000001,-6.836,-16.602,150.879,1.0
1626062890.084701,-15.625,-14.16,-28.32,-15.137,1.0
1626062890.0886073,-50.293,-50.293,-37.109,-197.266,1.0
1626062890.0925136,-45.898,-62.5,-27.344,-81.055,1.0
1626062890.0964196,-15.137,-40.527,-36.621,122.559,1.0
1626062890.100326,-7.324,-10.742,-60.059,64.453,1.0
1626062890.1042323,-30.761999999999997,-6.836,-49.805,-147.461,1.0
1626062890.1081383,-52.733999999999995,-39.062,-28.809,-137.695,1.0
1626062890.1120448,-29.785,-54.199,-17.578,81.055,1.0
1626062890.115951,-6.348,-31.25,-10.254000000000001,106.445,1.0
1626062890.1198573,-36.133,-14.648,-18.555,-116.211,1.0
1626062890.1237636,-52.733999999999995,-14.16,-25.879,-172.363,1.0
1626062890.1276698,-39.062,-34.18,-2.441,28.32,1.0
1626062890.131576,-3.906,-42.968999999999994,6.836,127.93,1.0
1626062890.1354823,12.207,-22.949,-14.16,-44.922,1.0
1626062890.1393886,-34.668,-24.414,-41.992,-179.688,1.0
1626062890.1432948,-58.593999999999994,-46.875,-40.039,-14.648,1.0
1626062890.147201,-41.504,-48.34,-38.086,145.02,1.0
1626062890.1511073,-20.996,-20.996,-36.621,11.23,1.0
1626062890.1550138,-27.831999999999997,-18.555,-32.715,-194.824,1.0
1626062890.1589198,-54.688,-39.551,-44.434,-104.98,1.0
1626062890.162826,-20.996,-41.016000000000005,-34.18,117.676,1.0
1626062890.1667323,39.062,-36.621,8.301,63.965,1.0
1626062890.1706386,13.184000000000001,-26.855,4.883,-148.92600000000002,1.0
1626062890.1745448,-49.316,-7.324,-36.133,1.0,1.0
1626062890.178451,-59.57,-17.578,-44.922,1.0,1.0
1626062890.182357,-28.32,-26.855,-32.715,1.0,1.0
1626062890.1862638,-19.531,-34.18,-36.133,1.0,1.0
1626062890.1901696,-36.621,-50.781000000000006,-41.504,1.0,1.0
1626062890.1940763,-38.086,-41.992,-27.831999999999997,1.0,1.0
1626062890.197982,-14.648,-28.809,-38.086,1.0,1.0
1626062890.2018883,-2.441,-23.438000000000002,-48.828,1.0,1.0
1626062890.205795,-31.25,-33.203,-37.598,1.0,1.0
1626062890.209701,-55.663999999999994,-39.551,-31.25,1.0,1.0
1626062890.213607,-35.645,-30.761999999999997,-29.785,1.0,1.0
1626062890.2175136,-3.418,-1.465,-35.645,1.0,1.0
1626062890.2214196,-26.366999999999997,-20.508000000000003,-32.715,-32.715,1.0
1626062890.225326,-62.012,-40.527,-24.414,-204.102,1.0
1626062890.2292323,-45.898,-24.414,-14.648,-61.523,1.0
1626062890.2331386,-10.742,-33.203,-31.25,128.418,1.0
1626062890.2370448,12.207,-29.296999999999997,-34.18,57.129,1.0
1626062890.240951,-27.344,-21.973000000000003,-20.508000000000003,-156.25,1.0
1626062890.2448573,-58.105,-16.602,-41.992,-132.32399999999998,1.0
1626062890.2487636,-41.016000000000005,-23.926,-43.945,79.102,1.0
1626062890.2526696,-36.133,-48.828,-37.109,74.707,1.0
1626062890.256576,-46.387,-40.039,-43.457,-136.23,1.0
1626062890.2604823,-45.898,-33.203,-29.296999999999997,-156.738,1.0
1626062890.2643886,-18.555,-40.527,0.0,72.75399999999999,1.0
1626062890.2682948,-15.625,-58.105,-27.344,96.68,1.0
1626062890.272201,-8.301,-21.484,-33.203,104.492,1.0
1626062890.2761073,-34.668,-5.859,-18.066,-115.723,1.0
1626062890.2800136,-45.41,-2.93,3.906,-169.922,1.0
1626062890.2839198,-15.137,-8.301,12.207,52.246,1.0
1626062890.287826,2.93,-11.719000000000001,-8.301,158.203,1.0
1626062890.2917323,-18.555,-15.625,-25.391,-34.18,1.0
1626062890.2956386,-42.968999999999994,-30.273000000000003,-14.16,-174.805,1.0
1626062890.299545,-35.645,-55.176,-18.066,-23.438000000000002,1.0
1626062890.303451,-12.207,-61.523,-23.926,135.74200000000002,1.0
1626062890.307357,-7.812,-38.574,-16.113,14.648,1.0
1626062890.3112638,-23.438000000000002,-31.25,-4.395,-164.062,1.0
1626062890.3151696,-71.289,-33.203,-31.738000000000003,-79.59,1.0
1626062890.3190758,-57.617,-26.366999999999997,-28.32,113.281,1.0
1626062890.322982,-11.719000000000001,9.277000000000001,-17.578,56.641000000000005,1.0
1626062890.3268883,-21.484,-5.859,-19.043,-145.02,1.0
1626062890.330795,-30.761999999999997,-14.648,-19.531,-125.977,1.0
1626062890.334701,-22.461,-31.25,-28.809,82.52,1.0
1626062890.3386073,-10.742,-63.477,-62.5,123.535,1.0
1626062890.3425136,-12.207,-49.805,-58.593999999999994,-86.914,1.0
1626062890.3464196,-41.016000000000005,-27.344,-46.387,-170.41,1.0
1626062890.350326,-56.152,-9.766,-56.152,30.273000000000003,1.0
1626062890.3542323,-31.25,4.883,-39.062,128.418,1.0
1626062890.3581383,-13.184000000000001,-24.901999999999997,-16.113,-58.105,1.0
1626062890.3620448,-42.968999999999994,-40.527,-24.414,1.0,1.0
1626062890.365951,-67.383,-4.395,-27.831999999999997,1.0,1.0
1626062890.3698573,-47.363,-24.414,-28.32,1.0,1.0
1626062890.3737636,-7.324,-58.593999999999994,-14.648,1.0,1.0
1626062890.3776698,-4.883,-39.062,-8.789,1.0,1.0
1626062890.381576,-45.898,-23.926,-52.246,1.0,1.0
1626062890.3854823,-48.828,-29.785,-79.102,1.0,1.0
1626062890.3893886,-10.742,-5.859,-69.824,1.0,1.0
1626062890.3932948,0.488,10.742,-67.383,1.0,1.0
1626062890.397201,-35.156,-9.766,-47.852,1.0,1.0
1626062890.4011073,-56.152,-25.391,-23.926,1.0,1.0
1626062890.4050138,-11.23,-12.695,-3.906,1.0,1.0
1626062890.4089198,13.672,-10.742,8.301,107.91,1.0
1626062890.412826,-9.277000000000001,-24.901999999999997,0.488,-119.141,1.0
1626062890.4167323,-27.344,-32.715,-24.414,-157.227,1.0
1626062890.4206386,-11.23,-41.504,-39.062,53.223,1.0
1626062890.4245448,-2.441,-48.828,-34.18,107.42200000000001,1.0
1626062890.428451,-21.973000000000003,-40.039,-29.785,-76.66,1.0
1626062890.432357,-22.461,-13.672,-27.831999999999997,-159.18,1.0
1626062890.4362638,-2.441,-13.672,-26.855,18.066,1.0
1626062890.4401696,-0.488,-30.761999999999997,-30.273000000000003,149.414,1.0
1626062890.4440763,-21.973000000000003,-30.273000000000003,-26.366999999999997,-4.883,1.0
1626062890.447982,-61.035,-24.901999999999997,-32.227,-197.75400000000002,1.0
1626062890.4518883,-56.152,-19.043,-29.785,-98.633,1.0
1626062890.455795,-21.484,-18.066,-37.109,-16.602,1.0
1626062890.459701,26.855,-9.277000000000001,-2.93,172.363,1.0
1626062890.463607,-2.93,-19.043,-14.648,11.719000000000001,1.0
1626062890.4675136,-67.87100000000001,-20.996,-32.227,-212.40200000000002,1.0
1626062890.4714196,-64.941,-18.555,-24.414,-119.141,1.0
1626062890.475326,-26.366999999999997,-35.156,-20.508000000000003,104.98,1.0
1626062890.4792323,-21.973000000000003,-41.992,-28.809,67.383,1.0
1626062890.4831386,-43.457,-41.016000000000005,-22.949,-152.832,1.0
1626062890.4870448,-55.663999999999994,-46.387,-16.113,-152.832,1.0
1626062890.490951,-21.484,-27.344,-19.043,82.52,1.0
1626062890.4948573,10.254000000000001,2.441,-16.113,138.672,1.0
1626062890.4987636,-21.973000000000003,-15.625,-20.508000000000003,-85.93799999999999,1.0
1626062890.5026696,-55.663999999999994,-43.945,-29.296999999999997,1.0,1.0
1626062890.506576,-27.344,-29.785,-31.25,1.0,1.0
1626062890.5104823,-9.277000000000001,-34.18,-47.363,1.0,1.0
1626062890.5143886,-44.434,-70.312,-59.082,1.0,1.0
1626062890.5182948,-50.293,-59.082,-56.152,1.0,1.0
1626062890.522201,-27.831999999999997,-43.945,-56.152,1.0,1.0
1626062890.5261073,-13.672,-41.992,-25.391,1.0,1.0
1626062890.5300136,-24.414,-26.366999999999997,-6.836,1.0,1.0
1626062890.5339198,-48.34,-20.996,-13.672,1.0,1.0
1626062890.537826,-39.551,-24.414,-17.09,1.0,1.0
1626062890.5417323,-20.02,-8.789,-30.273000000000003,1.0,1.0
1626062890.5456386,-15.625,-0.488,-28.809,1.0,1.0
1626062890.549545,-27.344,-26.366999999999997,-23.438000000000002,1.0,1.0
1626062890.553451,-28.32,-48.34,-17.578,1.0,1.0
1626062890.557357,-13.184000000000001,-54.199,-12.207,1.0,1.0
1626062890.5612638,-20.996,-62.5,-36.621,1.0,1.0
1626062890.5651696,-45.41,-47.363,-57.129,1.0,1.0
1626062890.5690758,-61.035,-27.344,-53.223,1.0,1.0
1626062890.572982,-28.809,-1.953,-21.484,1.0,1.0
1626062890.5768883,-0.488,9.277000000000001,-4.883,1.0,1.0
1626062890.580795,-27.344,-17.578,-18.066,1.0,1.0
1626062890.584701,-52.246,-26.366999999999997,-22.949,1.0,1.0
1626062890.5886073,-40.039,-46.875,-38.574,1.0,1.0
1626062890.5925136,-15.137,-49.316,-44.434,1.0,1.0
1626062890.5964196,-28.809,-50.781000000000006,-34.18,27.831999999999997,1.0
1626062890.600326,-47.852,-62.5,-10.742,-172.852,1.0
1626062890.6042323,-32.715,-60.547,-4.883,-104.98,1.0
1626062890.6081383,-8.789,-41.992,-33.203,118.164,1.0
1626062890.6120448,-15.137,-21.484,-56.152,95.215,1.0
1626062890.615951,-51.27,-14.648,-52.733999999999995,-142.578,1.0
1626062890.6198573,-65.43,-13.184000000000001,-34.18,-178.71099999999998,1.0
1626062890.6237636,-32.715,-17.09,-15.625,44.434,1.0
1626062890.6276698,-6.836,-42.968999999999994,-37.598,122.559,1.0
1626062890.631576,-32.227,-45.898,-55.663999999999994,-79.59,1.0
1626062890.6354823,-67.87100000000001,-39.551,-45.898,-210.449,1.0
1626062890.6393886,-43.457,-29.785,-26.855,-31.738000000000003,1.0
1626062890.6432948,-11.23,-32.715,-18.555,131.34799999999998,1.0
1626062890.647201,-19.531,-38.086,-22.949,-10.742,1.0
1626062890.6511073,-37.109,-52.246,-27.831999999999997,-184.57,1.0
1626062890.6550138,-27.344,-67.87100000000001,-30.761999999999997,-68.848,1.0
1626062890.6589198,-1.953,-39.062,-51.27,134.27700000000002,1.0
1626062890.662826,-11.719000000000001,-18.066,-76.172,57.129,1.0
1626062890.6667323,-48.828,-17.578,-51.27,-167.48,1.0
1626062890.6706386,-76.66,-25.879,-37.598,-163.57399999999998,1.0
1626062890.6745448,-39.062,-8.301,-22.461,69.336,1.0
1626062890.678451,-5.859,-3.418,-7.812,112.79299999999999,1.0
1626062890.682357,-33.203,-22.461,-32.227,-114.258,1.0
1626062890.6862638,-41.504,-20.02,-27.831999999999997,-167.96900000000002,1.0
1626062890.6901696,-39.551,-29.296999999999997,-33.203,53.223,1.0
1626062890.6940763,-16.602,-31.25,-17.09,141.113,1.0
1626062890.697982,-12.695,-37.598,-6.836,-46.875,1.0
1626062890.7018883,-19.043,-59.57,-9.277000000000001,-168.945,1.0
1626062890.705795,-24.901999999999997,-57.129,-21.484,-26.366999999999997,1.0
1626062890.709701,-28.809,-38.574,-41.016000000000005,123.04700000000001,1.0
1626062890.713607,-19.043,-26.855,-44.922,2.93,1.0
1626062890.7175136,-26.855,-0.977,-26.366999999999997,-193.84799999999998,1.0
1626062890.7214196,-46.387,-7.324,-22.949,-114.258,1.0
1626062890.725326,-37.598,-39.062,-26.366999999999997,104.492,1.0
1626062890.7292323,-8.789,-50.781000000000006,-21.973000000000003,56.641000000000005,1.0
1626062890.7331386,2.441,-18.066,-29.296999999999997,-160.645,1.0
1626062890.7370448,-24.901999999999997,2.441,-34.668,1.0,1.0
1626062890.740951,-40.527,-15.625,-21.484,1.0,1.0
1626062890.7448573,-11.719000000000001,-24.414,-29.296999999999997,1.0,1.0
1626062890.7487636,14.16,-27.831999999999997,-27.831999999999997,1.0,1.0
1626062890.7526696,-7.324,-44.434,0.977,1.0,1.0
1626062890.756576,-45.41,-64.453,-7.324,1.0,1.0
1626062890.7604823,-29.296999999999997,-44.434,-19.531,1.0,1.0
1626062890.7643886,-13.184000000000001,-17.09,-25.391,1.0,1.0
1626062890.7682948,-25.391,3.906,-20.02,1.0,1.0
1626062890.772201,-42.48,-15.137,-20.02,1.0,1.0
1626062890.7761073,-21.973000000000003,-37.109,-25.879,1.0,1.0
1626062890.7800136,-3.418,-24.901999999999997,-29.785,1.0,1.0
1626062890.7839198,-19.531,-13.184000000000001,-31.738000000000003,-30.761999999999997,1.0
1626062890.787826,-39.062,-21.973000000000003,-26.855,-191.895,1.0
1626062890.7917323,-33.691,-22.461,-26.366999999999997,-64.453,1.0
1626062890.7956386,-18.555,-24.901999999999997,-22.461,122.07,1.0
1626062890.799545,-24.414,-34.668,-25.391,32.227,1.0
1626062890.803451,-26.366999999999997,-26.366999999999997,-24.901999999999997,-158.691,1.0
1626062890.807357,-9.766,-37.109,-22.949,-97.16799999999999,1.0
1626062890.8112638,-4.883,-61.523,-41.504,104.98,1.0
1626062890.8151696,-13.672,-50.293,-43.457,86.914,1.0
1626062890.8190758,-48.34,-26.366999999999997,-37.109,-144.531,1.0
1626062890.822982,-61.035,-8.789,-32.715,-185.05900000000003,1.0
1626062890.8268883,-25.391,1.953,-30.761999999999997,38.086,1.0
1626062890.830795,-29.296999999999997,-44.434,-16.602,86.426,1.0
1626062890.834701,-27.344,-15.625,-18.555,93.262,1.0
1626062890.8386073,-49.805,-12.695,-24.901999999999997,-131.34799999999998,1.0
1626062890.8425136,-62.5,-20.996,-31.738000000000003,-185.547,1.0
1626062890.8464196,-29.785,-30.273000000000003,-34.18,32.715,1.0
1626062890.850326,-9.277000000000001,-46.387,-31.738000000000003,130.859,1.0
1626062890.8542323,-23.926,-42.48,-26.366999999999997,-55.176,1.0
1626062890.8581383,-53.223,-34.668,-28.809,-199.707,1.0
1626062890.8620448,-47.852,-32.715,-44.434,-45.41,1.0
1626062890.865951,-25.391,-33.203,-59.082,120.605,1.0
1626062890.8698573,-34.668,-45.41,-53.711000000000006,-8.301,1.0
1626062890.8737636,-42.48,-36.133,-33.691,-183.59400000000002,1.0
1626062890.8776698,-64.453,-56.641000000000005,-14.16,-201.172,1.0
1626062890.881576,-62.988,-36.621,-20.02,-65.918,1.0
1626062890.8854823,-19.043,-18.066,0.488,133.789,1.0
1626062890.8893886,-17.578,-37.109,5.371,31.738000000000003,1.0
1626062890.8932948,-47.363,-48.34,-18.555,-178.22299999999998,1.0
1626062890.897201,-46.875,-32.227,-36.621,-104.98,1.0
1626062890.9011073,-12.695,-15.625,-24.901999999999997,129.395,1.0
1626062890.9050138,-19.531,-20.02,-31.25,85.93799999999999,1.0
1626062890.9089198,-47.363,-28.809,-47.852,-145.02,1.0
1626062890.912826,-46.387,-32.715,-48.828,-155.762,1.0
1626062890.9167323,-10.254000000000001,-31.25,-22.461,78.125,1.0
1626062890.9206386,-0.488,-37.598,-2.441,136.719,1.0
1626062890.9245448,-43.945,-49.316,-26.855,1.0,1.0
1626062890.928451,-49.805,-48.828,-22.461,1.0,1.0
1626062890.932357,-15.625,-68.359,-10.254000000000001,1.0,1.0
1626062890.9362638,-1.953,-83.984,-30.761999999999997,1.0,1.0
1626062890.9401696,-24.414,-48.828,-37.109,1.0,1.0
1626062890.9440763,-68.359,-33.203,-47.363,1.0,1.0
1626062890.947982,-68.848,-47.852,-44.922,1.0,1.0
1626062890.9518883,-37.109,-51.27,-19.043,1.0,1.0
1626062890.955795,-23.926,-35.645,-16.113,1.0,1.0
1626062890.959701,-51.27,-37.598,-30.761999999999997,1.0,1.0
1626062890.963607,-63.965,-52.246,-24.414,1.0,1.0
1626062890.9675136,-4.395,-52.246,-0.488,1.0,1.0
1626062890.9714196,6.836,-43.457,-0.977,119.141,1.0
1626062890.975326,-36.621,-36.621,-29.785,-134.27700000000002,1.0
1626062890.9792323,-59.57,-40.039,-57.129,-178.71099999999998,1.0
1626062890.9831386,-51.27,-42.48,-55.176,33.203,1.0
1626062890.9870448,-25.879,-33.203,-49.316,122.07,1.0
1626062890.990951,-34.18,-16.602,-48.34,-69.336,1.0
1626062890.9948573,-48.828,-11.23,-21.484,-184.082,1.0
1626062890.9987636,-21.973000000000003,-29.785,6.348,-3.906,1.0
1626062891.0026696,-10.742,-48.34,-10.254000000000001,131.836,1.0
1626062891.006576,-23.438000000000002,-29.785,-31.738000000000003,-17.09,1.0
1626062891.0104823,-18.555,-38.086,-23.438000000000002,-170.898,1.0
1626062891.0143886,0.0,-55.663999999999994,-23.926,-44.434,1.0
1626062891.0182948,-55.663999999999994,-37.598,-43.945,-49.316,1.0
1626062891.022201,-35.156,-43.457,-50.781000000000006,114.74600000000001,1.0
1626062891.0261073,-24.414,-46.875,-46.387,-1.953,1.0
1626062891.0300136,-49.316,-39.551,-49.316,-191.40599999999998,1.0
1626062891.0339198,-46.875,-20.02,-41.504,-99.12100000000001,1.0
1626062891.037826,0.977,-12.207,-7.812,133.30100000000002,1.0
1626062891.0417323,5.859,-1.953,-4.395,86.426,1.0
1626062891.0456386,-38.086,-10.742,-21.484,-153.32,1.0
1626062891.049545,-45.898,-7.812,-19.531,-145.50799999999998,1.0
1626062891.053451,-22.949,-16.602,-37.109,76.172,1.0
1626062891.057357,-30.761999999999997,-51.758,-52.733999999999995,90.82,1.0
1626062891.0612638,-58.105,-61.035,-39.062,-125.977,1.0
1626062891.0651696,-57.129,-53.223,-22.949,1.0,1.0
1626062891.0690758,-19.531,-29.785,-19.043,1.0,1.0
1626062891.072982,-16.113,-20.508000000000003,-38.574,1.0,1.0
1626062891.0768883,-42.48,-29.296999999999997,-39.551,1.0,1.0
1626062891.080795,-62.5,-36.133,-22.461,1.0,1.0
1626062891.084701,-62.988,-30.273000000000003,-33.203,1.0,1.0
1626062891.0886073,-32.227,-26.366999999999997,-34.18,1.0,1.0
1626062891.0925136,-31.25,-12.695,-19.043,1.0,1.0
1626062891.0964196,-42.48,-4.883,-21.484,1.0,1.0
1626062891.100326,-47.363,-31.738000000000003,-42.968999999999994,1.0,1.0
1626062891.1042323,-30.273000000000003,-47.363,-51.758,1.0,1.0
1626062891.1081383,-16.602,-36.621,-34.18,1.0,1.0
1626062891.1120448,-51.758,-50.293,-22.461,1.0,1.0
1626062891.115951,-56.152,-58.593999999999994,-17.578,1.0,1.0
1626062891.1198573,-7.812,-43.945,-9.766,1.0,1.0
1626062891.1237636,-1.953,-41.504,-21.484,1.0,1.0
1626062891.1276698,-45.898,-29.785,-18.066,1.0,1.0
1626062891.131576,-59.57,-23.926,-22.461,1.0,1.0
1626062891.1354823,-17.09,-20.508000000000003,-28.32,1.0,1.0
1626062891.1393886,-9.277000000000001,-17.578,-32.715,1.0,1.0
1626062891.1432948,-42.968999999999994,-24.901999999999997,-45.41,1.0,1.0
1626062891.147201,-60.547,-27.831999999999997,-28.32,1.0,1.0
1626062891.1511073,-54.688,-32.715,-26.366999999999997,1.0,1.0
1626062891.1550138,-19.043,-17.578,-27.344,1.0,1.0
1626062891.1589198,-15.137,-21.484,-15.625,1.0,1.0
1626062891.162826,-38.086,-51.758,-11.719000000000001,1.0,1.0
1626062891.1667323,-38.574,-52.246,-28.32,1.0,1.0
1626062891.1706386,-23.438000000000002,-34.668,-29.785,1.0,1.0
1626062891.1745448,-20.508000000000003,-43.945,-36.621,1.0,1.0
1626062891.178451,-47.852,-62.5,-47.852,1.0,1.0
1626062891.182357,-50.293,-38.086,-41.992,1.0,1.0
1626062891.1862638,-23.926,-20.02,-45.41,1.0,1.0
1626062891.1901696,-19.043,-2.93,-48.828,1.0,1.0
1626062891.1940763,-39.062,-7.812,-35.645,1.0,1.0
1626062891.197982,-55.176,-32.227,-18.066,1.0,1.0
1626062891.2018883,-22.461,-33.691,-10.254000000000001,1.0,1.0
1626062891.205795,22.949,-34.18,-4.883,168.945,1.0
1626062891.209701,-18.066,-55.176,-27.344,-9.766,1.0
1626062891.213607,-72.266,-54.688,-45.898,-218.75,1.0
1626062891.2175136,-61.035,-31.738000000000003,-48.34,-105.469,1.0
1626062891.2214196,-33.203,-32.715,-44.922,101.56200000000001,1.0
1626062891.225326,-12.695,-19.043,-22.949,57.129,1.0
1626062891.2292323,-28.809,-11.719000000000001,-39.062,-151.36700000000002,1.0
1626062891.2331386,-41.016000000000005,-18.555,-47.363,-132.812,1.0
1626062891.2370448,-29.296999999999997,-32.227,-39.062,84.961,1.0
1626062891.240951,-21.484,-41.992,-23.438000000000002,109.375,1.0
1626062891.2448573,-43.945,-50.781000000000006,-12.695,-115.234,1.0
1626062891.2487636,-64.453,-64.941,-14.648,-186.523,1.0
1626062891.2526696,-77.637,-60.059,-28.809,38.086,1.0
1626062891.256576,-51.758,-42.968999999999994,-31.25,136.23,1.0
1626062891.2604823,-10.254000000000001,-12.207,-19.043,-58.105,1.0
1626062891.2643886,-21.484,4.883,-36.621,-195.801,1.0
1626062891.2682948,-59.57,-12.207,-56.152,-48.828,1.0
1626062891.272201,-41.016000000000005,-13.672,-42.968999999999994,113.77,1.0
1626062891.2761073,-8.789,-22.949,-33.691,-2.93,1.0
1626062891.2800136,-13.672,-37.598,-40.527,-201.66,1.0
1626062891.2839198,-32.715,-49.316,-41.992,-110.352,1.0
1626062891.287826,-42.968999999999994,-73.242,-38.574,106.445,1.0
1626062891.2917323,-32.227,-70.312,-25.391,57.617,1.0
1626062891.2956386,-20.508000000000003,-50.781000000000006,-9.277000000000001,-162.59799999999998,1.0
1626062891.299545,-46.387,-34.668,-28.809,1.0,1.0
1626062891.303451,-47.363,-6.836,-50.781000000000006,1.0,1.0
1626062891.307357,-17.09,-19.043,-53.223,1.0,1.0
1626062891.3112638,-18.555,-30.273000000000003,-39.062,1.0,1.0
1626062891.3151696,-30.273000000000003,-19.043,-16.113,1.0,1.0
1626062891.3190758,-20.02,-33.203,-18.066,1.0,1.0
1626062891.322982,-5.859,-37.109,-37.598,1.0,1.0
1626062891.3268883,-22.461,-31.738000000000003,-48.34,1.0,1.0
1626062891.330795,-46.387,-23.438000000000002,-29.296999999999997,1.0,1.0
1626062891.334701,-62.988,-29.785,-25.879,1.0,1.0
1626062891.3386073,-37.598,-35.645,-31.25,1.0,1.0
1626062891.3425136,-1.465,-38.574,-28.32,1.0,1.0
1626062891.3464196,-19.043,-25.879,-31.25,-16.113,1.0
1626062891.350326,-52.733999999999995,-13.672,-34.18,-193.359,1.0
1626062891.3542323,-46.875,-26.366999999999997,-34.668,-70.801,1.0
1626062891.3581383,-23.926,-41.016000000000005,-30.273000000000003,118.164,1.0
1626062891.3620448,-15.137,-35.156,-17.578,32.227,1.0
1626062891.365951,-25.391,-28.32,-10.254000000000001,-159.18,1.0
1626062891.3698573,-39.062,-28.32,-26.855,-111.816,1.0
1626062891.3737636,-32.715,-25.391,-41.992,90.82,1.0
1626062891.3776698,-34.668,-34.668,-43.945,79.102,1.0
1626062891.381576,-69.336,-62.988,-57.617,-152.832,1.0
1626062891.3854823,-68.848,-67.87100000000001,-49.316,-181.641,1.0
1626062891.3893886,-28.809,-52.733999999999995,-24.901999999999997,53.711000000000006,1.0
1626062891.3932948,-10.254000000000001,-13.672,-1.953,82.031,1.0
1626062891.397201,-2.93,-25.879,-28.809,94.727,1.0
1626062891.4011073,-30.273000000000003,-41.992,-50.781000000000006,-138.672,1.0
1626062891.4050138,-44.434,-39.551,-56.152,-203.613,1.0
1626062891.4089198,-24.414,-26.855,-51.758,11.23,1.0
1626062891.412826,0.977,-21.484,-47.363,130.371,1.0
1626062891.4167323,1.953,-10.742,-34.668,-38.574,1.0
1626062891.4206386,-35.156,-9.277000000000001,-51.27,-199.707,1.0
1626062891.4245448,-39.062,-32.715,-49.316,-59.082,1.0
1626062891.428451,-9.766,-61.035,-47.363,121.58200000000001,1.0
1626062891.432357,-12.207,-55.176,-67.383,10.742,1.0
1626062891.4362638,-52.246,-47.363,-54.199,-194.33599999999998,1.0
1626062891.4401696,-61.523,-38.086,-52.246,1.0,1.0
1626062891.4440763,-34.18,-24.414,-65.43,1.0,1.0
1626062891.447982,-13.184000000000001,-35.156,-44.922,1.0,1.0
1626062891.4518883,-19.531,-25.391,-21.484,1.0,1.0
1626062891.455795,-37.109,-17.578,-41.504,1.0,1.0
1626062891.459701,-24.901999999999997,-34.668,-49.805,1.0,1.0
1626062891.463607,-20.996,-31.738000000000003,-42.48,1.0,1.0
1626062891.4675136,-53.223,-20.508000000000003,-40.039,1.0,1.0
1626062891.4714196,-56.641000000000005,-16.602,-32.227,1.0,1.0
1626062891.475326,-21.484,-14.648,-34.668,1.0,1.0
1626062891.4792323,0.0,-35.645,-48.34,1.0,1.0
1626062891.4831386,-11.719000000000001,-44.922,-70.312,1.0,1.0
1626062891.4870448,-54.688,-26.366999999999997,-70.312,1.0,1.0
1626062891.490951,-55.176,-13.672,-41.992,1.0,1.0
1626062891.4948573,-21.973000000000003,-26.855,-29.296999999999997,1.0,1.0
1626062891.4987636,-15.625,-37.598,-26.366999999999997,1.0,1.0
1626062891.5026696,-19.043,-19.043,-7.324,1.0,1.0
1626062891.506576,-11.23,-8.789,-8.789,1.0,1.0
1626062891.5104823,13.672,-27.831999999999997,-27.344,1.0,1.0
1626062891.5143886,6.348,-54.199,-30.273000000000003,1.0,1.0
1626062891.5182948,-22.949,-37.598,-15.625,1.0,1.0
1626062891.522201,-31.738000000000003,-28.32,-13.672,1.0,1.0
1626062891.5261073,-21.973000000000003,-24.901999999999997,-64.941,1.0,1.0
1626062891.5300136,-14.648,-7.324,-90.33200000000001,1.0,1.0
1626062891.5339198,-48.34,-30.761999999999997,-48.34,1.0,1.0
1626062891.537826,-78.125,-45.41,-17.09,1.0,1.0
1626062891.5417323,-46.387,-21.973000000000003,-13.672,1.0,1.0
1626062891.5456386,-8.301,-13.184000000000001,5.859,1.0,1.0
1626062891.549545,-23.438000000000002,-14.648,6.348,1.0,1.0
1626062891.553451,-59.082,-25.391,-16.113,1.0,1.0
1626062891.557357,-52.246,-54.199,-25.879,1.0,1.0
1626062891.5612638,-12.695,-52.733999999999995,-27.344,1.0,1.0
1626062891.5651696,-3.418,-18.066,-25.879,1.0,1.0
1626062891.5690758,-36.133,-5.371,-27.831999999999997,1.0,1.0
1626062891.572982,-46.875,-31.25,-33.691,1.0,1.0
1626062891.5768883,-36.621,-42.48,-37.598,1.0,1.0
1626062891.580795,-29.296999999999997,-2.441,-23.926,86.426,1.0
1626062891.584701,-41.016000000000005,6.836,-21.484,-132.812,1.0
1626062891.5886073,-56.152,-22.461,-20.508000000000003,-177.734,1.0
1626062891.5925136,-25.879,-25.391,-7.812,51.758,1.0
1626062891.5964196,14.648,-29.785,-0.977,148.438,1.0
1626062891.600326,-11.23,-55.663999999999994,-25.391,-51.758,1.0
1626062891.6042323,-61.035,-70.801,-61.035,-203.125,1.0
1626062891.6081383,-40.039,-24.901999999999997,-54.199,-20.508000000000003,1.0
1626062891.6120448,-15.625,-26.366999999999997,-32.715,142.578,1.0
1626062891.615951,-32.715,-40.527,-25.391,-8.789,1.0
1626062891.6198573,-54.688,-24.901999999999997,-19.531,-187.012,1.0
1626062891.6237636,-52.246,-20.02,-24.414,-83.49600000000001,1.0
1626062891.6276698,-37.598,-25.879,-23.926,-45.898,1.0
1626062891.631576,-9.277000000000001,-31.25,-17.09,127.441,1.0
1626062891.6354823,-24.414,-54.199,-38.574,-0.488,1.0
1626062891.6393886,-48.828,-77.148,-54.199,-194.824,1.0
1626062891.6432948,-34.18,-67.87100000000001,-54.688,-102.539,1.0
1626062891.647201,-3.418,-26.366999999999997,-41.016000000000005,117.18799999999999,1.0
1626062891.6511073,-2.93,-7.324,-16.602,73.73,1.0
1626062891.6550138,-44.922,-31.25,-35.645,-168.945,1.0
1626062891.6589198,-50.293,-20.508000000000003,-57.617,-172.363,1.0
1626062891.662826,3.418,7.324,-30.761999999999997,77.637,1.0
1626062891.6667323,22.461,11.719000000000001,-6.836,128.906,1.0
1626062891.6706386,-24.414,-16.602,-9.766,-105.469,1.0
1626062891.6745448,-60.547,-39.062,-38.574,1.0,1.0
1626062891.678451,-40.039,-27.344,-57.617,1.0,1.0
1626062891.682357,-17.09,-38.086,-50.293,1.0,1.0
1626062891.6862638,-13.672,-43.457,-35.645,1.0,1.0
1626062891.6901696,-41.992,-53.223,-38.086,1.0,1.0
1626062891.6940763,-33.691,-37.109,-39.062,1.0,1.0
1626062891.697982,-3.418,-23.926,-35.645,1.0,1.0
1626062891.7018883,-8.789,-19.531,-30.273000000000003,1.0,1.0
1626062891.705795,-14.648,-30.761999999999997,-16.113,1.0,1.0
1626062891.709701,-34.18,-58.593999999999994,-21.484,1.0,1.0
1626062891.713607,-33.691,-30.761999999999997,-34.18,1.0,1.0
1626062891.7175136,-32.227,-18.555,-44.434,1.0,1.0
1626062891.7214196,-59.082,-28.32,-38.086,1.0,1.0
1626062891.725326,-53.711000000000006,-23.926,-14.648,1.0,1.0
1626062891.7292323,-15.137,-18.066,-26.855,1.0,1.0
1626062891.7331386,1.953,-46.387,-43.945,1.0,1.0
1626062891.7370448,-6.348,-78.613,-25.391,1.0,1.0
1626062891.740951,-21.973000000000003,-55.663999999999994,-22.949,1.0,1.0
1626062891.7448573,-1.465,-43.457,-22.461,1.0,1.0
1626062891.7487636,31.25,-22.461,-12.207,1.0,1.0
1626062891.7526696,-1.465,-14.16,-55.663999999999994,1.0,1.0
1626062891.756576,-36.133,-30.273000000000003,-71.289,1.0,1.0
1626062891.7604823,-42.968999999999994,-49.805,-42.968999999999994,1.0,1.0
1626062891.7643886,-40.527,-49.805,-17.578,1.0,1.0
1626062891.7682948,-20.508000000000003,-21.484,-11.23,131.34799999999998,1.0
1626062891.772201,-39.062,-38.574,-22.461,-22.461,1.0
1626062891.7761073,-56.641000000000005,-23.438000000000002,-25.391,-206.055,1.0
1626062891.7800136,-50.781000000000006,-39.551,-28.809,-98.633,1.0
1626062891.7839198,-40.527,-55.176,-44.434,98.633,1.0
1626062891.787826,-28.809,-34.18,-34.668,54.688,1.0
1626062891.7917323,-41.016000000000005,-24.414,-24.414,-147.94899999999998,1.0
1626062891.7956386,-57.129,-29.296999999999997,-20.02,-143.555,1.0
1626062891.799545,-63.477,-44.922,-42.968999999999994,42.968999999999994,1.0
1626062891.803451,-60.547,-38.574,-70.801,65.918,1.0
1626062891.807357,-62.012,-20.996,-60.547,-128.418,1.0
1626062891.8112638,-76.66,-26.855,-45.41,-200.68400000000003,1.0
1626062891.8151696,-46.387,-24.414,-46.875,-2.441,1.0
1626062891.8190758,-32.227,-16.602,-35.645,122.07,1.0
1626062891.822982,-38.574,-35.645,-26.855,-55.176,1.0
1626062891.8268883,-47.852,-45.898,-7.324,-191.895,1.0
1626062891.830795,-49.316,-13.184000000000001,-19.043,-29.785,1.0
1626062891.834701,-36.621,1.953,-43.457,120.605,1.0
1626062891.8386073,-33.691,-13.672,-51.758,-7.812,1.0
1626062891.8425136,-60.059,-37.109,-42.968999999999994,-209.47299999999998,1.0
1626062891.8464196,-81.543,-60.059,-31.738000000000003,-133.30100000000002,1.0
1626062891.850326,-40.527,-53.711000000000006,-27.344,91.309,1.0
1626062891.8542323,8.789,-28.32,-50.293,47.852,1.0
1626062891.8581383,-17.09,-25.391,-64.941,-174.31599999999997,1.0
1626062891.8620448,-69.824,-30.273000000000003,-33.691,-201.172,1.0
1626062891.865951,-62.988,-20.508000000000003,-13.672,-130.859,1.0
1626062891.8698573,-31.738000000000003,-25.879,-13.672,97.16799999999999,1.0
1626062891.8737636,-21.484,-36.133,-23.438000000000002,77.637,1.0
1626062891.8776698,-37.109,-17.578,-40.039,-138.184,1.0
1626062891.881576,-59.082,-20.02,-46.387,-169.922,1.0
1626062891.8854823,-40.527,-32.227,-32.715,42.968999999999994,1.0
1626062891.8893886,-34.18,-23.438000000000002,-31.738000000000003,98.633,1.0
1626062891.8932948,-59.082,-29.296999999999997,-40.039,-112.79299999999999,1.0
1626062891.897201,-65.43,-52.246,-37.109,-208.00799999999998,1.0
1626062891.9011073,-46.875,-54.688,-39.551,-19.043,1.0
1626062891.9050138,-20.996,-35.645,-39.551,132.32399999999998,1.0
1626062891.9089198,-19.531,-18.555,-22.949,-11.23,1.0
1626062891.912826,-33.203,0.0,-12.695,-174.31599999999997,1.0
1626062891.9167323,-45.41,-14.16,-34.668,-66.895,1.0
1626062891.9206386,-41.016000000000005,-45.898,-39.551,110.352,1.0
1626062891.9245448,-38.086,-43.457,-40.039,32.227,1.0
1626062891.928451,-50.781000000000006,-10.742,-38.574,-166.99200000000002,1.0
1626062891.932357,-45.898,-17.578,-26.366999999999997,-119.141,1.0
1626062891.9362638,-39.062,-51.27,-38.574,82.031,1.0
1626062891.9401696,-36.621,-41.504,-27.344,76.172,1.0
1626062891.9440763,-53.711000000000006,-27.831999999999997,-28.32,-140.625,1.0
1626062891.947982,-78.613,-27.831999999999997,-51.27,-202.637,1.0
1626062891.9518883,-53.223,-33.691,-54.199,12.695,1.0
1626062891.955795,9.766,0.0,13.672,107.42200000000001,1.0
1626062891.959701,6.836,-17.578,8.789,122.07,1.0
1626062891.963607,-7.812,-19.531,-0.488,-94.727,1.0
1626062891.9675136,-21.973000000000003,-22.461,-30.761999999999997,-166.99200000000002,1.0
1626062891.9714196,-11.23,-26.855,-61.035,29.296999999999997,1.0
1626062891.975326,8.789,-26.855,-57.129,143.066,1.0
1626062891.9792323,-13.184000000000001,-30.273000000000003,-34.668,-47.852,1.0
1626062891.9831386,-39.551,-28.809,-4.883,-202.148,1.0
1626062891.9870448,-13.184000000000001,-25.391,8.789,-30.273000000000003,1.0
1626062891.990951,6.836,-33.691,1.465,148.438,1.0
1626062891.9948573,-11.23,-35.645,-5.859,14.648,1.0
1626062891.9987636,-44.922,-34.18,-14.648,-191.895,1.0
1626062892.0026696,-50.293,-65.43,-40.527,1.0,1.0
1626062892.006576,-25.879,-69.824,-48.34,1.0,1.0
1626062892.0104823,-20.508000000000003,-37.598,-32.227,1.0,1.0
1626062892.0143886,-49.805,-22.949,-20.508000000000003,1.0,1.0
1626062892.0182948,-58.105,-13.672,-18.555,1.0,1.0
1626062892.022201,-19.043,-18.555,-31.738000000000003,1.0,1.0
1626062892.0261073,8.789,-14.648,-30.273000000000003,1.0,1.0
1626062892.0300136,-16.602,-7.324,-30.273000000000003,1.0,1.0
1626062892.0339198,-48.828,-38.086,-36.133,1.0,1.0
1626062892.037826,-42.48,-68.359,-34.18,1.0,1.0
1626062892.0417323,-28.32,-76.66,-21.973000000000003,1.0,1.0
1626062892.0456386,-45.41,-71.777,-18.066,1.0,1.0
1626062892.049545,-79.59,-52.246,-36.133,1.0,1.0
1626062892.053451,-60.547,-44.434,-38.086,1.0,1.0
1626062892.057357,-18.066,-53.711000000000006,-38.574,1.0,1.0
1626062892.0612638,-28.809,-24.901999999999997,-41.504,1.0,1.0
1626062892.0651696,-62.988,-6.836,-27.344,1.0,1.0
1626062892.0690758,-60.059,-28.32,-21.484,1.0,1.0
1626062892.072982,-11.23,-25.391,-8.301,1.0,1.0
1626062892.0768883,-4.883,-28.32,-19.043,1.0,1.0
1626062892.080795,-52.733999999999995,-44.434,-59.57,1.0,1.0
1626062892.084701,-56.152,-43.457,-58.105,1.0,1.0
1626062892.0886073,-21.973000000000003,-35.156,-16.602,1.0,1.0
1626062892.0925136,-17.09,-30.273000000000003,-7.812,1.0,1.0
1626062892.0964196,-34.668,-46.387,-23.438000000000002,1.0,1.0
1626062892.100326,-67.87100000000001,-51.758,-30.273000000000003,1.0,1.0
1626062892.1042323,-72.266,-25.391,-42.48,1.0,1.0
1626062892.1081383,-42.48,-7.812,-46.387,1.0,1.0
1626062892.1120448,-33.691,-20.02,-27.831999999999997,1.0,1.0
1626062892.115951,-52.246,-41.992,-40.527,1.0,1.0
1626062892.1198573,-34.18,-32.715,-51.27,1.0,1.0
1626062892.1237636,-13.672,-20.508000000000003,-39.551,1.0,1.0
1626062892.1276698,-19.531,-27.344,-4.395,1.0,1.0
1626062892.131576,-48.828,-48.828,5.371,1.0,1.0
1626062892.1354823,-61.523,-56.152,-26.855,1.0,1.0
1626062892.1393886,-22.949,-37.598,-20.02,1.0,1.0
1626062892.1432948,-9.277000000000001,-28.32,-10.254000000000001,97.656,1.0
1626062892.147201,-35.645,-37.109,-28.32,-127.441,1.0
1626062892.1511073,-57.617,-55.663999999999994,-29.785,-176.27,1.0
1626062892.1550138,-44.922,-53.223,-26.855,31.738000000000003,1.0
1626062892.1589198,-2.441,-20.508000000000003,-17.578,139.16,1.0
1626062892.162826,-1.953,-5.859,-23.438000000000002,-33.691,1.0
1626062892.1667323,-19.531,-22.461,-30.273000000000003,-154.297,1.0
1626062892.1706386,-28.809,-43.945,-16.113,-9.277000000000001,1.0
1626062892.1745448,-40.039,-31.25,-21.973000000000003,115.723,1.0
1626062892.178451,-46.387,-23.438000000000002,-30.273000000000003,-19.043,1.0
1626062892.182357,-58.593999999999994,-37.109,-23.926,-194.824,1.0
1626062892.1862638,-48.34,-47.852,-19.531,-89.355,1.0
1626062892.1901696,-56.152,-35.645,-35.156,-61.035,1.0
1626062892.1940763,-20.02,-12.695,-36.621,122.07,1.0
1626062892.197982,-25.879,-22.461,-36.133,6.348,1.0
1626062892.2018883,-55.176,-56.641000000000005,-27.344,-190.918,1.0
1626062892.205795,-37.109,-51.27,-21.973000000000003,-98.633,1.0
1626062892.209701,-12.207,-40.039,-26.366999999999997,115.234,1.0
1626062892.213607,-12.695,-27.831999999999997,-30.761999999999997,70.801,1.0
1626062892.2175136,-26.366999999999997,-7.812,-34.18,-148.92600000000002,1.0
1626062892.2214196,-23.926,-3.418,-18.555,-145.996,1.0
1626062892.225326,11.23,-9.277000000000001,-6.836,90.33200000000001,1.0
1626062892.2292323,35.156,-28.32,-18.555,147.94899999999998,1.0
1626062892.2331386,14.648,-14.16,-24.414,-57.129,1.0
1626062892.2370448,-27.831999999999997,-5.371,-34.18,1.0,1.0
1626062892.240951,-20.996,-28.809,-28.32,1.0,1.0
1626062892.2448573,24.414,-24.414,-3.418,1.0,1.0
1626062892.2487636,21.484,-17.578,0.488,1.0,1.0
1626062892.2526696,-26.855,-36.133,-14.648,1.0,1.0
1626062892.256576,-38.086,-35.645,-28.809,1.0,1.0
1626062892.2604823,-13.672,-32.227,-26.366999999999997,1.0,1.0
1626062892.2643886,-10.254000000000001,-18.555,-27.344,1.0,1.0
1626062892.2682948,-36.621,-15.137,-29.296999999999997,1.0,1.0
1626062892.272201,-39.062,-18.555,-11.719000000000001,1.0,1.0
1626062892.2761073,-6.836,-25.879,-17.09,1.0,1.0
1626062892.2800136,4.883,-34.18,-29.785,1.0,1.0
1626062892.2839198,-33.203,-46.875,-46.387,-144.043,1.0
1626062892.287826,-51.758,-50.293,-49.805,-175.293,1.0
1626062892.2917323,-32.715,-35.156,-32.715,41.504,1.0
1626062892.2956386,-18.066,-24.414,-15.625,108.887,1.0
1626062892.299545,-39.551,-18.555,-22.949,-104.98,1.0
1626062892.303451,-49.316,-21.484,-23.926,-199.707,1.0
1626062892.307357,-21.484,-37.109,-16.602,-5.371,1.0
1626062892.3112638,-10.742,-48.34,-27.344,121.094,1.0
1626062892.3151696,-31.738000000000003,-40.039,-22.461,-39.551,1.0
1626062892.3190758,-62.012,-25.879,-29.785,-220.703,1.0
1626062892.322982,-45.898,-6.836,-56.152,-88.37899999999999,1.0
1626062892.3268883,-6.348,-25.391,-69.824,123.04700000000001,1.0
1626062892.330795,-8.789,-16.113,-13.184000000000001,142.578,1.0
1626062892.334701,-31.25,-22.949,-29.785,-11.23,1.0
1626062892.3386073,-65.43,-9.766,-51.758,-200.68400000000003,1.0
1626062892.3425136,-50.293,-22.461,-52.733999999999995,-81.055,1.0
1626062892.3464196,4.883,-29.296999999999997,-19.531,159.18,1.0
1626062892.350326,4.883,-21.484,-21.973000000000003,103.027,1.0
1626062892.3542323,-53.711000000000006,-36.133,-44.922,-149.414,1.0
1626062892.3581383,-66.895,-39.062,-60.547,-150.391,1.0
1626062892.3620448,-20.996,-30.761999999999997,-51.758,83.984,1.0
1626062892.365951,-11.23,-21.484,-27.344,114.258,1.0
1626062892.3698573,-45.41,-15.625,-35.645,-115.723,1.0
1626062892.3737636,-58.105,-3.906,-53.223,-186.523,1.0
1626062892.3776698,-52.246,-36.621,-38.086,17.578,1.0
1626062892.381576,-21.973000000000003,-46.387,-16.113,125.0,1.0
1626062892.3854823,-30.761999999999997,-55.176,-20.02,-51.27,1.0
1626062892.3893886,-62.988,-49.316,-45.898,-196.28900000000002,1.0
1626062892.3932948,-88.867,-45.898,-56.641000000000005,-43.945,1.0
1626062892.397201,-44.434,-44.922,-33.203,133.30100000000002,1.0
1626062892.4011073,3.418,-23.926,-33.691,20.02,1.0
1626062892.4050138,-26.366999999999997,-32.227,-49.316,-196.28900000000002,1.0
1626062892.4089198,-52.733999999999995,-27.831999999999997,-20.996,-126.465,1.0
1626062892.412826,-35.156,-12.695,-5.859,110.352,1.0
1626062892.4167323,-13.672,-31.738000000000003,-22.461,67.383,1.0
1626062892.4206386,-11.719000000000001,-47.363,-25.391,-184.082,1.0
1626062892.4245448,-24.901999999999997,-29.296999999999997,-33.203,1.0,1.0
1626062892.428451,-46.387,-47.852,-66.406,1.0,1.0
1626062892.432357,-44.434,-56.152,-49.316,1.0,1.0
1626062892.4362638,-26.366999999999997,-42.48,-9.766,1.0,1.0
1626062892.4401696,-60.059,-39.551,-10.742,1.0,1.0
1626062892.4440763,-91.309,-34.18,-24.901999999999997,1.0,1.0
1626062892.447982,-54.688,-32.227,-21.973000000000003,1.0,1.0
1626062892.4518883,-13.672,-33.691,-0.977,1.0,1.0
1626062892.455795,-50.781000000000006,-49.316,-3.418,1.0,1.0
1626062892.459701,-83.008,-63.477,-33.691,1.0,1.0
1626062892.463607,-43.945,-72.266,-46.875,1.0,1.0
1626062892.4675136,-17.09,-59.082,-24.901999999999997,1.0,1.0
1626062892.4714196,-62.012,-41.016000000000005,-33.691,-43.945,1.0
1626062892.475326,-113.281,-31.738000000000003,-51.758,-245.11700000000002,1.0
1626062892.4792323,-87.402,-18.555,-38.086,-105.95700000000001,1.0
1626062892.4831386,-59.57,-32.715,-41.992,91.79700000000001,1.0
1626062892.4870448,-64.941,-46.875,-24.414,16.113,1.0
1626062892.490951,-73.73,-64.941,-15.137,-175.78099999999998,1.0
1626062892.4948573,-76.66,-73.242,-20.508000000000003,-144.043,1.0
1626062892.4987636,-69.336,-60.059,-23.926,61.035,1.0
1626062892.5026696,-64.453,-60.059,-24.901999999999997,60.547,1.0
1626062892.506576,-73.242,-62.012,-30.273000000000003,-150.879,1.0
1626062892.5104823,-79.59,-44.922,-38.086,-187.988,1.0
1626062892.5143886,-56.641000000000005,-21.484,-38.574,25.391,1.0
1626062892.5182948,-29.785,-20.508000000000003,-57.129,65.43,1.0
1626062892.522201,-3.418,-1.465,-47.852,109.863,1.0
1626062892.5261073,-16.602,-9.766,-6.348,-103.027,1.0
1626062892.5300136,-52.733999999999995,-27.344,-3.906,-197.266,1.0
1626062892.5339198,-37.598,-10.742,-17.578,8.789,1.0
1626062892.537826,-10.254000000000001,-20.508000000000003,-21.484,135.74200000000002,1.0
1626062892.5417323,-27.344,-41.992,-33.203,-49.805,1.0
1626062892.5456386,-45.898,-41.992,-24.901999999999997,-197.75400000000002,1.0
1626062892.549545,-19.043,-12.695,-8.789,-36.133,1.0
1626062892.553451,6.348,-8.789,-15.137,140.625,1.0
1626062892.557357,-4.395,-24.901999999999997,-34.668,24.901999999999997,1.0
1626062892.5612638,-46.875,-27.831999999999997,-44.434,-191.895,1.0
1626062892.5651696,-43.457,-19.531,-35.156,1.0,1.0
1626062892.5690758,-7.812,-20.02,-23.926,1.0,1.0
1626062892.572982,-30.761999999999997,-34.668,-25.391,1.0,1.0
1626062892.5768883,-60.547,-40.527,-29.296999999999997,1.0,1.0
1626062892.580795,-44.922,-22.949,-11.719000000000001,1.0,1.0
1626062892.584701,-11.23,-13.184000000000001,-5.859,1.0,1.0
1626062892.5886073,-19.531,-52.246,-33.691,1.0,1.0
1626062892.5925136,-41.016000000000005,-52.246,-24.901999999999997,1.0,1.0
1626062892.5964196,-41.016000000000005,-19.531,-2.93,1.0,1.0
1626062892.600326,-18.555,-29.785,-18.555,1.0,1.0
1626062892.6042323,8.789,-24.901999999999997,-20.02,1.0,1.0
1626062892.6081383,-16.113,-19.043,-9.277000000000001,1.0,1.0
1626062892.6120448,-48.34,-25.391,-20.508000000000003,1.0,1.0
1626062892.615951,-42.968999999999994,-28.809,-23.438000000000002,1.0,1.0
1626062892.6198573,-26.855,-40.039,-17.578,1.0,1.0
1626062892.6237636,-28.32,-41.016000000000005,-15.625,1.0,1.0
1626062892.6276698,-45.898,-45.41,-17.578,1.0,1.0
1626062892.631576,-28.32,-37.598,0.0,1.0,1.0
1626062892.6354823,-7.324,-28.32,7.812,1.0,1.0
1626062892.6393886,-20.996,-37.109,-25.391,1.0,1.0
1626062892.6432948,-45.898,-40.039,-54.688,1.0,1.0
1626062892.647201,-50.293,-39.551,-37.109,1.0,1.0
1626062892.6511073,-24.414,-45.898,-5.859,1.0,1.0
1626062892.6550138,-15.625,-49.805,6.348,1.0,1.0
1626062892.6589198,-24.414,-34.18,4.883,1.0,1.0
1626062892.662826,-55.176,-40.527,-16.602,1.0,1.0
1626062892.6667323,-57.617,-41.992,-38.574,1.0,1.0
1626062892.6706386,-32.715,-16.113,-37.109,1.0,1.0
1626062892.6745448,-32.227,-20.508000000000003,-34.668,1.0,1.0
1626062892.678451,-58.593999999999994,-39.062,-63.965,1.0,1.0
1626062892.682357,-61.035,-45.898,-47.363,1.0,1.0
1626062892.6862638,-19.043,-33.691,2.441,1.0,1.0
1626062892.6901696,1.953,-31.25,20.02,1.0,1.0
1626062892.6940763,-29.785,-29.296999999999997,13.184000000000001,1.0,1.0
1626062892.697982,-43.945,-26.366999999999997,-8.301,1.0,1.0
1626062892.7018883,-27.831999999999997,-28.809,-37.598,1.0,1.0
1626062892.705795,-32.715,-45.41,-62.988,85.449,1.0
1626062892.709701,-46.387,-59.57,-56.152,-130.859,1.0
1626062892.713607,-62.5,-51.27,-41.992,-187.012,1.0
1626062892.7175136,-38.574,-25.391,-20.02,28.809,1.0
1626062892.7214196,-27.344,-20.02,-24.901999999999997,120.605,1.0
1626062892.725326,-43.457,-28.32,-23.926,-75.195,1.0
1626062892.7292323,-21.973000000000003,-6.348,19.531,-167.96900000000002,1.0
1626062892.7331386,-6.348,-20.02,10.254000000000001,1.953,1.0
1626062892.7370448,-18.555,-48.828,-23.926,128.906,1.0
1626062892.740951,-41.992,-42.48,-44.434,-19.531,1.0
1626062892.7448573,-77.637,-31.738000000000003,-68.848,-218.75,1.0
1626062892.7487636,-62.988,-29.785,-67.383,-111.32799999999999,1.0
1626062892.7526696,-51.27,-15.137,-26.855,123.535,1.0
1626062892.756576,-20.02,-29.296999999999997,-20.02,62.5,1.0
1626062892.7604823,-27.344,-30.761999999999997,-25.391,-164.062,1.0
1626062892.7643886,-58.105,-31.25,-29.785,-147.461,1.0
1626062892.7682948,-53.223,-31.738000000000003,-25.879,79.102,1.0
1626062892.772201,-16.113,-29.296999999999997,-26.366999999999997,114.74600000000001,1.0
1626062892.7761073,-1.465,-29.296999999999997,-33.203,-113.77,1.0
1626062892.7800136,-28.32,-42.968999999999994,-42.968999999999994,-192.87099999999998,1.0
1626062892.7839198,-31.738000000000003,-45.898,-28.809,17.09,1.0
1626062892.787826,1.465,-30.273000000000003,-22.461,131.34799999999998,1.0
1626062892.7917323,-6.836,-39.062,-57.129,-52.246,1.0
1626062892.7956386,-44.922,-26.366999999999997,-59.082,-205.078,1.0
1626062892.799545,-56.152,-19.531,-25.879,1.0,1.0
1626062892.803451,-42.968999999999994,-45.41,-31.738000000000003,1.0,1.0
1626062892.807357,-19.043,-38.086,-46.875,1.0,1.0
1626062892.8112638,-26.855,-17.09,-43.457,1.0,1.0
1626062892.8151696,-62.988,-31.25,-37.109,1.0,1.0
1626062892.8190758,-38.574,-20.996,-27.831999999999997,1.0,1.0
1626062892.822982,11.23,-7.812,-26.855,1.0,1.0
1626062892.8268883,-4.883,-48.828,-37.109,1.0,1.0
1626062892.830795,-64.941,-67.383,-82.031,1.0,1.0
1626062892.834701,-79.102,-57.617,-83.008,1.0,1.0
1626062892.8386073,-26.366999999999997,-54.688,-38.574,1.0,1.0
1626062892.8425136,4.883,-39.062,-27.344,1.0,1.0
1626062892.8464196,-34.18,-21.973000000000003,-65.918,-144.531,1.0
1626062892.850326,-57.129,-31.738000000000003,-73.242,-188.477,1.0
1626062892.8542323,-24.414,-48.828,-32.227,45.898,1.0
1626062892.8581383,6.836,-25.879,-15.137,140.137,1.0
1626062892.8620448,-13.184000000000001,-1.465,-30.273000000000003,-60.547,1.0
1626062892.865951,-43.457,-8.789,-39.062,-181.641,1.0
1626062892.8698573,-15.137,-11.719000000000001,-30.273000000000003,4.883,1.0
1626062892.8737636,10.742,-41.016000000000005,-34.668,144.531,1.0
1626062892.8776698,-12.207,-55.176,-29.296999999999997,-5.859,1.0
1626062892.881576,-59.082,-50.293,-44.922,-203.613,1.0
1626062892.8854823,-50.781000000000006,-47.363,-54.199,-90.82,1.0
1626062892.8893886,-22.461,-36.133,-38.086,118.652,1.0
1626062892.8932948,-5.371,-36.133,-41.016000000000005,132.32399999999998,1.0
1626062892.897201,-7.324,-34.668,-26.855,1.953,1.0
1626062892.9011073,-40.527,-23.438000000000002,-50.293,-196.28900000000002,1.0
1626062892.9050138,-21.973000000000003,13.184000000000001,-34.18,-87.402,1.0
1626062892.9089198,9.277000000000001,14.648,-3.906,137.207,1.0
1626062892.912826,-5.371,-28.32,-17.09,79.59,1.0
1626062892.9167323,-27.831999999999997,-38.574,-32.715,-145.996,1.0
1626062892.9206386,-39.551,-54.199,-19.531,-147.94899999999998,1.0
1626062892.9245448,-32.715,-51.27,-10.254000000000001,61.523,1.0
1626062892.928451,-26.855,-20.508000000000003,-31.738000000000003,95.215,1.0
1626062892.932357,-35.156,-7.812,-33.203,-111.32799999999999,1.0
1626062892.9362638,-45.41,-5.859,-14.16,-184.082,1.0
1626062892.9401696,-61.035,-32.715,-34.668,2.93,1.0
1626062892.9440763,-24.901999999999997,-22.949,-47.363,117.676,1.0
1626062892.947982,-8.301,-32.715,-37.109,-32.227,1.0
1626062892.9518883,-20.996,-47.852,-14.16,-183.59400000000002,1.0
1626062892.955795,-29.296999999999997,-34.668,-0.977,-48.34,1.0
1626062892.959701,-26.366999999999997,-29.785,-12.207,135.254,1.0
1626062892.963607,-17.578,-41.504,-18.555,19.043,1.0
1626062892.9675136,-6.836,-28.809,-4.883,-184.57,1.0
1626062892.9714196,-27.344,-27.344,-27.344,-115.723,1.0
1626062892.975326,-35.645,-17.09,-39.551,99.12100000000001,1.0
1626062892.9792323,-5.859,-7.324,-30.273000000000003,88.37899999999999,1.0
1626062892.9831386,-7.812,-25.391,-37.598,-149.90200000000002,1.0
1626062892.9870448,-36.621,-23.438000000000002,-29.296999999999997,1.0,1.0
1626062892.990951,-30.761999999999997,-16.113,-15.625,1.0,1.0
1626062892.9948573,3.418,-24.901999999999997,-12.695,1.0,1.0
1626062892.9987636,8.301,-38.574,-22.461,1.0,1.0
1626062893.0026696,-22.461,-48.828,-23.926,1.0,1.0
1626062893.006576,-44.922,-25.879,-12.695,1.0,1.0
1626062893.0104823,-28.809,-9.277000000000001,-11.719000000000001,1.0,1.0
1626062893.0143886,-1.953,-24.414,-30.273000000000003,1.0,1.0
1626062893.0182948,-11.23,-12.695,-33.203,1.0,1.0
1626062893.022201,-39.062,3.418,-26.366999999999997,1.0,1.0
1626062893.0261073,-26.855,-20.02,-35.645,1.0,1.0
1626062893.0300136,-6.348,-26.855,-37.109,1.0,1.0
1626062893.0339198,-9.277000000000001,-11.23,-21.973000000000003,-10.742,1.0
1626062893.037826,-39.062,-31.738000000000003,-13.672,-190.918,1.0
1626062893.0417323,-52.246,-45.898,-20.508000000000003,-99.609,1.0
1626062893.0456386,-20.996,-48.34,-19.531,107.91,1.0
1626062893.049545,-10.742,-26.855,-9.277000000000001,51.758,1.0
1626062893.053451,-25.879,-2.441,-11.23,-154.297,1.0
1626062893.057357,-37.598,-30.761999999999997,-35.156,-134.27700000000002,1.0
1626062893.0612638,-26.366999999999997,-42.968999999999994,-41.504,74.219,1.0
1626062893.0651696,-11.23,-21.973000000000003,-31.25,93.75,1.0
1626062893.0690758,-24.414,-3.906,-24.901999999999997,-114.258,1.0
1626062893.072982,-48.34,-15.625,-26.855,-174.805,1.0
1626062893.0768883,-50.781000000000006,-42.968999999999994,-27.831999999999997,15.625,1.0
1626062893.080795,-27.831999999999997,-46.387,-36.621,62.5,1.0
1626062893.084701,-21.973000000000003,-60.547,-25.879,96.68,1.0
1626062893.0886073,-44.434,-47.852,-29.785,-119.62899999999999,1.0
1626062893.0925136,-46.387,-14.648,-26.366999999999997,-188.477,1.0
1626062893.0964196,-20.996,-11.23,-33.203,21.484,1.0
1626062893.100326,-10.254000000000001,-27.344,-40.039,141.113,1.0
1626062893.1042323,-23.438000000000002,-27.831999999999997,-23.926,-33.203,1.0
1626062893.1081383,-44.434,-31.738000000000003,-18.066,-191.40599999999998,1.0
1626062893.1120448,-34.668,-33.691,-26.855,-46.387,1.0
1626062893.115951,5.371,-34.18,-24.901999999999997,144.043,1.0
1626062893.1198573,5.371,-22.461,-27.831999999999997,34.668,1.0
1626062893.1237636,-28.32,-15.625,-31.25,-175.78099999999998,1.0
1626062893.1276698,-56.641000000000005,-52.246,-46.875,-131.34799999999998,1.0
1626062893.131576,-40.039,-47.363,-43.457,79.59,1.0
1626062893.1354823,-21.973000000000003,-22.949,-28.809,64.453,1.0
1626062893.1393886,-45.41,-25.879,-32.227,-164.062,1.0
1626062893.1432948,-53.711000000000006,-24.414,-31.25,-176.75799999999998,1.0
1626062893.147201,-20.02,-22.949,-31.25,62.5,1.0
1626062893.1511073,14.16,-21.484,-25.879,139.16,1.0
1626062893.1550138,0.488,-32.715,-34.18,-67.87100000000001,1.0
1626062893.1589198,-40.039,-50.781000000000006,-40.527,-181.641,1.0
1626062893.162826,-23.926,-49.316,-37.109,7.324,1.0
1626062893.1667323,-2.441,-42.48,-37.598,139.16,1.0
1626062893.1706386,-25.391,-23.438000000000002,-24.901999999999997,-34.668,1.0
1626062893.1745448,-51.27,-11.23,-21.484,1.0,1.0
1626062893.178451,-39.551,-23.926,-26.366999999999997,1.0,1.0
1626062893.182357,-2.93,-20.02,-13.672,1.0,1.0
1626062893.1862638,-5.859,-21.484,-14.648,1.0,1.0
1626062893.1901696,-44.434,-24.414,-41.992,1.0,1.0
1626062893.1940763,-44.434,-15.137,-42.968999999999994,1.0,1.0
1626062893.197982,-15.625,-26.366999999999997,-48.828,1.0,1.0
1626062893.2018883,0.488,-30.761999999999997,-64.453,1.0,1.0
1626062893.205795,-2.93,-0.488,-33.691,1.0,1.0
1626062893.209701,-24.414,-12.207,4.883,1.0,1.0
1626062893.213607,-41.016000000000005,-53.711000000000006,-10.254000000000001,1.0,1.0
1626062893.2175136,-34.18,-46.875,-37.598,1.0,1.0
1626062893.2214196,-36.621,-12.207,-29.785,1.0,1.0
1626062893.225326,-49.805,-4.395,-11.719000000000001,1.0,1.0
1626062893.2292323,-33.691,-47.363,-7.812,1.0,1.0
1626062893.2331386,-6.348,-38.086,-18.555,1.0,1.0
1626062893.2370448,-1.953,-22.949,-36.133,1.0,1.0
1626062893.240951,-42.48,-42.968999999999994,-51.758,1.0,1.0
1626062893.2448573,-44.434,-22.949,-31.25,1.0,1.0
1626062893.2487636,-3.906,6.836,-7.812,1.0,1.0
1626062893.2526696,-11.719000000000001,-3.418,-15.625,1.0,1.0
1626062893.256576,-45.41,-36.621,-21.484,1.0,1.0
1626062893.2604823,-41.992,-38.086,-18.555,1.0,1.0
1626062893.2643886,-17.578,-38.574,-17.09,1.0,1.0
1626062893.2682948,-15.625,-41.504,-19.531,103.027,1.0
1626062893.272201,-37.598,-31.25,-16.113,-115.234,1.0
1626062893.2761073,-51.27,-34.18,-15.137,-170.41,1.0
1626062893.2800136,-17.578,-39.062,-11.719000000000001,55.176,1.0
1626062893.2839198,12.207,-38.574,-20.02,167.48,1.0
1626062893.287826,-22.461,-35.156,-58.105,-40.527,1.0
1626062893.2917323,-70.801,-37.598,-60.547,-208.49599999999998,1.0
1626062893.2956386,-54.199,-35.156,-14.16,-44.434,1.0
1626062893.299545,-17.09,-24.901999999999997,-0.977,133.30100000000002,1.0
1626062893.303451,-28.32,-41.992,-6.836,0.977,1.0
1626062893.307357,-28.809,-32.715,-0.977,-171.875,1.0
1626062893.3112638,-17.578,-17.578,-17.09,-79.102,1.0
1626062893.3151696,-16.602,-35.645,-10.254000000000001,123.04700000000001,1.0
1626062893.3190758,7.812,-37.598,-36.133,73.73,1.0
1626062893.322982,-10.254000000000001,-37.598,-57.129,-161.621,1.0
1626062893.3268883,-40.039,-32.715,-19.043,-155.273,1.0
1626062893.330795,-52.246,-37.109,-9.277000000000001,66.406,1.0
1626062893.334701,-20.996,-30.273000000000003,-13.672,115.234,1.0
1626062893.3386073,-4.883,-36.133,-11.23,-91.309,1.0
1626062893.3425136,-34.668,-42.48,-35.156,-177.734,1.0
1626062893.3464196,-35.645,-20.508000000000003,-49.805,35.156,1.0
1626062893.350326,-4.395,-23.438000000000002,-41.992,144.043,1.0
1626062893.3542323,16.113,-18.066,-10.254000000000001,-52.733999999999995,1.0
1626062893.3581383,-19.043,-11.719000000000001,-10.742,-202.637,1.0
1626062893.3620448,-54.688,-28.809,-43.945,1.0,1.0
1626062893.365951,-31.738000000000003,-49.316,-44.922,1.0,1.0
1626062893.3698573,-6.836,-46.387,-29.296999999999997,1.0,1.0
1626062893.3737636,-14.16,-2.93,-18.066,1.0,1.0
1626062893.3776698,-48.34,-7.324,-26.366999999999997,1.0,1.0
1626062893.381576,-39.551,-40.039,-21.484,1.0,1.0
1626062893.3854823,13.672,-20.02,-16.602,1.0,1.0
1626062893.3893886,2.441,-24.901999999999997,-22.461,1.0,1.0
1626062893.3932948,-42.968999999999994,-39.551,-19.531,1.0,1.0
1626062893.397201,-43.945,-14.16,-32.715,1.0,1.0
1626062893.4011073,-0.977,10.742,-41.504,1.0,1.0
1626062893.4050138,6.836,6.348,-36.621,1.0,1.0
1626062893.4089198,-47.852,-35.645,-39.551,-152.832,1.0
1626062893.412826,-60.059,-59.082,-30.273000000000003,-195.312,1.0
1626062893.4167323,-28.809,-45.898,-29.296999999999997,35.645,1.0
1626062893.4206386,-12.695,-36.133,-26.366999999999997,120.605,1.0
1626062893.4245448,-13.184000000000001,-32.715,-16.113,-74.219,1.0
1626062893.428451,-26.855,-34.668,-34.18,-188.965,1.0
1626062893.432357,-9.766,-51.27,-25.879,-0.977,1.0
1626062893.4362638,11.23,-39.551,-4.883,154.785,1.0
1626062893.4401696,-9.766,-14.16,-17.09,-2.93,1.0
1626062893.4440763,-44.922,-20.996,-38.574,-195.312,1.0
1626062893.447982,-48.828,-35.156,-41.016000000000005,-97.656,1.0
1626062893.4518883,-28.809,-41.016000000000005,-18.066,104.00399999999999,1.0
1626062893.455795,-22.949,-47.363,-12.207,132.812,1.0
1626062893.459701,-32.715,-44.434,-33.691,-0.488,1.0
1626062893.463607,-62.012,-32.227,-47.852,-201.66,1.0
1626062893.4675136,-39.062,-23.926,-39.062,-88.37899999999999,1.0
1626062893.4714196,3.418,-34.668,-33.691,137.695,1.0
1626062893.475326,-4.883,-36.621,-20.02,84.473,1.0
1626062893.4792323,-36.621,-31.25,-19.043,-140.625,1.0
1626062893.4831386,-56.641000000000005,-51.27,-40.527,-154.297,1.0
1626062893.4870448,-28.32,-35.156,-42.48,73.242,1.0
1626062893.490951,-0.977,-0.488,-21.973000000000003,125.488,1.0
1626062893.4948573,-22.949,-9.277000000000001,-13.672,-100.098,1.0
1626062893.4987636,-48.34,-27.344,-26.366999999999997,-200.68400000000003,1.0
1626062893.5026696,-40.039,-20.508000000000003,-37.598,1.0,1.0
1626062893.506576,-21.973000000000003,-18.555,-36.133,1.0,1.0
1626062893.5104823,-19.043,-14.16,-23.438000000000002,1.0,1.0
1626062893.5143886,-33.691,0.977,-27.831999999999997,1.0,1.0
1626062893.5182948,-36.133,-29.296999999999997,-39.062,1.0,1.0
1626062893.522201,1.953,-52.733999999999995,-14.648,1.0,1.0
1626062893.5261073,5.859,-42.48,-18.555,1.0,1.0
1626062893.5300136,-48.828,-60.547,-53.711000000000006,1.0,1.0
1626062893.5339198,-51.27,-38.086,-58.105,1.0,1.0
1626062893.537826,0.977,2.93,-38.574,1.0,1.0
1626062893.5417323,-5.371,-25.391,-35.156,1.0,1.0
1626062893.5456386,-33.203,-32.227,-11.23,1.0,1.0
1626062893.549545,-36.621,-12.207,2.441,1.0,1.0
1626062893.553451,-14.648,-11.719000000000001,-20.02,1.0,1.0
1626062893.557357,-8.301,-27.831999999999997,-25.879,1.0,1.0
1626062893.5612638,-39.551,-41.992,-30.761999999999997,1.0,1.0
1626062893.5651696,-49.316,-32.227,-34.18,1.0,1.0
1626062893.5690758,-21.484,-41.992,-21.484,1.0,1.0
1626062893.572982,7.324,-55.663999999999994,-10.742,1.0,1.0
1626062893.5768883,8.789,-32.715,-6.836,1.0,1.0
1626062893.580795,-22.461,-29.296999999999997,-18.066,1.0,1.0
1626062893.584701,-18.555,-6.836,-36.621,1.0,1.0
1626062893.5886073,2.441,5.859,-43.457,1.0,1.0
1626062893.5925136,-17.578,-21.973000000000003,-30.761999999999997,1.0,1.0
1626062893.5964196,-50.781000000000006,-26.366999999999997,-8.789,1.0,1.0
1626062893.600326,-59.082,-31.25,-11.23,1.0,1.0
1626062893.6042323,-36.133,-37.598,-27.344,1.0,1.0
1626062893.6081383,-19.531,-35.645,-43.457,1.0,1.0
1626062893.6120448,-22.949,-41.016000000000005,-41.504,1.0,1.0
1626062893.615951,-31.25,-42.968999999999994,-25.879,1.0,1.0
1626062893.6198573,-20.508000000000003,-33.691,-18.555,1.0,1.0
1626062893.6237636,-9.277000000000001,-26.366999999999997,-16.602,1.0,1.0
1626062893.6276698,-16.113,-20.996,-9.766,1.0,1.0
1626062893.631576,-27.344,-13.672,-23.926,1.0,1.0
1626062893.6354823,-21.484,-19.531,-31.738000000000003,1.0,1.0
1626062893.6393886,-10.254000000000001,-28.809,-38.574,1.0,1.0
1626062893.6432948,-40.527,-43.945,-74.219,-24.414,1.0
1626062893.647201,-70.312,-38.086,-61.523,-217.285,1.0
1626062893.6511073,-54.199,-35.156,-23.438000000000002,-96.191,1.0
1626062893.6550138,-16.113,-46.875,-15.625,118.164,1.0
1626062893.6589198,-4.395,-36.621,-9.277000000000001,60.059,1.0
1626062893.662826,-41.016000000000005,-18.555,-14.648,-164.551,1.0
1626062893.6667323,-41.504,-12.695,-21.484,-141.113,1.0
1626062893.6706386,-15.625,-22.461,-15.137,81.055,1.0
1626062893.6745448,-16.602,-24.414,-34.668,96.68,1.0
1626062893.678451,-25.879,-15.137,-43.457,-111.816,1.0
1626062893.682357,-26.366999999999997,-22.461,-29.296999999999997,-159.668,1.0
1626062893.6862638,4.883,-33.691,-29.296999999999997,63.477,1.0
1626062893.6901696,-7.324,-35.645,-40.527,90.82,1.0
1626062893.6940763,-6.348,-24.901999999999997,-29.296999999999997,125.488,1.0
1626062893.697982,-38.574,-50.293,-43.945,-98.633,1.0
1626062893.7018883,-59.082,-55.663999999999994,-21.973000000000003,-184.57,1.0
1626062893.705795,-32.715,-34.668,4.883,20.02,1.0
1626062893.709701,-3.418,-27.344,9.766,149.90200000000002,1.0
1626062893.713607,-27.831999999999997,-26.366999999999997,1.953,-31.25,1.0
1626062893.7175136,-46.387,-22.461,-5.859,-183.59400000000002,1.0
1626062893.7214196,-37.109,-0.488,-21.973000000000003,-42.968999999999994,1.0
1626062893.725326,-25.391,0.0,-35.156,126.95299999999999,1.0
1626062893.7292323,-20.996,-36.133,-28.32,28.32,1.0
1626062893.7331386,-48.34,-54.688,-24.414,-175.78099999999998,1.0
1626062893.7370448,-56.152,-44.434,-22.461,1.0,1.0
1626062893.740951,-24.901999999999997,-41.504,-34.18,1.0,1.0
1626062893.7448573,-12.695,-52.733999999999995,-41.992,1.0,1.0
1626062893.7487636,-34.668,-56.641000000000005,-19.531,1.0,1.0
1626062893.7526696,-59.082,-50.293,-11.719000000000001,1.0,1.0
1626062893.756576,-40.527,-47.363,-17.578,1.0,1.0
1626062893.7604823,-8.301,-43.457,-17.578,1.0,1.0
1626062893.7643886,-39.551,-36.133,-40.527,1.0,1.0
1626062893.7682948,-63.477,-32.715,-28.32,1.0,1.0
1626062893.772201,-34.18,-37.109,4.395,1.0,1.0
1626062893.7761073,-22.461,-35.645,-18.066,1.0,1.0
1626062893.7800136,-26.855,-22.461,-36.133,1.0,1.0
1626062893.7839198,-35.645,-17.578,-35.156,1.0,1.0
1626062893.787826,-34.668,-39.551,-29.785,1.0,1.0
1626062893.7917323,-18.555,-44.922,-23.926,1.0,1.0
1626062893.7956386,-23.926,-32.227,-29.785,1.0,1.0
1626062893.799545,-41.992,-32.227,-22.461,1.0,1.0
1626062893.803451,-27.831999999999997,-35.645,7.324,1.0,1.0
1626062893.807357,-7.324,-26.366999999999997,-6.836,1.0,1.0
1626062893.8112638,-10.742,-19.531,-46.875,1.0,1.0
1626062893.8151696,-33.691,-31.25,-40.527,1.0,1.0
1626062893.8190758,-50.293,-34.18,-31.25,1.0,1.0
1626062893.822982,-35.645,-31.25,-55.176,1.0,1.0
1626062893.8268883,-9.766,-31.738000000000003,-42.48,1.0,1.0
1626062893.830795,-34.668,-34.18,-16.602,-75.195,1.0
1626062893.834701,-62.988,-51.758,-17.578,-202.148,1.0
1626062893.8386073,-33.203,-38.574,-23.438000000000002,-11.23,1.0
1626062893.8425136,-1.953,-29.785,-26.855,151.36700000000002,1.0
1626062893.8464196,5.859,-36.133,-36.621,23.438000000000002,1.0
1626062893.850326,-11.23,-26.366999999999997,-50.781000000000006,-147.461,1.0
1626062893.8542323,-35.645,-40.039,-54.688,-73.242,1.0
1626062893.8581383,-42.48,-40.527,-31.738000000000003,98.145,1.0
1626062893.8620448,-19.043,-16.602,-10.254000000000001,59.57,1.0
1626062893.865951,-30.273000000000003,-8.789,-27.831999999999997,-142.578,1.0
1626062893.8698573,-66.895,-28.32,-41.504,-154.297,1.0
1626062893.8737636,-37.109,-38.086,-13.184000000000001,67.87100000000001,1.0
1626062893.8776698,-18.555,-41.016000000000005,-8.789,94.238,1.0
1626062893.881576,-62.5,-45.898,-36.133,-148.438,1.0
1626062893.8854823,-74.707,-36.133,-37.598,-209.47299999999998,1.0
1626062893.8893886,-10.742,-19.531,-21.973000000000003,41.992,1.0
1626062893.8932948,21.484,-10.742,-51.758,159.18,1.0
1626062893.897201,-24.901999999999997,-20.02,-56.152,-53.223,1.0
1626062893.9011073,-61.035,-39.551,-18.066,-203.125,1.0
1626062893.9050138,-44.922,-41.016000000000005,-2.93,-41.016000000000005,1.0
1626062893.9089198,-26.366999999999997,-37.598,-13.672,123.535,1.0
1626062893.912826,-41.992,-34.18,-23.926,-12.695,1.0
1626062893.9167323,-52.246,-22.461,-23.438000000000002,-197.75400000000002,1.0
1626062893.9206386,-36.133,-13.672,-33.203,-104.00399999999999,1.0
1626062893.9245448,-84.473,-34.668,-46.387,105.95700000000001,1.0
1626062893.928451,-50.781000000000006,-60.059,-20.508000000000003,59.57,1.0
1626062893.932357,-30.761999999999997,-34.668,-16.113,-172.363,1.0
1626062893.9362638,-30.761999999999997,11.719000000000001,-22.461,-165.52700000000002,1.0
1626062893.9401696,-45.898,5.859,-26.366999999999997,63.965,1.0
1626062893.9440763,-40.527,-19.531,-15.625,112.79299999999999,1.0
1626062893.947982,-33.691,-17.578,-30.761999999999997,-90.82,1.0
1626062893.9518883,-63.965,-47.363,-67.383,-183.105,1.0
1626062893.955795,-60.059,-72.266,-40.039,10.742,1.0
1626062893.959701,-17.09,-42.48,-10.254000000000001,136.23,1.0
1626062893.963607,-28.809,-44.922,-35.156,-43.457,1.0
1626062893.9675136,-49.316,-59.082,-46.875,-222.168,1.0
1626062893.9714196,-50.293,-56.152,-30.273000000000003,1.0,1.0
1626062893.975326,-5.859,-28.809,-3.906,1.0,1.0
1626062893.9792323,8.789,-19.531,-20.996,1.0,1.0
1626062893.9831386,-14.16,-5.371,-36.621,1.0,1.0
1626062893.9870448,-32.715,10.742,-45.898,1.0,1.0
1626062893.990951,-48.828,-27.344,-56.152,1.0,1.0
1626062893.9948573,-27.831999999999997,-49.805,-44.434,1.0,1.0
1626062893.9987636,-35.645,-62.012,-48.34,1.0,1.0
1626062894.0026696,-75.195,-72.75399999999999,-44.922,1.0,1.0
1626062894.006576,-66.895,-55.663999999999994,-35.645,1.0,1.0
1626062894.0104823,-2.441,-8.301,-29.296999999999997,1.0,1.0
1626062894.0143886,8.301,-25.391,-5.859,1.0,1.0
1626062894.0182948,-41.992,-67.87100000000001,-17.578,-141.113,1.0
1626062894.022201,-58.593999999999994,-44.434,-59.082,-187.988,1.0
1626062894.0261073,-32.715,-16.602,-72.75399999999999,31.738000000000003,1.0
1626062894.0300136,-25.879,-45.898,-59.57,110.84,1.0
1626062894.0339198,-50.781000000000006,-56.641000000000005,-52.733999999999995,-95.70299999999999,1.0
1626062894.037826,-57.129,-14.16,-41.016000000000005,-202.637,1.0
1626062894.0417323,-36.133,-7.324,-39.551,-16.113,1.0
1626062894.0456386,-10.254000000000001,-25.391,-43.945,136.23,1.0
1626062894.049545,-11.23,-43.457,-31.738000000000003,0.488,1.0
1626062894.053451,-32.227,-49.805,-13.184000000000001,-163.086,1.0
1626062894.057357,-31.738000000000003,-43.457,-20.508000000000003,-60.059,1.0
1626062894.0612638,-21.484,-48.34,-47.363,120.117,1.0
1626062894.0651696,9.277000000000001,-4.883,-14.16,173.34,1.0
1626062894.0690758,-7.324,-13.184000000000001,-25.391,28.809,1.0
1626062894.072982,-31.25,-24.901999999999997,-46.875,-172.852,1.0
1626062894.0768883,-41.504,-41.016000000000005,-53.711000000000006,-102.539,1.0
1626062894.080795,-19.531,-30.273000000000003,-45.41,112.79299999999999,1.0
1626062894.084701,-15.625,-20.996,-28.809,67.87100000000001,1.0
1626062894.0886073,-41.504,-31.25,-23.926,-160.645,1.0
1626062894.0925136,-39.551,-31.25,-16.113,-151.855,1.0
1626062894.0964196,-13.672,-27.344,-10.742,77.637,1.0
1626062894.100326,6.348,-38.574,-8.301,131.34799999999998,1.0
1626062894.1042323,-8.789,-50.293,-7.812,-75.195,1.0
1626062894.1081383,-39.551,-42.968999999999994,-28.32,-172.363,1.0
1626062894.1120448,-26.855,-11.719000000000001,-28.809,1.0,1.0
1626062894.115951,-10.742,-19.043,-10.742,1.0,1.0
1626062894.1198573,-25.391,-41.016000000000005,-15.625,1.0,1.0
1626062894.1237636,-58.105,-29.785,-33.203,1.0,1.0
1626062894.1276698,-55.663999999999994,-16.113,-42.968999999999994,1.0,1.0
1626062894.131576,0.977,-15.625,-28.32,1.0,1.0
1626062894.1354823,21.973000000000003,-1.953,-0.488,1.0,1.0
1626062894.1393886,-33.203,-20.996,-5.859,1.0,1.0
1626062894.1432948,-55.663999999999994,-38.086,-14.16,1.0,1.0
1626062894.147201,-31.738000000000003,-40.039,-29.785,1.0,1.0
1626062894.1511073,-26.855,-40.039,-58.593999999999994,1.0,1.0
1626062894.1550138,-24.414,-23.438000000000002,-49.805,1.0,1.0
1626062894.1589198,-24.414,-32.715,-25.879,-136.23,1.0
1626062894.162826,-16.113,-24.414,-15.137,78.125,1.0
1626062894.1667323,-3.906,-13.672,-29.785,140.625,1.0
1626062894.1706386,-28.32,-28.32,-45.898,-74.707,1.0
1626062894.1745448,-60.059,-36.133,-29.785,-182.61700000000002,1.0
1626062894.178451,-32.715,-17.09,-9.766,15.625,1.0
1626062894.182357,6.836,10.254000000000001,-10.742,166.50400000000002,1.0
1626062894.1862638,-24.414,-4.395,-33.203,-21.973000000000003,1.0
1626062894.1901696,-62.012,-28.809,-53.711000000000006,-215.82,1.0
1626062894.1940763,-40.527,-34.668,-36.621,-77.148,1.0
1626062894.197982,-6.348,-28.809,-26.855,131.836,1.0
1626062894.2018883,5.859,-20.996,-17.578,58.105,1.0
1626062894.205795,-23.926,-29.785,-17.578,1.0,1.0
1626062894.209701,-42.968999999999994,-25.879,-37.598,1.0,1.0
1626062894.213607,10.742,-4.395,-17.578,1.0,1.0
1626062894.2175136,25.879,-25.391,3.906,1.0,1.0
1626062894.2214196,-33.691,-51.758,-18.555,1.0,1.0
1626062894.225326,-74.707,-60.547,-42.968999999999994,1.0,1.0
1626062894.2292323,-27.344,-26.855,-23.438000000000002,1.0,1.0
1626062894.2331386,13.672,1.953,-9.277000000000001,1.0,1.0
1626062894.2370448,-32.715,-29.296999999999997,-33.691,1.0,1.0
1626062894.240951,-66.406,-41.504,-34.18,1.0,1.0
1626062894.2448573,-50.293,-43.457,-27.831999999999997,1.0,1.0
1626062894.2487636,-17.578,-21.973000000000003,-21.973000000000003,1.0,1.0
1626062894.2526696,-22.949,-16.602,-22.949,2.441,1.0
1626062894.256576,-39.062,-31.738000000000003,-34.668,-181.15200000000002,1.0
1626062894.2604823,-14.16,-23.438000000000002,-17.09,-52.733999999999995,1.0
1626062894.2643886,3.906,-42.48,-3.418,153.32,1.0
1626062894.2682948,-23.438000000000002,-66.895,-18.066,62.012,1.0
1626062894.272201,-57.129,-37.109,-36.621,-172.852,1.0
1626062894.2761073,-54.688,-9.277000000000001,-38.574,-155.273,1.0
1626062894.2800136,-28.32,-28.809,-31.738000000000003,68.848,1.0
1626062894.2839198,-26.366999999999997,-31.25,-33.691,92.285,1.0
1626062894.287826,-41.992,-28.32,-28.809,-120.117,1.0
1626062894.2917323,-41.016000000000005,-41.992,-40.527,-154.785,1.0
1626062894.2956386,-16.602,-35.645,-35.156,49.805,1.0
1626062894.299545,-16.602,-28.809,-19.043,83.008,1.0
1626062894.303451,-18.066,-48.34,-25.391,122.07,1.0
1626062894.307357,-49.805,-21.484,-32.227,-99.609,1.0
1626062894.3112638,-72.266,-22.949,-38.086,-195.312,1.0
1626062894.3151696,-53.711000000000006,-53.223,-36.133,-4.395,1.0
1626062894.3190758,-23.438000000000002,-41.016000000000005,-34.18,137.695,1.0
1626062894.322982,-20.508000000000003,-34.668,-35.645,-18.066,1.0
1626062894.3268883,-25.391,-34.18,-10.742,-167.96900000000002,1.0
1626062894.330795,-23.438000000000002,-12.695,-2.93,-37.598,1.0
1626062894.334701,-25.391,-10.254000000000001,-22.949,125.488,1.0
1626062894.3386073,-34.18,-21.484,-23.438000000000002,26.366999999999997,1.0
1626062894.3425136,-47.363,-17.09,-17.578,-164.551,1.0
1626062894.3464196,-55.663999999999994,-40.527,-36.621,1.0,1.0
1626062894.350326,-31.738000000000003,-53.223,-38.574,1.0,1.0
1626062894.3542323,-18.555,-33.691,-28.809,1.0,1.0
1626062894.3581383,-40.527,-18.066,-15.137,1.0,1.0
1626062894.3620448,-47.852,-13.184000000000001,-11.719000000000001,1.0,1.0
1626062894.365951,-21.973000000000003,-14.648,-27.831999999999997,1.0,1.0
1626062894.3698573,-4.395,-44.434,-29.785,1.0,1.0
1626062894.3737636,-39.062,-63.965,-52.246,1.0,1.0
1626062894.3776698,-65.918,-35.156,-63.477,1.0,1.0
1626062894.381576,-45.41,-29.296999999999997,-38.086,1.0,1.0
1626062894.3854823,-4.883,-28.809,-5.371,1.0,1.0
1626062894.3893886,-17.578,-17.09,-7.812,1.0,1.0
1626062894.3932948,-65.918,-15.625,-25.391,-211.426,1.0
1626062894.397201,-64.453,-38.574,-21.973000000000003,-95.70299999999999,1.0
1626062894.4011073,-27.831999999999997,-60.547,-23.926,108.887,1.0
1626062894.4050138,2.441,-32.227,-19.531,58.105,1.0
1626062894.4089198,-21.973000000000003,-17.578,-20.996,-161.13299999999998,1.0
1626062894.412826,-57.129,-32.715,-33.203,-154.297,1.0
1626062894.4167323,-31.738000000000003,-18.555,-36.133,80.566,1.0
1626062894.4206386,-3.906,-3.418,-33.203,102.051,1.0
1626062894.4245448,-28.809,-22.949,-41.992,-133.30100000000002,1.0
1626062894.428451,-50.781000000000006,-35.156,-58.105,-190.43,1.0
1626062894.432357,-19.531,-21.973000000000003,-55.663999999999994,40.527,1.0
1626062894.4362638,2.93,-16.113,-35.156,140.625,1.0
1626062894.4401696,20.508000000000003,-17.578,-14.16,126.95299999999999,1.0
1626062894.4440763,-14.16,-37.598,-28.32,-97.16799999999999,1.0
1626062894.447982,-38.574,-42.48,-34.668,-172.363,1.0
1626062894.4518883,-12.207,-32.227,-20.996,35.156,1.0
1626062894.455795,2.441,-29.296999999999997,-17.09,142.578,1.0
1626062894.459701,-36.621,-33.691,-30.761999999999997,-53.711000000000006,1.0
1626062894.463607,-65.918,-42.48,-38.574,-204.102,1.0
1626062894.4675136,-44.434,-45.41,-29.296999999999997,-47.363,1.0
1626062894.4714196,-7.812,-73.242,-32.715,140.137,1.0
1626062894.475326,-20.996,-71.289,-58.593999999999994,18.066,1.0
1626062894.4792323,-53.223,-17.09,-42.968999999999994,-185.547,1.0
1626062894.4831386,-50.293,-9.277000000000001,-20.508000000000003,-100.098,1.0
1626062894.4870448,-31.25,-40.039,-25.879,112.305,1.0
1626062894.490951,7.812,-25.879,-25.879,95.70299999999999,1.0
1626062894.4948573,3.906,-25.391,-30.273000000000003,-118.164,1.0
1626062894.4987636,-47.363,-57.129,-47.363,-154.785,1.0
1626062894.5026696,-42.968999999999994,-44.922,-27.831999999999997,58.105,1.0
1626062894.506576,12.207,-4.395,-13.184000000000001,111.32799999999999,1.0
1626062894.5104823,29.296999999999997,4.883,-35.645,-89.844,1.0
1626062894.5143886,-16.602,5.371,-48.828,-168.457,1.0
1626062894.5182948,-63.477,-33.203,-63.477,28.32,1.0
1626062894.522201,-49.316,-49.316,-59.082,148.92600000000002,1.0
1626062894.5261073,-23.926,-31.738000000000003,-33.691,-40.527,1.0
1626062894.5300136,-27.344,-31.738000000000003,-24.901999999999997,-211.91400000000002,1.0
1626062894.5339198,-32.715,-30.273000000000003,-19.531,1.0,1.0
1626062894.537826,-21.484,-41.992,-27.831999999999997,1.0,1.0
1626062894.5417323,-8.789,-34.18,-44.434,1.0,1.0
1626062894.5456386,-22.461,-25.879,-53.711000000000006,1.0,1.0
1626062894.549545,-43.945,-36.621,-57.129,1.0,1.0
1626062894.553451,-34.668,-37.109,-54.199,1.0,1.0
1626062894.557357,-8.789,-40.527,-39.551,1.0,1.0
1626062894.5612638,-21.973000000000003,-42.968999999999994,-22.461,1.0,1.0
1626062894.5651696,-61.035,-47.852,-34.18,1.0,1.0
1626062894.5690758,-68.359,-37.598,-54.199,1.0,1.0
1626062894.572982,-39.062,-17.09,-49.805,1.0,1.0
1626062894.5768883,-28.32,-22.461,-42.48,1.0,1.0
1626062894.580795,-50.293,-38.086,-50.781000000000006,-145.50799999999998,1.0
1626062894.584701,-42.48,-36.133,-33.203,-174.31599999999997,1.0
1626062894.5886073,-3.906,-27.344,-23.926,62.012,1.0
1626062894.5925136,-6.348,-39.551,-57.617,134.766,1.0
1626062894.5964196,-42.48,-58.593999999999994,-74.707,-84.961,1.0
1626062894.600326,-71.289,-48.34,-73.73,-221.19099999999997,1.0
1626062894.6042323,-53.711000000000006,-14.16,-56.641000000000005,-51.27,1.0
1626062894.6081383,-32.227,-17.578,-34.18,112.305,1.0
1626062894.6120448,-54.688,-42.48,-42.968999999999994,-33.203,1.0
1626062894.615951,-57.129,-13.184000000000001,-29.785,-199.707,1.0
1626062894.6198573,-31.738000000000003,-12.695,-23.438000000000002,-78.613,1.0
1626062894.6237636,1.465,-30.761999999999997,-20.02,138.184,1.0
1626062894.6276698,3.418,-2.441,-25.391,160.645,1.0
1626062894.631576,-15.137,-16.113,-31.25,33.203,1.0
1626062894.6354823,-44.922,-27.344,-22.949,-174.805,1.0
1626062894.6393886,-41.504,-26.366999999999997,-17.578,-97.16799999999999,1.0
1626062894.6432948,-11.719000000000001,-23.926,-8.789,124.512,1.0
1626062894.647201,-27.344,-48.34,-30.761999999999997,75.195,1.0
1626062894.6511073,-71.289,-57.617,-37.598,-165.52700000000002,1.0
1626062894.6550138,-74.707,-46.387,-21.973000000000003,-173.34,1.0
1626062894.6589198,-49.316,-49.316,-37.109,48.34,1.0
1626062894.662826,-22.949,-43.945,-51.758,108.398,1.0
1626062894.6667323,-25.879,-34.18,-40.527,-82.52,1.0
1626062894.6706386,-44.922,-30.273000000000003,-30.761999999999997,-174.805,1.0
1626062894.6745448,-33.691,-34.668,-37.109,1.0,1.0
1626062894.678451,-0.488,-18.066,-30.273000000000003,1.0,1.0
1626062894.682357,-10.742,-33.691,-19.531,1.0,1.0
1626062894.6862638,-49.805,-53.223,-39.551,1.0,1.0
1626062894.6901696,-43.457,-37.598,-49.316,1.0,1.0
1626062894.6940763,-15.625,-32.227,-46.875,1.0,1.0
1626062894.697982,-19.043,-29.296999999999997,-37.109,1.0,1.0
1626062894.7018883,-46.387,-49.316,-24.901999999999997,1.0,1.0
1626062894.705795,-48.828,-64.941,-40.527,1.0,1.0
1626062894.709701,-20.996,-51.27,-57.129,1.0,1.0
1626062894.713607,-18.555,-29.785,-50.781000000000006,1.0,1.0
1626062894.7175136,-26.366999999999997,-18.555,-25.391,1.0,1.0
1626062894.7214196,-34.18,-30.273000000000003,-23.438000000000002,1.0,1.0
1626062894.725326,-18.066,-30.273000000000003,-21.484,1.0,1.0
1626062894.7292323,-12.207,-13.672,-22.461,1.0,1.0
1626062894.7331386,-52.733999999999995,-22.461,-48.34,1.0,1.0
1626062894.7370448,-68.848,-20.508000000000003,-54.199,1.0,1.0
1626062894.740951,-37.598,-4.883,-35.156,1.0,1.0
1626062894.7448573,-26.366999999999997,-20.02,-27.831999999999997,1.0,1.0
1626062894.7487636,-40.527,-29.785,-47.363,1.0,1.0
1626062894.7526696,-61.035,-40.039,-71.777,1.0,1.0
1626062894.756576,-40.527,-52.733999999999995,-55.176,1.0,1.0
1626062894.7604823,26.855,-45.41,-1.465,1.0,1.0
1626062894.7643886,35.645,-33.203,1.953,1.0,1.0
1626062894.7682948,-25.879,-35.156,-47.852,1.0,1.0
1626062894.772201,-41.016000000000005,-59.57,-50.781000000000006,1.0,1.0
1626062894.7761073,-17.09,-48.828,-43.945,1.0,1.0
1626062894.7800136,-13.184000000000001,-6.836,-40.039,1.0,1.0
1626062894.7839198,-33.203,-1.465,-20.508000000000003,1.0,1.0
1626062894.787826,-63.477,-41.016000000000005,-29.785,1.0,1.0
1626062894.7917323,-31.738000000000003,-39.551,-29.785,1.0,1.0
1626062894.7956386,-1.953,-22.949,-20.02,1.0,1.0
1626062894.799545,-15.625,-22.461,-6.836,1.0,1.0
1626062894.803451,-12.207,-14.648,-9.277000000000001,1.0,1.0
1626062894.807357,2.441,-38.574,-51.758,1.0,1.0
1626062894.8112638,-3.906,-55.176,-52.246,1.0,1.0
1626062894.8151696,-38.086,-40.039,-31.25,-26.366999999999997,1.0
1626062894.8190758,-66.406,-26.855,-27.344,-218.262,1.0
1626062894.822982,-60.059,-32.715,-20.508000000000003,-114.74600000000001,1.0
1626062894.8268883,-34.18,-61.523,-37.109,106.934,1.0
1626062894.830795,-30.273000000000003,-41.992,-58.593999999999994,57.129,1.0
1626062894.834701,-51.27,-9.766,-35.645,-166.50400000000002,1.0
1626062894.8386073,-55.176,-24.901999999999997,-24.414,-155.762,1.0
1626062894.8425136,-19.531,-37.598,-29.296999999999997,73.242,1.0
1626062894.8464196,23.438000000000002,-7.324,-17.578,140.137,1.0
1626062894.850326,2.441,8.301,-19.043,-76.172,1.0
1626062894.8542323,-54.199,-14.648,-31.738000000000003,-192.87099999999998,1.0
1626062894.8581383,-48.828,-29.785,-33.203,1.953,1.0
1626062894.8620448,-32.715,-36.133,-14.648,117.18799999999999,1.0
1626062894.865951,-1.953,-25.391,-3.906,-72.266,1.0
1626062894.8698573,-33.203,-32.715,-2.93,-211.426,1.0
1626062894.8737636,-50.781000000000006,-24.901999999999997,-19.043,-46.387,1.0
1626062894.8776698,-4.883,-19.043,-4.395,125.0,1.0
1626062894.881576,15.137,-20.508000000000003,0.0,11.23,1.0
1626062894.8854823,-14.16,-27.344,-14.648,-169.922,1.0
1626062894.8893886,-56.152,-54.199,-29.785,-83.984,1.0
1626062894.8932948,-53.711000000000006,-47.852,-42.968999999999994,133.789,1.0
1626062894.897201,-25.391,-27.344,-30.273000000000003,84.473,1.0
1626062894.9011073,-20.02,-23.926,-3.906,-158.691,1.0
1626062894.9050138,-41.992,-34.18,-1.465,-169.43400000000003,1.0
1626062894.9089198,-52.733999999999995,-44.434,-13.672,1.0,1.0
1626062894.912826,-11.23,-22.461,-5.371,1.0,1.0
1626062894.9167323,17.578,-16.113,-4.395,1.0,1.0
1626062894.9206386,-15.625,-49.805,-16.602,1.0,1.0
1626062894.9245448,-47.363,-67.383,-24.414,1.0,1.0
1626062894.928451,-15.137,-42.968999999999994,-21.973000000000003,1.0,1.0
1626062894.932357,20.02,-26.855,-17.578,1.0,1.0
1626062894.9362638,-7.324,-29.296999999999997,-21.973000000000003,1.0,1.0
1626062894.9401696,-53.223,-30.761999999999997,-19.043,1.0,1.0
1626062894.9440763,-59.57,-38.086,-25.879,1.0,1.0
1626062894.947982,-36.621,-49.805,-32.715,1.0,1.0
1626062894.9518883,-29.296999999999997,-41.992,-26.366999999999997,1.0,1.0
1626062894.955795,-42.968999999999994,-20.508000000000003,-18.555,-181.641,1.0
1626062894.959701,-24.901999999999997,-4.395,-7.812,-57.617,1.0
1626062894.963607,13.184000000000001,-15.625,-14.648,161.13299999999998,1.0
1626062894.9675136,-13.672,-77.637,-31.738000000000003,62.988,1.0
1626062894.9714196,-51.27,-80.566,-20.508000000000003,-174.31599999999997,1.0
1626062894.975326,-49.316,-20.508000000000003,-22.949,-135.254,1.0
1626062894.9792323,-22.949,-13.672,-62.012,93.75,1.0
1626062894.9831386,-19.043,-20.996,-81.055,100.586,1.0
1626062894.9870448,-48.828,-44.922,-44.922,-125.488,1.0
1626062894.990951,-61.035,-49.805,-23.926,-184.57,1.0
1626062894.9948573,-35.156,-23.438000000000002,-30.273000000000003,25.879,1.0
1626062894.9987636,-5.859,-13.184000000000001,-25.879,129.395,1.0
1626062895.0026696,-21.484,-45.41,-37.598,100.586,1.0
1626062895.006576,-15.137,-24.414,-12.695,-84.473,1.0
1626062895.0104823,-34.18,-9.766,-20.508000000000003,-171.387,1.0
1626062895.0143886,-40.039,-24.901999999999997,-22.461,3.906,1.0
1626062895.0182948,-10.742,-17.578,-19.531,129.395,1.0
1626062895.022201,-18.066,-38.574,-29.296999999999997,-33.203,1.0
1626062895.0261073,-47.363,-61.035,-37.598,-193.84799999999998,1.0
1626062895.0300136,-20.996,-14.648,-24.901999999999997,-33.203,1.0
1626062895.0339198,11.719000000000001,9.277000000000001,-12.695,154.785,1.0
1626062895.037826,-5.859,-6.348,-20.02,22.949,1.0
1626062895.0417323,-31.25,-11.23,-29.785,-175.293,1.0
1626062895.0456386,-44.434,-46.387,-49.805,-104.492,1.0
1626062895.049545,-16.113,-18.555,-21.973000000000003,93.262,1.0
1626062895.053451,-17.578,-29.785,-36.621,78.613,1.0
1626062895.057357,-41.016000000000005,-39.551,-37.598,-135.254,1.0
1626062895.0612638,-67.383,-46.387,-31.738000000000003,-166.016,1.0
1626062895.0651696,-46.875,-31.738000000000003,-31.738000000000003,66.406,1.0
1626062895.0690758,-8.789,-45.898,-32.227,119.141,1.0
1626062895.072982,-14.648,-62.988,-31.738000000000003,-114.258,1.0
1626062895.0768883,-53.223,-53.711000000000006,-29.785,-197.266,1.0
1626062895.080795,-59.082,-20.996,-12.695,19.531,1.0
1626062895.084701,-27.344,-7.324,-1.953,153.32,1.0
1626062895.0886073,-16.602,-30.273000000000003,-12.207,-23.926,1.0
1626062895.0925136,-28.809,-29.785,-11.23,-173.34,1.0
1626062895.0964196,-65.43,-40.527,-25.391,-189.94099999999997,1.0
1626062895.100326,-57.129,-37.109,-62.5,-13.184000000000001,1.0
1626062895.1042323,-24.414,-28.809,-45.41,147.94899999999998,1.0
1626062895.1081383,-33.691,-35.156,-20.02,-3.906,1.0
1626062895.1120448,-61.523,-40.039,-40.527,-187.012,1.0
1626062895.115951,-50.781000000000006,-41.992,-27.831999999999997,-67.87100000000001,1.0
1626062895.1198573,-9.766,-19.531,5.371,148.92600000000002,1.0
1626062895.1237636,-16.113,-30.273000000000003,-8.789,72.266,1.0
1626062895.1276698,-49.316,-30.761999999999997,-23.926,-151.36700000000002,1.0
1626062895.131576,-47.363,-10.254000000000001,-21.484,-120.605,1.0
1626062895.1354823,-33.203,-32.715,-31.738000000000003,88.37899999999999,1.0
1626062895.1393886,-18.555,-27.344,-23.926,102.051,1.0
1626062895.1432948,-35.156,-25.391,-11.719000000000001,1.0,1.0
1626062895.147201,-64.453,-40.039,-32.227,1.0,1.0
1626062895.1511073,-47.852,-38.574,-38.574,1.0,1.0
1626062895.1550138,-20.02,-42.48,-22.949,1.0,1.0
1626062895.1589198,-32.715,-45.41,-30.761999999999997,1.0,1.0
1626062895.162826,-57.617,-50.781000000000006,-36.621,1.0,1.0
1626062895.1667323,-34.668,-29.785,-27.344,1.0,1.0
1626062895.1706386,-3.418,-21.484,-38.574,1.0,1.0
1626062895.1745448,-17.09,-43.457,-42.48,1.0,1.0
1626062895.178451,-50.781000000000006,-34.668,-26.855,1.0,1.0
1626062895.182357,-41.504,-5.859,-3.906,1.0,1.0
1626062895.1862638,-11.719000000000001,5.371,-1.953,1.0,1.0
1626062895.1901696,-24.414,-8.301,-20.508000000000003,123.04700000000001,1.0
1626062895.1940763,-40.527,-39.551,-39.551,-0.977,1.0
1626062895.197982,-61.035,-48.828,-34.18,-196.77700000000002,1.0
1626062895.2018883,-55.176,-59.082,-40.527,-116.211,1.0
1626062895.205795,-6.836,-42.968999999999994,-24.901999999999997,125.0,1.0
1626062895.209701,7.324,-15.625,-12.695,113.77,1.0
1626062895.213607,-32.227,-22.949,-45.41,-124.512,1.0
1626062895.2175136,-54.199,-31.738000000000003,-61.035,-157.715,1.0
1626062895.2214196,-33.203,-33.691,-43.457,62.988,1.0
1626062895.225326,4.883,-3.418,-0.977,144.531,1.0
1626062895.2292323,6.836,4.395,28.32,-42.968999999999994,1.0
1626062895.2331386,-36.133,-24.901999999999997,-4.395,-166.50400000000002,1.0
1626062895.2370448,-69.336,-53.711000000000006,-52.246,1.0,1.0
1626062895.240951,-49.316,-49.316,-55.176,1.0,1.0
1626062895.2448573,-31.738000000000003,-32.227,-30.273000000000003,1.0,1.0
1626062895.2487636,-45.41,-39.062,-33.691,1.0,1.0
1626062895.2526696,-37.109,-33.203,-41.504,1.0,1.0
1626062895.256576,-18.555,-22.461,-39.551,1.0,1.0
1626062895.2604823,-18.066,-11.23,-26.366999999999997,1.0,1.0
1626062895.2643886,-35.645,-13.184000000000001,-18.555,1.0,1.0
1626062895.2682948,-26.855,-8.789,1.465,1.0,1.0
1626062895.272201,12.207,1.953,17.578,1.0,1.0
1626062895.2761073,-3.906,-23.438000000000002,-13.672,1.0,1.0
1626062895.2800136,-49.316,-65.43,-29.296999999999997,1.0,1.0
1626062895.2839198,-43.945,-73.242,-26.366999999999997,1.0,1.0
1626062895.287826,-2.441,-43.945,-32.715,1.0,1.0
1626062895.2917323,-0.977,-38.086,-43.945,1.0,1.0
1626062895.2956386,-56.641000000000005,-31.738000000000003,-64.941,1.0,1.0
1626062895.299545,-59.082,3.418,-38.574,1.0,1.0
1626062895.303451,-18.555,-9.766,-13.672,1.0,1.0
1626062895.307357,-0.977,-31.738000000000003,-22.949,1.0,1.0
1626062895.3112638,-3.418,-16.602,-6.348,1.0,1.0
1626062895.3151696,-42.48,-27.831999999999997,-1.953,1.0,1.0
1626062895.3190758,-59.57,-34.668,-25.391,1.0,1.0
1626062895.322982,-37.598,-30.273000000000003,-45.41,1.0,1.0
1626062895.3268883,-19.531,-24.414,-38.574,1.0,1.0
1626062895.330795,-33.691,-21.484,-20.508000000000003,1.0,1.0
1626062895.334701,-39.062,-35.645,-27.831999999999997,1.0,1.0
1626062895.3386073,-22.949,-52.733999999999995,-43.457,1.0,1.0
1626062895.3425136,-8.301,-42.968999999999994,-25.391,1.0,1.0
1626062895.3464196,-16.602,-20.02,-8.789,1.0,1.0
1626062895.350326,-41.992,-18.555,-35.645,1.0,1.0
1626062895.3542323,-18.555,-30.273000000000003,-37.109,1.0,1.0
1626062895.3581383,-9.766,-41.504,-25.879,1.0,1.0
1626062895.3620448,-36.133,-42.48,-25.391,1.0,1.0
1626062895.365951,-49.805,-16.602,-17.578,1.0,1.0
1626062895.3698573,-43.945,-18.555,-19.043,1.0,1.0
1626062895.3737636,-20.02,-22.949,-14.648,1.0,1.0
1626062895.3776698,-31.738000000000003,-26.855,-30.273000000000003,0.0,1.0
1626062895.381576,-69.824,-61.035,-44.434,-208.984,1.0
1626062895.3854823,-52.246,-61.523,-23.438000000000002,-100.098,1.0
1626062895.3893886,-25.879,-45.898,-26.366999999999997,110.84,1.0
1626062895.3932948,-20.508000000000003,-30.761999999999997,-12.207,52.246,1.0
1626062895.397201,-44.922,-48.34,-23.926,-149.90200000000002,1.0
1626062895.4011073,-57.129,-61.035,-53.223,-139.648,1.0
1626062895.4050138,-31.738000000000003,-40.039,-20.508000000000003,77.637,1.0
1626062895.4089198,-31.25,-33.691,-14.648,99.12100000000001,1.0
1626062895.412826,-42.48,-16.113,-16.113,-117.18799999999999,1.0
1626062895.4167323,-58.593999999999994,-8.301,-16.602,-197.266,1.0
1626062895.4206386,-39.062,-3.906,-18.555,15.625,1.0
1626062895.4245448,-8.789,-10.254000000000001,-16.113,83.49600000000001,1.0
1626062895.428451,-24.901999999999997,-33.203,-36.621,117.18799999999999,1.0
1626062895.432357,-61.035,-54.688,-41.504,-111.816,1.0
1626062895.4362638,-65.918,-41.016000000000005,-37.109,-205.078,1.0
1626062895.4401696,-29.785,-20.02,-31.25,0.0,1.0
1626062895.4440763,-12.207,-26.366999999999997,-31.738000000000003,139.648,1.0
1626062895.447982,-31.738000000000003,-50.781000000000006,-34.668,-26.366999999999997,1.0
1626062895.4518883,-48.828,-38.574,-39.062,-196.77700000000002,1.0
1626062895.455795,-39.062,-45.41,-40.039,-75.195,1.0
1626062895.459701,-16.113,-66.406,-24.414,118.164,1.0
1626062895.463607,-16.113,-42.48,-28.809,30.273000000000003,1.0
1626062895.4675136,-47.852,-7.812,-42.968999999999994,-186.035,1.0
1626062895.4714196,-64.941,-19.531,-48.34,1.0,1.0
1626062895.475326,-39.062,-45.41,-41.504,1.0,1.0
1626062895.4792323,-24.414,-21.484,-40.527,1.0,1.0
1626062895.4831386,-41.016000000000005,-16.113,-38.086,1.0,1.0
1626062895.4870448,-46.387,-34.18,-11.719000000000001,1.0,1.0
1626062895.490951,-34.668,-55.663999999999994,-22.949,1.0,1.0
1626062895.4948573,-23.438000000000002,-32.227,-35.645,1.0,1.0
1626062895.4987636,-51.27,-5.859,-21.484,1.0,1.0
1626062895.5026696,-90.82,-32.227,-21.484,1.0,1.0
1626062895.506576,-68.848,-42.48,-16.602,1.0,1.0
1626062895.5104823,-38.574,-39.062,-24.414,1.0,1.0
1626062895.5143886,-48.828,-38.086,-38.086,1.0,1.0
1626062895.5182948,-68.848,-39.062,-45.898,-209.96099999999998,1.0
1626062895.522201,-45.41,-35.645,-38.574,-88.37899999999999,1.0
1626062895.5261073,-2.441,-39.062,-31.25,137.207,1.0
1626062895.5300136,-18.066,-66.895,-62.012,50.781000000000006,1.0
1626062895.5339198,-41.016000000000005,-47.363,-57.617,-168.457,1.0
1626062895.537826,-30.273000000000003,-14.16,-19.531,-126.95299999999999,1.0
1626062895.5417323,-9.766,-10.742,-18.555,97.16799999999999,1.0
1626062895.5456386,-6.836,-27.344,-36.621,109.863,1.0
1626062895.549545,-48.828,-52.246,-45.898,-130.371,1.0
1626062895.553451,-65.918,-41.504,-34.668,-189.453,1.0
1626062895.557357,-37.598,-36.621,-17.09,26.855,1.0
1626062895.5612638,-25.391,-50.293,-20.996,117.18799999999999,1.0
1626062895.5651696,-27.831999999999997,-70.312,-36.621,107.42200000000001,1.0
1626062895.5690758,-37.598,-69.824,-49.316,-93.75,1.0
1626062895.572982,-49.316,-62.988,-42.968999999999994,-178.22299999999998,1.0
1626062895.5768883,-43.457,-61.523,-49.316,1.465,1.0
1626062895.580795,-9.277000000000001,-26.366999999999997,-41.016000000000005,139.648,1.0
1626062895.584701,-20.508000000000003,-24.414,-34.18,-23.438000000000002,1.0
1626062895.5886073,-55.176,-20.996,-29.296999999999997,-196.77700000000002,1.0
1626062895.5925136,-59.57,-15.137,-26.855,-74.707,1.0
1626062895.5964196,-27.831999999999997,-29.785,-33.691,121.094,1.0
1626062895.600326,-9.277000000000001,-29.296999999999997,-37.109,37.109,1.0
1626062895.6042323,-38.574,-26.366999999999997,-26.366999999999997,-169.922,1.0
1626062895.6081383,-39.062,-30.273000000000003,-17.09,-107.91,1.0
1626062895.6120448,-8.301,-17.09,-40.527,1.0,1.0
1626062895.615951,-7.812,-25.879,-43.457,1.0,1.0
1626062895.6198573,-40.527,-47.852,-23.438000000000002,1.0,1.0
1626062895.6237636,-55.663999999999994,-44.434,-15.137,1.0,1.0
1626062895.6276698,-36.621,-39.551,-18.066,1.0,1.0
1626062895.631576,-21.973000000000003,-42.968999999999994,-23.438000000000002,1.0,1.0
1626062895.6354823,-23.926,-37.109,-13.672,1.0,1.0
1626062895.6393886,-37.598,-21.484,-10.254000000000001,1.0,1.0
1626062895.6432948,-19.043,5.859,-16.602,1.0,1.0
1626062895.647201,4.395,18.066,-18.066,1.0,1.0
1626062895.6511073,-23.926,-8.789,-43.945,1.0,1.0
1626062895.6550138,-56.641000000000005,-27.344,-57.617,1.0,1.0
1626062895.6589198,-48.34,-37.109,-40.039,1.0,1.0
1626062895.662826,-20.02,-45.41,-18.555,1.0,1.0
1626062895.6667323,-21.484,-46.387,-24.901999999999997,1.0,1.0
1626062895.6706386,-57.129,-45.41,-48.34,1.0,1.0
1626062895.6745448,-49.316,-30.761999999999997,-35.645,1.0,1.0
1626062895.678451,-5.859,-29.296999999999997,-17.578,1.0,1.0
1626062895.682357,5.859,-39.551,-17.09,1.0,1.0
1626062895.6862638,-25.391,-62.988,-21.484,1.0,1.0
1626062895.6901696,-49.316,-65.918,-21.484,1.0,1.0
1626062895.6940763,-27.344,-28.32,-12.207,1.0,1.0
1626062895.697982,-12.207,-1.953,-3.906,1.0,1.0
1626062895.7018883,-36.133,-4.883,-19.531,1.0,1.0
1626062895.705795,-62.012,-11.23,-49.316,1.0,1.0
1626062895.709701,-50.293,-8.301,-43.945,1.0,1.0
1626062895.713607,-33.203,-27.831999999999997,-34.18,1.0,1.0
1626062895.7175136,-38.086,-48.34,-52.246,1.0,1.0
1626062895.7214196,-47.363,-60.059,-41.504,1.0,1.0
1626062895.725326,-52.246,-58.593999999999994,-16.602,1.0,1.0
1626062895.7292323,-24.414,-25.391,-6.348,1.0,1.0
1626062895.7331386,-3.418,-32.715,1.465,1.0,1.0
1626062895.7370448,-28.809,-36.133,-9.277000000000001,1.0,1.0
1626062895.740951,-39.551,-19.043,-51.758,1.0,1.0
1626062895.7448573,-25.391,-35.645,-66.895,1.0,1.0
1626062895.7487636,-9.766,-15.625,-27.831999999999997,1.0,1.0
1626062895.7526696,-33.203,-17.09,-29.296999999999997,-125.488,1.0
1626062895.756576,-53.711000000000006,-50.781000000000006,-41.016000000000005,-196.28900000000002,1.0
1626062895.7604823,-16.113,-40.527,3.418,32.715,1.0
1626062895.7643886,-1.465,-37.109,0.488,136.23,1.0
1626062895.7682948,-19.043,-13.672,-14.648,-60.059,1.0
1626062895.772201,-30.273000000000003,8.789,-11.23,-187.5,1.0
1626062895.7761073,-24.414,-19.043,-17.578,-25.879,1.0
1626062895.7800136,-8.301,-37.598,-27.344,139.648,1.0
1626062895.7839198,-16.602,-42.968999999999994,-41.992,12.207,1.0
1626062895.787826,-35.645,-19.531,-33.691,-180.176,1.0
1626062895.7917323,-27.344,-7.324,-23.926,-83.008,1.0
1626062895.7956386,-9.277000000000001,-31.25,-25.391,126.95299999999999,1.0
1626062895.799545,-14.16,-35.645,-22.949,128.418,1.0
1626062895.803451,5.371,-22.461,-30.273000000000003,37.109,1.0
1626062895.807357,-21.484,-17.578,-40.527,-166.016,1.0
1626062895.8112638,-53.223,-45.898,-37.109,-128.418,1.0
1626062895.8151696,-25.391,-69.824,-22.949,90.33200000000001,1.0
1626062895.8190758,-4.395,-76.172,-16.113,94.727,1.0
1626062895.822982,-30.273000000000003,-34.668,-19.531,-125.488,1.0
1626062895.8268883,-33.691,8.789,-20.996,-146.484,1.0
1626062895.830795,-7.324,11.23,-17.09,80.078,1.0
1626062895.834701,-11.719000000000001,-7.324,-31.25,122.07,1.0
1626062895.8386073,-40.039,-44.922,-35.156,-99.609,1.0
1626062895.8425136,-43.457,-44.434,-11.719000000000001,-181.15200000000002,1.0
1626062895.8464196,-19.531,-25.391,-13.184000000000001,1.0,1.0
1626062895.850326,-2.441,-27.831999999999997,-31.738000000000003,1.0,1.0
1626062895.8542323,-25.879,-30.761999999999997,-33.203,1.0,1.0
1626062895.8581383,-58.593999999999994,-40.527,-41.016000000000005,1.0,1.0
1626062895.8620448,-42.48,-25.391,-47.852,1.0,1.0
1626062895.865951,-21.484,-11.23,-24.414,1.0,1.0
1626062895.8698573,-7.812,-17.09,-0.488,1.0,1.0
1626062895.8737636,-15.137,-48.34,7.812,1.0,1.0
1626062895.8776698,-31.25,-74.707,10.254000000000001,1.0,1.0
1626062895.881576,-28.32,-51.758,-16.113,1.0,1.0
1626062895.8854823,-39.062,-42.48,-48.828,1.0,1.0
1626062895.8893886,-57.129,-26.366999999999997,-48.34,1.0,1.0
1626062895.8932948,-64.453,-10.254000000000001,-41.016000000000005,1.0,1.0
1626062895.897201,-43.457,-23.438000000000002,-37.109,1.0,1.0
1626062895.9011073,-29.296999999999997,-47.852,-41.992,1.0,1.0
1626062895.9050138,-49.805,-42.968999999999994,-41.992,1.0,1.0
1626062895.9089198,-56.152,-23.926,-30.761999999999997,1.0,1.0
1626062895.912826,-25.879,-36.621,-34.668,1.0,1.0
1626062895.9167323,-7.812,-46.387,-36.621,1.0,1.0
1626062895.9206386,-26.366999999999997,-39.551,-29.296999999999997,1.0,1.0
1626062895.9245448,-26.855,-7.812,-1.465,1.0,1.0
1626062895.928451,-23.438000000000002,0.488,3.906,1.0,1.0
1626062895.932357,-26.366999999999997,-28.809,-31.738000000000003,1.0,1.0
1626062895.9362638,-29.785,-38.574,-63.477,1.0,1.0
1626062895.9401696,-53.711000000000006,-32.715,-55.663999999999994,1.0,1.0
1626062895.9440763,-55.663999999999994,-38.574,-41.016000000000005,1.0,1.0
1626062895.947982,-23.926,-25.391,-28.809,1.0,1.0
1626062895.9518883,-7.324,-15.137,-18.555,1.0,1.0
1626062895.955795,-32.715,-38.086,-38.086,1.0,1.0
1626062895.959701,-59.57,-43.945,-55.663999999999994,1.0,1.0
1626062895.963607,-23.438000000000002,-19.043,-40.527,1.0,1.0
1626062895.9675136,8.789,-5.859,-28.32,1.0,1.0
1626062895.9714196,-7.324,-9.766,-24.901999999999997,1.0,1.0
1626062895.975326,-40.527,-35.156,-46.875,1.0,1.0
1626062895.9792323,-48.34,-50.781000000000006,-57.129,1.0,1.0
1626062895.9831386,-12.695,-37.109,-37.109,1.0,1.0
1626062895.9870448,-0.488,-14.648,-34.18,23.438000000000002,1.0
1626062895.990951,-39.062,-4.395,-57.129,-186.523,1.0
1626062895.9948573,-59.082,-23.926,-61.035,-123.04700000000001,1.0
1626062895.9987636,-25.391,-32.227,-41.016000000000005,104.98,1.0
1626062896.0026696,-4.883,-25.391,-37.598,78.613,1.0
1626062896.006576,-27.344,-25.879,-39.551,-140.625,1.0
1626062896.0104823,-21.484,1.465,-18.066,-124.023,1.0
1626062896.0143886,-5.859,-4.395,-18.066,89.355,1.0
1626062896.0182948,-13.184000000000001,-36.133,-36.133,113.281,1.0
1626062896.022201,-30.761999999999997,-25.879,-35.156,-97.16799999999999,1.0
1626062896.0261073,-44.434,-41.016000000000005,-38.574,-187.988,1.0
1626062896.0300136,-21.484,-22.949,-61.035,18.066,1.0
1626062896.0339198,-31.738000000000003,-46.387,-64.453,135.254,1.0
1626062896.037826,-16.113,-43.457,-49.316,-55.663999999999994,1.0
1626062896.0417323,-21.484,-27.344,-38.086,-211.91400000000002,1.0
1626062896.0456386,-43.457,-34.668,-20.02,-65.918,1.0
1626062896.049545,-26.366999999999997,-13.672,4.883,129.88299999999998,1.0
1626062896.053451,11.23,7.324,8.789,23.926,1.0
1626062896.057357,-8.301,-25.879,-13.184000000000001,-181.15200000000002,1.0
1626062896.0612638,-34.18,-33.691,-27.831999999999997,-118.164,1.0
1626062896.0651696,-26.855,-15.137,-40.039,89.844,1.0
1626062896.0690758,-4.395,-22.461,-25.879,75.195,1.0
1626062896.072982,-26.855,-43.457,-24.414,-141.602,1.0
1626062896.0768883,-66.406,-34.18,-33.203,-171.875,1.0
1626062896.080795,-65.43,-17.578,-38.086,1.0,1.0
1626062896.084701,-41.992,-25.879,-51.27,1.0,1.0
1626062896.0886073,-17.09,-34.18,-55.663999999999994,1.0,1.0
1626062896.0925136,-25.391,-38.574,-57.129,1.0,1.0
1626062896.0964196,-38.086,-33.203,-45.41,1.0,1.0
1626062896.100326,-20.996,-18.555,-43.457,1.0,1.0
1626062896.1042323,-30.273000000000003,-16.113,-48.34,1.0,1.0
1626062896.1081383,-54.199,-13.672,-29.296999999999997,1.0,1.0
