timestamps,TP9,AF7,AF8,TP10
1628133351.222,-0.977,-42.969,-22.949,-21.973
1628133351.226,8.301,-47.363,-27.832,-9.277
1628133351.230,-71.289,-28.809,-26.855,-73.242
1628133351.234,-90.332,-20.996,-20.996,-90.820
1628133351.238,-17.578,-21.484,-37.598,-38.086
1628133351.242,29.297,-17.578,-48.340,-0.488
1628133351.246,-45.410,-22.949,-50.781,-52.734
1628133351.249,-108.887,-47.363,-56.152,-104.980
1628133351.253,-36.621,-50.781,-50.293,-51.270
1628133351.257,39.062,-26.855,-20.996,16.602
1628133351.261,-13.672,-29.785,-17.578,-23.438
1628133351.265,-89.844,-40.039,-41.016,-90.820
1628133351.274,-51.758,-40.527,-34.668,-63.965
1628133351.278,35.156,-33.691,-14.648,6.348
1628133351.282,9.277,-36.621,-25.391,-4.395
1628133351.286,-70.312,-52.246,-37.109,-71.289
1628133351.290,-59.082,-45.898,-22.949,-60.059
1628133351.294,9.766,-33.203,-14.648,-2.930
1628133351.298,19.043,-27.344,-23.926,5.371
1628133351.301,-65.918,-28.809,-52.734,-54.688
1628133351.305,-106.445,-37.598,-52.246,-95.703
1628133351.309,-32.715,-20.020,-27.344,-39.062
1628133351.313,17.090,-9.766,-21.973,2.930
1628133351.317,-38.574,-40.039,-28.809,-33.691
1628133351.312,-94.238,-44.434,-27.344,-69.336
1628133351.316,-47.852,-16.113,-16.602,-28.320
1628133351.320,12.207,-23.438,-26.367,18.555
1628133351.324,-29.297,-44.434,-41.504,-10.254
1628133351.328,-98.145,-39.062,-31.738,-62.500
1628133351.332,-66.895,-24.902,-16.602,-52.246
1628133351.336,14.160,-28.809,-16.113,-1.465
1628133351.339,-0.488,-31.250,-20.996,-4.395
1628133351.343,-66.895,-19.531,-30.273,-59.570
1628133351.347,-67.871,-17.090,-51.270,-68.359
1628133351.351,-7.324,-18.555,-45.410,-10.254
1628133351.355,26.367,-21.484,-17.090,16.113
1628133351.354,-40.527,-26.855,-13.184,-43.457
1628133351.358,-97.168,-36.621,-32.227,-81.055
1628133351.362,-28.809,-42.480,-38.574,-33.691
1628133351.366,24.902,-31.738,-34.668,13.672
1628133351.370,-27.344,-40.527,-36.621,-20.508
1628133351.374,-85.449,-52.734,-25.879,-59.082
1628133351.378,-47.363,-36.621,-34.180,-26.367
1628133351.381,31.250,-20.020,-37.598,23.926
1628133351.385,-12.695,-32.227,-22.949,-2.441
1628133351.389,-102.539,-18.066,-23.926,-72.266
1628133351.393,-79.590,-0.488,-41.992,-63.965
1628133351.397,-1.953,-18.555,-41.016,3.418
1628133351.411,1.953,-30.273,-13.672,13.672
1628133351.415,-58.105,-28.320,-15.137,-39.062
1628133351.419,-73.242,-23.438,-22.461,-61.035
1628133351.423,-7.324,-30.273,-19.531,-15.625
1628133351.427,25.391,-33.691,-17.090,10.254
1628133351.431,-44.434,-31.250,-16.113,-39.551
1628133351.435,-83.496,-35.645,-34.180,-66.895
1628133351.438,-22.461,-36.621,-55.176,-20.020
1628133351.442,30.762,-45.898,-50.781,19.531
1628133351.446,-20.020,-57.617,-31.738,-17.578
1628133351.450,-91.309,-41.504,-24.902,-73.730
1628133351.454,-54.688,-25.879,-27.344,-48.828
1628133351.447,23.438,-35.645,-27.344,15.137
1628133351.451,3.418,-44.434,-46.875,4.883
1628133351.455,-79.590,-37.598,-57.617,-57.617
1628133351.459,-74.707,-23.926,-42.480,-56.641
1628133351.463,11.719,-11.230,-30.762,7.324
1628133351.467,19.043,-11.230,-17.578,14.648
1628133351.471,-75.195,-44.922,-13.672,-52.246
1628133351.474,-108.398,-65.918,-26.367,-81.543
1628133351.478,-39.062,-53.711,-45.898,-36.133
1628133351.482,10.742,-31.738,-36.133,4.883
1628133351.486,-48.828,-34.668,-23.438,-39.062
1628133351.490,-100.098,-47.363,-28.320,-90.332
1628133351.500,-32.715,-36.621,-22.461,-44.434
1628133351.504,32.227,-15.625,-39.551,11.230
1628133351.508,-6.348,-11.719,-51.270,-11.230
1628133351.512,-81.543,-31.250,-40.039,-77.637
1628133351.516,-55.664,-30.273,-28.809,-67.871
1628133351.520,24.414,-18.555,-19.531,0.488
1628133351.524,3.906,-38.574,-13.672,-6.836
1628133351.527,-76.660,-52.246,-20.996,-69.336
1628133351.531,-76.660,-38.086,-33.691,-72.266
1628133351.535,17.578,-25.879,-34.180,1.465
1628133351.539,38.086,-47.852,-18.066,18.555
1628133351.543,-56.641,-58.594,-19.531,-52.246
1628133351.537,-83.008,-24.414,-29.785,-76.660
1628133351.541,-11.230,-3.906,-32.715,-23.926
1628133351.545,13.672,-11.230,-41.504,7.812
1628133351.549,-57.129,-31.250,-38.086,-40.527
1628133351.553,-111.328,-37.598,-24.414,-87.891
1628133351.557,-52.734,-29.785,-25.879,-47.852
1628133351.561,36.133,-18.555,-30.762,16.113
1628133351.564,2.930,-30.273,-33.691,-11.230
1628133351.568,-73.730,-45.898,-45.410,-68.848
1628133351.572,-47.852,-35.156,-33.691,-43.457
1628133351.576,34.668,-19.531,-6.836,25.391
1628133351.580,19.531,-27.832,-12.695,6.836
1628133351.596,-76.660,-39.551,-35.645,-73.242
1628133351.600,-67.383,-22.461,-42.480,-62.012
1628133351.604,29.785,-10.742,-18.555,18.066
1628133351.608,33.203,-26.855,-23.926,22.461
1628133351.612,-33.691,-32.227,-41.992,-44.922
1628133351.616,-57.129,-20.996,-32.715,-64.941
1628133351.620,-2.930,-27.344,-33.203,-15.137
1628133351.623,53.711,-33.691,-36.621,25.879
1628133351.627,1.953,-25.391,-41.504,-17.578
1628133351.631,-69.824,-22.949,-48.340,-69.336
1628133351.635,-19.531,-21.484,-61.035,-26.367
1628133351.639,56.152,-24.414,-62.012,36.621
1628133351.631,19.043,-31.738,-34.668,17.090
1628133351.635,-70.801,-45.410,-25.391,-62.988
1628133351.639,-57.617,-29.785,-30.762,-63.965
1628133351.643,32.715,-12.695,-13.672,20.020
1628133351.647,35.645,-40.039,-14.160,36.621
1628133351.651,-35.156,-49.805,-30.762,-21.484
1628133351.655,-58.105,-23.438,-39.062,-52.734
1628133351.658,5.371,-12.207,-38.086,-9.766
1628133351.662,26.855,-27.344,-35.645,11.719
1628133351.666,-43.457,-28.809,-38.086,-40.527
1628133351.670,-76.660,-20.996,-39.551,-61.523
1628133351.674,-17.090,-37.598,-41.016,-10.254
1628133351.688,30.762,-60.059,-41.504,27.832
1628133351.692,-13.184,-60.059,-36.133,-15.625
1628133351.696,-78.613,-34.668,-32.715,-78.125
1628133351.700,-49.805,-16.113,-32.715,-51.270
1628133351.704,40.527,-10.254,-28.320,16.602
1628133351.708,29.785,-6.836,-25.879,11.719
1628133351.712,-63.965,-38.574,-28.809,-57.617
1628133351.715,-62.500,-47.852,-18.066,-55.664
1628133351.719,17.090,-26.367,-19.043,8.301
1628133351.723,24.414,-27.832,-35.156,16.113
1628133351.727,-45.898,-40.527,-34.180,-30.273
1628133351.731,-71.777,-40.527,-36.133,-46.387
1628133351.725,-1.465,-21.484,-32.227,7.812
1628133351.729,41.504,-4.395,-17.578,35.645
1628133351.733,-26.367,-24.414,-25.879,-21.484
1628133351.737,-81.055,-42.480,-30.762,-63.477
1628133351.741,-35.156,-33.203,-30.273,-32.715
1628133351.745,20.996,-35.156,-38.086,12.695
1628133351.749,-14.160,-43.945,-41.504,-9.277
1628133351.752,-79.590,-34.180,-42.969,-61.035
1628133351.756,-46.875,-14.648,-47.363,-41.504
1628133351.760,41.504,-8.789,-35.645,21.484
1628133351.764,30.273,-16.602,-31.250,17.578
1628133351.768,-52.246,-23.438,-30.762,-39.062
1628133351.781,-57.129,-26.367,-18.066,-46.387
1628133351.785,16.113,-33.691,-14.648,0.488
1628133351.789,35.156,-34.668,-19.531,21.484
1628133351.793,-47.363,-40.039,-27.832,-42.969
1628133351.797,-92.285,-45.410,-31.738,-85.449
1628133351.801,-22.949,-28.320,-28.809,-24.414
1628133351.805,30.273,-8.301,-25.879,25.879
1628133351.808,-36.621,-18.066,-38.574,-25.879
1628133351.812,-98.633,-39.551,-43.945,-76.172
1628133351.816,-46.875,-38.574,-37.109,-31.738
1628133351.820,26.367,-41.992,-45.898,22.949
1628133351.824,0.977,-45.898,-40.039,0.000
1628133351.820,-76.660,-30.273,-31.738,-60.547
1628133351.824,-71.777,-27.344,-34.668,-62.988
1628133351.828,2.930,-38.086,-38.086,-1.953
1628133351.832,13.184,-37.109,-32.715,6.836
1628133351.836,-60.547,-31.738,-19.531,-48.828
1628133351.840,-76.172,-37.598,-23.926,-60.547
1628133351.844,3.906,-45.410,-30.273,-1.953
1628133351.847,38.574,-29.297,-33.691,23.438
1628133351.851,-38.086,-19.531,-44.434,-39.551
1628133351.855,-93.262,-23.438,-41.992,-76.660
1628133351.859,-30.273,-11.230,-28.320,-31.738
1628133351.863,19.531,-22.949,-22.461,-0.977
1628133351.875,-39.062,-36.133,-21.973,-34.668
1628133351.879,-92.773,-44.922,-34.668,-67.871
1628133351.883,-49.805,-50.781,-42.480,-40.039
1628133351.887,17.090,-36.133,-24.902,6.348
1628133351.891,-2.930,-20.996,-13.184,-11.719
1628133351.895,-82.031,-21.973,-22.461,-76.660
1628133351.899,-71.777,-31.738,-22.461,-57.129
1628133351.902,5.859,-39.551,-40.039,5.859
1628133351.906,14.160,-37.598,-56.641,8.301
1628133351.910,-48.828,-23.438,-30.762,-34.668
1628133351.914,-76.660,-32.715,-20.020,-49.805
1628133351.918,-14.160,-50.781,-26.367,1.465
1628133351.912,19.531,-39.062,-22.949,18.066
1628133351.916,-49.805,-32.227,-14.648,-44.922
1628133351.920,-104.492,-37.109,-20.508,-88.867
1628133351.924,-46.387,-32.715,-28.320,-47.363
1628133351.928,28.320,-15.137,-33.691,19.043
1628133351.932,-11.719,-25.879,-32.227,-2.441
1628133351.936,-82.031,-23.926,-19.043,-60.059
1628133351.939,-48.340,-4.395,-15.137,-42.480
1628133351.943,23.438,-21.973,-29.785,19.043
1628133351.947,-6.348,-41.992,-50.293,10.742
1628133351.951,-85.449,-58.105,-50.781,-64.453
1628133351.955,-83.496,-56.641,-46.387,-82.031
1628133351.970,-1.465,-38.086,-38.086,-20.508
1628133351.974,25.879,-24.902,-28.809,9.766
1628133351.978,-52.246,-24.902,-33.203,-44.922
1628133351.982,-82.520,-20.508,-41.016,-83.984
1628133351.986,0.977,-18.555,-34.668,-23.926
1628133351.990,48.340,-24.414,-17.090,25.879
1628133351.994,-40.527,-30.762,-35.156,-40.527
1628133351.997,-104.980,-37.109,-42.480,-90.820
1628133352.001,-28.809,-50.293,-18.555,-30.273
1628133352.005,47.852,-55.664,-15.625,27.832
1628133352.009,-8.301,-51.270,-22.949,-19.531
1628133352.013,-95.703,-37.598,-21.484,-83.008
1628133352.007,-65.430,-12.207,-16.113,-48.828
1628133352.011,32.715,2.441,-20.996,26.855
1628133352.015,16.113,-13.184,-29.297,7.324
1628133352.019,-91.797,-42.480,-31.738,-72.754
1628133352.023,-89.355,-41.016,-28.320,-73.730
1628133352.027,14.648,-30.762,-23.438,3.906
1628133352.031,35.156,-32.227,-17.578,22.949
1628133352.034,-70.801,-35.645,-29.297,-58.105
1628133352.038,-112.793,-36.133,-35.645,-87.891
1628133352.042,-49.805,-27.832,-27.832,-35.156
1628133352.046,-2.441,-35.156,-14.648,5.859
1628133352.050,-43.945,-49.316,-7.812,-31.250
1628133352.063,-95.703,-36.621,-3.418,-74.707
1628133352.067,-64.941,-49.316,-20.020,-60.547
1628133352.071,8.301,-53.711,-24.902,-15.625
1628133352.075,-15.137,-47.852,-25.879,-30.762
1628133352.079,-97.168,-67.871,-37.598,-89.844
1628133352.083,-74.219,-42.480,-25.391,-67.871
1628133352.087,-5.371,-20.508,-24.414,-3.418
1628133352.090,-18.066,-40.039,-22.949,-9.766
1628133352.094,-98.145,-45.410,-26.855,-73.730
1628133352.098,-102.539,-39.551,-38.574,-79.102
1628133352.102,-9.766,-36.133,-39.551,-8.789
1628133352.106,18.066,-42.480,-31.250,21.484
1628133352.119,-62.012,-52.246,-29.785,-35.645
1628133352.123,-104.004,-43.945,-35.645,-86.914
1628133352.127,-25.879,-30.762,-24.414,-23.926
1628133352.131,35.156,-31.738,-24.902,34.668
1628133352.135,-19.043,-42.480,-31.250,-16.602
1628133352.139,-101.562,-44.922,-37.109,-87.402
1628133352.143,-77.148,-38.574,-33.203,-72.754
1628133352.146,4.883,-51.270,-10.254,-3.906
1628133352.150,-17.578,-54.688,-19.043,-15.625
1628133352.154,-94.727,-38.574,-37.598,-62.500
1628133352.158,-69.336,-41.992,-39.062,-40.039
1628133352.162,26.855,-32.715,-23.438,13.184
1628133352.156,12.695,-22.461,-25.879,2.930
1628133352.160,-89.844,-38.086,-48.340,-63.477
1628133352.164,-97.656,-36.133,-42.969,-69.824
1628133352.168,-2.930,-39.062,-26.367,-3.906
1628133352.172,34.668,-34.180,-37.598,17.578
1628133352.176,-49.805,-23.438,-49.316,-48.340
1628133352.180,-93.750,-22.949,-29.297,-78.125
1628133352.183,-16.113,-20.020,-32.227,-26.855
1628133352.187,44.434,-20.996,-40.039,13.184
1628133352.191,-4.883,-14.648,-33.691,-16.602
1628133352.195,-86.426,-16.602,-39.062,-79.102
1628133352.199,-67.383,-23.926,-40.039,-61.523
1628133352.194,15.137,-27.832,-39.551,3.418
1628133352.198,8.301,-33.203,-36.621,-9.277
1628133352.202,-74.707,-46.875,-38.574,-67.871
1628133352.206,-61.523,-42.480,-31.250,-62.988
1628133352.210,24.902,-6.348,-21.973,-2.441
1628133352.214,23.438,-9.277,-29.297,-0.488
1628133352.218,-59.570,-33.203,-41.016,-66.406
1628133352.221,-91.309,-27.832,-63.965,-91.797
1628133352.225,-20.508,-26.855,-57.129,-28.809
1628133352.229,30.762,-37.109,-23.438,6.836
1628133352.233,-23.926,-40.527,-19.043,-41.016
1628133352.237,-87.891,-35.156,-34.180,-90.332
1628133352.257,-37.109,-17.090,-38.574,-56.641
1628133352.261,40.039,-19.531,-25.391,3.418
1628133352.265,14.648,-32.227,-16.113,-7.812
1628133352.269,-61.523,-39.551,-46.387,-62.012
1628133352.273,-52.734,-45.898,-65.918,-60.547
1628133352.277,38.086,-19.043,-28.320,16.602
1628133352.281,20.508,-19.531,-21.973,9.766
1628133352.284,-87.402,-40.039,-38.086,-71.777
1628133352.288,-97.656,-29.785,-30.273,-82.031
1628133352.292,6.348,-5.859,-21.484,-2.930
1628133352.296,38.086,-2.930,-31.250,19.043
1628133352.300,-45.898,-20.508,-31.738,-39.062
1628133352.330,-106.934,-15.137,-33.691,-83.008
1628133352.334,-62.012,-20.508,-50.293,-50.293
1628133352.338,-0.488,-38.086,-44.434,0.000
1628133352.342,-47.363,-43.945,-41.504,-33.203
1628133352.346,-106.445,-47.852,-48.340,-66.895
1628133352.350,-59.570,-30.762,-52.734,-33.691
1628133352.354,15.137,-26.367,-34.668,11.719
1628133352.357,-5.859,-59.082,-9.277,-2.930
1628133352.361,-87.402,-56.641,-13.672,-66.406
1628133352.365,-78.125,-26.855,-22.949,-66.406
1628133352.369,7.812,-18.555,-24.902,0.488
1628133352.373,-3.418,-20.020,-44.922,-4.883
1628133352.370,-71.289,-28.809,-50.293,-55.664
1628133352.374,-4.883,-26.367,-21.484,-5.371
1628133352.378,-34.668,-45.898,-37.598,-20.996
1628133352.382,-103.516,-59.570,-62.012,-71.289
1628133352.386,-35.645,-43.945,-46.875,-25.879
1628133352.390,35.645,-19.043,-23.438,22.949
1628133352.394,-12.695,-17.578,-17.578,-16.602
1628133352.397,-98.145,-31.250,-25.391,-83.008
1628133352.401,-63.477,-26.855,-33.691,-57.617
1628133352.405,25.391,-20.996,-30.762,13.672
1628133352.409,15.625,-25.879,-23.438,9.277
1628133352.413,-65.918,-34.180,-36.133,-53.223
1628133352.402,-62.500,-36.133,-23.926,-48.828
1628133352.406,16.113,-50.781,-28.320,7.812
1628133352.410,15.625,-50.781,-59.570,0.000
1628133352.414,-67.383,-29.297,-50.293,-66.895
1628133352.418,-79.102,-23.438,-34.180,-68.359
1628133352.422,-12.207,-31.738,-39.551,-11.719
1628133352.426,31.250,-26.367,-40.039,17.090
1628133352.429,-18.066,-25.879,-26.855,-26.367
1628133352.433,-86.914,-23.926,-27.832,-83.008
1628133352.437,-27.344,-24.414,-28.809,-32.715
1628133352.441,43.457,-29.785,-27.832,20.996
1628133352.445,-8.789,-30.762,-29.785,-19.043
1628133352.437,-88.379,-29.785,-26.367,-80.566
1628133352.441,-62.012,-26.367,-26.855,-67.871
1628133352.445,22.949,-24.414,-30.273,3.906
1628133352.449,11.719,-25.879,-32.715,3.418
1628133352.453,-74.707,-35.156,-46.875,-67.383
1628133352.457,-74.707,-44.922,-59.570,-74.707
1628133352.461,14.160,-24.414,-51.270,2.441
1628133352.464,30.273,-0.977,-46.387,22.461
1628133352.468,-53.223,-33.691,-41.504,-55.176
1628133352.472,-95.215,-41.504,-25.391,-90.820
1628133352.476,-28.809,-18.066,-20.508,-27.344
1628133352.480,17.578,-35.156,-21.973,4.883
1628133352.494,-33.203,-49.805,-19.531,-42.480
1628133352.498,-91.309,-52.734,-26.855,-84.961
1628133352.502,-45.410,-53.223,-39.062,-44.434
1628133352.506,29.785,-32.227,-37.109,10.254
1628133352.510,-15.625,-28.809,-51.758,-17.578
1628133352.514,-98.145,-36.133,-61.035,-71.777
1628133352.518,-65.430,-32.227,-36.133,-52.246
1628133352.521,19.043,-17.090,-12.207,5.371
1628133352.525,3.418,-27.344,-19.531,-8.789
1628133352.529,-73.730,-41.504,-46.387,-70.801
1628133352.533,-77.637,-42.480,-41.016,-79.590
1628133352.537,4.395,-41.992,-16.602,-16.602
1628133352.531,38.574,-39.062,-11.230,14.648
1628133352.535,-33.203,-39.062,-16.113,-30.273
1628133352.539,-87.402,-33.203,-20.508,-66.895
1628133352.543,-38.086,-23.926,-19.043,-25.391
1628133352.547,16.113,-15.137,-22.461,17.578
1628133352.551,-29.785,-26.367,-27.344,-29.785
1628133352.555,-67.383,-34.668,-20.020,-62.988
1628133352.558,-19.043,-28.809,-19.531,-23.926
1628133352.562,35.156,-18.066,-25.879,13.184
1628133352.566,-13.672,-29.785,-46.387,-26.367
1628133352.570,-91.797,-30.273,-46.387,-85.449
1628133352.574,-63.477,-34.668,-25.879,-58.594
1628133352.588,25.391,-43.457,-34.668,14.648
1628133352.592,34.180,-33.203,-38.574,24.902
1628133352.596,-58.594,-31.250,-38.574,-40.039
1628133352.600,-99.609,-30.762,-35.156,-75.684
1628133352.604,-20.020,-20.996,-19.043,-15.625
1628133352.608,35.156,-23.926,-8.301,29.297
1628133352.612,-24.414,-56.152,-22.461,-14.160
1628133352.615,-77.148,-62.500,-47.363,-53.223
1628133352.619,-32.227,-37.109,-40.039,-30.762
1628133352.623,24.414,-24.414,-30.273,6.348
1628133352.627,-17.090,-20.996,-37.598,-15.137
1628133352.631,-74.707,-33.203,-26.855,-46.387
1628133352.626,-44.922,-24.902,-17.090,-20.508
1628133352.630,14.160,-14.160,-24.414,13.184
1628133352.634,1.465,-21.484,-23.926,-11.719
1628133352.638,-74.707,-29.785,-20.020,-70.801
1628133352.642,-73.242,-42.969,-22.461,-62.988
1628133352.646,16.113,-42.480,-20.508,-1.953
1628133352.650,28.809,-42.480,-18.066,4.883
1628133352.653,-50.781,-39.551,-33.691,-50.293
1628133352.657,-78.613,-28.320,-53.223,-62.988
1628133352.661,-13.672,-32.715,-54.199,-11.230
1628133352.665,25.879,-21.484,-35.645,14.160
1628133352.669,-38.574,-22.461,-16.113,-29.297
1628133352.681,-87.891,-40.039,-22.461,-69.336
1628133352.685,-36.133,-36.133,-34.668,-34.668
1628133352.689,44.434,-28.320,-18.555,35.645
1628133352.693,15.137,-46.387,-14.160,16.113
1628133352.697,-81.055,-42.480,-38.086,-63.965
1628133352.701,-58.594,-19.043,-49.316,-51.758
1628133352.705,34.668,-24.902,-37.598,26.855
1628133352.708,10.742,-31.250,-29.785,12.695
1628133352.712,-84.961,-43.945,-26.855,-63.477
1628133352.716,-79.590,-47.363,-17.090,-68.359
1628133352.720,9.277,-18.555,-23.926,3.906
1628133352.724,34.668,-14.160,-29.297,29.297
1628133352.723,-44.922,-41.016,-20.508,-38.574
1628133352.727,-102.539,-58.594,-31.250,-81.543
1628133352.731,-36.621,-41.504,-30.273,-27.344
1628133352.735,25.879,-34.180,-31.250,17.090
1628133352.739,-24.902,-41.992,-44.922,-20.996
1628133352.743,-87.402,-26.367,-34.180,-69.336
1628133352.747,-49.316,-30.762,-21.484,-51.758
1628133352.750,16.602,-41.504,-26.855,2.441
1628133352.754,-6.348,-44.434,-22.949,-2.930
1628133352.758,-76.172,-44.922,-27.344,-62.012
1628133352.762,-56.152,-29.297,-31.250,-47.852
1628133352.766,27.344,-17.090,-18.066,20.020
1628133352.775,17.090,-27.832,-29.785,14.648
1628133352.779,-63.477,-35.156,-35.156,-42.969
1628133352.783,-70.801,-29.785,-8.789,-40.039
1628133352.787,-3.418,-46.875,-14.648,14.648
1628133352.791,27.832,-44.922,-14.648,33.203
1628133352.795,-32.715,-44.922,-8.301,-22.949
1628133352.799,-88.867,-45.410,-36.621,-76.172
1628133352.802,-17.578,-13.184,-35.156,-23.438
1628133352.806,42.969,-5.371,-24.414,34.180
1628133352.810,-22.949,-26.855,-25.391,-3.418
1628133352.814,-107.422,-46.387,-19.531,-70.312
1628133352.818,-69.336,-27.832,-19.043,-46.875
1628133352.812,25.391,-11.719,-18.066,20.020
1628133352.816,-2.930,-31.738,-18.066,-1.953
1628133352.820,-100.098,-44.434,-17.578,-71.777
1628133352.824,-87.891,-40.527,-15.625,-68.848
1628133352.828,6.836,-32.715,-21.973,3.418
1628133352.832,22.461,-25.391,-30.273,18.066
1628133352.836,-70.312,-36.133,-31.738,-50.781
1628133352.839,-103.516,-47.363,-25.879,-79.590
1628133352.843,-20.020,-39.062,-32.715,-26.367
1628133352.847,16.113,-52.734,-53.223,8.789
1628133352.851,-49.805,-50.781,-57.617,-36.133
1628133352.855,-89.844,-16.113,-33.203,-74.219
1628133352.888,-38.086,-20.996,-27.832,-37.598
1628133352.892,17.578,-33.203,-40.527,7.812
1628133352.896,-23.438,-19.043,-40.527,-21.484
1628133352.900,-88.379,-25.879,-28.809,-70.312
1628133352.904,-57.617,-34.180,-19.531,-50.781
1628133352.908,27.832,-22.949,-17.578,9.766
1628133352.912,7.324,-36.133,-21.484,-1.465
1628133352.915,-89.844,-44.922,-31.738,-69.824
1628133352.919,-70.312,-19.531,-20.996,-57.129
1628133352.923,13.184,-16.113,-29.297,-5.371
1628133352.927,14.648,-28.809,-48.340,-4.395
1628133352.931,-62.012,-29.785,-42.969,-63.477
1628133352.907,-85.938,-24.902,-29.297,-81.055
1628133352.911,-6.836,-20.020,-24.902,-23.926
1628133352.915,32.715,-28.320,-31.250,7.324
1628133352.919,-20.996,-35.645,-43.945,-27.832
1628133352.923,-67.871,-33.691,-52.246,-67.383
1628133352.927,-20.508,-27.344,-36.133,-26.855
1628133352.931,37.109,-17.578,-13.672,23.926
1628133352.934,-5.859,-24.414,-8.301,-7.324
1628133352.938,-86.914,-43.945,-26.855,-74.219
1628133352.942,-58.105,-44.434,-37.598,-57.617
1628133352.946,31.250,-28.320,-34.180,12.207
1628133352.950,19.531,-29.785,-26.367,-0.977
1628133352.963,-63.965,-39.551,-34.180,-74.219
1628133352.967,-67.383,-23.438,-41.016,-72.754
1628133352.971,11.230,-2.930,-31.738,-12.207
1628133352.975,26.367,-18.066,-28.320,0.000
1628133352.979,-58.594,-37.598,-33.691,-60.547
1628133352.983,-106.934,-31.250,-40.527,-92.773
1628133352.987,-35.156,-29.785,-32.227,-40.527
1628133352.990,30.273,-33.203,-30.762,9.277
1628133352.994,-23.926,-34.668,-31.250,-19.043
1628133352.998,-89.355,-40.039,-23.926,-62.988
1628133353.002,-30.762,-32.227,-14.160,-24.902
1628133353.006,43.457,-21.973,-17.090,28.320
1628133353.001,-8.301,-22.949,-37.109,-16.113
1628133353.005,-95.215,-36.621,-55.664,-87.891
1628133353.009,-75.684,-31.250,-47.852,-68.848
1628133353.013,26.855,-9.277,-10.254,13.672
1628133353.017,27.832,-18.066,-6.348,26.367
1628133353.021,-77.637,-27.832,-30.762,-48.340
1628133353.025,-98.145,-23.926,-39.551,-77.637
1628133353.028,-8.789,-25.391,-41.016,-11.230
1628133353.032,23.438,-28.809,-42.480,22.949
1628133353.036,-54.688,-33.691,-33.203,-33.691
1628133353.040,-86.914,-25.879,-9.766,-62.500
1628133353.044,-32.227,-21.973,-11.230,-22.461
1628133353.057,14.160,-40.039,-24.902,10.742
1628133353.061,-32.227,-41.992,-31.250,-21.973
1628133353.065,-94.727,-41.504,-32.715,-61.523
1628133353.069,-35.156,-30.762,-30.273,-20.508
1628133353.073,44.922,-2.441,-36.133,33.691
1628133353.077,2.930,-17.578,-30.762,0.977
1628133353.081,-87.891,-48.340,-27.344,-71.289
1628133353.084,-71.777,-39.551,-33.691,-58.105
1628133353.088,18.066,-13.672,-31.250,8.789
1628133353.092,6.348,-20.508,-33.203,8.789
1628133353.096,-80.078,-45.410,-33.203,-53.711
1628133353.100,-93.750,-41.504,-32.715,-73.730
1628133353.096,-5.859,-19.531,-24.414,-3.418
1628133353.100,48.828,-6.836,-6.348,54.199
1628133353.104,-22.461,-20.508,-10.742,6.836
1628133353.108,-79.590,-35.645,-21.973,-49.805
1628133353.112,-14.160,-24.902,-22.949,-18.555
1628133353.116,50.293,-16.602,-26.855,29.297
1628133353.120,-3.418,-17.090,-34.180,-12.695
1628133353.123,-97.168,-27.344,-52.246,-92.285
1628133353.127,-71.777,-26.367,-68.359,-75.684
1628133353.131,13.184,-21.973,-59.570,-8.301
1628133353.135,-4.395,-32.227,-41.016,-14.160
1628133353.139,-83.008,-39.551,-25.879,-62.500
1628133353.152,-81.055,-27.344,-21.484,-60.547
1628133353.156,6.348,-15.137,-14.648,-9.277
1628133353.160,27.344,-22.949,-12.695,6.836
1628133353.164,-57.129,-49.316,-29.297,-45.898
1628133353.168,-79.590,-58.594,-33.691,-59.082
1628133353.172,8.789,-15.625,-25.879,-1.465
1628133353.176,35.156,-12.695,-34.180,14.160
1628133353.179,-59.082,-37.109,-49.805,-52.734
1628133353.183,-118.652,-20.996,-47.852,-99.121
1628133353.187,-63.477,-19.043,-51.270,-55.176
1628133353.191,15.625,-20.508,-41.992,0.488
1628133353.195,-19.043,-18.066,-26.855,-28.809
1628133353.187,-98.633,-23.926,-28.320,-88.867
1628133353.191,-73.242,-31.738,-37.598,-77.148
1628133353.195,10.254,-37.598,-33.691,-10.254
1628133353.199,13.184,-29.785,-13.672,7.324
1628133353.203,-64.941,-22.949,-12.207,-48.828
1628133353.207,-76.660,-17.090,-31.738,-74.219
1628133353.211,-6.836,-20.508,-45.410,-25.391
1628133353.214,17.578,-29.297,-50.781,3.906
1628133353.218,-53.711,-31.738,-51.270,-43.457
1628133353.222,-104.492,-41.016,-49.316,-84.473
1628133353.226,-21.484,-33.691,-35.645,-23.926
1628133353.230,38.086,-26.855,-20.508,24.414
1628133353.243,-30.273,-30.273,-32.227,-18.066
1628133353.247,-109.375,-40.039,-50.781,-69.824
1628133353.251,-64.453,-37.109,-33.691,-43.457
1628133353.255,37.598,-25.391,-8.789,30.762
1628133353.259,3.418,-28.809,-13.672,10.254
1628133353.263,-96.191,-33.203,-17.090,-61.523
1628133353.267,-85.449,-27.344,-14.648,-56.152
1628133353.270,-8.301,-21.973,-22.461,-9.277
1628133353.274,-5.859,-33.691,-32.227,-6.836
1628133353.278,-88.379,-48.340,-34.180,-64.453
1628133353.282,-102.539,-43.945,-24.414,-81.055
1628133353.286,-12.207,-37.598,-25.879,-23.926
1628133353.302,22.949,-38.086,-41.504,4.395
1628133353.306,-46.875,-29.297,-35.156,-45.410
1628133353.310,-87.402,-29.297,-25.879,-76.172
1628133353.314,-22.461,-17.578,-28.320,-20.020
1628133353.318,46.875,-12.207,-19.043,30.273
1628133353.322,-11.230,-28.320,-30.273,-16.602
1628133353.326,-94.727,-42.969,-53.223,-77.637
1628133353.329,-45.898,-34.180,-46.875,-39.551
1628133353.333,46.875,-21.484,-30.273,25.391
1628133353.337,35.645,-18.555,-20.508,18.066
1628133353.341,-54.688,-20.020,-19.043,-48.340
1628133353.345,-58.105,-24.902,-24.902,-53.711
1628133353.357,27.344,-14.648,-29.785,13.672
1628133353.361,31.250,-23.438,-25.391,15.625
1628133353.365,-66.895,-43.457,-25.879,-51.758
1628133353.369,-90.332,-44.434,-32.715,-59.570
1628133353.373,-5.859,-33.203,-28.809,2.441
1628133353.377,37.598,-29.785,-17.578,20.996
1628133353.381,-34.668,-51.758,-23.926,-36.621
1628133353.384,-89.844,-20.020,-34.180,-66.406
1628133353.388,-30.762,5.371,-44.922,-33.691
1628133353.392,41.016,-41.992,-41.504,13.672
1628133353.396,11.719,-51.270,-31.250,-1.465
1628133353.400,-69.336,-22.461,-43.457,-72.754
1628133353.377,-47.363,-18.555,-49.316,-63.477
1628133353.381,39.551,-24.902,-41.016,4.883
1628133353.385,15.625,-35.645,-40.527,-4.395
1628133353.389,-74.707,-25.879,-34.180,-67.383
1628133353.393,-76.172,-2.930,-28.320,-62.988
1628133353.397,6.348,-1.953,-17.578,-0.977
1628133353.401,21.484,-30.762,-10.254,5.859
1628133353.404,-66.895,-65.918,-18.555,-52.734
1628133353.408,-106.934,-70.312,-22.949,-78.613
1628133353.412,-39.551,-47.852,-32.227,-31.250
1628133353.416,12.695,-43.457,-48.340,6.836
1628133353.420,-45.410,-45.410,-56.641,-45.898
1628133353.431,-105.469,-33.691,-35.645,-99.609
1628133353.435,-47.852,-27.344,-14.160,-53.223
1628133353.439,34.180,-24.414,-18.555,14.160
1628133353.443,-4.395,-36.621,-31.250,-6.836
1628133353.447,-97.656,-44.922,-41.504,-81.543
1628133353.451,-85.449,-32.715,-41.992,-72.266
1628133353.455,2.441,-33.203,-39.062,-8.301
1628133353.458,-0.488,-40.527,-43.945,-19.043
1628133353.462,-82.520,-28.320,-32.227,-68.359
1628133353.466,-80.566,-19.043,-8.789,-65.430
1628133353.470,-5.371,-28.809,-22.461,-12.695
1628133353.474,19.043,-37.109,-48.340,10.742
1628133353.473,-41.016,-33.691,-50.293,-28.320
1628133353.477,-84.473,-41.016,-40.527,-68.359
1628133353.481,-25.879,-40.527,-28.320,-24.414
1628133353.485,40.527,-18.555,-16.113,27.344
1628133353.489,-15.137,-19.043,-19.531,-12.695
1628133353.493,-93.750,-28.809,-27.344,-75.195
1628133353.497,-58.594,-22.949,-24.902,-57.617
1628133353.500,14.648,-24.414,-32.715,4.395
1628133353.504,-7.812,-36.133,-47.852,-16.602
1628133353.508,-82.031,-46.875,-44.434,-73.242
1628133353.512,-69.336,-48.828,-33.203,-64.453
1628133353.516,16.602,-33.691,-30.762,-5.371
1628133353.526,24.902,-24.902,-26.367,-3.906
1628133353.530,-72.754,-42.480,-29.785,-69.336
1628133353.534,-89.844,-16.602,-36.133,-84.961
1628133353.538,8.301,2.930,-28.809,-11.719
1628133353.542,38.574,-23.438,-22.949,21.973
1628133353.546,-44.434,-32.715,-23.438,-34.668
1628133353.550,-96.680,-33.203,-31.250,-69.824
1628133353.553,-44.922,-30.273,-52.734,-40.039
1628133353.557,23.926,-31.738,-58.594,3.418
1628133353.561,-20.996,-46.387,-25.391,-22.949
1628133353.565,-100.098,-46.387,-7.812,-72.754
1628133353.569,-62.500,-50.781,-15.137,-50.293
1628133353.562,12.207,-55.176,-23.438,3.906
1628133353.566,-4.883,-35.645,-36.133,-5.371
1628133353.570,-84.473,-25.391,-39.062,-69.336
1628133353.574,-82.520,-14.648,-36.621,-69.824
1628133353.578,3.418,-19.043,-38.086,-0.977
1628133353.582,17.090,-32.227,-39.551,17.090
1628133353.586,-71.777,-39.062,-41.016,-43.457
1628133353.589,-104.980,-38.086,-42.480,-65.430
1628133353.593,-13.672,-25.391,-21.973,-2.930
1628133353.597,36.621,-23.438,-21.973,35.645
1628133353.601,-42.480,-36.621,-43.457,-28.809
1628133353.605,-104.492,-30.273,-38.574,-80.078
1628133353.619,-36.621,-14.160,-20.996,-31.250
1628133353.623,34.180,-36.621,-24.902,8.789
1628133353.627,-20.508,-57.617,-37.598,-25.879
1628133353.631,-92.773,-42.480,-34.668,-71.777
1628133353.635,-52.246,-23.438,-30.762,-44.434
1628133353.639,35.645,-18.066,-24.902,18.066
1628133353.643,15.625,-41.504,-27.832,5.859
1628133353.646,-85.938,-55.664,-28.320,-67.383
1628133353.650,-83.496,-39.062,-26.855,-65.430
1628133353.654,1.465,-28.809,-50.781,8.789
1628133353.658,9.766,-32.227,-41.016,13.672
1628133353.662,-71.289,-37.598,-18.066,-52.734
1628133353.656,-91.309,-32.715,-12.207,-68.848
1628133353.660,-25.391,-30.762,-17.578,-34.180
1628133353.664,19.043,-29.785,-33.691,-9.766
1628133353.668,-34.668,-18.555,-35.645,-39.062
1628133353.672,-97.168,-25.879,-31.738,-78.613
1628133353.676,-41.016,-31.738,-33.691,-38.574
1628133353.680,45.410,-34.180,-26.855,27.344
1628133353.683,-3.418,-53.223,-23.438,-1.465
1628133353.687,-111.816,-54.199,-39.062,-83.008
1628133353.691,-93.750,-43.945,-51.270,-78.125
1628133353.695,-2.441,-31.250,-44.434,-9.766
1628133353.699,0.977,-25.391,-40.039,0.977
1628133353.754,-73.730,-37.598,-44.922,-55.664
1628133353.758,-85.938,-39.551,-39.551,-77.637
1628133353.762,8.301,-15.137,-12.207,-16.602
1628133353.766,42.480,-21.973,-21.484,16.602
1628133353.770,-46.875,-52.246,-48.828,-45.898
1628133353.774,-95.215,-58.594,-40.039,-81.055
1628133353.778,-35.156,-55.176,-40.527,-34.668
1628133353.781,25.391,-55.176,-47.363,2.930
1628133353.785,-8.789,-29.785,-41.992,-20.996
1628133353.789,-67.871,-12.207,-25.879,-56.641
1628133353.793,-38.574,-32.227,-18.066,-36.133
1628133353.797,22.949,-26.855,-20.508,9.766
1628133353.787,21.973,-34.180,-17.090,14.648
1628133353.791,-50.293,-62.500,-31.738,-39.062
1628133353.795,-101.074,-33.203,-43.945,-78.613
1628133353.799,-39.551,-13.184,-44.922,-32.227
1628133353.803,33.203,-23.438,-31.738,25.879
1628133353.807,-5.859,-30.762,-20.508,-1.465
1628133353.811,-93.262,-41.992,-22.461,-75.195
1628133353.814,-52.246,-22.461,-31.250,-48.340
1628133353.818,45.410,-20.020,-47.363,25.879
1628133353.822,16.113,-45.410,-36.621,6.348
1628133353.826,-69.336,-31.738,-13.672,-50.781
1628133353.830,-70.801,-16.602,-13.672,-47.363
1628133353.825,17.578,-28.320,-20.508,9.766
1628133353.829,39.062,-33.691,-27.344,19.043
1628133353.833,-44.922,-30.762,-23.438,-39.062
1628133353.837,-80.566,-40.527,-20.996,-64.941
1628133353.841,-11.230,-29.785,-19.043,-12.207
1628133353.845,50.293,-19.043,-20.020,24.902
1628133353.849,-6.348,-39.062,-37.109,-20.020
1628133353.852,-73.730,-43.457,-41.016,-66.406
1628133353.856,-31.738,-23.438,-31.738,-36.621
1628133353.860,37.109,-8.301,-38.086,12.207
1628133353.864,3.418,-12.695,-34.668,-18.066
1628133353.868,-86.914,-27.344,-23.438,-83.984
1628133353.881,-68.359,-29.297,-18.066,-79.102
1628133353.885,19.043,-32.227,-18.555,-23.926
1628133353.889,18.066,-35.156,-19.531,-16.602
1628133353.893,-64.941,-38.086,-23.926,-69.824
1628133353.897,-68.848,-29.297,-37.598,-76.660
1628133353.901,17.090,-28.320,-31.738,-10.742
1628133353.905,32.715,-41.504,-33.203,2.930
1628133353.908,-56.641,-38.574,-33.691,-52.734
1628133353.912,-105.469,-28.320,-24.414,-81.055
1628133353.916,-36.133,-29.297,-38.574,-41.016
1628133353.920,30.273,-24.902,-46.875,4.883
1628133353.924,-30.273,-24.414,-56.641,-35.645
1628133353.919,-101.562,-34.180,-42.480,-83.008
1628133353.923,-48.340,-38.086,-13.184,-42.969
1628133353.927,28.320,-31.738,-10.742,7.812
1628133353.931,-5.371,-29.785,-11.719,-17.578
1628133353.935,-95.703,-34.668,-24.902,-81.055
1628133353.939,-85.449,-41.992,-33.203,-62.012
1628133353.943,18.555,-24.902,-20.996,12.695
1628133353.946,24.414,-12.207,-29.297,6.836
1628133353.950,-78.613,-46.387,-42.480,-61.523
1628133353.954,-102.051,-51.270,-44.922,-73.242
1628133353.958,-12.207,-27.832,-24.902,-1.465
1628133353.962,24.414,-19.043,-16.602,30.273
1628133353.974,-55.664,-28.809,-36.621,-41.992
1628133353.978,-101.562,-41.992,-51.758,-92.773
1628133353.982,-34.668,-35.645,-40.527,-38.574
1628133353.986,20.508,-28.320,-24.902,10.254
1628133353.990,-17.578,-33.203,-20.020,-23.926
1628133353.994,-79.590,-47.852,-14.648,-69.336
1628133353.998,-46.387,-37.598,-13.672,-38.574
1628133354.001,23.438,-20.020,-20.996,13.672
1628133354.005,-10.254,-24.902,-33.691,-10.742
1628133354.009,-86.426,-28.320,-20.996,-72.754
1628133354.013,-80.566,-28.809,-17.578,-71.289
1628133354.017,-6.836,-35.156,-40.527,-18.066
1628133354.012,12.207,-45.898,-42.969,-4.395
1628133354.016,-58.594,-48.828,-32.715,-52.734
1628133354.020,-88.379,-34.180,-31.738,-74.219
1628133354.024,-20.508,-16.602,-41.504,-24.902
1628133354.028,14.648,-17.578,-43.457,0.000
1628133354.032,-48.340,-20.020,-27.344,-41.992
1628133354.036,-106.445,-31.738,-28.809,-80.566
1628133354.039,-56.641,-41.992,-29.297,-50.781
1628133354.043,15.625,-38.086,-15.137,1.953
1628133354.047,-29.297,-39.551,-20.996,-26.367
1628133354.051,-106.934,-41.504,-31.250,-87.891
1628133354.055,-64.941,-33.203,-28.809,-59.570
1628133354.070,29.297,-6.348,-25.391,17.578
1628133354.074,19.043,-5.859,-37.109,15.625
1628133354.078,-81.543,-41.504,-41.504,-61.035
1628133354.082,-103.516,-56.641,-55.664,-83.984
1628133354.086,-6.836,-46.387,-57.129,-15.625
1628133354.090,30.273,-36.133,-35.645,16.113
1628133354.094,-58.105,-45.410,-30.762,-51.270
1628133354.097,-95.215,-38.574,-25.879,-83.984
1628133354.101,-29.785,-24.414,-29.297,-38.086
1628133354.105,36.621,-20.508,-17.090,14.160
1628133354.109,-18.555,-22.461,-21.973,-24.902
1628133354.113,-109.375,-43.945,-44.922,-96.680
1628133354.106,-47.363,-43.457,-27.832,-55.176
1628133354.110,29.785,-34.668,-22.461,10.742
1628133354.114,-20.508,-41.016,-52.246,-21.973
1628133354.118,-102.539,-34.668,-64.941,-87.891
1628133354.122,-82.031,-21.973,-39.062,-79.102
1628133354.126,19.531,-14.648,-20.996,-2.441
1628133354.130,19.531,-34.668,-23.926,1.465
1628133354.133,-79.102,-41.992,-25.391,-68.359
1628133354.137,-96.680,-43.457,-27.832,-82.031
1628133354.141,-15.137,-52.246,-25.391,-31.250
1628133354.145,32.227,-31.250,-26.367,7.324
1628133354.149,-28.809,-20.996,-41.016,-25.391
1628133354.162,-79.102,-15.625,-48.828,-57.617
1628133354.166,-20.996,-9.766,-38.574,-25.879
1628133354.170,30.273,-19.531,-34.180,-4.883
1628133354.174,-26.855,-24.902,-31.738,-39.551
1628133354.178,-98.145,-25.879,-35.156,-88.867
1628133354.182,-54.199,-28.809,-41.504,-65.918
1628133354.186,38.574,-21.973,-37.109,11.719
1628133354.189,19.531,-32.227,-44.434,5.371
1628133354.193,-58.594,-29.297,-31.250,-57.129
1628133354.197,-48.340,-9.766,-14.160,-55.664
1628133354.201,20.020,-31.738,-32.227,-5.371
1628133354.205,19.043,-43.945,-40.527,3.418
1628133354.200,-69.336,-27.832,-31.250,-54.199
1628133354.204,-88.379,-20.020,-21.484,-72.266
1628133354.208,-2.930,-18.066,-27.832,-14.648
1628133354.212,29.297,-15.137,-41.992,8.301
1628133354.216,-36.133,-15.625,-43.945,-35.645
1628133354.220,-94.238,-27.832,-41.016,-71.777
1628133354.224,-44.922,-40.527,-31.738,-38.574
1628133354.227,27.344,-38.574,-29.785,19.043
1628133354.231,-22.949,-45.898,-42.969,-4.883
1628133354.235,-99.609,-56.641,-50.293,-61.035
1628133354.239,-60.059,-36.133,-31.250,-41.016
1628133354.243,25.879,-9.766,-15.625,23.438
1628133354.256,5.859,-20.020,-14.160,13.184
1628133354.260,-95.703,-36.621,-25.879,-65.430
1628133354.264,-88.867,-25.879,-25.879,-63.965
1628133354.268,0.488,-22.461,-25.391,3.418
1628133354.272,0.000,-39.551,-37.109,-1.465
1628133354.276,-68.359,-46.875,-36.621,-67.383
1628133354.280,-84.961,-38.574,-33.691,-79.102
1628133354.283,-10.254,-29.297,-26.855,-16.602
1628133354.287,34.668,-34.668,-16.602,18.066
1628133354.291,-30.273,-39.551,-21.973,-26.367
1628133354.295,-81.055,-33.691,-32.715,-64.941
1628133354.299,-20.020,-23.926,-18.066,-21.484
1628133354.293,39.551,-17.578,-16.113,27.832
1628133354.297,-12.695,-26.855,-32.227,-3.418
1628133354.301,-84.473,-24.414,-23.926,-62.500
1628133354.305,-54.688,-22.949,-20.508,-42.969
1628133354.309,18.066,-21.973,-31.738,6.836
1628133354.313,8.301,-18.555,-24.902,-1.953
1628133354.317,-78.613,-43.457,-21.484,-57.129
1628133354.320,-94.727,-60.547,-24.902,-70.312
1628133354.324,-14.160,-41.016,-28.809,-5.371
1628133354.328,23.438,-25.391,-40.039,20.996
1628133354.332,-36.621,-29.785,-29.297,-40.527
1628133354.336,-75.684,-29.785,-18.066,-74.707
1628133354.350,-17.578,-14.160,-31.738,-33.691
1628133354.354,31.250,-17.578,-28.320,10.254
1628133354.358,-28.809,-40.527,-25.879,-26.855
1628133354.362,-96.191,-44.922,-41.992,-84.473
1628133354.366,-36.621,-15.625,-35.645,-52.246
1628133354.370,34.668,-14.648,-34.180,6.348
1628133354.374,-5.859,-49.805,-33.691,-15.625
1628133354.377,-80.078,-47.363,-36.133,-76.172
1628133354.381,-67.383,-14.160,-39.551,-63.477
1628133354.385,13.672,-1.953,-34.180,0.977
1628133354.389,20.996,-17.090,-37.598,0.000
1628133354.393,-54.199,-31.250,-22.949,-62.988
1628133354.387,-73.242,-23.926,-11.230,-79.102
1628133354.391,-7.324,-25.879,-14.648,-27.344
1628133354.395,26.855,-34.180,-21.484,3.906
1628133354.399,-41.992,-29.297,-27.832,-40.039
1628133354.403,-96.680,-23.926,-37.109,-76.172
1628133354.407,-26.367,-24.902,-33.203,-19.531
1628133354.411,31.250,-48.340,-27.832,30.273
1628133354.414,-31.738,-62.012,-32.715,-21.973
1628133354.418,-102.539,-34.180,-47.363,-86.426
1628133354.422,-47.363,-6.836,-46.875,-52.734
1628133354.426,43.945,-21.484,-29.785,16.113
1628133354.430,4.883,-35.156,-26.855,-2.441
1628133354.443,-82.520,-20.508,-28.809,-73.242
1628133354.447,-71.777,-32.715,-36.133,-74.707
1628133354.451,14.648,-51.758,-37.109,-6.348
1628133354.455,22.461,-41.016,-31.738,-8.789
1628133354.459,-63.965,-31.738,-33.691,-68.848
1628133354.463,-86.426,-25.879,-36.133,-69.824
1628133354.467,-2.441,-18.555,-49.316,-12.695
1628133354.470,40.039,-29.297,-45.410,13.184
1628133354.474,-41.992,-47.852,-37.598,-46.875
1628133354.478,-99.609,-42.480,-43.457,-87.891
1628133354.482,-28.320,-22.949,-39.062,-37.109
1628133354.486,41.016,-15.625,-38.574,22.461
1628133354.481,-11.719,-31.250,-36.621,-16.602
1628133354.485,-83.008,-42.480,-23.438,-75.684
1628133354.489,-46.387,-23.926,-16.113,-50.293
1628133354.493,34.180,-20.996,-27.344,11.719
1628133354.497,7.812,-47.363,-31.250,0.977
1628133354.501,-74.219,-46.387,-24.414,-65.430
1628133354.505,-61.523,-18.066,-35.645,-64.941
1628133354.508,14.648,-7.812,-33.203,-7.812
1628133354.512,9.766,-27.832,-17.578,2.441
1628133354.516,-82.520,-49.805,-29.785,-59.570
1628133354.520,-108.887,-56.641,-41.016,-85.938
1628133354.524,-24.414,-51.270,-29.297,-24.902
1628133354.537,34.180,-24.414,-31.250,11.719
1628133354.541,-25.391,-19.531,-31.738,-34.668
1628133354.545,-83.008,-20.996,-17.090,-69.336
1628133354.549,-37.598,-19.043,-27.832,-29.785
1628133354.553,29.785,-31.738,-47.363,10.742
1628133354.557,-7.324,-47.852,-36.621,-25.879
1628133354.561,-88.867,-53.711,-37.598,-82.520
1628133354.564,-61.523,-28.809,-40.527,-58.105
1628133354.568,9.277,-22.949,-28.809,3.906
1628133354.572,4.883,-41.992,-25.391,-9.277
1628133354.576,-68.848,-58.594,-31.250,-70.801
1628133354.580,-78.125,-50.293,-33.203,-55.176
1628133354.574,9.277,-17.090,-23.438,17.090
1628133354.578,22.949,-13.672,-27.344,21.973
1628133354.582,-69.336,-33.203,-37.598,-54.688
1628133354.586,-93.262,-24.902,-34.180,-82.520
1628133354.590,-6.348,-15.625,-30.273,-15.137
1628133354.594,41.016,-21.973,-32.715,14.160
1628133354.598,-30.273,-36.133,-37.598,-44.922
1628133354.601,-98.633,-49.316,-38.086,-92.773
1628133354.605,-46.875,-42.969,-25.879,-47.363
1628133354.609,38.086,-33.691,-13.672,24.414
1628133354.613,1.953,-45.898,-24.414,3.418
1628133354.617,-92.773,-37.598,-34.668,-73.242
1628133354.631,-76.660,-19.531,-47.852,-69.824
1628133354.635,15.137,-30.762,-49.805,-3.418
1628133354.639,7.812,-41.016,-45.410,-5.371
1628133354.643,-83.008,-41.992,-40.039,-73.730
1628133354.647,-81.055,-35.645,-10.742,-68.848
1628133354.651,20.508,-10.742,2.930,-0.977
1628133354.655,50.293,-9.766,-25.879,16.602
1628133354.658,-35.645,-43.945,-35.156,-34.668
1628133354.662,-96.191,-53.711,-32.715,-80.078
1628133354.666,-37.598,-35.645,-45.410,-48.828
1628133354.670,26.855,-18.555,-43.457,1.465
1628133354.674,-31.738,-21.484,-38.086,-25.879
1628133354.669,-100.586,-34.180,-33.691,-69.824
1628133354.673,-53.223,-43.945,-28.809,-45.410
1628133354.677,24.902,-51.758,-32.227,1.953
1628133354.681,17.090,-36.621,-34.180,-0.488
1628133354.685,-51.270,-15.625,-23.926,-48.340
1628133354.689,-50.293,-8.789,-15.137,-42.969
1628133354.693,21.973,-19.043,-36.621,2.441
1628133354.696,31.250,-21.973,-42.480,2.441
1628133354.700,-55.176,-22.949,-36.133,-49.316
1628133354.704,-88.867,-35.156,-32.715,-67.383
1628133354.708,-23.926,-36.621,-17.090,-21.973
1628133354.712,6.348,-36.133,-16.113,-3.906
1628133354.725,-52.734,-39.062,-18.555,-45.898
1628133354.729,-97.168,-36.621,-14.648,-78.613
1628133354.733,-42.480,-39.551,-21.484,-37.598
1628133354.737,31.250,-36.133,-26.855,18.066
1628133354.741,1.465,-23.438,-34.180,-12.207
1628133354.745,-72.754,-34.180,-38.574,-72.266
1628133354.749,-51.758,-41.016,-24.902,-54.688
1628133354.752,28.320,-35.645,-28.320,8.789
1628133354.756,8.789,-51.270,-39.062,2.930
1628133354.760,-80.078,-52.246,-26.367,-55.664
1628133354.764,-90.332,-52.246,-25.879,-71.777
1628133354.768,-7.324,-42.480,-31.250,-15.137
1628133354.762,27.344,-23.926,-9.766,13.672
1628133354.766,-62.012,-35.645,-12.695,-54.688
1628133354.770,-104.004,-30.273,-19.043,-86.914
1628133354.774,-20.020,-23.926,-24.902,-20.508
1628133354.778,28.320,-31.738,-29.297,13.672
1628133354.782,-40.039,-29.297,-20.996,-44.434
1628133354.786,-98.145,-34.180,-26.367,-87.402
1628133354.789,-50.293,-40.039,-30.273,-51.270
1628133354.793,23.926,-44.434,-26.367,9.766
1628133354.797,-8.789,-48.340,-33.691,-4.883
1628133354.801,-87.891,-39.062,-38.086,-58.105
1628133354.805,-73.730,-35.645,-25.391,-49.805
1628133354.821,14.160,-35.156,-16.602,9.766
1628133354.825,24.414,-24.414,-24.902,8.301
1628133354.829,-41.504,-16.602,-9.277,-38.574
1628133354.833,-54.688,-22.461,-13.184,-41.504
1628133354.837,4.883,-25.879,-28.320,2.930
1628133354.841,17.578,-37.598,-26.855,6.348
1628133354.845,-61.035,-48.340,-40.039,-55.664
1628133354.848,-102.539,-54.199,-31.738,-85.449
1628133354.852,-25.879,-52.734,-25.391,-28.809
1628133354.856,46.875,-30.762,-36.621,35.156
1628133354.860,-18.555,-27.344,-48.340,-10.742
1628133354.864,-90.332,-27.832,-41.504,-74.707
1628133354.856,-38.086,-21.973,-27.832,-38.574
1628133354.860,21.484,-33.691,-34.668,7.812
1628133354.864,-10.742,-40.527,-40.039,-20.996
1628133354.868,-82.520,-36.133,-29.297,-75.195
1628133354.872,-72.754,-23.438,-31.738,-60.547
1628133354.876,19.531,-21.973,-41.016,11.719
1628133354.880,28.320,-20.996,-37.109,16.113
1628133354.883,-63.965,-20.996,-43.945,-54.199
1628133354.887,-84.961,-31.738,-43.457,-68.848
1628133354.891,2.930,-28.320,-30.762,-13.672
1628133354.895,48.828,-23.438,-37.598,11.719
1628133354.899,-33.691,-36.133,-62.012,-45.898
1628133354.912,-96.191,-36.621,-68.359,-89.844
1628133354.916,-22.949,-24.414,-31.738,-33.203
1628133354.920,47.852,-22.461,-9.277,27.832
1628133354.924,-8.789,-30.762,-25.879,-11.719
1628133354.928,-91.309,-37.598,-23.926,-74.219
1628133354.932,-57.617,-32.715,-20.996,-56.152
1628133354.936,17.578,-33.203,-36.133,4.395
1628133354.939,-2.441,-29.297,-37.598,-5.371
1628133354.943,-80.078,-26.367,-35.156,-66.895
1628133354.947,-85.938,-25.879,-30.273,-76.660
1628133354.951,1.465,-14.648,-20.996,-15.625
1628133354.955,27.344,-15.137,-31.738,8.301
1628133354.949,-47.852,-32.715,-44.434,-42.969
1628133354.953,-83.008,-48.828,-39.551,-73.730
1628133354.957,-9.766,-34.180,-36.133,-10.742
1628133354.961,43.457,-17.578,-27.344,35.156
1628133354.965,-33.203,-30.273,-38.574,-32.227
1628133354.969,-91.309,-34.668,-46.387,-71.289
1628133354.973,-32.227,-21.973,-23.926,-24.902
1628133354.976,39.551,-30.273,-4.395,17.090
1628133354.980,-1.953,-59.570,-21.484,-17.578
1628133354.984,-84.473,-45.410,-39.062,-72.266
1628133354.988,-54.199,-14.648,-30.762,-50.293
1628133354.992,39.062,-11.719,-24.902,16.113
1628133355.006,40.039,-27.344,-20.996,15.625
1628133355.010,-41.504,-44.922,-19.531,-40.039
1628133355.014,-59.082,-45.410,-20.020,-48.828
1628133355.018,16.602,-31.250,-22.949,0.488
1628133355.022,40.527,-9.277,-23.438,16.602
1628133355.026,-44.922,-18.066,-31.738,-55.176
1628133355.030,-95.215,-37.109,-43.945,-96.191
1628133355.033,-18.555,-31.250,-49.805,-31.250
1628133355.037,48.828,-26.367,-34.668,21.973
1628133355.041,-5.859,-29.297,-16.602,-17.090
1628133355.045,-83.984,-30.273,-27.832,-62.988
1628133355.049,-56.152,-29.785,-38.574,-38.574
1628133355.043,28.809,-18.066,-24.414,20.020
1628133355.047,7.324,-12.207,-20.508,10.254
1628133355.051,-81.543,-20.508,-26.855,-57.617
1628133355.055,-74.219,-14.160,-31.250,-55.664
1628133355.059,16.113,3.906,-40.527,-0.977
1628133355.063,31.250,0.000,-34.668,7.324
1628133355.067,-60.059,-27.344,-37.109,-53.711
1628133355.070,-79.102,-24.902,-42.480,-71.289
1628133355.074,-4.395,-30.273,-47.363,-15.137
1628133355.078,19.043,-29.785,-31.738,6.348
1628133355.082,-40.527,-29.297,-20.996,-33.203
1628133355.086,-70.801,-41.016,-32.227,-65.918
1628133355.100,-16.113,-23.438,-29.297,-23.438
1628133355.104,40.527,-9.766,-16.113,22.949
1628133355.108,-2.441,-14.160,-20.020,-12.207
1628133355.112,-67.383,-12.695,-23.926,-51.758
1628133355.116,-23.438,-8.301,-12.695,-23.438
1628133355.120,40.527,-32.227,-19.531,16.113
1628133355.124,-5.859,-44.434,-34.668,-3.418
1628133355.127,-93.750,-28.320,-39.551,-66.406
1628133355.131,-85.938,-17.578,-33.691,-62.988
1628133355.135,6.348,-18.066,-31.250,0.977
1628133355.139,10.254,-27.832,-20.996,7.324
1628133355.143,-75.195,-33.691,-27.344,-54.199
1628133355.137,-84.961,-19.531,-38.086,-64.453
1628133355.141,-1.953,-7.812,-24.414,-5.371
1628133355.145,39.062,-21.484,-15.625,27.832
1628133355.149,-31.250,-32.227,-30.762,-23.438
1628133355.153,-85.449,-28.320,-42.969,-85.449
1628133355.157,-23.926,-23.438,-31.250,-41.016
1628133355.161,55.176,-10.742,-17.090,25.879
1628133355.164,16.113,-4.395,-18.066,4.883
1628133355.168,-94.727,-45.410,-49.316,-76.172
1628133355.172,-77.148,-57.617,-58.594,-65.430
1628133355.176,23.926,-25.391,-33.691,11.719
1628133355.180,-0.488,-19.043,-20.020,-10.742
1628133355.194,-94.727,-24.414,-31.250,-85.938
1628133355.198,-92.285,-26.367,-26.855,-83.496
1628133355.202,-6.836,-34.668,-24.902,-19.043
1628133355.206,23.926,-25.879,-28.809,7.324
1628133355.210,-43.457,-17.578,-17.578,-41.016
1628133355.214,-62.012,-24.414,-20.508,-55.664
1628133355.218,10.254,-27.344,-29.297,-0.488
1628133355.221,50.781,-17.090,-34.180,23.438
1628133355.225,-25.391,-12.695,-38.086,-40.527
1628133355.229,-103.516,-21.973,-27.344,-95.703
1628133355.233,-58.594,-30.762,-25.879,-61.035
1628133355.237,20.996,-23.438,-24.414,-0.488
1628133355.231,-6.836,-20.020,-20.508,-15.625
1628133355.235,-94.238,-33.691,-27.344,-83.984
1628133355.239,-74.707,-38.574,-33.203,-67.871
1628133355.243,14.648,-35.156,-27.832,0.977
1628133355.247,7.812,-38.574,-34.668,-6.836
1628133355.251,-76.172,-29.785,-50.293,-63.477
1628133355.255,-89.355,-27.344,-45.898,-68.848
1628133355.258,-4.395,-40.527,-27.832,-17.578
1628133355.262,36.621,-46.875,-19.531,6.348
1628133355.266,-31.738,-41.016,-26.855,-31.250
1628133355.270,-79.102,-30.762,-20.508,-58.105
1628133355.274,-15.137,-14.648,-12.695,-20.020
1628133355.287,23.438,-21.973,-36.133,-1.953
1628133355.291,-36.133,-42.480,-39.062,-40.527
1628133355.295,-90.332,-41.016,-24.902,-77.148
1628133355.299,-59.570,-36.133,-37.109,-55.664
1628133355.303,28.809,-14.160,-33.203,15.625
1628133355.307,-1.465,-20.020,-36.133,-0.488
1628133355.311,-96.191,-58.105,-37.598,-83.984
1628133355.314,-66.406,-53.223,-31.738,-72.266
1628133355.318,20.020,-27.832,-37.109,-11.230
1628133355.322,12.695,-17.578,-41.992,-20.508
1628133355.326,-68.359,-26.855,-35.645,-81.055
1628133355.330,-88.379,-29.785,-26.367,-93.750
1628133355.325,-15.137,-25.391,-25.391,-35.156
1628133355.329,21.484,-26.367,-42.480,-7.812
1628133355.333,-45.410,-32.715,-66.895,-52.734
1628133355.337,-83.008,-37.109,-59.570,-81.055
1628133355.341,-20.508,-40.039,-36.133,-41.504
1628133355.345,35.645,-28.809,-27.344,3.418
1628133355.349,-31.250,-31.250,-29.297,-38.086
1628133355.352,-111.328,-36.621,-36.621,-94.727
1628133355.356,-61.035,-36.621,-45.898,-64.941
1628133355.360,30.273,-32.227,-30.273,6.836
1628133355.364,7.812,-33.691,-19.043,2.441
1628133355.368,-89.355,-33.691,-29.297,-65.430
1628133355.381,-74.707,-33.203,-26.855,-57.617
1628133355.385,24.902,-34.180,-12.695,11.230
1628133355.389,26.855,-38.086,-27.344,18.066
1628133355.393,-63.965,-35.645,-44.434,-47.852
1628133355.397,-92.773,-22.461,-41.992,-69.824
1628133355.401,-5.859,-16.113,-40.039,-11.230
1628133355.405,19.531,-31.250,-57.617,9.766
1628133355.408,-55.664,-44.922,-45.898,-39.062
1628133355.412,-80.566,-27.832,-29.297,-64.941
1628133355.416,-37.109,-27.832,-42.969,-32.227
1628133355.420,10.742,-35.645,-28.809,13.184
1628133355.424,-31.250,-30.273,-24.414,-22.461
1628133355.419,-97.656,-20.508,-18.066,-90.820
1628133355.423,-55.664,-29.297,-10.742,-65.918
1628133355.427,25.879,-37.109,-20.020,3.418
1628133355.431,9.766,-32.227,-28.320,-4.395
1628133355.435,-73.242,-27.344,-40.039,-67.383
1628133355.439,-79.102,-21.973,-49.316,-76.172
1628133355.443,3.906,-18.555,-51.758,-17.578
1628133355.446,25.391,-31.250,-39.062,4.883
1628133355.450,-73.242,-47.363,-55.664,-69.336
1628133355.454,-95.703,-32.715,-61.035,-93.262
1628133355.458,-7.324,-19.531,-37.109,-28.809
1628133355.462,31.738,-16.602,-22.461,3.906
1628133355.475,-21.973,-18.555,-8.301,-32.227
1628133355.479,-90.820,-32.715,-12.207,-83.008
1628133355.483,-60.547,-29.785,-22.949,-66.406
1628133355.487,5.371,-20.508,-29.785,-11.719
1628133355.491,-26.367,-23.926,-41.016,-24.902
1628133355.495,-95.215,-37.109,-39.551,-75.195
1628133355.499,-72.754,-36.133,-41.016,-59.570
1628133355.502,12.695,-26.855,-53.223,6.348
1628133355.506,26.855,-31.738,-48.828,20.020
1628133355.510,-65.918,-41.992,-37.109,-48.340
1628133355.514,-103.027,-46.387,-21.484,-75.195
1628133355.518,-24.414,-44.434,-11.719,-16.113
1628133355.512,9.277,-45.410,-15.625,12.207
1628133355.516,-47.852,-22.461,-4.395,-22.461
1628133355.520,-78.125,3.418,-2.441,-43.457
1628133355.524,-27.344,-18.555,-31.250,-18.066
1628133355.528,22.461,-29.297,-44.922,12.207
1628133355.532,-17.090,-32.715,-32.227,-19.531
1628133355.536,-84.473,-66.406,-32.715,-72.266
1628133355.539,-50.293,-44.434,-44.922,-41.504
1628133355.543,25.391,-9.766,-45.410,12.207
1628133355.547,7.324,-28.320,-28.809,0.977
1628133355.551,-63.477,-32.715,-11.719,-43.945
1628133355.555,-56.641,-15.625,-14.160,-44.434
1628133355.572,22.461,-9.277,-17.578,6.348
1628133355.576,24.414,-21.973,-26.367,5.859
1628133355.580,-50.781,-34.668,-25.391,-54.688
1628133355.584,-68.359,-36.621,-23.438,-66.895
1628133355.588,7.812,-29.785,-30.762,-8.789
1628133355.592,42.969,-39.062,-32.715,19.043
1628133355.596,-44.922,-47.363,-45.898,-46.875
1628133355.599,-95.703,-25.391,-57.617,-97.168
1628133355.603,-17.578,-8.301,-51.758,-30.762
1628133355.607,38.086,-13.184,-26.367,31.738
1628133355.611,-26.855,-37.598,-25.879,-19.043
1628133355.615,-98.145,-47.852,-34.180,-85.938
1628133355.606,-72.754,-42.480,-23.926,-62.012
1628133355.610,6.836,-34.668,-20.020,5.859
1628133355.614,2.441,-36.133,-24.902,-10.254
1628133355.618,-74.219,-45.410,-22.949,-69.336
1628133355.622,-76.172,-53.223,-13.672,-61.523
1628133355.626,1.953,-49.316,-20.020,-5.859
1628133355.630,20.020,-36.133,-29.297,11.230
1628133355.633,-59.570,-44.922,-50.781,-45.410
1628133355.637,-107.422,-41.992,-51.270,-93.262
1628133355.641,-34.180,-27.832,-28.809,-38.086
1628133355.645,25.391,-43.457,-22.461,14.648
1628133355.649,-41.992,-59.082,-19.531,-34.180
1628133355.662,-100.586,-62.012,-21.973,-77.148
1628133355.666,-54.688,-52.246,-23.926,-44.922
1628133355.670,31.738,-34.180,-6.348,12.695
1628133355.674,3.418,-33.691,-22.461,-14.160
1628133355.678,-92.285,-27.344,-48.828,-90.820
1628133355.682,-78.125,-22.949,-36.133,-87.402
1628133355.686,7.812,-32.227,-37.109,-25.879
1628133355.689,8.301,-44.434,-25.879,-13.672
1628133355.693,-66.895,-44.922,-15.625,-56.152
1628133355.697,-72.266,-20.996,-38.574,-64.453
1628133355.701,3.906,-5.859,-46.387,-19.531
1628133355.705,21.973,-22.949,-30.273,3.418
1628133355.700,-51.270,-33.203,-18.066,-39.062
1628133355.704,-91.797,-23.438,-13.184,-68.848
1628133355.708,-41.016,-25.879,-17.090,-28.809
1628133355.712,8.789,-32.715,-26.855,3.906
1628133355.716,-48.828,-45.898,-35.645,-36.621
1628133355.720,-100.098,-49.805,-28.809,-66.406
1628133355.724,-43.945,-28.320,-21.973,-23.438
1628133355.727,23.438,-23.926,-27.832,23.438
1628133355.731,-0.488,-39.551,-39.551,0.977
1628133355.735,-80.566,-52.734,-48.340,-64.453
1628133355.739,-78.613,-34.668,-42.480,-74.707
1628133355.743,-0.488,-16.113,-30.273,-20.996
1628133355.756,14.160,-25.879,-10.254,-1.465
1628133355.760,-69.824,-36.621,-15.137,-52.246
1628133355.764,-97.656,-21.484,-28.809,-69.824
1628133355.768,-28.320,-14.160,-35.645,-23.926
1628133355.772,7.324,-35.156,-36.133,1.953
1628133355.776,-52.246,-44.434,-26.367,-45.410
1628133355.780,-94.238,-27.832,-20.020,-83.008
1628133355.783,-37.598,-20.020,-26.855,-38.086
1628133355.787,17.090,-25.879,-40.527,-3.418
1628133355.791,-30.762,-30.273,-45.898,-37.598
1628133355.795,-110.840,-32.227,-45.898,-84.473
1628133355.799,-66.406,-20.996,-39.551,-54.199
1628133355.793,29.297,-14.648,-18.555,6.348
1628133355.797,11.230,-17.578,-14.160,2.441
1628133355.801,-62.988,-27.832,-30.273,-49.805
1628133355.805,-56.641,-35.645,-23.926,-51.270
1628133355.809,8.789,-40.039,-29.297,-2.441
1628133355.813,16.113,-41.016,-41.504,1.953
1628133355.817,-58.594,-53.223,-45.898,-49.316
1628133355.820,-82.031,-53.711,-55.176,-63.965
1628133355.824,-14.160,-34.668,-52.246,-16.602
1628133355.828,20.996,-16.602,-35.645,8.789
1628133355.832,-41.992,-13.672,-23.438,-30.762
1628133355.836,-97.656,-18.066,-36.133,-72.266
1628133355.849,-43.945,-14.648,-35.156,-40.039
1628133355.853,16.113,-18.066,-23.438,3.418
1628133355.857,-15.137,-14.160,-23.438,-22.461
1628133355.861,-76.172,-18.066,-15.137,-65.918
1628133355.865,-59.570,-28.809,-15.137,-60.059
1628133355.869,20.508,-21.973,-30.762,-9.277
1628133355.873,5.859,-25.879,-42.969,-20.996
1628133355.876,-64.453,-36.133,-47.852,-64.941
1628133355.880,-50.293,-41.504,-35.156,-48.828
1628133355.884,9.766,-41.504,-40.527,-20.020
1628133355.888,20.508,-17.578,-51.758,-12.207
1628133355.892,-50.781,-21.484,-35.156,-49.316
1628133355.888,-82.031,-31.738,-31.250,-75.195
1628133355.892,-12.695,-12.207,-46.875,-23.926
1628133355.896,26.855,-8.301,-46.875,2.930
1628133355.900,-35.645,-16.113,-39.551,-43.457
1628133355.904,-97.656,-20.020,-42.969,-91.797
1628133355.908,-46.387,-13.672,-43.945,-56.152
1628133355.912,35.645,-20.996,-44.434,11.719
1628133355.915,-2.930,-41.992,-61.035,-19.043
1628133355.919,-84.473,-42.480,-67.383,-80.078
1628133355.923,-50.293,-24.414,-56.641,-55.664
1628133355.927,32.715,-33.691,-34.180,4.883
1628133355.931,29.297,-50.293,-4.395,4.395
1628133355.947,-53.711,-51.758,-13.672,-59.570
1628133355.951,-76.660,-35.156,-31.250,-71.777
1628133355.955,-2.441,-9.766,-28.320,-21.973
1628133355.959,15.137,-15.137,-29.297,-14.160
1628133355.963,-58.594,-31.738,-42.969,-64.453
1628133355.967,-81.543,-25.879,-37.109,-87.402
1628133355.971,-10.742,-12.695,-28.809,-30.273
1628133355.974,34.180,-17.578,-36.621,10.742
1628133355.978,-11.230,-20.996,-38.086,-29.785
1628133355.982,-72.754,-32.715,-50.293,-70.312
1628133355.986,-36.621,-47.363,-41.992,-33.203
1628133355.990,46.875,-35.156,-10.254,27.344
1628133355.980,9.277,-37.109,-16.602,-1.465
1628133355.984,-90.332,-44.922,-28.809,-77.148
1628133355.988,-79.590,-32.227,-27.832,-75.195
1628133355.992,6.836,-22.949,-34.180,-8.301
1628133355.996,1.465,-28.320,-37.109,-1.465
1628133356.000,-83.496,-40.039,-31.250,-63.477
1628133356.004,-83.496,-41.504,-17.090,-72.754
1628133356.007,-3.906,-36.133,-34.668,-14.160
1628133356.011,21.973,-41.992,-54.199,10.742
1628133356.015,-48.828,-47.363,-47.363,-42.969
1628133356.019,-89.355,-37.109,-51.270,-86.426
1628133356.023,-23.926,-23.926,-46.875,-38.574
1628133356.057,38.086,-20.508,-29.785,20.508
1628133356.061,-17.090,-30.762,-27.832,-19.531
1628133356.065,-85.938,-39.062,-29.785,-79.102
1628133356.069,-43.945,-25.391,-40.527,-60.059
1628133356.073,46.387,-8.789,-38.574,10.254
1628133356.077,33.203,-22.461,-29.297,13.184
1628133356.081,-79.102,-51.758,-34.180,-67.871
1628133356.084,-78.613,-38.086,-32.715,-63.477
1628133356.088,10.254,-19.043,-39.551,1.953
1628133356.092,15.137,-31.738,-35.156,1.953
1628133356.096,-74.219,-51.758,-21.973,-53.711
1628133356.100,-117.188,-61.523,-28.809,-82.031
1628133356.077,-30.762,-29.297,-22.461,-31.250
1628133356.081,20.996,-20.020,-17.090,2.930
1628133356.085,-56.641,-46.387,-25.391,-47.363
1628133356.089,-107.422,-42.969,-21.484,-83.496
1628133356.093,-59.082,-42.969,-28.809,-52.734
1628133356.097,-3.906,-41.992,-44.922,-15.625
1628133356.101,-33.691,-24.414,-43.457,-35.156
1628133356.104,-103.516,-19.043,-42.969,-91.309
1628133356.108,-71.289,-18.555,-35.156,-56.641
1628133356.112,27.344,-28.320,-23.926,16.113
1628133356.116,15.625,-57.129,-46.387,-8.301
1628133356.120,-69.336,-54.199,-46.875,-71.289
1628133356.131,-69.824,-25.391,-17.090,-67.383
1628133356.135,-0.977,-32.227,-28.320,-18.066
1628133356.139,12.207,-45.898,-31.738,-3.418
1628133356.143,-63.477,-45.898,-30.762,-62.500
1628133356.147,-91.797,-38.574,-29.297,-84.473
1628133356.151,-9.766,-19.531,-28.320,-7.812
1628133356.155,41.016,-24.902,-34.668,28.809
1628133356.158,-39.062,-50.293,-28.320,-30.273
1628133356.162,-108.887,-46.387,-32.227,-83.984
1628133356.166,-41.992,-34.668,-35.645,-42.969
1628133356.170,30.762,-31.738,-36.133,19.531
1628133356.174,-15.137,-26.855,-38.086,-8.789
1628133356.173,-90.332,-29.785,-37.109,-70.312
1628133356.177,-73.242,-26.367,-49.805,-62.988
1628133356.181,8.789,-11.230,-33.691,2.441
1628133356.185,6.836,-19.043,-10.742,5.371
1628133356.189,-85.449,-40.527,-27.832,-66.406
1628133356.193,-96.191,-43.457,-34.180,-73.730
1628133356.197,9.766,-34.668,-21.973,0.488
1628133356.200,52.734,-41.992,-14.648,24.902
1628133356.204,-29.785,-54.199,-28.320,-39.062
1628133356.208,-85.938,-27.832,-43.945,-84.961
1628133356.212,-23.438,-2.441,-37.598,-43.945
1628133356.216,35.645,-9.766,-26.367,8.301
1628133356.225,-18.555,-13.672,-16.113,-12.207
1628133356.229,-95.703,-24.414,-34.668,-66.406
1628133356.233,-64.941,-39.062,-41.992,-61.523
1628133356.237,8.789,-32.227,-34.180,-9.277
1628133356.241,-7.812,-20.508,-28.809,-18.066
1628133356.245,-73.730,-21.973,-17.578,-61.523
1628133356.249,-70.801,-42.480,-37.109,-46.875
1628133356.252,12.695,-50.293,-38.574,11.230
1628133356.256,18.555,-42.969,-25.879,8.301
1628133356.260,-79.590,-38.086,-28.320,-56.641
1628133356.264,-95.215,-25.879,-23.438,-70.801
1628133356.268,-11.719,-18.066,-24.902,-30.273
1628133356.270,-87.402,-38.086,-26.367,-79.102
1628133356.274,-39.062,-32.227,-41.016,-41.992
1628133356.278,15.625,-36.133,-50.781,-6.836
1628133356.282,-22.461,-34.668,-31.738,-40.039
1628133356.286,-102.051,-39.551,-29.297,-95.703
1628133356.289,-60.547,-30.273,-23.926,-62.988
1628133356.293,27.344,-22.949,-27.832,-10.254
1628133356.297,4.395,-29.785,-55.176,-27.832
1628133356.301,-69.336,-42.969,-42.480,-71.777
1628133356.305,-55.176,-46.387,-10.742,-59.082
1628133356.326,15.137,-27.344,-8.789,-13.672
1628133356.330,9.277,-32.227,-38.086,-24.414
1628133356.334,-65.918,-52.246,-43.945,-73.730
1628133356.338,-81.055,-46.875,-21.484,-81.055
1628133356.342,0.488,-34.668,-20.996,-26.855
1628133356.346,26.855,-45.898,-43.457,-7.324
1628133356.350,-55.664,-47.363,-62.012,-52.734
1628133356.353,-100.098,-26.367,-58.594,-86.914
1628133356.357,-36.133,-17.090,-27.832,-46.387
1628133356.361,31.738,-21.484,-10.742,11.719
1628133356.365,-22.461,-28.809,-24.902,-12.695
1628133356.369,-99.121,-35.156,-12.695,-70.801
1628133356.376,-66.895,-34.180,-1.465,-63.477
1628133356.380,14.648,-32.715,-29.297,-12.695
1628133356.384,0.000,-34.668,-27.344,-16.602
1628133356.388,-87.402,-31.738,-22.949,-70.312
1628133356.392,-91.797,-26.855,-39.551,-69.824
1628133356.396,11.719,-19.531,-30.762,10.254
1628133356.400,10.742,-48.340,-35.645,12.207
1628133356.403,-71.777,-57.129,-36.133,-53.711
1628133356.407,-8.789,-34.668,-26.855,-9.766
1628133356.411,-21.973,-34.668,-24.414,-13.672
1628133356.415,-106.934,-26.855,-20.020,-78.125
1628133356.419,-58.105,-19.043,-23.438,-48.828
1628133356.412,24.902,-15.625,-27.832,6.836
1628133356.416,-9.277,-25.391,-27.344,-18.066
1628133356.420,-95.215,-32.227,-35.645,-85.449
1628133356.424,-79.102,-36.621,-45.898,-78.613
1628133356.428,8.789,-34.668,-30.273,-8.301
1628133356.432,27.832,-28.320,-29.785,11.719
1628133356.436,-45.898,-38.086,-40.039,-46.387
1628133356.439,-73.730,-41.016,-23.926,-65.918
1628133356.443,-2.930,-25.391,-6.836,-8.301
1628133356.447,21.484,-35.156,-15.137,3.906
1628133356.451,-60.059,-54.199,-30.273,-57.617
1628133356.455,-100.586,-42.480,-30.273,-86.914
1628133356.469,-36.133,-28.809,-30.273,-31.738
1628133356.473,21.973,-34.668,-39.551,15.625
1628133356.477,-23.926,-35.645,-41.504,-23.438
1628133356.481,-87.402,-13.672,-39.062,-69.824
1628133356.485,-58.594,-9.766,-43.457,-51.270
1628133356.489,23.438,-20.508,-36.621,7.812
1628133356.493,19.531,-22.949,-34.180,12.207
1628133356.496,-66.895,-24.902,-32.227,-55.176
1628133356.500,-67.871,-33.203,-11.230,-57.617
1628133356.504,25.879,-21.973,-6.348,5.859
1628133356.508,34.180,-14.648,-4.395,8.789
1628133356.512,-58.105,-35.156,-17.578,-52.734
1628133356.506,-86.914,-38.086,-37.598,-82.520
1628133356.510,-22.461,-20.020,-40.039,-38.574
1628133356.514,12.207,-9.277,-35.645,-3.418
1628133356.518,-57.617,-20.996,-36.133,-45.410
1628133356.522,-108.398,-31.738,-33.691,-84.473
1628133356.526,-37.109,-26.367,-25.391,-36.621
1628133356.530,35.156,-29.785,-31.738,13.672
1628133356.533,-19.531,-40.039,-48.340,-33.691
1628133356.537,-99.121,-36.621,-49.805,-88.379
1628133356.541,-58.105,-34.180,-28.809,-55.176
1628133356.545,26.855,-28.809,-15.625,7.324
1628133356.549,14.160,-25.391,-12.207,12.207
1628133356.562,-71.777,-37.109,-19.531,-48.828
1628133356.566,-62.012,-27.832,-18.066,-47.852
1628133356.570,16.602,-14.648,-24.414,14.160
1628133356.574,19.043,-23.438,-28.809,15.137
1628133356.578,-53.711,-29.297,-26.855,-50.781
1628133356.582,-85.449,-28.809,-36.621,-79.590
1628133356.586,-31.250,-35.156,-46.387,-36.133
1628133356.589,18.066,-39.551,-35.156,3.418
1628133356.593,-32.227,-43.457,-28.320,-30.762
1628133356.597,-95.215,-31.738,-27.344,-83.984
1628133356.601,-47.852,-26.855,-20.508,-51.758
1628133356.605,31.250,-40.039,-28.809,13.672
1628133356.599,-0.488,-31.250,-40.527,-4.883
1628133356.603,-88.867,-19.043,-26.855,-73.242
1628133356.607,-74.219,-22.461,-15.625,-72.754
1628133356.611,19.043,-37.109,-8.789,2.441
1628133356.615,20.996,-50.293,-5.859,18.066
1628133356.619,-74.219,-34.668,-28.320,-47.363
1628133356.623,-91.309,-30.762,-41.992,-62.500
1628133356.626,0.977,-30.762,-27.344,-2.930
1628133356.630,40.527,-31.250,-19.531,23.926
1628133356.634,-40.527,-47.852,-51.758,-32.715
1628133356.638,-100.586,-35.156,-78.613,-82.031
1628133356.642,-28.320,-6.348,-47.363,-39.551
1628133356.656,42.480,-5.371,-5.371,20.996
1628133356.660,-31.738,-37.109,-13.184,-21.484
1628133356.664,-104.004,-46.875,-30.273,-73.730
1628133356.668,-54.199,-34.180,-24.414,-40.527
1628133356.672,27.344,-33.203,-19.043,15.625
1628133356.676,1.953,-48.340,-26.367,0.488
1628133356.680,-86.914,-51.758,-41.016,-72.266
1628133356.683,-66.406,-34.180,-57.129,-63.965
1628133356.687,20.996,-11.719,-42.480,4.883
1628133356.691,27.344,-11.230,-21.973,9.277
1628133356.695,-52.246,-13.184,-9.277,-49.805
1628133356.699,-82.520,-19.531,-13.184,-70.801
1628133356.693,-9.766,-28.809,-28.320,-14.160
1628133356.697,21.484,-24.414,-30.762,11.230
1628133356.701,-28.320,-22.461,-30.273,-35.645
1628133356.705,-55.176,-28.809,-29.297,-55.664
1628133356.709,-13.672,-28.809,-22.949,-15.137
1628133356.713,34.668,-17.090,-24.902,22.949
1628133356.717,-21.484,-22.461,-21.484,-9.766
1628133356.720,-108.398,-41.504,-14.160,-79.590
1628133356.724,-66.895,-50.293,-10.742,-62.500
1628133356.728,13.184,-37.598,-12.695,-6.836
1628133356.732,-15.137,-37.598,-35.156,-32.715
1628133356.736,-88.867,-44.922,-30.762,-86.914
1628133356.752,-76.172,-44.434,-23.438,-69.336
1628133356.756,8.301,-48.828,-30.273,0.977
1628133356.760,28.809,-39.062,-2.930,24.414
1628133356.764,-38.574,-41.504,6.836,-15.625
1628133356.768,-74.219,-52.734,-17.090,-37.598
1628133356.772,-15.137,-28.320,-27.344,0.000
1628133356.776,17.578,-17.578,-37.598,15.625
1628133356.779,-49.316,-39.551,-35.156,-37.598
1628133356.783,-97.656,-44.434,-14.648,-83.496
1628133356.787,-34.180,-33.203,-21.484,-37.598
1628133356.791,39.062,-40.527,-34.180,22.949
1628133356.795,-11.230,-40.527,-30.273,-14.648
1628133356.787,-87.891,-41.016,-19.531,-71.777
1628133356.791,-51.270,-56.152,-8.301,-49.316
1628133356.795,26.367,-40.039,-9.277,15.137
1628133356.799,11.719,-21.973,-18.066,-0.488
1628133356.803,-71.289,-27.832,-25.879,-69.824
1628133356.807,-57.129,-23.438,-38.574,-61.523
1628133356.811,32.227,-19.043,-39.062,5.371
1628133356.814,34.180,-18.066,-32.715,11.719
1628133356.818,-48.828,-20.996,-30.762,-48.828
1628133356.822,-79.590,-40.527,-16.113,-69.824
1628133356.826,-1.465,-31.250,-3.906,-12.695
1628133356.830,45.898,-28.320,-6.348,18.066
1628133356.843,-31.738,-49.316,-10.742,-37.109
1628133356.847,-104.980,-33.691,-28.320,-84.473
1628133356.851,-48.340,-7.324,-34.180,-40.527
1628133356.855,25.391,-17.578,-28.320,7.324
1628133356.859,-2.930,-29.785,-22.949,-15.625
1628133356.863,-78.125,-26.367,-34.180,-59.082
1628133356.867,-73.242,-40.039,-42.969,-44.922
1628133356.870,22.949,-38.086,-16.602,22.461
1628133356.874,6.348,-33.203,-36.133,6.836
1628133356.878,-91.797,-32.715,-52.734,-53.711
1628133356.882,-88.379,-36.133,-26.367,-45.898
1628133356.886,-12.695,-50.293,-22.949,-5.371
1628133356.881,27.344,-34.180,-23.926,20.020
1628133356.885,-33.691,-25.879,-13.672,-18.066
1628133356.889,-92.285,-35.156,-23.438,-54.199
1628133356.893,-16.602,-24.902,-24.902,-5.859
1628133356.897,49.316,-19.531,-15.625,33.203
1628133356.901,-18.066,-19.043,-19.531,-13.184
1628133356.905,-93.262,-31.250,-31.738,-66.895
1628133356.908,-50.293,-42.969,-39.551,-41.992
1628133356.912,25.391,-41.992,-37.109,6.348
1628133356.916,-10.254,-44.434,-32.715,-17.090
1628133356.920,-81.543,-36.621,-29.297,-61.035
1628133356.924,-40.039,-14.160,-21.973,-37.598
1628133356.937,55.664,-6.836,-21.484,15.625
1628133356.941,33.203,-16.113,-41.504,-1.953
1628133356.945,-70.801,-15.625,-62.500,-74.707
1628133356.949,-81.055,3.418,-55.664,-84.473
1628133356.953,10.742,4.883,-25.879,-24.902
1628133356.957,54.199,-17.578,-33.203,8.789
1628133356.961,-20.508,-33.203,-44.434,-40.527
1628133356.964,-77.637,-39.551,-44.434,-84.961
1628133356.968,-19.531,-34.180,-52.246,-40.039
1628133356.972,46.387,-4.395,-43.945,19.043
1628133356.976,6.348,1.465,-26.855,-8.301
1628133356.980,-75.684,-32.227,-31.250,-71.777
1628133356.974,-55.176,-27.344,-45.410,-68.359
1628133356.978,23.926,-16.602,-54.199,-11.719
1628133356.982,9.766,-42.480,-47.852,-19.043
1628133356.986,-77.148,-38.086,-49.805,-85.449
1628133356.990,-68.359,-22.461,-38.086,-80.566
1628133356.994,13.184,-26.855,-32.715,-24.902
1628133356.998,37.109,-20.508,-32.715,0.488
1628133357.001,-33.203,-31.738,-9.766,-36.621
1628133357.005,-90.820,-50.293,-27.832,-80.078
1628133357.009,-36.133,-41.016,-58.594,-45.898
1628133357.013,11.230,-40.527,-52.734,-10.254
1628133357.017,-37.109,-48.340,-32.227,-37.598
1628133357.031,-88.379,-33.203,-21.973,-69.824
1628133357.035,-46.387,-13.672,-34.180,-46.387
1628133357.039,35.645,-9.277,-28.320,12.207
1628133357.043,10.254,-30.762,-11.719,-11.230
1628133357.047,-80.566,-50.293,-30.273,-80.566
1628133357.051,-60.547,-26.855,-37.109,-56.641
1628133357.055,40.527,-20.020,-33.203,24.414
1628133357.058,41.992,-22.461,-31.250,23.438
1628133357.062,-53.711,-29.785,-26.367,-46.387
1628133357.066,-85.449,-45.898,-24.902,-64.941
1628133357.070,-8.301,-20.996,-36.133,-13.184
1628133357.074,22.949,-6.348,-46.875,9.277
1628133357.069,-61.523,-28.809,-39.062,-60.059
1628133357.073,-96.680,-26.367,-34.668,-79.590
1628133357.077,-38.086,-16.113,-41.016,-32.227
1628133357.081,8.301,-27.832,-51.270,-1.953
1628133357.085,-31.738,-44.434,-56.641,-32.715
1628133357.089,-103.516,-43.457,-48.828,-81.055
1628133357.093,-68.359,-18.066,-20.020,-43.945
1628133357.096,6.348,-8.301,-5.371,0.000
1628133357.100,-27.832,-37.109,-35.156,-36.133
1628133357.104,-106.934,-53.711,-51.270,-98.633
1628133357.108,-85.938,-39.551,-34.668,-80.078
1628133357.112,-8.301,-34.180,-31.250,-15.625
1628133357.125,-5.371,-35.645,-30.762,-17.090
1628133357.129,-83.984,-35.156,-31.250,-79.590
1628133357.133,-98.633,-18.066,-33.203,-88.867
1628133357.137,0.000,-3.906,-31.738,-6.836
1628133357.141,30.273,-34.180,-32.227,21.973
1628133357.145,-53.223,-48.340,-39.551,-37.109
1628133357.149,-113.281,-41.016,-50.293,-78.125
1628133357.152,-47.852,-28.320,-39.062,-39.551
1628133357.156,22.461,-25.879,-37.109,4.395
1628133357.160,-28.320,-39.062,-43.457,-25.391
1628133357.164,-96.680,-34.180,-35.156,-68.359
1628133357.168,-65.918,-38.574,-26.855,-54.688
1628133357.162,14.648,-43.457,-10.742,-4.883
1628133357.166,6.348,-34.668,-10.254,-3.906
1628133357.170,-73.242,-16.602,-20.996,-57.129
1628133357.174,-81.055,-6.836,-29.785,-63.965
1628133357.178,-2.930,-14.160,-35.645,-6.836
1628133357.182,16.113,-20.020,-20.996,-0.488
1628133357.186,-60.059,-33.691,-10.742,-53.223
1628133357.189,-89.355,-34.180,-14.160,-66.406
1628133357.193,-25.391,-21.484,-30.273,-30.273
1628133357.197,4.395,-32.715,-48.828,-11.230
1628133357.201,-45.898,-45.410,-46.875,-49.316
1628133357.205,-90.332,-32.227,-34.668,-89.844
1628133357.219,-38.086,-13.672,-21.973,-53.223
1628133357.223,12.695,-17.578,-39.062,-18.555
1628133357.227,-32.715,-34.668,-49.316,-43.945
1628133357.231,-83.984,-53.223,-32.715,-72.266
1628133357.235,-47.852,-49.316,-26.367,-40.039
1628133357.239,19.043,-26.855,-32.715,20.020
1628133357.243,-7.324,-37.109,-46.387,3.906
1628133357.246,-101.562,-57.129,-36.133,-70.801
1628133357.250,-103.027,-47.852,-14.648,-81.055
1628133357.254,-7.324,-23.926,-14.648,-24.414
1628133357.258,10.742,-20.508,-25.879,-3.906
1628133357.262,-71.289,-41.016,-30.273,-54.688
1628133357.256,-91.797,-36.621,-19.043,-69.336
1628133357.260,-8.301,-33.203,-24.902,-12.207
1628133357.264,31.250,-41.992,-39.551,19.043
1628133357.268,-38.574,-46.875,-52.734,-28.320
1628133357.272,-96.191,-51.758,-62.500,-73.242
1628133357.276,-39.551,-33.691,-45.410,-34.668
1628133357.280,26.855,-22.949,-22.949,21.973
1628133357.283,-4.395,-40.527,-17.578,8.301
1628133357.287,-79.102,-55.176,-23.926,-55.664
1628133357.291,-75.684,-38.574,-29.785,-62.500
1628133357.295,10.742,-20.020,-19.043,-1.953
1628133357.299,17.090,-40.039,-15.137,8.301
1628133357.312,-67.383,-47.852,-21.973,-44.922
1628133357.316,-83.496,-38.086,-40.527,-59.570
1628133357.320,-12.695,-42.480,-59.570,-1.953
1628133357.324,13.184,-41.992,-47.852,21.973
1628133357.328,-63.965,-37.109,-27.832,-34.668
1628133357.332,-103.027,-26.855,-22.949,-68.848
1628133357.336,-35.645,-27.832,-33.691,-31.250
1628133357.339,16.113,-26.367,-27.832,8.789
1628133357.343,-36.621,-32.715,-21.484,-25.391
1628133357.347,-93.262,-45.898,-21.484,-76.660
1628133357.351,-37.598,-29.785,-5.859,-39.062
1628133357.355,39.551,-13.184,-9.277,27.832
1628133357.351,-4.883,-28.320,-24.414,4.395
1628133357.355,-85.449,-41.992,-28.320,-44.922
1628133357.359,-58.105,-29.297,-34.180,-30.762
1628133357.363,28.320,-19.043,-41.992,28.320
1628133357.367,26.367,-28.809,-28.809,31.738
1628133357.371,-68.848,-42.969,-20.996,-49.316
1628133357.375,-88.867,-32.715,-27.344,-68.848
1628133357.378,6.348,-17.578,-10.742,3.906
1628133357.382,37.598,-32.227,-5.371,24.902
1628133357.386,-52.246,-53.711,-38.086,-40.527
1628133357.390,-108.887,-54.688,-45.898,-82.520
1628133357.394,-47.852,-34.668,-30.273,-35.156
1628133357.406,28.320,-5.859,-29.785,20.508
1628133357.410,-16.113,-11.719,-33.203,-15.137
1628133357.414,-94.727,-28.320,-17.578,-63.965
1628133357.418,-60.059,-28.809,-10.254,-32.715
1628133357.422,15.137,-27.832,-24.414,18.066
1628133357.426,-4.395,-17.090,-27.344,-0.977
1628133357.430,-84.473,-35.645,-27.344,-67.383
1628133357.433,-78.613,-51.270,-37.598,-68.848
1628133357.437,10.742,-26.855,-40.527,-13.184
1628133357.441,29.297,-21.973,-31.250,11.230
1628133357.445,-46.387,-34.668,-25.391,-35.156
1628133357.449,-78.125,-31.250,-18.555,-65.430
1628133357.462,-12.207,-30.273,-20.508,-21.484
1628133357.466,38.574,-37.598,-44.434,14.160
1628133357.470,-23.438,-28.809,-55.664,-32.715
1628133357.474,-83.984,-18.555,-39.062,-74.707
1628133357.478,-27.832,-14.648,-30.762,-26.367
1628133357.482,32.227,-21.973,-28.320,18.555
1628133357.486,-21.973,-49.316,-29.785,-23.438
1628133357.489,-96.680,-52.734,-25.391,-81.055
1628133357.493,-63.965,-33.203,-24.414,-59.570
1628133357.497,27.832,-43.457,-41.992,8.789
1628133357.501,13.672,-49.316,-57.129,-2.441
1628133357.505,-74.219,-28.809,-48.828,-63.477
1628133357.499,-62.012,-26.855,-25.879,-54.688
1628133357.503,19.531,-26.367,-12.695,2.930
1628133357.507,35.156,-25.879,-20.996,20.020
1628133357.511,-58.594,-34.668,-25.391,-47.363
1628133357.515,-97.168,-30.762,-19.043,-83.496
1628133357.519,-14.648,-20.020,-23.926,-34.180
1628133357.523,45.898,-19.043,-13.184,7.812
1628133357.526,-20.508,-34.668,-13.184,-39.551
1628133357.530,-88.867,-31.738,-15.137,-76.172
1628133357.534,-42.480,-27.344,-18.066,-33.203
1628133357.538,24.902,-33.203,-30.762,2.441
1628133357.542,-6.348,-26.855,-40.527,-28.809
1628133357.537,-91.309,-29.785,-41.016,-79.590
1628133357.541,-73.730,-35.645,-36.133,-66.895
1628133357.545,20.020,-28.320,-30.762,-2.930
1628133357.549,4.883,-54.688,-24.902,-14.160
1628133357.553,-99.121,-81.543,-20.508,-83.984
1628133357.557,-103.027,-53.711,-18.555,-80.078
1628133357.561,-7.324,-14.160,-21.973,-11.719
1628133357.564,17.090,-14.160,-15.137,4.883
1628133357.568,-62.012,-37.598,-10.742,-54.199
1628133357.572,-96.680,-38.574,-16.602,-73.730
1628133357.576,-32.227,-36.133,-21.973,-28.320
1628133357.580,23.438,-36.133,-22.949,6.836
1628133357.594,-28.809,-41.016,-38.574,-24.414
1628133357.598,-88.867,-41.016,-36.133,-72.266
1628133357.602,-41.504,-24.414,-12.207,-47.363
1628133357.606,24.902,-19.043,-22.461,6.836
1628133357.610,-2.441,-25.879,-37.598,-7.324
1628133357.614,-84.961,-38.574,-38.086,-74.219
1628133357.618,-89.844,-50.293,-33.203,-86.914
1628133357.621,0.977,-46.875,-24.902,-20.508
1628133357.625,20.996,-32.227,-32.715,1.465
1628133357.629,-61.523,-25.391,-37.598,-51.758
1628133357.633,-84.961,-27.832,-17.578,-75.684
1628133357.637,-11.230,-29.297,-12.695,-23.438
1628133357.631,22.461,-36.621,-20.508,4.883
1628133357.635,-51.758,-36.133,-28.809,-47.363
1628133357.639,-99.121,-21.484,-26.367,-80.078
1628133357.643,-33.203,-17.578,-18.555,-32.227
1628133357.647,29.785,-28.320,-23.926,23.438
1628133357.651,1.953,-28.320,-28.809,1.953
1628133357.655,-70.312,-43.457,-38.086,-60.547
1628133357.658,-51.270,-42.480,-46.387,-45.898
1628133357.662,22.949,-15.137,-43.457,10.742
1628133357.666,-5.371,-16.113,-24.902,-3.418
1628133357.670,-86.426,-27.832,-22.461,-57.617
1628133357.674,-69.824,-28.809,-28.320,-47.363
1628133357.687,-2.930,-36.133,-32.715,-2.930
1628133357.691,0.488,-44.434,-39.551,-4.395
1628133357.695,-67.383,-47.852,-27.832,-44.922
1628133357.699,-87.891,-48.828,-23.926,-51.270
1628133357.703,-6.348,-41.016,-22.949,-0.977
1628133357.707,36.621,-13.672,-17.090,24.902
1628133357.711,-42.480,-21.484,-28.809,-20.508
1628133357.714,-107.910,-40.039,-28.809,-69.336
1628133357.718,-56.641,-34.668,-20.020,-40.039
1628133357.722,8.789,-35.645,-37.598,10.742
1628133357.726,-26.367,-35.645,-47.852,-15.137
1628133357.730,-101.562,-36.621,-40.039,-74.707
1628133357.782,-74.219,-36.621,-30.273,-69.336
1628133357.786,20.508,-32.715,-20.996,-3.906
1628133357.790,20.508,-28.809,-13.672,8.301
1628133357.794,-74.219,-35.645,-33.691,-56.641
1628133357.798,-82.520,-27.832,-42.969,-57.617
1628133357.802,11.719,-17.090,-15.625,6.836
1628133357.806,21.484,-21.973,-21.973,-5.859
1628133357.809,-69.336,-40.039,-38.086,-67.871
1628133357.813,-101.074,-47.852,-34.180,-81.055
1628133357.817,-24.902,-25.391,-30.273,-27.832
1628133357.821,26.367,-10.742,-15.625,20.996
1628133357.825,-33.203,-20.508,-8.789,-17.578
1628133357.802,-74.219,-6.836,-22.949,-64.453
1628133357.806,-65.430,-15.137,-29.785,-58.105
1628133357.810,-21.484,-28.320,-20.996,-20.508
1628133357.814,14.648,-12.695,-21.484,1.465
1628133357.818,-63.477,-32.227,-30.762,-58.105
1628133357.822,-96.680,-25.879,-26.367,-79.590
1628133357.826,-24.414,-9.277,-22.949,-23.926
1628133357.829,16.602,-32.227,-30.762,4.395
1628133357.833,-42.480,-48.340,-40.527,-44.922
1628133357.837,-100.098,-40.039,-45.898,-94.238
1628133357.841,-50.293,-16.113,-46.387,-55.176
1628133357.845,22.949,-15.625,-38.086,8.301
1628133357.856,-1.953,-27.832,-35.645,-8.789
1628133357.860,-96.191,-37.598,-55.176,-82.031
1628133357.864,-98.633,-39.551,-49.805,-83.984
1628133357.868,-4.395,-33.203,-19.531,-10.742
1628133357.872,-5.371,-46.875,-14.160,-5.371
1628133357.876,-86.914,-44.434,-18.555,-65.918
1628133357.880,-95.703,-27.344,-18.066,-78.613
1628133357.883,-23.926,-29.297,-31.738,-34.668
1628133357.887,14.648,-42.480,-49.316,3.418
1628133357.891,-59.082,-53.711,-50.293,-39.062
1628133357.895,-117.676,-51.758,-41.504,-87.402
1628133357.899,-55.176,-47.363,-25.879,-55.176
1628133357.894,17.578,-33.203,-33.203,-9.277
1628133357.898,-35.156,-25.391,-61.035,-31.250
1628133357.902,-113.770,-34.668,-42.480,-85.449
1628133357.906,-70.801,-38.086,-24.414,-64.941
1628133357.910,21.973,-33.203,-35.156,0.977
1628133357.914,14.160,-33.203,-35.645,-2.441
1628133357.918,-74.707,-30.273,-35.156,-68.359
1628133357.921,-79.590,-34.180,-26.855,-74.707
1628133357.925,14.648,-32.227,-20.996,-4.395
1628133357.929,27.832,-20.508,-26.367,2.930
1628133357.933,-65.918,-27.344,-42.969,-67.383
1628133357.937,-85.938,-32.227,-49.316,-83.008
1628133357.950,-4.395,-28.320,-50.781,-23.926
1628133357.954,50.781,-31.738,-38.086,22.949
1628133357.958,-7.812,-46.875,-7.324,-17.578
1628133357.962,-83.984,-41.016,-23.438,-77.148
1628133357.966,-40.039,-16.602,-34.180,-49.316
1628133357.970,34.668,-22.461,-17.578,0.488
1628133357.974,-6.348,-41.016,-25.879,-23.438
1628133357.977,-84.961,-40.527,-38.574,-76.660
1628133357.981,-61.523,-32.227,-29.785,-65.430
1628133357.985,14.160,-37.109,-34.668,-4.883
1628133357.989,16.113,-42.969,-54.688,-4.395
1628133357.993,-67.383,-38.574,-45.410,-74.707
1628133357.987,-78.613,-19.531,-24.902,-77.637
1628133357.991,7.324,-18.555,-23.926,-7.812
1628133357.995,30.762,-41.504,-23.438,17.578
1628133357.999,-60.547,-48.828,-30.273,-48.828
1628133358.003,-97.168,-39.062,-30.762,-82.031
1628133358.007,-6.348,-11.719,-23.438,-8.301
1628133358.011,46.875,3.418,-29.785,25.879
1628133358.014,-22.949,-15.625,-30.762,-22.949
1628133358.018,-103.027,-40.039,-42.480,-84.473
1628133358.022,-59.570,-40.039,-42.480,-64.453
1628133358.026,22.461,-38.574,-27.344,-0.488
1628133358.030,-16.113,-54.199,-34.668,-17.090
1628133358.043,-95.703,-40.527,-36.133,-66.406
1628133358.047,-61.523,-23.926,-31.738,-49.805
1628133358.051,33.691,-50.781,-17.578,6.836
1628133358.055,28.320,-60.547,-20.508,1.465
1628133358.059,-61.035,-30.273,-40.527,-61.523
1628133358.063,-85.449,-18.555,-42.480,-82.520
1628133358.067,-9.277,-13.672,-35.645,-26.367
1628133358.070,38.574,-3.418,-24.414,18.066
1628133358.074,-41.504,-27.344,-33.691,-27.344
1628133358.078,-94.238,-43.945,-40.039,-63.477
1628133358.082,-27.344,-30.273,-32.227,-20.508
1628133358.086,24.902,-22.949,-18.066,20.996
1628133358.082,-28.809,-39.062,-6.836,-13.184
1628133358.086,-95.215,-45.410,-5.859,-68.359
1628133358.090,-50.781,-31.250,-26.367,-38.086
1628133358.094,23.926,-34.668,-53.223,13.672
1628133358.098,12.695,-32.227,-39.062,5.859
1628133358.102,-70.312,-11.230,-22.949,-40.039
1628133358.106,-94.727,-22.949,-28.809,-54.199
1628133358.109,-12.207,-31.738,-18.555,-8.789
1628133358.113,8.301,-42.969,-7.812,5.371
1628133358.117,-78.613,-58.594,-13.184,-59.570
1628133358.121,-107.422,-46.875,-7.812,-85.449
1628133358.125,-17.578,-40.527,-18.066,-19.531
1628133358.137,42.480,-40.527,-37.109,31.250
1628133358.141,-26.855,-46.387,-32.227,-16.602
1628133358.145,-89.844,-46.875,-32.227,-69.336
1628133358.149,-29.297,-30.762,-26.855,-18.066
1628133358.153,30.273,-38.086,-26.367,31.250
1628133358.157,-33.203,-62.988,-32.715,-17.578
1628133358.161,-111.328,-52.734,-26.855,-72.754
1628133358.164,-75.195,-34.668,-21.484,-47.852
1628133358.168,7.812,-21.484,-14.648,5.371
1628133358.172,-14.160,-35.156,-28.320,-13.184
1628133358.176,-98.633,-50.293,-33.691,-78.125
1628133358.180,-82.520,-43.457,-17.090,-66.406
1628133358.175,13.184,-45.410,-15.137,11.719
1628133358.179,34.668,-41.016,-24.902,29.785
1628133358.183,-60.059,-49.316,-38.086,-40.039
1628133358.187,-110.840,-66.895,-44.434,-81.543
1628133358.191,-26.855,-41.504,-29.297,-23.926
1628133358.195,29.785,-24.414,-8.789,20.020
1628133358.199,-56.152,-42.969,-22.461,-37.109
1628133358.202,-129.883,-35.156,-38.574,-97.656
1628133358.206,-64.941,-19.043,-30.762,-63.477
1628133358.210,22.461,-29.785,-32.227,1.953
1628133358.214,-5.859,-37.598,-30.762,-11.230
1628133358.218,-72.266,-30.762,-20.020,-62.500
1628133358.231,-53.711,-31.250,-22.949,-52.246
1628133358.235,21.484,-25.391,-20.020,11.719
1628133358.239,17.578,-27.832,-19.043,15.137
1628133358.243,-64.941,-32.227,-35.156,-43.457
1628133358.247,-72.754,-30.273,-31.738,-58.105
1628133358.251,15.625,-44.434,-18.066,0.977
1628133358.255,37.598,-49.316,-16.602,24.902
1628133358.258,-42.480,-33.203,-23.926,-37.109
1628133358.262,-77.637,-13.672,-28.320,-73.242
1628133358.266,-12.207,-15.625,-23.438,-32.715
1628133358.270,43.457,-15.625,-29.297,11.230
1628133358.274,-19.531,-9.277,-39.551,-23.438
1628133358.270,-99.609,-21.973,-52.734,-85.449
1628133358.274,-48.828,-23.438,-59.570,-59.570
1628133358.278,40.527,-20.508,-39.551,4.395
1628133358.282,8.789,-19.531,-29.297,-13.672
1628133358.286,-63.477,-27.832,-19.531,-59.570
1628133358.290,-51.270,-29.297,-19.531,-54.688
1628133358.294,35.156,-29.785,-38.574,4.395
1628133358.297,43.457,-36.621,-42.969,12.207
1628133358.301,-61.523,-34.180,-45.898,-58.594
1628133358.305,-81.543,-22.461,-42.969,-73.730
1628133358.309,9.277,-2.441,-43.457,-17.578
1628133358.313,32.715,0.977,-54.199,-1.465
1628133358.324,-56.152,-15.137,-51.270,-71.777
1628133358.328,-105.469,-25.391,-42.480,-113.281
1628133358.332,-35.645,-13.672,-49.805,-59.570
1628133358.336,36.621,-4.395,-55.176,-2.441
1628133358.340,-6.836,-2.930,-48.340,-35.156
1628133358.344,-80.566,-16.602,-46.875,-95.215
1628133358.348,-43.457,-38.086,-38.574,-73.242
1628133358.351,50.293,-41.504,-21.484,-2.441
1628133358.355,31.738,-35.645,-24.414,-1.465
1628133358.359,-77.148,-33.691,-35.156,-75.195
1628133358.363,-102.539,-32.715,-42.969,-86.914
1628133358.367,-5.371,-27.344,-31.250,-16.602
1628133358.362,21.973,-31.738,-22.949,-0.488
1628133358.366,-67.871,-38.574,-40.527,-54.199
1628133358.370,-92.773,-26.367,-41.992,-62.988
1628133358.374,-7.324,-22.949,-19.531,8.789
1628133358.378,40.039,-36.133,-10.742,48.340
1628133358.382,-27.344,-47.363,-13.672,5.859
1628133358.386,-95.703,-50.293,-24.902,-45.898
1628133358.389,-42.480,-42.969,-42.480,-24.902
1628133358.393,37.598,-30.762,-42.969,18.555
1628133358.397,-8.301,-32.715,-31.250,-2.441
1628133358.401,-88.867,-32.227,-43.945,-49.805
1628133358.405,-53.223,-18.555,-44.922,-34.180
1628133358.418,28.809,-22.949,-32.227,20.020
1628133358.422,14.160,-31.738,-27.344,11.230
1628133358.426,-71.289,-44.434,-29.297,-50.293
1628133358.430,-74.219,-48.828,-30.273,-56.152
1628133358.434,3.906,-41.504,-25.391,-0.488
1628133358.438,34.668,-18.066,-20.020,19.531
1628133358.442,-26.367,-19.531,-21.484,-28.320
1628133358.445,-68.848,-39.062,-32.227,-56.152
1628133358.449,-14.160,-28.320,-34.180,-8.301
1628133358.453,32.227,-24.902,-33.203,26.367
1628133358.457,-18.066,-26.855,-28.320,-10.254
1628133358.461,-97.168,-33.203,-40.039,-66.895
1628133358.457,-63.477,-31.738,-69.336,-43.945
1628133358.461,19.531,-11.230,-56.152,25.879
1628133358.465,-17.090,-21.484,-33.691,7.324
1628133358.469,-104.004,-42.969,-24.902,-67.383
1628133358.473,-83.984,-27.344,-8.789,-63.477
1628133358.477,8.789,-16.113,-13.672,1.953
1628133358.481,2.930,-38.086,-36.133,-2.441
1628133358.484,-90.820,-57.129,-50.293,-71.777
1628133358.488,-102.539,-38.086,-39.551,-73.730
1628133358.492,-13.184,-31.250,-13.184,-3.418
1628133358.496,18.066,-42.969,-6.348,14.160
1628133358.500,-61.035,-39.551,-25.879,-46.387
1628133358.513,-97.656,-25.879,-32.227,-75.684
1628133358.517,-27.344,-14.648,-30.762,-39.062
1628133358.521,31.250,-21.973,-42.969,-2.930
1628133358.525,-22.461,-41.992,-58.105,-30.762
1628133358.529,-89.355,-41.016,-45.410,-72.754
1628133358.533,-41.504,-34.180,-40.039,-35.156
1628133358.537,44.434,-33.691,-49.805,18.066
1628133358.540,12.695,-42.969,-38.574,-4.883
1628133358.544,-83.984,-49.805,-27.832,-60.547
1628133358.548,-79.590,-33.203,-20.020,-56.152
1628133358.552,7.324,-16.113,-12.207,3.906
1628133358.556,20.508,-16.602,-17.090,17.090
1628133358.549,-66.406,-33.203,-25.391,-38.574
1628133358.553,-100.586,-51.758,-29.297,-68.848
1628133358.557,-18.066,-41.504,-26.367,-18.066
1628133358.561,22.461,-30.273,-28.809,13.672
1628133358.565,-52.734,-39.551,-30.762,-37.598
1628133358.569,-111.816,-41.016,-37.598,-74.219
1628133358.573,-54.199,-26.367,-36.621,-24.902
1628133358.576,26.855,-4.395,-19.043,35.645
1628133358.580,-30.762,-14.648,-26.855,-7.812
1628133358.584,-103.516,-43.457,-37.109,-73.242
1628133358.588,-46.875,-39.551,-15.137,-44.922
1628133358.592,35.645,-18.066,-9.766,14.160
1628133358.607,7.324,-16.602,-25.391,0.977
1628133358.611,-85.449,-27.344,-35.645,-60.547
1628133358.615,-80.566,-22.461,-29.785,-53.223
1628133358.619,12.207,-24.414,-29.785,-0.488
1628133358.623,30.762,-30.273,-41.992,10.254
1628133358.627,-51.270,-27.344,-38.574,-38.086
1628133358.631,-79.590,-32.715,-24.902,-62.988
1628133358.634,-3.906,-40.527,-21.484,-10.742
1628133358.638,50.781,-34.668,-21.973,25.879
1628133358.642,-12.207,-32.715,-29.297,-22.949
1628133358.646,-86.914,-29.297,-31.738,-83.984
1628133358.650,-49.316,-19.043,-38.574,-66.895
1628133358.643,20.996,-13.672,-42.969,-10.254
1628133358.647,-14.160,-12.695,-34.180,-23.926
1628133358.651,-102.051,-22.949,-39.551,-80.078
1628133358.655,-99.121,-42.480,-57.129,-76.172
1628133358.659,-21.973,-33.203,-54.199,-13.672
1628133358.663,-16.602,-28.320,-36.133,-0.977
1628133358.667,-98.633,-42.969,-28.320,-71.289
1628133358.670,-112.305,-42.480,-40.039,-89.844
1628133358.674,-37.598,-44.434,-42.969,-32.715
1628133358.678,-11.230,-39.551,-26.855,-5.371
1628133358.682,-75.684,-21.973,-20.508,-39.062
1628133358.686,-119.629,-27.832,-28.320,-72.266
1628133358.700,-58.105,-37.109,-27.344,-24.414
1628133358.704,-3.906,-42.480,-27.832,25.391
1628133358.708,-56.152,-57.129,-30.273,-9.277
1628133358.712,-120.605,-58.105,-35.156,-59.082
1628133358.716,-73.242,-30.273,-33.691,-36.133
1628133358.720,13.184,-9.766,-24.902,20.996
1628133358.724,-19.043,-26.855,-27.344,1.953
1628133358.727,-101.074,-35.156,-27.832,-54.688
1628133358.731,-73.242,-23.926,-25.879,-41.016
1628133358.735,32.227,-12.207,-26.367,25.879
1628133358.739,46.875,-8.789,-29.785,35.645
1628133358.743,-43.457,-31.250,-23.926,-25.391
1628133358.738,-65.430,-39.551,-24.414,-53.711
1628133358.742,25.879,-18.066,-38.086,-4.883
1628133358.746,79.102,-20.020,-41.504,32.227
1628133358.750,5.371,-22.461,-36.621,-17.090
1628133358.754,-67.383,-20.996,-33.203,-71.777
1628133358.758,-15.137,-5.371,-40.039,-32.715
1628133358.762,54.688,14.648,-36.621,25.879
1628133358.765,-1.465,-3.906,-28.320,-8.301
1628133358.769,-74.219,-10.742,-20.508,-67.871
1628133358.773,-41.016,-14.648,-19.043,-58.594
1628133358.777,30.273,-30.762,-18.555,-9.766
1628133358.781,0.000,-46.387,-20.996,-17.578
1628133358.794,-97.168,-45.898,-23.926,-75.195
1628133358.798,-98.145,-31.250,-34.668,-80.078
1628133358.802,-6.836,-34.180,-40.527,-16.602
1628133358.806,19.043,-45.410,-39.551,6.348
1628133358.810,-59.570,-45.898,-45.410,-52.734
1628133358.814,-95.215,-29.785,-48.340,-85.938
1628133358.818,-23.926,0.000,-46.875,-39.062
1628133358.821,15.625,-1.465,-23.926,2.930
1628133358.825,-51.270,-23.438,-11.230,-33.203
1628133358.829,-106.445,-32.227,-34.180,-86.914
1628133358.833,-48.828,-23.926,-34.668,-61.523
1628133358.837,21.484,-13.672,-16.113,-5.859
1628133358.831,-37.109,-29.297,-28.320,-42.969
1628133358.835,-119.629,-41.016,-49.316,-107.422
1628133358.839,-80.078,-24.414,-52.734,-73.730
1628133358.843,17.578,-22.461,-39.062,4.883
1628133358.847,14.160,-46.875,-48.340,5.859
1628133358.851,-68.848,-55.176,-60.059,-45.410
1628133358.855,-75.684,-36.621,-41.992,-67.383
1628133358.858,0.000,-21.484,-27.344,-22.461
1628133358.862,22.949,-28.320,-28.809,3.906
1628133358.866,-50.293,-39.062,-27.344,-42.480
1628133358.870,-79.102,-29.297,-28.320,-60.059
1628133358.874,5.371,-16.113,-27.832,0.488
1628133358.887,66.895,-31.738,-22.949,36.621
1628133358.891,-4.395,-51.270,-29.297,-15.137
1628133358.895,-64.453,-47.363,-35.156,-57.617
1628133358.899,2.441,-36.133,-29.297,-7.812
1628133358.903,64.941,-30.273,-25.879,50.781
1628133358.907,34.180,-25.879,-31.738,32.227
1628133358.911,-52.734,-37.109,-40.527,-30.762
1628133358.914,-53.711,-48.340,-36.133,-26.855
1628133358.918,45.898,-44.434,-20.020,41.016
1628133358.922,43.945,-33.203,-26.367,39.062
1628133358.926,-45.898,-36.621,-35.645,-20.020
1628133358.930,-54.199,-40.527,-19.531,-20.508
1628133358.924,11.230,-26.367,-14.160,22.949
1628133358.928,42.480,-18.066,-20.508,34.180
1628133358.932,-19.531,-30.762,-10.254,-8.301
1628133358.936,-69.824,-39.062,-14.160,-41.992
1628133358.940,-1.465,-29.785,-21.484,1.465
1628133358.944,60.059,-27.344,-20.508,41.016
1628133358.948,7.812,-44.434,-23.438,7.812
1628133358.951,-59.082,-49.316,-36.133,-40.527
1628133358.955,-19.043,-39.551,-36.621,-11.719
1628133358.959,70.801,-31.250,-9.766,51.758
1628133358.963,48.340,-19.043,0.488,32.227
1628133358.967,-58.105,-39.062,-23.438,-45.898
1628133358.981,-63.477,-53.223,-41.504,-48.828
1628133358.985,33.691,-32.715,-33.691,21.973
1628133358.989,36.133,-25.879,-29.785,24.414
1628133358.993,-55.664,-30.273,-32.715,-35.645
1628133358.997,-67.383,-32.227,-23.438,-50.293
1628133359.001,29.785,-18.555,-17.090,10.742
1628133359.005,67.383,-26.367,-27.344,48.828
1628133359.008,-14.648,-37.598,-32.715,-8.301
1628133359.012,-66.895,-21.973,-37.109,-47.363
1628133359.016,2.441,-15.625,-29.297,0.000
1628133359.020,67.383,-35.156,-19.531,37.109
1628133359.024,17.090,-44.434,-16.602,10.742
1628133359.019,-56.152,-22.461,-10.742,-43.457
1628133359.023,-41.016,-12.207,-15.137,-36.621
1628133359.027,34.180,-9.766,-20.996,18.066
1628133359.031,14.160,-3.906,-27.832,6.348
1628133359.035,-76.172,-20.508,-34.668,-55.664
1628133359.039,-53.223,-26.367,-27.832,-45.898
1628133359.043,33.203,-17.578,-30.762,21.484
1628133359.046,42.969,-8.789,-40.527,28.809
1628133359.050,-33.203,-7.324,-39.062,-39.062
1628133359.054,-64.453,-9.277,-27.344,-69.824
1628133359.058,13.672,-12.695,-20.996,-15.625
1628133359.062,57.617,-28.320,-30.762,19.043
1628133359.074,-19.531,-29.785,-40.039,-27.344
1628133359.078,-80.566,-27.832,-51.270,-77.148
1628133359.082,-19.531,-25.391,-50.781,-46.387
1628133359.086,56.641,-19.531,-30.273,11.719
1628133359.090,17.090,-24.902,-28.320,-14.160
1628133359.094,-78.125,-47.852,-45.410,-84.473
1628133359.098,-52.246,-38.574,-49.805,-59.082
1628133359.101,46.875,-11.719,-33.203,14.648
1628133359.105,23.438,-11.230,-32.227,3.418
1628133359.109,-67.871,-16.113,-36.133,-59.082
1628133359.113,-71.289,-23.926,-35.156,-62.012
1628133359.117,4.883,-18.066,-33.691,-0.977
1628133359.112,25.879,-11.719,-41.016,9.766
1628133359.116,-54.688,-20.996,-51.270,-49.316
1628133359.120,-95.215,-37.109,-44.434,-82.031
1628133359.124,-19.531,-37.109,-23.926,-30.762
1628133359.128,39.062,-25.879,-24.902,18.066
1628133359.132,-24.414,-34.668,-39.551,-24.902
1628133359.136,-102.051,-45.898,-37.598,-74.707
1628133359.139,-54.688,-45.898,-26.855,-34.180
1628133359.143,18.555,-46.875,-31.738,14.160
1628133359.147,-25.391,-48.828,-54.688,-17.578
1628133359.151,-106.445,-44.434,-63.965,-77.148
1628133359.155,-87.402,-38.574,-49.805,-65.430
1628133359.172,-0.977,-39.062,-39.062,-3.906
1628133359.176,-4.883,-39.062,-39.062,-4.883
1628133359.180,-92.285,-40.527,-32.227,-61.523
1628133359.184,-99.609,-32.715,-30.762,-67.871
1628133359.188,-7.324,-21.973,-22.949,-0.977
1628133359.192,32.227,-25.879,-17.578,24.414
1628133359.196,-40.527,-36.133,-22.949,-33.691
1628133359.199,-100.098,-44.922,-31.738,-75.195
1628133359.203,-40.527,-41.504,-30.762,-28.809
1628133359.207,27.832,-30.762,-27.344,29.297
1628133359.211,-16.602,-28.809,-34.668,1.953
1628133359.215,-95.215,-26.855,-43.945,-73.242
1628133359.206,-66.406,-27.832,-52.246,-68.848
1628133359.210,20.508,-28.320,-44.922,-3.906
1628133359.214,-0.977,-35.156,-31.738,-13.184
1628133359.218,-82.031,-38.574,-30.762,-69.336
1628133359.222,-66.406,-19.043,-29.297,-56.641
1628133359.226,14.648,-10.254,-35.645,-2.441
1628133359.230,29.297,-17.578,-28.320,10.254
1628133359.233,-42.480,-19.531,-17.578,-43.457
1628133359.237,-74.219,-13.672,-27.832,-69.336
1628133359.241,-1.465,-21.973,-32.715,-18.555
1628133359.245,39.062,-29.785,-33.203,10.742
1628133359.249,-27.344,-29.297,-27.832,-33.691
1628133359.262,-77.148,-33.691,-24.414,-68.848
1628133359.266,-32.227,-34.180,-26.855,-29.785
1628133359.270,33.691,-34.180,-14.648,24.414
1628133359.274,-5.371,-32.715,-17.090,-10.254
1628133359.278,-83.008,-16.602,-37.598,-76.660
1628133359.282,-62.500,-0.488,-43.945,-59.082
1628133359.286,8.789,-0.977,-44.922,-9.277
1628133359.289,11.719,-24.414,-45.410,-7.812
1628133359.293,-57.129,-53.223,-38.086,-55.176
1628133359.297,-70.801,-47.852,-36.621,-65.918
1628133359.301,-1.953,-25.391,-38.574,-8.789
1628133359.305,15.137,-19.531,-27.344,9.766
1628133359.299,-60.547,-29.785,-20.020,-42.480
1628133359.303,-82.520,-39.551,-13.672,-60.547
1628133359.307,-22.461,-41.016,-22.461,-20.020
1628133359.311,17.090,-38.086,-43.945,12.695
1628133359.315,-28.809,-37.598,-42.480,-17.578
1628133359.319,-90.332,-35.156,-40.527,-67.383
1628133359.323,-66.895,-33.691,-40.039,-49.316
1628133359.326,-0.977,-32.227,-21.484,3.906
1628133359.330,-17.090,-36.133,-20.508,-13.184
1628133359.334,-72.754,-29.297,-27.832,-57.617
1628133359.338,-58.105,-15.625,-21.484,-42.480
1628133359.342,6.348,-33.203,-20.020,0.000
1628133359.356,9.766,-49.805,-24.902,-2.930
1628133359.360,-65.430,-38.574,-29.297,-55.176
1628133359.364,-96.191,-29.297,-40.527,-79.102
1628133359.368,-32.715,-32.715,-49.805,-40.527
1628133359.372,6.836,-29.785,-43.457,-0.488
1628133359.376,-40.527,-27.832,-28.809,-22.461
1628133359.380,-75.684,-28.809,-20.020,-59.570
1628133359.383,-28.809,-29.785,-21.973,-39.551
1628133359.387,22.461,-32.715,-27.832,-4.395
1628133359.391,-18.555,-45.898,-29.297,-28.809
1628133359.395,-82.520,-54.199,-31.738,-70.312
1628133359.399,-39.551,-29.297,-24.902,-38.086
1628133359.393,44.434,-23.926,-17.578,21.973
1628133359.397,19.043,-44.922,-30.762,5.859
1628133359.401,-66.406,-55.664,-38.574,-56.152
1628133359.405,-69.336,-50.781,-29.297,-59.570
1628133359.409,5.371,-29.297,-28.809,-4.883
1628133359.413,11.230,-34.180,-39.062,4.395
1628133359.417,-65.918,-66.406,-41.504,-62.012
1628133359.420,-91.309,-60.059,-37.598,-83.984
1628133359.424,-15.625,-15.625,-29.785,-18.555
1628133359.428,30.762,-4.395,-24.414,12.207
1628133359.432,-40.039,-33.691,-31.250,-33.691
1628133359.436,-95.703,-33.203,-29.297,-80.566
1628133359.470,-39.062,-15.625,-17.578,-50.293
1628133359.474,31.738,-26.367,-23.926,12.207
1628133359.478,-5.371,-38.086,-39.062,-0.488
1628133359.482,-87.891,-43.457,-45.898,-73.242
1628133359.486,-65.918,-36.133,-33.203,-70.801
1628133359.490,6.348,-22.461,-29.785,-15.137
1628133359.494,-9.766,-48.340,-36.133,-31.250
1628133359.497,-73.730,-62.500,-30.762,-76.172
1628133359.501,-71.777,-25.391,-28.809,-76.172
1628133359.505,12.207,-8.789,-28.320,-10.254
1628133359.509,39.062,-16.113,-22.949,26.855
1628133359.513,-56.641,-14.160,-23.926,-44.922
1628133359.488,-104.980,-20.508,-27.344,-91.797
1628133359.492,-46.387,-15.625,-28.320,-55.664
1628133359.496,-1.465,-13.184,-24.902,-18.555
1628133359.500,-40.039,-19.043,-22.461,-37.598
1628133359.504,-92.773,-22.461,-31.738,-79.102
1628133359.508,-40.039,-37.109,-36.133,-42.969
1628133359.512,34.180,-35.645,-20.508,12.695
1628133359.515,-16.113,-34.180,-5.859,-20.996
1628133359.519,-99.609,-36.133,-11.719,-76.660
1628133359.523,-62.500,-15.625,-17.090,-60.059
1628133359.527,22.949,-22.461,-12.695,-7.324
1628133359.531,3.906,-42.969,-20.508,-13.184
1628133359.543,-74.707,-33.691,-36.133,-69.824
1628133359.547,-77.637,-33.203,-39.551,-77.148
1628133359.551,2.441,-34.180,-35.156,-14.648
1628133359.555,5.371,-27.832,-36.133,-4.883
1628133359.559,-68.359,-30.762,-29.297,-61.035
1628133359.563,-83.984,-48.340,-21.973,-78.613
1628133359.567,-7.324,-35.645,-27.832,-20.996
1628133359.570,20.996,-11.230,-22.949,-1.465
1628133359.574,-66.406,-22.461,-19.531,-62.012
1628133359.578,-123.047,-41.504,-23.926,-98.145
1628133359.582,-85.449,-37.109,-17.090,-77.148
1628133359.586,-30.273,-30.762,-20.508,-45.410
1628133359.581,-70.801,-39.551,-33.203,-73.730
1628133359.585,-151.367,-52.246,-28.320,-131.836
1628133359.589,-111.816,-44.922,-10.742,-97.656
1628133359.593,-33.203,-43.945,-19.043,-50.293
1628133359.597,-70.312,-76.660,-33.203,-88.379
1628133359.601,-170.410,-77.148,-49.316,-148.438
1628133359.605,-174.805,-45.410,-47.363,-151.367
1628133359.608,-92.285,-43.945,-39.551,-104.492
1628133359.612,-54.688,-47.363,-52.734,-72.266
1628133359.616,-103.027,-38.086,-53.711,-94.727
1628133359.620,-135.742,-35.156,-31.250,-125.000
1628133359.624,-78.613,-30.273,-15.625,-80.566
1628133359.638,-24.414,-42.480,-25.879,-27.832
1628133359.642,-62.012,-55.664,-45.898,-59.570
1628133359.646,-125.000,-51.270,-46.875,-106.934
1628133359.650,-84.961,-34.180,-42.480,-74.219
1628133359.654,4.883,-19.043,-51.270,0.000
1628133359.658,-19.043,-41.504,-37.598,-2.930
1628133359.662,-99.121,-55.176,-0.977,-65.918
1628133359.665,-99.121,-50.781,1.953,-72.754
1628133359.669,-31.250,-41.992,-29.785,-24.414
1628133359.673,-10.254,-29.785,-27.832,-3.906
1628133359.677,-82.031,-46.387,-9.277,-58.105
1628133359.681,-115.234,-62.988,-29.297,-85.449
1628133359.676,-38.574,-45.410,-37.598,-23.926
1628133359.680,19.531,-20.020,-22.461,12.207
1628133359.684,-45.898,-34.180,-34.180,-42.480
1628133359.688,-110.352,-36.621,-40.527,-95.215
1628133359.692,-46.387,-23.926,-31.250,-44.434
1628133359.696,33.203,-33.203,-22.461,30.273
1628133359.700,-20.020,-46.387,-11.719,-3.906
1628133359.703,-103.027,-49.805,-29.785,-75.684
1628133359.707,-66.406,-37.109,-49.316,-53.223
1628133359.711,11.719,-24.414,-25.391,2.441
1628133359.715,3.906,-21.484,-1.465,-8.789
1628133359.719,-75.195,-28.320,-15.625,-66.406
1628133359.732,-85.449,-36.621,-26.855,-72.266
1628133359.736,2.441,-33.203,-13.184,-12.207
1628133359.740,20.508,-27.344,-28.809,-0.488
1628133359.744,-62.012,-31.250,-41.504,-50.781
1628133359.748,-90.332,-33.203,-30.273,-70.801
1628133359.752,-15.137,-34.668,-37.598,-15.137
1628133359.756,28.809,-48.340,-39.551,22.461
1628133359.759,-28.320,-54.688,-30.762,-20.020
1628133359.763,-70.801,-35.645,-32.715,-52.734
1628133359.767,-20.020,-19.043,-25.391,-15.137
1628133359.771,40.039,-29.785,-27.344,32.715
1628133359.775,0.977,-36.621,-43.945,5.371
1628133359.771,-70.801,-34.180,-45.898,-56.152
1628133359.775,-46.875,-43.457,-35.645,-41.992
1628133359.779,27.832,-38.574,-20.996,13.672
1628133359.783,16.113,-31.250,-15.625,8.301
1628133359.787,-60.547,-42.480,-43.457,-51.270
1628133359.791,-60.547,-37.598,-44.922,-58.594
1628133359.795,12.207,-19.531,-24.414,-6.348
1628133359.798,25.879,-22.949,-31.738,5.371
1628133359.802,-46.875,-46.387,-41.992,-46.875
1628133359.806,-91.797,-57.617,-44.434,-80.078
1628133359.810,-35.645,-34.180,-33.203,-41.016
1628133359.814,33.203,-15.625,-15.625,14.648
1628133359.826,-3.418,-44.922,-20.996,4.395
1628133359.830,-85.938,-78.613,-34.668,-58.594
1628133359.834,-65.430,-54.199,-29.297,-47.852
1628133359.838,14.160,-26.367,-24.902,8.301
1628133359.842,0.000,-35.645,-26.855,0.977
1628133359.846,-52.246,-29.785,-39.062,-35.156
1628133359.850,-51.758,-21.484,-61.035,-49.316
1628133359.853,8.789,-11.230,-31.738,-13.184
1628133359.857,24.902,-17.578,0.488,12.695
1628133359.861,-44.922,-36.621,-17.578,-28.320
1628133359.865,-83.496,-31.738,-45.898,-56.641
1628133359.869,-41.016,-33.691,-46.387,-25.879
1628133359.864,12.207,-37.598,-28.320,16.602
1628133359.868,-20.996,-46.387,-17.090,-10.742
1628133359.872,-81.055,-45.898,-24.414,-61.523
1628133359.876,-40.527,-12.695,-38.574,-38.086
1628133359.880,21.973,0.488,-32.227,0.488
1628133359.884,-4.395,-7.812,-32.227,-14.160
1628133359.888,-71.777,-14.648,-48.340,-60.547
1628133359.891,-58.594,-17.090,-59.570,-55.664
1628133359.895,12.207,-26.367,-43.945,3.418
1628133359.899,14.160,-26.855,-18.066,13.672
1628133359.903,-51.270,-40.039,-15.625,-36.133
1628133359.907,-67.871,-61.035,-30.273,-58.105
1628133359.919,7.812,-44.922,-39.062,-10.742
1628133359.923,31.738,-30.762,-41.992,3.906
1628133359.927,-36.133,-25.879,-37.109,-41.016
1628133359.931,-68.848,-15.625,-22.461,-63.965
1628133359.935,-9.766,-4.395,-17.578,-18.555
1628133359.939,32.715,-16.113,-32.227,16.113
1628133359.943,-20.996,-46.875,-45.410,-26.855
1628133359.946,-73.242,-52.734,-23.926,-64.453
1628133359.950,-46.875,-37.598,-12.207,-46.387
1628133359.954,20.020,-35.645,-9.766,8.301
1628133359.958,11.719,-32.715,-6.348,6.348
1628133359.962,-59.082,-14.160,-25.391,-55.664
1628133359.957,-62.500,-16.113,-44.922,-61.523
1628133359.961,-6.836,-25.391,-41.504,-16.602
1628133359.965,-2.441,-22.949,-33.691,-8.789
1628133359.969,-50.781,-31.250,-26.367,-46.387
1628133359.973,-52.734,-32.715,-11.719,-48.828
1628133359.977,17.090,-30.762,-24.902,3.906
1628133359.981,41.504,-20.996,-38.086,20.020
1628133359.984,-33.691,-14.160,-39.062,-41.992
1628133359.988,-92.773,-37.598,-53.223,-90.332
1628133359.992,-29.297,-26.367,-33.203,-39.551
1628133359.996,21.484,-30.273,-15.625,2.930
1628133360.000,-36.133,-46.875,-32.227,-35.645
1628133360.015,-85.449,-32.715,-28.809,-69.824
1628133360.019,-50.293,-23.438,-18.066,-51.270
1628133360.023,17.090,-21.973,-23.438,-6.348
1628133360.027,-1.953,-31.250,-29.297,-13.672
1628133360.031,-77.148,-44.922,-34.180,-59.570
1628133360.035,-73.242,-42.480,-35.645,-55.176
1628133360.039,5.859,-27.344,-34.668,-7.324
1628133360.042,8.789,-30.273,-31.250,0.488
1628133360.046,-69.824,-34.668,-42.969,-59.082
1628133360.050,-68.359,-20.020,-31.250,-64.453
1628133360.054,0.000,-35.645,-16.113,-8.789
1628133360.058,5.859,-42.969,-31.250,5.859
1628133360.053,-60.059,-36.621,-51.270,-41.504
1628133360.057,-87.402,-17.090,-50.293,-67.871
1628133360.061,-16.602,2.441,-35.156,-15.625
1628133360.065,40.039,-5.371,-31.250,25.391
1628133360.069,-15.625,-31.738,-30.273,-10.742
1628133360.073,-83.008,-41.016,-24.902,-57.129
1628133360.077,-50.781,-32.715,-37.598,-41.992
1628133360.080,24.414,-31.250,-46.387,20.508
1628133360.084,4.395,-32.227,-41.504,14.648
1628133360.088,-68.359,-31.738,-40.039,-47.852
1628133360.092,-63.965,-34.180,-22.949,-56.152
1628133360.096,18.066,-43.457,-14.160,-2.930
1628133360.106,30.762,-48.828,-29.785,11.230
1628133360.110,-56.152,-47.363,-32.227,-49.805
1628133360.114,-81.543,-44.434,-32.715,-71.777
1628133360.118,-11.719,-30.273,-43.457,-20.020
1628133360.122,33.203,-8.301,-24.902,19.531
1628133360.126,-27.344,-25.879,-14.648,-18.066
1628133360.130,-79.102,-38.086,-37.109,-51.758
1628133360.133,-19.531,-6.836,-40.039,-9.766
1628133360.137,47.363,-6.836,-27.344,55.664
1628133360.141,-2.441,-27.344,-29.785,20.996
1628133360.145,-102.539,-34.668,-50.781,-75.195
1628133360.149,-62.500,-28.809,-34.668,-45.898
1628133360.143,36.621,-30.273,-7.324,22.949
1628133360.147,0.488,-46.875,-21.484,-6.836
1628133360.151,-97.168,-56.641,-32.227,-82.520
1628133360.155,-80.566,-48.340,-27.832,-76.660
1628133360.159,6.348,-20.508,-36.621,-6.836
1628133360.163,19.531,-0.977,-42.969,5.371
1628133360.167,-57.617,-11.719,-44.922,-60.547
1628133360.170,-85.449,-17.578,-50.293,-84.473
1628133360.174,0.488,-19.531,-49.805,-22.949
1628133360.178,38.086,-39.551,-39.551,6.348
1628133360.182,-37.598,-33.203,-28.809,-41.016
1628133360.186,-93.750,-32.715,-30.762,-87.402
1628133360.205,-38.574,-48.340,-28.809,-53.223
1628133360.209,27.832,-34.180,-26.855,-1.953
1628133360.213,-22.461,-27.832,-31.250,-32.715
1628133360.217,-97.656,-35.645,-28.809,-83.008
1628133360.221,-66.406,-28.809,-21.484,-67.383
1628133360.225,16.113,-14.648,-12.207,0.488
1628133360.229,6.836,-11.230,-19.531,2.441
1628133360.232,-84.961,-31.738,-36.133,-65.430
1628133360.236,-95.703,-41.504,-41.992,-74.707
1628133360.240,-2.441,-20.996,-21.973,0.977
1628133360.244,36.133,-19.531,-14.160,36.133
1628133360.248,-43.457,-47.363,-33.691,-29.785
1628133360.257,-95.215,-51.270,-42.480,-72.266
1628133360.261,-22.949,-20.020,-28.320,-17.578
1628133360.265,38.574,-12.207,-14.160,22.461
1628133360.269,-20.996,-43.457,-19.531,-29.785
1628133360.273,-92.773,-46.875,-25.391,-87.402
1628133360.277,-59.082,-33.203,-23.926,-55.176
1628133360.281,19.043,-21.973,-36.133,6.836
1628133360.284,-14.648,-18.555,-60.059,-25.879
1628133360.288,-95.703,-32.227,-49.316,-87.402
1628133360.292,-64.941,-28.809,-26.855,-59.082
1628133360.296,26.367,-23.926,-21.973,7.812
1628133360.300,20.996,-37.109,-28.809,6.836
1628133360.315,-83.496,-46.875,-41.016,-73.730
1628133360.319,-98.145,-21.973,-37.109,-85.449
1628133360.323,-3.906,-13.184,-22.461,-7.324
1628133360.327,29.297,-41.016,-21.973,20.996
1628133360.331,-54.199,-44.922,-43.945,-37.109
1628133360.335,-105.957,-33.203,-49.316,-91.797
1628133360.339,-41.504,-27.832,-33.203,-62.988
1628133360.342,19.043,-29.297,-24.902,-11.230
1628133360.346,-31.738,-35.645,-39.062,-41.992
1628133360.350,-95.703,-37.109,-35.645,-93.750
1628133360.354,-52.246,-27.832,-27.344,-58.594
1628133360.358,24.414,-38.086,-35.645,8.789
1628133360.338,-6.836,-51.270,-35.645,-14.648
1628133360.342,-88.379,-46.387,-36.133,-77.637
1628133360.346,-67.871,-34.668,-35.645,-60.547
1628133360.350,28.320,-17.578,-37.598,17.090
1628133360.354,28.320,-22.949,-34.668,17.578
1628133360.358,-62.500,-41.504,-22.461,-52.734
1628133360.362,-93.262,-52.246,-19.531,-75.684
1628133360.365,-25.879,-47.852,-27.832,-29.785
1628133360.369,19.531,-39.062,-26.855,1.465
1628133360.373,-25.391,-30.273,-19.043,-24.414
1628133360.377,-71.289,-15.625,-19.043,-49.805
1628133360.381,-26.367,0.000,-13.672,-14.648
1628133360.388,32.715,-8.789,-12.207,27.832
1628133360.392,-11.719,-32.227,-28.809,-11.719
1628133360.396,-79.102,-36.621,-43.945,-65.430
1628133360.400,-58.594,-29.785,-53.711,-46.875
1628133360.404,10.742,-22.949,-43.945,9.766
1628133360.408,0.977,-38.574,-22.949,3.906
1628133360.412,-82.031,-61.523,-14.648,-64.941
1628133360.415,-87.402,-47.852,-20.996,-73.242
1628133360.419,-9.277,-20.996,-31.250,-12.695
1628133360.423,14.160,-22.461,-39.551,5.371
1628133360.427,-48.828,-39.062,-43.945,-41.016
1628133360.431,-81.543,-28.809,-46.387,-73.730
1628133360.424,-28.809,-19.043,-34.180,-26.855
1628133360.428,17.090,-19.043,-12.207,21.973
1628133360.432,-36.133,-19.531,-12.207,-18.555
1628133360.436,-91.797,-20.020,-17.578,-70.801
1628133360.440,-29.785,-13.672,-29.297,-26.855
1628133360.444,37.598,-12.695,-53.711,25.879
1628133360.448,-10.742,-34.180,-57.129,-4.883
1628133360.451,-84.473,-48.340,-39.551,-52.734
1628133360.455,-65.918,-29.785,-31.250,-50.781
1628133360.459,23.926,-9.766,-23.926,1.953
1628133360.463,22.949,-19.043,-20.508,2.930
1628133360.467,-69.824,-34.180,-36.133,-65.430
1628133360.482,-71.777,-21.973,-43.457,-79.102
1628133360.486,22.461,-10.742,-16.602,-1.465
1628133360.490,42.480,-29.297,-6.348,26.367
1628133360.494,-48.340,-40.527,-30.273,-40.039
1628133360.498,-94.238,-25.879,-31.250,-68.359
1628133360.502,-30.273,-19.043,-42.480,-22.461
1628133360.506,20.508,-11.719,-46.875,9.277
1628133360.509,-23.926,-13.672,-26.367,-22.949
1628133360.513,-79.102,-28.809,-20.020,-60.059
1628133360.517,-50.293,-42.480,-31.250,-49.316
1628133360.521,17.090,-41.992,-43.457,0.977
1628133360.525,4.395,-36.133,-34.668,4.883
1628133360.557,-70.312,-31.738,-23.926,-58.594
1628133360.561,-63.477,-9.766,-25.879,-51.758
1628133360.565,8.789,7.812,-39.551,4.883
1628133360.569,12.207,-19.043,-41.016,3.418
1628133360.573,-57.617,-38.086,-31.738,-47.363
1628133360.577,-77.637,-23.926,-41.016,-58.105
1628133360.581,-4.883,-20.996,-38.574,-10.254
1628133360.584,29.785,-32.715,-33.691,8.301
1628133360.588,-50.293,-52.246,-38.574,-49.316
1628133360.592,-90.332,-33.203,-30.273,-79.590
1628133360.596,-12.695,5.371,-13.184,-20.020
1628133360.600,22.461,-9.766,-15.625,0.977
1628133360.575,-10.742,-41.992,-30.273,-19.531
1628133360.579,23.926,-32.715,-31.250,18.066
1628133360.583,8.789,-20.996,-42.969,8.789
1628133360.587,-71.289,-28.320,-53.711,-62.012
1628133360.591,-67.383,-41.504,-33.691,-61.523
1628133360.595,10.742,-38.086,-21.484,-0.488
1628133360.599,19.531,-17.090,-29.297,8.301
1628133360.602,-58.105,-16.113,-37.598,-45.410
1628133360.606,-76.660,-23.926,-38.086,-51.270
1628133360.610,2.930,-26.367,-29.785,7.324
1628133360.614,39.551,-35.156,-15.625,24.902
1628133360.618,-33.691,-43.457,-8.789,-28.809
1628133360.630,-81.543,-38.574,-15.137,-64.941
1628133360.634,-30.762,-32.227,-33.691,-31.250
1628133360.638,31.738,-41.504,-51.270,8.301
1628133360.642,0.000,-39.551,-41.992,-7.812
1628133360.646,-83.984,-47.852,-20.508,-63.965
1628133360.650,-39.551,-47.363,-20.020,-37.598
1628133360.654,46.875,-19.043,-30.273,28.809
1628133360.657,10.254,-17.090,-16.602,12.695
1628133360.661,-74.707,-27.832,-12.207,-50.293
1628133360.665,-84.961,-25.391,-39.551,-67.383
1628133360.669,-7.812,-15.137,-39.551,-10.254
1628133360.673,15.625,-18.066,-29.297,6.836
1628133360.668,-55.176,-30.762,-29.297,-48.340
1628133360.672,-97.168,-44.434,-28.809,-74.707
1628133360.676,-24.902,-34.668,-31.738,-21.973
1628133360.680,27.832,-34.180,-31.738,11.230
1628133360.684,-23.438,-36.621,-20.508,-25.879
1628133360.688,-69.336,-22.461,-19.531,-53.223
1628133360.692,-19.043,-36.133,-32.227,-14.648
1628133360.695,66.406,-35.645,-18.066,54.199
1628133360.699,21.484,-44.922,-18.066,13.184
1628133360.703,-89.355,-74.219,-36.621,-86.426
1628133360.707,-64.453,-62.500,-35.156,-62.988
1628133360.711,20.508,-48.340,-42.480,4.395
1628133360.725,2.930,-41.016,-49.316,-7.324
1628133360.729,-88.379,-35.645,-47.852,-68.359
1628133360.733,-90.332,-21.973,-37.598,-72.754
1628133360.737,-1.465,-15.137,-37.109,-20.996
1628133360.741,35.645,-35.156,-41.016,7.324
1628133360.745,-39.551,-46.875,-38.574,-40.527
1628133360.749,-92.285,-49.316,-38.086,-78.125
1628133360.752,-13.184,-30.273,-27.344,-12.695
1628133360.756,42.969,-23.438,-24.414,24.414
1628133360.760,-29.785,-34.180,-30.273,-29.785
1628133360.764,-100.098,-32.227,-36.621,-77.637
1628133360.768,-49.316,-29.297,-25.879,-42.969
1628133360.762,35.645,-41.504,-10.254,20.020
1628133360.766,-6.836,-56.641,-24.414,-12.207
1628133360.770,-99.609,-41.504,-41.504,-81.055
1628133360.774,-73.242,-24.414,-50.293,-61.523
1628133360.778,30.273,-9.277,-53.223,10.742
1628133360.782,35.156,-5.859,-28.320,16.602
1628133360.786,-69.824,-29.297,-18.066,-58.594
1628133360.789,-99.609,-32.715,-26.855,-90.332
1628133360.793,-26.367,-32.227,-31.738,-46.387
1628133360.797,16.113,-32.715,-34.668,-18.066
1628133360.801,-51.758,-32.227,-33.691,-59.570
1628133360.805,-95.703,-33.691,-22.461,-85.938
1628133360.821,-29.297,-22.461,-17.090,-43.457
1628133360.825,24.902,-28.320,-36.621,-7.812
1628133360.829,-22.949,-39.062,-46.875,-27.832
1628133360.833,-105.469,-25.879,-43.945,-78.613
1628133360.837,-62.988,-0.488,-21.484,-49.805
1628133360.841,19.043,-6.836,-21.484,17.090
1628133360.845,-12.695,-34.668,-25.879,-10.254
1628133360.848,-94.727,-42.480,-15.625,-86.914
1628133360.852,-85.449,-35.156,-22.461,-78.613
1628133360.856,10.254,-30.273,-31.738,1.953
1628133360.860,20.020,-30.762,-40.039,12.207
1628133360.864,-77.637,-31.250,-28.809,-60.059
1628133360.856,-102.051,-11.230,-10.742,-80.078
1628133360.860,-5.371,-3.418,0.488,-4.883
1628133360.864,34.180,-25.879,-12.695,27.832
1628133360.868,-42.480,-49.805,-33.691,-32.227
1628133360.872,-103.027,-45.410,-30.273,-76.660
1628133360.876,-54.199,-21.484,-32.227,-39.551
1628133360.880,11.719,-20.508,-35.156,5.859
1628133360.883,-8.301,-11.719,-21.484,-8.789
1628133360.887,-78.125,-25.879,-20.508,-55.664
1628133360.891,-62.988,-47.363,-38.574,-40.039
1628133360.895,30.762,-27.832,-36.133,24.414
1628133360.899,2.441,-40.039,-37.109,3.418
1628133360.912,-89.844,-41.504,-18.066,-62.012
1628133360.916,-77.637,-10.254,0.977,-65.918
1628133360.920,0.488,-0.488,-7.812,-14.648
1628133360.924,17.578,-5.371,-9.766,1.465
1628133360.928,-60.059,-22.461,-12.695,-49.805
1628133360.932,-86.914,-38.086,-19.531,-71.289
1628133360.936,-18.555,-52.734,-32.227,-23.438
1628133360.939,28.320,-42.969,-43.945,15.625
1628133360.943,-23.926,-36.621,-42.969,-20.996
1628133360.947,-93.262,-40.527,-40.039,-83.496
1628133360.951,-48.828,-20.508,-51.270,-56.152
1628133360.955,24.902,-11.230,-45.898,14.160
1628133360.949,-9.766,-17.090,-24.414,-10.742
1628133360.953,-89.844,-35.156,-14.648,-81.543
1628133360.957,-68.359,-41.504,-19.043,-68.848
1628133360.961,19.531,-17.578,-29.785,-4.883
1628133360.965,19.531,-25.391,-37.109,1.953
1628133360.969,-70.801,-43.945,-37.598,-53.223
1628133360.973,-99.609,-31.738,-37.598,-80.078
1628133360.976,-12.695,-24.902,-28.320,-24.902
1628133360.980,19.043,-37.109,-38.086,1.953
1628133360.984,-57.129,-38.086,-47.852,-55.176
1628133360.988,-101.562,-40.527,-35.645,-93.262
1628133360.992,-41.504,-41.504,-37.598,-48.828
1628133361.006,29.297,-22.461,-26.855,2.441
1628133361.010,6.348,-17.090,-14.160,-12.695
1628133361.014,-67.383,-14.160,-26.367,-64.453
1628133361.018,-48.340,-5.859,-47.852,-50.781
1628133361.022,26.367,-21.484,-63.477,11.230
1628133361.026,-5.371,-47.852,-62.012,-7.324
1628133361.030,-101.074,-66.895,-47.852,-72.266
1628133361.033,-87.402,-35.645,-16.113,-70.801
1628133361.037,1.953,-9.766,-4.395,-9.766
1628133361.041,-0.488,-29.297,-29.785,0.488
1628133361.045,-47.363,-32.227,-14.648,-27.832
1628133361.049,-82.520,-37.598,-5.859,-63.965
1628133361.044,-57.129,-37.598,-33.203,-52.246
1628133361.048,-15.137,-29.297,-37.109,-12.207
1628133361.052,-71.289,-30.273,-31.250,-49.805
1628133361.056,-119.141,-34.668,-33.691,-81.055
1628133361.060,-47.363,-29.297,-26.855,-38.086
1628133361.064,20.020,-19.531,-34.668,7.324
1628133361.068,-30.762,-20.996,-32.715,-16.602
1628133361.071,-108.398,-35.645,0.000,-74.219
1628133361.075,-94.727,-52.734,-11.719,-82.031
1628133361.079,-16.113,-45.898,-27.832,-36.133
1628133361.083,-26.855,-33.203,-30.273,-38.086
1628133361.087,-100.586,-47.363,-34.668,-80.078
1628133361.106,-81.543,-64.453,-27.344,-64.941
1628133361.110,-2.930,-48.828,-33.691,-12.695
1628133361.114,0.000,-27.344,-41.504,-14.160
1628133361.118,-83.496,-19.531,-41.992,-74.707
1628133361.122,-105.957,-9.277,-38.574,-80.078
1628133361.126,-17.090,-0.977,-42.969,-11.719
1628133361.130,33.691,-15.625,-44.434,23.926
1628133361.133,-32.715,-37.109,-47.852,-27.832
1628133361.137,-95.703,-49.316,-48.828,-85.449
1628133361.141,-48.828,-38.574,-27.344,-55.664
1628133361.145,20.508,-30.762,-24.902,-10.254
1628133361.149,-19.043,-35.645,-36.621,-40.039
1628133361.138,-89.844,-23.926,-31.250,-81.055
1628133361.142,-62.500,-14.160,-25.391,-50.293
1628133361.146,10.742,-24.414,-34.180,-5.371
1628133361.150,3.906,-23.438,-40.527,-8.789
1628133361.154,-71.289,-26.855,-40.527,-54.688
1628133361.158,-81.055,-32.715,-57.129,-62.988
1628133361.162,-5.371,-18.066,-56.641,-12.207
1628133361.165,12.695,-15.625,-38.086,-11.719
1628133361.169,-71.289,-33.691,-39.551,-74.707
1628133361.173,-111.328,-39.551,-39.062,-103.516
1628133361.177,-41.016,-32.715,-31.738,-48.340
1628133361.181,17.578,-32.227,-38.574,-5.371
1628133361.193,-23.438,-29.297,-34.180,-36.133
1628133361.197,-70.801,-32.227,-25.879,-72.266
1628133361.201,-30.762,-32.715,-37.598,-37.598
1628133361.205,24.414,-39.062,-47.852,22.461
1628133361.209,-14.160,-49.316,-40.527,0.000
1628133361.213,-89.355,-28.320,-27.832,-66.406
1628133361.217,-61.523,-18.555,-39.062,-62.500
1628133361.220,15.625,-29.785,-49.316,-7.812
1628133361.224,1.953,-32.227,-34.668,-11.719
1628133361.228,-74.707,-33.691,-33.203,-76.660
1628133361.232,-76.172,-26.855,-39.551,-77.637
1628133361.236,29.297,-0.488,-29.785,7.812
1628133361.231,69.336,-17.090,-40.527,41.992
1628133361.235,-13.672,-42.480,-47.363,-19.043
1628133361.239,-63.965,-34.180,-15.625,-50.781
1628133361.243,6.836,-17.578,4.395,8.789
1628133361.247,62.500,-18.066,-19.531,47.363
1628133361.251,-6.348,-39.062,-34.668,-1.953
1628133361.255,-84.473,-42.969,-32.227,-65.430
1628133361.258,-53.223,-22.461,-33.691,-55.664
1628133361.262,23.926,-10.742,-26.367,7.324
1628133361.266,6.836,-21.484,-36.621,-2.441
1628133361.270,-69.824,-29.785,-35.645,-65.918
1628133361.274,-53.223,-27.344,-29.297,-48.340
1628133361.288,40.527,-20.996,-33.691,25.391
1628133361.292,46.387,-30.762,-35.156,30.762
1628133361.296,-38.086,-27.344,-36.133,-28.320
1628133361.300,-63.965,-14.648,-31.738,-47.363
1628133361.304,6.348,-18.066,-28.809,8.301
1628133361.308,57.617,-35.645,-30.762,55.176
1628133361.312,-20.996,-53.711,-46.387,-7.812
1628133361.315,-92.773,-38.086,-41.504,-61.035
1628133361.319,-24.902,-9.766,-22.949,-16.602
1628133361.323,56.641,-13.184,-20.508,27.344
1628133361.327,12.695,-20.508,-23.438,-0.488
1628133361.331,-74.707,-28.809,-30.273,-63.477
1628133361.327,-45.410,-37.598,-42.480,-41.992
1628133361.331,41.504,-36.133,-30.273,35.156
1628133361.335,22.461,-34.180,-16.113,26.855
1628133361.339,-67.871,-39.551,-20.020,-43.457
1628133361.343,-64.453,-39.062,-16.113,-46.875
1628133361.347,10.254,-31.250,-18.555,0.000
1628133361.351,21.973,-29.785,-19.531,10.742
1628133361.354,-59.570,-29.297,-39.551,-52.734
1628133361.358,-101.562,-28.320,-41.504,-85.938
1628133361.362,-29.785,-40.527,-23.438,-29.785
1628133361.366,28.809,-35.645,-28.809,13.184
1628133361.370,-24.902,-9.766,-24.902,-18.066
1628133361.381,-97.656,-12.207,-27.344,-73.242
1628133361.385,-62.988,-24.902,-18.555,-49.805
1628133361.389,16.602,-21.484,-1.953,9.766
1628133361.393,-24.902,-41.992,-28.809,-19.531
1628133361.397,-101.562,-43.945,-34.180,-71.289
1628133361.401,-62.500,-13.672,-20.996,-47.363
1628133361.405,29.785,-9.766,-30.273,9.277
1628133361.408,14.160,-27.832,-34.180,5.371
1628133361.412,-83.496,-37.109,-24.414,-58.594
1628133361.416,-78.125,-38.086,-17.578,-57.617
1628133361.420,15.137,-40.039,-22.949,5.371
1628133361.424,29.297,-48.340,-37.109,12.207
1628133361.420,-40.039,-49.805,-31.738,-42.480
1628133361.424,-75.195,-31.250,-24.414,-71.777
1628133361.428,-21.484,-21.484,-27.344,-24.902
1628133361.432,36.133,-28.809,-17.578,32.227
1628133361.436,-21.484,-30.273,-28.809,-12.695
1628133361.440,-105.469,-29.297,-33.691,-79.102
1628133361.444,-73.242,-27.832,-31.738,-57.129
1628133361.447,7.812,-23.926,-31.738,-3.418
1628133361.451,-0.488,-35.645,-26.855,-4.395
1628133361.455,-71.289,-40.527,-40.039,-57.617
1628133361.459,-68.848,-36.133,-34.668,-62.988
1628133361.463,8.789,-37.109,-35.156,-1.465
1628133361.479,38.574,-33.691,-39.062,16.113
1628133361.483,-26.855,-42.969,-26.855,-44.434
1628133361.487,-65.918,-41.504,-25.879,-59.082
