timestamps,TP9,AF7,AF8,TP10
1628133219.182,-105.469,-26.855,-11.230,-82.520
1628133219.186,-63.965,-18.555,-23.926,-43.945
1628133219.190,21.973,-30.273,-37.109,20.020
1628133219.194,-7.812,-39.062,-41.992,-2.930
1628133219.198,-92.773,-36.133,-27.832,-72.266
1628133219.202,-77.148,-20.996,-20.996,-73.730
1628133219.206,6.836,-18.066,-26.367,-4.395
1628133219.209,26.367,-15.625,-12.207,21.973
1628133219.213,-49.805,-12.695,-20.508,-33.691
1628133219.217,-83.496,-25.879,-50.293,-62.988
1628133219.221,-8.789,-24.902,-36.621,-14.648
1628133219.225,35.645,-19.531,-9.277,26.367
1628133219.238,-29.785,-39.551,-11.230,-20.020
1628133219.242,-84.473,-46.387,-20.020,-65.430
1628133219.246,-37.109,-36.621,-19.531,-19.531
1628133219.250,30.273,-20.020,-31.738,32.715
1628133219.254,2.441,-28.809,-31.738,6.836
1628133219.258,-64.941,-44.922,-16.113,-52.246
1628133219.262,-54.688,-26.855,-17.578,-49.805
1628133219.265,17.578,-23.438,-17.090,-1.465
1628133219.269,13.672,-54.688,-19.043,-6.348
1628133219.273,-68.359,-63.477,-21.484,-62.500
1628133219.277,-77.637,-29.785,-23.438,-72.754
1628133219.281,-1.465,-2.930,-39.551,-14.648
1628133219.283,21.973,7.812,-40.039,4.395
1628133219.287,-44.434,-2.441,-38.086,-48.340
1628133219.291,-73.730,-20.996,-39.551,-73.242
1628133219.295,-0.488,-19.531,-28.809,-21.484
1628133219.299,51.758,-15.625,-21.973,22.949
1628133219.303,-6.836,-31.738,-39.062,-14.648
1628133219.307,-75.684,-42.969,-44.922,-69.336
1628133219.310,-38.574,-37.109,-31.738,-35.645
1628133219.314,33.203,-34.668,-18.066,21.973
1628133219.318,9.766,-39.062,-1.465,3.906
1628133219.322,-72.266,-54.199,-3.418,-61.523
1628133219.326,-70.801,-43.945,-33.691,-70.312
1628133219.331,5.371,-24.414,-41.992,-13.184
1628133219.335,8.789,-20.996,-46.875,-3.906
1628133219.339,-68.848,-32.715,-58.105,-61.035
1628133219.343,-77.637,-22.461,-43.457,-61.035
1628133219.347,2.930,-12.695,-16.113,-0.977
1628133219.351,27.344,-21.484,-6.836,16.113
1628133219.355,-36.133,-27.832,-8.789,-33.691
1628133219.358,-75.195,-26.855,-35.645,-62.500
1628133219.362,-13.184,-14.160,-61.035,-17.578
1628133219.366,35.156,-27.344,-37.598,24.414
1628133219.370,-30.762,-73.242,-27.344,-17.578
1628133219.374,-103.516,-104.980,-30.762,-81.055
1628133219.369,-54.688,-66.406,-15.137,-55.176
1628133219.373,28.320,-12.695,-33.203,20.508
1628133219.377,8.301,0.000,-96.191,23.926
1628133219.381,-75.684,-12.207,-69.824,-54.688
1628133219.385,-79.102,-17.090,16.602,-65.430
1628133219.389,6.836,-1.465,1.465,-8.789
1628133219.393,17.090,-28.320,-15.137,-17.578
1628133219.396,-52.246,-38.086,5.371,-65.430
1628133219.400,-64.453,-13.672,-0.977,-65.918
1628133219.404,-5.859,-25.879,-21.484,-21.484
1628133219.408,23.926,-48.340,-28.320,-5.859
1628133219.412,-28.320,-52.246,-21.484,-46.387
1628133219.425,-78.613,-50.293,-34.180,-88.379
1628133219.429,-30.762,-28.809,-39.551,-58.105
1628133219.433,35.156,-7.324,-31.738,-1.953
1628133219.437,-15.625,-27.344,-34.180,-30.273
1628133219.441,-87.402,-44.922,-33.203,-76.660
1628133219.445,-51.270,-41.504,-25.391,-56.152
1628133219.449,16.113,-39.062,-24.414,-6.836
1628133219.452,-8.301,-47.852,-30.273,-23.438
1628133219.456,-83.496,-45.410,-42.969,-83.984
1628133219.460,-78.613,-25.391,-65.430,-75.195
1628133219.464,-6.348,-23.926,-58.105,-19.531
1628133219.468,15.625,-30.273,-29.297,-2.930
1628133219.463,-53.223,-35.156,-22.461,-57.617
1628133219.467,-86.914,-37.598,-27.832,-87.891
1628133219.471,-16.113,-31.738,-24.414,-29.785
1628133219.475,20.020,-40.039,-22.461,0.488
1628133219.479,-40.527,-50.293,-36.133,-47.852
1628133219.483,-85.938,-33.691,-41.016,-83.496
1628133219.487,-39.551,-34.668,-34.180,-48.340
1628133219.490,27.344,-41.504,-26.855,1.953
1628133219.494,-13.184,-35.156,-25.391,-29.785
1628133219.498,-89.355,-44.434,-25.879,-85.938
1628133219.502,-67.871,-39.551,-32.227,-62.988
1628133219.506,0.977,-26.855,-30.762,-9.277
1628133219.524,-10.742,-29.785,-37.598,-20.020
1628133219.528,-94.727,-43.457,-54.199,-90.332
1628133219.532,-91.797,-40.039,-46.875,-91.797
1628133219.536,-4.883,-26.367,-37.598,-29.297
1628133219.540,13.672,-27.344,-30.273,-17.578
1628133219.544,-53.223,-40.527,-26.367,-62.988
1628133219.548,-88.867,-41.016,-30.273,-84.961
1628133219.551,-25.391,-18.555,-27.832,-36.133
1628133219.555,27.832,-14.160,-35.156,5.859
1628133219.559,-22.461,-38.086,-40.039,-27.344
1628133219.563,-73.730,-25.391,-22.949,-58.105
1628133219.567,-48.828,-8.789,-32.715,-40.039
1628133219.556,4.395,-12.695,-52.734,-4.883
1628133219.560,-21.973,-22.461,-43.945,-19.043
1628133219.564,-88.379,-18.066,-38.086,-61.523
1628133219.568,-58.594,-3.906,-33.203,-36.621
1628133219.572,10.742,-25.879,-20.996,20.020
1628133219.576,12.695,-38.086,-29.297,22.461
1628133219.580,-60.547,-26.855,-40.527,-41.016
1628133219.583,-85.938,-35.156,-24.902,-68.848
1628133219.587,-8.789,-37.598,-28.809,-13.672
1628133219.591,29.785,-29.297,-31.250,18.555
1628133219.595,-35.645,-33.691,-19.043,-26.855
1628133219.599,-81.543,-37.598,-21.484,-60.547
1628133219.616,-32.715,-32.227,-31.738,-24.414
1628133219.620,18.066,-29.297,-32.227,10.742
1628133219.624,-15.137,-34.668,-19.043,-10.742
1628133219.628,-70.801,-35.156,-14.160,-55.664
1628133219.632,-50.293,-26.367,-39.551,-47.363
1628133219.636,22.461,-27.344,-68.359,11.719
1628133219.640,0.977,-45.410,-74.707,-4.883
1628133219.643,-79.590,-47.852,-70.801,-70.312
1628133219.647,-64.941,-39.551,-50.781,-60.547
1628133219.651,18.066,-25.391,-44.434,3.418
1628133219.655,21.973,-20.020,-34.668,6.348
1628133219.659,-49.316,-25.391,-5.859,-50.781
1628133219.655,-70.801,-32.227,7.324,-61.035
1628133219.659,-24.902,-37.109,-10.254,-23.438
1628133219.663,4.883,-39.551,-35.645,3.418
1628133219.667,-52.246,-52.734,-47.363,-37.109
1628133219.671,-97.656,-49.805,-33.691,-83.008
1628133219.675,-42.480,-43.945,-26.367,-43.945
1628133219.679,19.043,-45.898,-34.668,7.812
1628133219.682,-23.438,-45.898,-30.273,-20.020
1628133219.686,-82.031,-30.273,-25.879,-63.965
1628133219.690,-59.082,-13.672,-48.340,-49.805
1628133219.694,13.184,-17.090,-41.016,5.371
1628133219.698,0.977,-20.508,-29.297,0.000
1628133219.740,-89.355,-31.250,-30.762,-67.871
1628133219.744,-96.191,-32.715,-28.809,-76.172
1628133219.748,-16.113,-29.297,-29.785,-18.066
1628133219.752,5.859,-24.414,-27.344,1.953
1628133219.756,-70.801,-32.715,-31.250,-55.176
1628133219.760,-97.168,-37.109,-24.414,-83.496
1628133219.764,-22.949,-24.414,-26.367,-35.645
1628133219.767,32.715,-24.414,-27.832,22.461
1628133219.771,-18.555,-40.527,-26.855,-5.371
1628133219.775,-86.426,-42.969,-29.785,-61.035
1628133219.779,-42.969,-33.203,-16.113,-30.273
1628133219.783,31.250,-24.414,-15.137,27.344
1628133219.748,-3.418,-15.625,-34.180,3.906
1628133219.752,-95.215,-19.531,-44.922,-74.707
1628133219.756,-72.754,-25.391,-24.902,-62.012
1628133219.760,13.184,-30.273,-10.742,-2.930
1628133219.764,-1.465,-35.156,-21.484,-8.789
1628133219.768,-73.242,-30.273,-27.344,-54.688
1628133219.772,-83.984,-31.250,-29.785,-64.453
1628133219.775,-8.301,-24.902,-25.879,-0.488
1628133219.779,25.391,-23.438,-32.227,22.461
1628133219.783,-55.176,-51.270,-36.133,-44.434
1628133219.787,-86.426,-38.574,-20.508,-75.195
1628133219.791,-12.695,-15.137,-36.621,-23.438
1628133219.815,34.180,-24.414,-43.457,25.879
1628133219.819,-30.762,-39.062,-37.109,-16.602
1628133219.823,-96.191,-32.227,-40.527,-71.289
1628133219.827,-55.664,-11.719,-28.320,-41.016
1628133219.831,17.090,-14.160,-20.508,17.090
1628133219.835,-0.488,-31.250,-15.137,6.348
1628133219.839,-81.055,-45.898,-12.207,-59.570
1628133219.842,-81.543,-45.410,-19.043,-63.477
1628133219.846,-1.953,-26.367,-22.461,-0.977
1628133219.850,7.324,-21.973,-16.113,9.277
1628133219.854,-77.148,-41.992,-17.578,-47.852
1628133219.858,-94.238,-51.270,-29.297,-69.824
1628133219.855,-16.602,-43.945,-28.320,-20.508
1628133219.859,13.672,-37.109,-37.109,1.953
1628133219.863,-49.316,-22.461,-37.598,-42.480
1628133219.867,-88.379,-21.484,-18.066,-73.242
1628133219.871,-33.691,-31.250,-30.273,-36.621
1628133219.875,28.320,-26.367,-32.715,9.277
1628133219.879,-27.344,-41.504,-33.691,-28.809
1628133219.882,-104.492,-58.594,-54.199,-91.797
1628133219.886,-53.223,-42.480,-52.246,-56.152
1628133219.890,25.879,-22.949,-35.156,8.301
1628133219.894,-6.836,-25.879,-25.391,-11.230
1628133219.898,-84.473,-35.645,-26.855,-72.754
1628133219.896,-64.453,-29.297,-18.555,-57.617
1628133219.900,14.648,-27.832,-15.137,12.207
1628133219.904,22.949,-39.062,-16.602,20.508
1628133219.908,-63.477,-39.062,-28.809,-42.969
1628133219.912,-95.703,-26.855,-31.738,-76.660
1628133219.916,-4.883,-11.230,-18.066,-23.438
1628133219.920,50.781,-15.137,-11.230,25.391
1628133219.923,-26.855,-30.273,-36.621,-33.691
1628133219.927,-106.445,-52.734,-58.594,-110.840
1628133219.931,-47.363,-48.828,-41.504,-68.359
1628133219.935,36.133,-29.297,-36.621,8.789
1628133219.939,-7.812,-39.551,-43.945,-25.391
1628133219.932,-88.867,-39.062,-31.250,-89.355
1628133219.936,-53.223,-27.344,-17.578,-57.617
1628133219.940,24.902,-27.832,-17.090,-1.465
1628133219.944,12.207,-21.973,-25.391,-9.766
1628133219.948,-68.848,-25.391,-28.809,-63.477
1628133219.952,-74.707,-27.344,-24.902,-64.453
1628133219.956,-0.977,-24.902,-26.855,-3.418
1628133219.959,8.301,-22.461,-27.832,2.441
1628133219.963,-58.105,-27.832,-19.531,-46.875
1628133219.967,-87.891,-27.344,-22.949,-74.219
1628133219.971,-15.137,-13.184,-33.203,-19.531
1628133219.975,41.504,-22.949,-40.527,28.809
1628133219.999,-33.691,-51.758,-53.711,-28.809
1628133220.003,-96.680,-48.340,-34.668,-79.102
1628133220.007,-39.551,-36.133,-15.137,-34.180
1628133220.011,31.250,-17.578,-25.391,20.996
1628133220.015,-9.277,-15.137,-40.527,-16.602
1628133220.019,-84.473,-17.578,-35.645,-71.289
1628133220.023,-59.570,-18.555,-31.738,-52.246
1628133220.026,13.184,-21.484,-32.715,-3.418
1628133220.030,-7.812,-34.668,-28.809,-19.043
1628133220.034,-89.844,-44.434,-22.949,-77.148
1628133220.038,-76.660,-37.109,-17.090,-64.941
1628133220.042,4.395,-35.156,-38.574,-3.418
1628133220.098,26.855,-33.691,-56.152,14.160
1628133220.102,-49.805,-42.969,-51.270,-43.457
1628133220.106,-105.469,-40.527,-44.922,-84.473
1628133220.110,-17.578,-14.648,-21.973,-22.461
1628133220.114,59.570,-6.348,-14.160,35.645
1628133220.118,-13.672,-20.020,-29.297,-16.602
1628133220.122,-102.051,-23.926,-47.852,-87.402
1628133220.125,-52.734,-20.996,-43.457,-45.410
1628133220.129,44.434,-19.043,-7.812,32.227
1628133220.133,20.508,-35.156,-7.324,10.254
1628133220.137,-77.148,-55.664,-30.762,-65.918
1628133220.141,-74.219,-41.992,-35.156,-70.312
1628133220.098,13.672,-16.113,-27.344,-5.371
1628133220.102,10.742,-20.508,-40.527,-3.418
1628133220.106,-66.406,-23.438,-57.617,-63.965
1628133220.110,-71.289,-13.184,-33.203,-69.824
1628133220.114,21.484,-8.301,-16.113,1.465
1628133220.118,54.199,-4.883,-23.926,21.973
1628133220.122,-39.062,-22.461,-33.203,-47.363
1628133220.125,-91.797,-33.203,-45.410,-83.008
1628133220.129,-23.926,-26.367,-34.180,-32.227
1628133220.133,24.414,-34.668,-35.156,10.742
1628133220.137,-19.043,-28.320,-46.875,-15.137
1628133220.141,-78.613,-26.855,-29.785,-56.641
1628133220.133,-61.035,-38.574,-24.902,-48.340
1628133220.137,9.277,-35.156,-39.062,2.930
1628133220.141,-7.812,-41.992,-37.598,-5.371
1628133220.145,-94.727,-46.387,-37.598,-78.613
1628133220.149,-82.031,-22.461,-52.246,-77.148
1628133220.153,14.648,-0.977,-66.895,-2.930
1628133220.157,21.973,-25.879,-56.641,7.324
1628133220.160,-67.871,-68.359,-41.504,-66.406
1628133220.164,-94.238,-65.430,-39.062,-92.773
1628133220.168,-10.254,-35.156,-33.691,-22.949
1628133220.172,28.320,-22.461,-32.715,8.301
1628133220.176,-41.992,-20.996,-37.109,-50.293
1628133220.177,-92.773,-24.414,-36.621,-89.844
1628133220.181,-32.227,-26.855,-28.320,-41.992
1628133220.185,46.875,-17.578,-18.555,26.367
1628133220.189,-1.465,-47.363,-31.250,-8.789
1628133220.193,-88.867,-68.359,-47.363,-79.102
1628133220.197,-46.387,-19.531,-28.809,-45.898
1628133220.201,39.062,-2.930,-22.949,20.020
1628133220.204,3.418,-47.852,-40.039,-2.930
1628133220.208,-78.125,-57.617,-36.133,-62.500
1628133220.212,-64.453,-19.531,-26.855,-54.688
1628133220.216,20.996,-13.672,-19.531,8.789
1628133220.220,28.809,-24.902,-11.230,17.090
1628133220.212,-45.410,-15.137,-18.555,-35.156
1628133220.216,-74.707,-24.902,-40.039,-63.965
1628133220.220,-14.648,-39.551,-37.109,-23.926
1628133220.224,47.363,-43.945,-17.090,24.902
1628133220.228,-20.508,-50.781,-27.832,-26.855
1628133220.232,-94.727,-35.645,-44.434,-72.266
1628133220.236,-34.668,-15.137,-35.156,-20.508
1628133220.239,33.203,-22.461,-21.973,29.785
1628133220.243,-11.230,-35.156,-31.250,-12.207
1628133220.247,-84.961,-41.016,-31.738,-69.336
1628133220.251,-55.664,-44.434,-33.691,-48.828
1628133220.255,18.066,-35.156,-45.410,4.883
1628133220.269,21.484,-22.461,-37.109,15.137
1628133220.273,-64.453,-30.762,-40.039,-55.664
1628133220.277,-81.543,-31.738,-28.320,-72.754
1628133220.281,9.277,-27.344,-6.348,-0.488
1628133220.285,29.297,-42.480,-23.926,15.625
1628133220.289,-45.898,-38.574,-35.156,-40.527
1628133220.293,-86.914,-25.391,-29.297,-72.754
1628133220.296,-9.277,-15.137,-9.277,-9.277
1628133220.300,51.758,-20.996,-4.395,41.992
1628133220.304,-36.621,-42.969,-37.109,-30.762
1628133220.308,-118.652,-53.223,-38.574,-99.121
1628133220.312,-64.453,-45.410,-14.160,-53.223
1628133220.307,13.184,-34.668,-21.973,4.395
1628133220.311,-18.066,-43.457,-40.527,-19.531
1628133220.315,-100.586,-64.453,-48.340,-79.590
1628133220.319,-82.031,-42.480,-40.527,-64.941
1628133220.323,15.625,-8.789,-17.090,14.648
1628133220.327,19.531,-24.902,-4.395,16.602
1628133220.331,-60.059,-34.180,-15.137,-52.734
1628133220.334,-70.801,-23.926,-22.461,-63.477
1628133220.338,-5.859,-26.367,-34.180,-13.184
1628133220.342,6.348,-36.621,-48.340,0.000
1628133220.346,-70.312,-40.039,-33.691,-60.059
1628133220.350,-111.328,-31.738,-14.648,-93.750
1628133220.364,-35.645,-22.949,-19.531,-29.785
1628133220.368,23.438,-26.855,-34.668,19.043
1628133220.372,-40.039,-48.828,-35.156,-26.855
1628133220.376,-104.492,-53.711,-30.762,-69.824
1628133220.380,-53.711,-48.828,-18.066,-36.133
1628133220.384,26.855,-51.270,-14.160,15.625
1628133220.388,8.301,-44.434,-30.762,1.953
1628133220.391,-78.613,-39.062,-24.414,-62.012
1628133220.395,-86.914,-27.344,-20.508,-66.895
1628133220.399,2.930,-6.836,-21.484,5.371
1628133220.403,13.184,-25.879,-22.949,13.672
1628133220.407,-77.637,-40.039,-29.297,-61.035
1628133220.439,-93.262,-31.738,-34.180,-78.125
1628133220.443,-7.324,-23.438,-38.574,-5.859
1628133220.447,27.832,-38.086,-44.434,22.949
1628133220.451,-31.250,-40.527,-49.805,-24.902
1628133220.455,-90.820,-41.016,-47.363,-72.754
1628133220.459,-44.922,-28.809,-30.762,-35.156
1628133220.463,30.762,-22.461,-10.254,18.066
1628133220.466,-10.742,-37.109,-6.348,-10.742
1628133220.470,-76.172,-31.738,-11.719,-59.082
1628133220.474,-44.922,-32.227,-14.160,-41.504
1628133220.478,29.297,-40.039,-21.973,14.648
1628133220.482,18.555,-43.945,-25.391,6.836
1628133220.458,-62.500,-32.227,-30.762,-51.758
1628133220.462,-81.543,-33.203,-44.922,-64.941
1628133220.466,-13.184,-40.527,-43.945,-11.719
1628133220.470,24.902,-28.809,-23.438,20.508
1628133220.474,-49.316,-29.297,-24.414,-31.738
1628133220.478,-93.262,-27.832,-40.039,-67.383
1628133220.482,-33.691,-16.602,-39.551,-28.809
1628133220.485,6.836,-25.391,-24.902,3.906
1628133220.489,-45.410,-41.992,-20.508,-34.668
1628133220.493,-98.633,-48.828,-25.391,-83.984
1628133220.497,-51.270,-53.711,-34.180,-50.781
1628133220.501,17.578,-46.875,-31.250,7.324
1628133220.495,-14.160,-40.039,-25.879,-19.043
1628133220.499,-88.379,-37.109,-40.527,-77.148
1628133220.503,-63.477,-30.762,-45.410,-56.641
1628133220.507,16.602,-32.715,-44.434,2.441
1628133220.511,23.926,-37.109,-36.621,9.277
1628133220.515,-39.551,-30.273,-13.184,-38.086
1628133220.519,-65.430,-22.461,-13.672,-54.688
1628133220.522,5.371,-30.762,-29.785,-1.953
1628133220.526,37.109,-35.645,-28.809,18.555
1628133220.530,-55.176,-48.828,-26.855,-54.688
1628133220.534,-100.098,-51.758,-34.668,-86.426
1628133220.538,-18.066,-37.598,-46.387,-22.949
1628133220.551,34.180,-41.992,-45.410,22.949
1628133220.555,-19.043,-34.180,-14.160,-11.230
1628133220.559,-78.613,-20.508,4.395,-56.152
1628133220.563,-47.363,-15.625,-9.277,-32.227
1628133220.567,29.785,-17.578,-25.879,22.949
1628133220.571,19.531,-34.180,-26.367,10.742
1628133220.575,-70.801,-49.316,-39.062,-59.570
1628133220.578,-70.312,-52.246,-33.203,-55.664
1628133220.582,16.602,-41.992,-23.438,8.789
1628133220.586,25.391,-40.527,-19.043,19.531
1628133220.590,-49.316,-35.156,-11.230,-33.203
1628133220.594,-78.125,-35.156,-28.320,-60.059
1628133220.627,1.465,-33.691,-32.227,-5.859
1628133220.631,40.039,-24.414,-17.578,18.066
1628133220.635,-37.598,-29.785,-20.020,-39.551
1628133220.639,-77.637,-35.156,-27.344,-68.848
1628133220.643,-20.508,-31.250,-28.320,-20.508
1628133220.647,35.156,-31.250,-36.621,29.785
1628133220.651,-10.254,-35.156,-22.949,-10.742
1628133220.654,-89.355,-22.949,-24.414,-72.754
1628133220.658,-60.547,-28.320,-51.758,-48.340
1628133220.662,10.254,-44.922,-45.410,-2.441
1628133220.666,-19.531,-57.617,-32.227,-26.367
1628133220.670,-96.191,-44.922,-30.762,-86.426
1628133220.645,-68.848,-14.160,-19.043,-69.824
1628133220.649,-46.875,-20.508,-32.715,-45.410
1628133220.653,-93.750,-32.715,-49.316,-85.449
1628133220.657,-31.250,-23.438,-28.320,-41.504
1628133220.661,15.625,-29.785,-27.832,-4.883
1628133220.665,-47.363,-42.969,-28.320,-49.316
1628133220.669,-95.215,-44.434,-23.926,-77.637
1628133220.672,-46.387,-49.805,-38.574,-43.457
1628133220.676,23.438,-48.340,-48.828,0.977
1628133220.680,-13.672,-42.969,-53.711,-19.531
1628133220.684,-86.426,-29.297,-36.621,-71.289
1628133220.688,-61.035,-12.207,-29.297,-57.129
1628133220.700,18.066,2.930,-23.438,4.395
1628133220.704,7.812,-7.324,-8.789,1.465
1628133220.708,-80.566,-35.645,-27.832,-68.848
1628133220.712,-89.355,-37.598,-36.621,-81.543
1628133220.716,-14.648,-32.715,-34.668,-23.926
1628133220.720,17.578,-23.926,-41.992,6.836
1628133220.724,-43.945,-20.996,-41.992,-33.203
1628133220.727,-86.914,-35.645,-40.039,-72.266
1628133220.731,-9.766,-37.598,-29.785,-10.254
1628133220.735,42.969,-37.598,-14.648,32.715
1628133220.739,-30.762,-34.668,-23.438,-24.902
1628133220.743,-84.473,-25.391,-30.762,-62.012
1628133220.741,-38.574,-24.902,-32.715,-28.320
1628133220.745,13.672,-24.902,-40.039,3.418
1628133220.749,-14.648,-24.414,-41.504,-17.578
1628133220.753,-82.520,-23.926,-53.223,-69.336
1628133220.757,-60.547,-17.578,-46.387,-57.617
1628133220.761,24.902,-23.438,-26.855,5.859
1628133220.765,20.508,-38.574,-17.578,-3.418
1628133220.768,-65.918,-39.551,-19.043,-64.941
1628133220.772,-94.727,-33.203,-30.273,-81.543
1628133220.776,-18.555,-32.715,-20.508,-23.438
1628133220.780,21.484,-21.973,-12.695,4.883
1628133220.784,-60.547,-27.344,-32.227,-55.176
1628133220.798,-98.145,-37.109,-39.062,-87.402
1628133220.802,-21.973,-23.926,-39.551,-37.598
1628133220.806,38.086,-14.648,-35.645,8.789
1628133220.810,-10.254,-23.926,-36.133,-20.508
1628133220.814,-83.008,-36.133,-37.598,-72.266
1628133220.818,-46.387,-30.273,-24.414,-41.992
1628133220.822,19.531,-28.809,-27.832,14.160
1628133220.825,-15.625,-33.203,-38.574,-15.625
1628133220.829,-87.891,-27.344,-36.621,-73.730
1628133220.833,-82.031,-35.156,-35.156,-66.406
1628133220.837,-3.418,-38.574,-29.785,-8.301
1628133220.841,13.184,-38.086,-28.809,5.371
1628133220.831,-58.105,-37.598,-31.738,-54.688
1628133220.835,-91.309,-29.785,-35.645,-90.332
1628133220.839,-18.066,-21.484,-23.926,-33.691
1628133220.843,15.625,-33.691,-30.273,0.977
1628133220.847,-53.223,-55.176,-35.645,-43.945
1628133220.851,-97.168,-62.500,-35.156,-80.078
1628133220.855,-38.086,-40.039,-33.203,-40.039
1628133220.858,28.320,-19.043,-27.832,8.301
1628133220.862,-14.160,-16.602,-31.738,-19.043
1628133220.866,-97.656,-29.785,-44.922,-83.496
1628133220.870,-69.336,-26.367,-27.344,-59.570
1628133220.874,24.902,-2.441,-3.906,17.578
1628133220.889,1.465,-26.367,-13.672,-3.906
1628133220.893,-80.078,-56.641,-25.391,-63.965
1628133220.897,-68.359,-42.969,-49.316,-48.828
1628133220.901,12.207,-23.438,-45.898,12.695
1628133220.905,23.926,-39.551,-33.691,24.414
1628133220.909,-52.246,-49.805,-17.090,-37.109
1628133220.913,-83.008,-35.156,-0.977,-75.195
1628133220.916,-12.695,-12.207,-19.531,-20.508
1628133220.920,24.902,-13.672,-14.160,20.508
1628133220.924,-38.086,-33.691,-10.254,-32.227
1628133220.928,-96.191,-41.504,-23.438,-80.078
1628133220.932,-45.410,-35.156,-18.555,-33.203
1628133220.927,18.066,-42.969,-13.672,18.066
1628133220.931,-26.367,-60.059,-20.508,-9.766
1628133220.935,-90.332,-48.828,-39.062,-54.199
1628133220.939,-74.707,-33.691,-50.293,-51.758
1628133220.943,-3.418,-26.855,-53.711,-3.418
1628133220.947,11.230,-14.160,-43.457,8.301
1628133220.951,-59.570,-22.461,-33.203,-49.316
1628133220.954,-76.172,-31.738,-22.949,-62.500
1628133220.958,-6.836,-32.227,-13.672,-11.230
1628133220.962,17.090,-49.316,-11.719,5.371
1628133220.966,-55.176,-60.059,-12.207,-46.875
1628133220.970,-91.309,-37.598,-19.043,-72.754
1628133220.981,-22.461,-23.926,-20.508,-21.484
1628133220.985,32.227,-36.133,-16.113,18.066
1628133220.989,-31.738,-54.199,-25.391,-23.438
1628133220.993,-103.516,-53.711,-34.180,-78.125
1628133220.997,-61.523,-30.273,-36.133,-54.199
1628133221.001,18.066,-5.371,-36.621,5.859
1628133221.005,-5.371,-10.254,-38.086,-11.230
1628133221.008,-95.215,-39.551,-38.086,-82.031
1628133221.012,-83.008,-46.387,-20.020,-69.824
1628133221.016,4.883,-29.785,-20.020,4.395
1628133221.020,1.953,-25.879,-56.641,11.230
1628133221.024,-58.594,-28.320,-39.062,-34.668
1628133221.019,-70.801,-25.879,-22.461,-56.152
1628133221.023,-12.207,-28.809,-23.926,-16.602
1628133221.027,24.414,-43.457,-8.301,11.230
1628133221.031,-36.133,-46.387,-0.977,-36.621
1628133221.035,-81.543,-38.086,-8.301,-76.172
1628133221.039,-30.762,-20.996,-34.668,-44.434
1628133221.043,19.531,-9.766,-52.246,-3.906
1628133221.046,-14.648,-23.926,-35.156,-26.855
1628133221.050,-76.172,-39.551,-13.184,-68.848
1628133221.054,-56.641,-35.156,-26.855,-54.199
1628133221.058,20.508,-25.879,-32.715,6.836
1628133221.062,12.695,-34.180,-25.391,2.930
1628133221.075,-65.918,-41.504,-33.203,-58.594
1628133221.079,-56.641,-37.109,-32.227,-52.246
1628133221.083,22.461,-25.391,-26.855,5.859
1628133221.087,24.414,-22.461,-37.598,13.184
1628133221.091,-58.594,-48.828,-62.500,-50.293
1628133221.095,-99.609,-51.758,-63.965,-89.844
1628133221.099,-30.273,-27.344,-43.457,-44.922
1628133221.102,25.391,-16.602,-18.066,-1.953
1628133221.106,-30.273,-14.160,-18.555,-36.133
1628133221.110,-92.773,-25.391,-27.832,-83.984
1628133221.114,-41.016,-21.484,-12.695,-49.316
1628133221.118,18.066,-27.832,-11.230,0.488
1628133221.114,-34.180,-49.316,-23.926,-32.227
1628133221.118,-103.516,-41.504,-23.926,-89.355
1628133221.122,-77.637,-21.484,-16.602,-69.336
1628133221.126,3.418,-21.973,-21.484,-8.789
1628133221.130,0.000,-27.344,-32.715,-8.789
1628133221.134,-66.895,-24.414,-29.785,-54.688
1628133221.138,-70.312,-24.902,-23.926,-67.871
1628133221.141,-5.371,-33.203,-33.203,-25.879
1628133221.145,7.812,-48.828,-52.734,-5.371
1628133221.149,-55.664,-45.898,-46.387,-47.363
1628133221.153,-90.332,-39.551,-25.879,-78.613
1628133221.157,-29.785,-33.203,-22.461,-30.273
1628133221.169,20.020,-23.926,-52.246,10.254
1628133221.173,-39.062,-39.551,-68.359,-34.668
1628133221.177,-101.074,-49.316,-41.992,-85.938
1628133221.181,-54.199,-25.391,-29.297,-55.176
1628133221.185,16.602,-19.043,-22.461,0.000
1628133221.189,-1.465,-25.391,-15.137,-3.906
1628133221.193,-74.707,-31.738,-32.227,-55.664
1628133221.196,-70.312,-31.738,-37.598,-53.223
1628133221.200,11.719,-25.879,-12.695,14.648
1628133221.204,8.301,-39.062,-6.836,15.137
1628133221.208,-77.637,-60.547,-25.391,-60.059
1628133221.212,-100.098,-48.828,-45.898,-82.031
1628133221.206,-14.160,-15.137,-41.992,-17.578
1628133221.210,37.109,-20.020,-29.785,21.973
1628133221.214,-35.156,-34.668,-32.227,-31.250
1628133221.218,-91.797,-30.273,-27.344,-73.730
1628133221.222,-28.809,-21.484,-33.203,-22.949
1628133221.226,35.156,-16.113,-21.973,28.809
1628133221.230,-13.672,-17.578,-11.230,-9.277
1628133221.233,-93.262,-34.180,-31.738,-75.195
1628133221.237,-58.105,-37.109,-32.715,-50.293
1628133221.241,22.461,-24.902,-13.184,13.672
1628133221.245,-1.953,-25.391,-16.602,-9.277
1628133221.249,-88.867,-39.062,-25.879,-79.102
1628133221.262,-88.867,-43.945,-25.391,-77.637
1628133221.266,-9.277,-35.645,-39.551,-18.066
1628133221.270,7.324,-32.227,-55.176,-4.395
1628133221.274,-58.105,-31.738,-29.785,-51.758
1628133221.278,-71.777,-21.484,-13.184,-58.594
1628133221.282,-3.906,-30.273,-25.879,-6.836
1628133221.286,23.926,-40.039,-20.996,7.324
1628133221.289,-56.641,-41.992,-15.625,-57.617
1628133221.293,-117.676,-48.828,-17.090,-96.680
1628133221.297,-49.316,-37.598,-17.578,-35.156
1628133221.301,15.137,-33.203,-16.113,19.531
1628133221.305,-34.180,-44.922,-15.625,-17.578
1628133221.300,-93.750,-46.875,-20.508,-73.730
1628133221.304,-57.617,-37.598,-31.250,-57.129
1628133221.308,18.555,-30.762,-38.574,-1.953
1628133221.312,12.695,-29.785,-38.574,2.930
1628133221.316,-76.660,-35.156,-46.875,-63.477
1628133221.320,-80.566,-29.297,-44.434,-73.242
1628133221.324,8.789,-24.414,-22.949,-5.371
1628133221.327,14.160,-34.668,-18.555,0.488
1628133221.331,-72.266,-41.016,-35.645,-63.477
1628133221.335,-93.262,-47.363,-46.387,-74.219
1628133221.339,-1.465,-44.434,-30.762,-4.883
1628133221.343,44.434,-47.852,-11.719,25.879
1628133221.357,-39.062,-40.039,-23.438,-33.691
1628133221.361,-86.426,-15.625,-16.113,-74.219
1628133221.365,-14.648,-20.996,7.324,-22.461
1628133221.369,45.898,-32.715,-14.160,21.484
1628133221.373,-14.160,-26.855,-42.969,-28.320
1628133221.377,-86.914,-24.414,-33.691,-81.055
1628133221.381,-55.176,-29.785,-19.531,-58.594
1628133221.384,20.020,-27.344,-25.879,0.488
1628133221.388,7.324,-37.109,-29.785,-9.766
1628133221.392,-80.078,-51.758,-34.180,-76.660
1628133221.396,-83.008,-41.016,-36.621,-77.637
1628133221.400,2.930,-21.973,-34.668,-19.043
1628133221.394,16.602,-27.832,-44.922,-8.789
1628133221.398,-57.617,-34.668,-41.992,-55.664
1628133221.402,-82.520,-34.668,-28.809,-76.172
1628133221.406,-14.160,-41.992,-29.785,-27.832
1628133221.410,35.156,-40.039,-30.273,8.789
1628133221.414,-22.461,-25.879,-28.809,-35.645
1628133221.418,-86.426,-32.715,-35.645,-80.078
1628133221.421,-43.457,-35.156,-34.180,-42.480
1628133221.425,29.785,-14.160,-27.832,10.254
1628133221.429,-9.277,-30.273,-44.434,-18.066
1628133221.433,-91.309,-46.875,-36.133,-83.496
1628133221.437,-67.871,-20.020,-20.020,-65.918
1628133221.450,30.273,-17.578,-15.137,6.348
1628133221.454,36.621,-37.109,-8.789,8.789
1628133221.458,-51.758,-37.109,-18.555,-55.664
1628133221.462,-75.684,-30.273,-32.227,-73.242
1628133221.466,-0.977,-40.039,-43.945,-11.230
1628133221.470,25.879,-42.969,-46.875,15.625
1628133221.474,-58.594,-34.668,-49.805,-47.363
1628133221.477,-103.027,-24.902,-56.641,-81.055
1628133221.481,-32.715,-21.484,-46.387,-29.297
1628133221.485,30.273,-21.484,-30.273,16.602
1628133221.489,-20.020,-29.785,-40.527,-12.695
1628133221.493,-91.309,-44.922,-44.434,-71.289
1628133221.489,-50.293,-41.016,-33.203,-45.410
1628133221.493,30.273,-18.555,-19.531,20.996
1628133221.497,13.672,-14.648,-16.602,3.418
1628133221.501,-77.637,-30.273,-33.203,-74.707
1628133221.505,-74.707,-31.250,-42.969,-68.359
1628133221.509,22.949,-11.719,-33.691,10.254
1628133221.513,28.809,-19.531,-35.156,17.578
1628133221.516,-70.801,-60.059,-54.688,-60.547
1628133221.520,-104.004,-55.176,-44.922,-89.844
1628133221.524,-29.297,-27.832,-23.438,-29.785
1628133221.528,5.859,-28.320,-21.973,0.488
1628133221.532,-55.176,-28.320,-19.531,-48.828
1628133221.544,-110.352,-24.902,-25.391,-88.379
1628133221.548,-63.965,-30.273,-43.945,-54.199
1628133221.552,5.371,-33.203,-47.852,0.000
1628133221.556,-23.926,-28.320,-46.875,-20.020
1628133221.560,-93.750,-23.926,-39.551,-79.590
1628133221.564,-46.875,-18.066,-11.230,-43.945
1628133221.568,28.320,-28.809,-12.695,11.230
1628133221.571,-14.648,-45.410,-41.504,-24.414
1628133221.575,-89.355,-41.504,-47.852,-74.707
1628133221.579,-70.312,-33.691,-32.715,-60.059
1628133221.583,16.113,-38.574,-13.184,6.348
1628133221.587,28.809,-43.457,-13.184,20.996
1628133221.581,-57.617,-24.414,-36.621,-46.387
1628133221.585,-82.031,-0.488,-23.438,-74.707
1628133221.589,-10.742,-7.324,-18.066,-21.973
1628133221.593,27.832,-27.832,-36.621,9.766
1628133221.597,-48.828,-35.645,-43.945,-46.875
1628133221.601,-99.609,-49.805,-46.387,-86.914
1628133221.605,-33.691,-61.035,-45.898,-41.016
1628133221.608,18.555,-40.039,-41.504,0.977
1628133221.612,-19.531,-31.250,-26.367,-19.043
1628133221.616,-86.426,-35.156,-11.230,-68.359
1628133221.620,-66.406,-14.648,-7.324,-54.199
1628133221.624,16.602,1.465,-21.973,8.301
1628133221.637,4.883,-22.461,-46.875,-9.277
1628133221.641,-79.102,-45.898,-51.270,-77.148
1628133221.645,-86.426,-41.016,-27.832,-76.660
1628133221.649,0.000,-27.344,-17.090,-7.324
1628133221.653,29.297,-27.832,-18.066,18.555
1628133221.657,-45.898,-44.434,-18.066,-35.156
1628133221.661,-96.680,-44.922,-43.457,-76.660
1628133221.664,-32.715,-15.625,-44.434,-27.832
1628133221.668,33.203,-7.812,-20.996,27.832
1628133221.672,-31.738,-25.391,-29.297,-18.066
1628133221.676,-100.098,-39.551,-35.645,-77.637
1628133221.680,-57.617,-47.363,-37.109,-54.199
1628133221.675,16.602,-36.133,-43.457,5.371
1628133221.679,-15.625,-32.227,-38.574,-12.695
1628133221.683,-96.191,-32.715,-41.992,-80.566
1628133221.687,-73.730,-35.156,-36.621,-64.453
1628133221.691,9.766,-42.969,-30.273,3.418
1628133221.695,11.230,-38.086,-40.039,4.883
1628133221.699,-74.707,-47.852,-52.734,-62.012
1628133221.702,-83.008,-40.527,-39.062,-66.895
1628133221.706,-3.906,-19.043,-20.020,-10.254
1628133221.710,13.672,-30.273,-36.133,5.371
1628133221.714,-63.477,-47.852,-46.387,-48.828
1628133221.718,-96.680,-41.992,-34.180,-87.402
1628133221.731,-13.672,-22.461,-20.508,-28.809
1628133221.735,49.316,-21.484,-35.156,33.691
1628133221.739,-17.578,-36.133,-49.316,-19.531
1628133221.743,-105.957,-43.945,-37.109,-101.074
1628133221.747,-59.570,-45.898,-16.113,-65.430
1628133221.751,35.156,-30.762,-15.625,14.648
1628133221.755,5.371,-31.250,-23.926,-10.742
1628133221.758,-96.191,-45.410,-38.086,-86.426
1628133221.762,-81.543,-37.598,-36.133,-72.754
1628133221.766,16.113,-13.672,-17.578,2.930
1628133221.770,21.973,-15.137,-18.066,7.324
1628133221.774,-62.500,-41.992,-33.691,-49.316
1628133221.769,-95.215,-54.688,-33.203,-71.289
1628133221.773,-16.602,-44.922,-40.527,-16.602
1628133221.777,30.273,-43.945,-52.246,13.184
1628133221.781,-50.781,-47.852,-34.668,-49.805
1628133221.785,-97.168,-25.879,-14.648,-84.961
1628133221.789,-6.836,-4.883,-16.602,-13.672
1628133221.793,45.898,-19.043,-22.949,22.461
1628133221.796,-22.949,-33.691,-18.066,-27.832
1628133221.800,-98.145,-37.109,-18.555,-82.031
1628133221.804,-62.012,-42.969,-20.996,-61.035
1628133221.808,14.648,-41.992,-37.109,4.395
1628133221.812,-6.836,-43.945,-67.383,-11.719
1628133221.825,-92.773,-49.316,-56.152,-78.125
1628133221.829,-87.891,-42.969,-27.344,-72.754
1628133221.833,4.883,-31.250,-22.949,-6.836
1628133221.837,24.902,-20.508,-14.648,14.648
1628133221.841,-62.012,-33.691,-14.648,-51.758
1628133221.845,-100.098,-48.340,-32.227,-84.961
1628133221.849,-18.066,-20.508,-35.156,-14.160
1628133221.852,32.227,-9.766,-31.250,31.250
1628133221.856,-37.598,-33.203,-30.273,-28.320
1628133221.860,-112.305,-43.457,-32.715,-95.215
1628133221.864,-48.828,-34.668,-28.809,-46.387
1628133221.868,50.293,-33.691,-20.508,35.156
1628133221.881,-1.953,-38.574,-32.227,-6.348
1628133221.885,-86.914,-22.949,-27.344,-68.848
1628133221.889,-55.664,-19.043,-11.719,-46.875
1628133221.893,17.090,-40.527,-17.578,7.812
1628133221.897,9.766,-33.691,-31.250,3.906
1628133221.901,-82.520,-23.438,-27.344,-62.012
1628133221.905,-87.891,-25.879,-19.531,-62.012
1628133221.908,8.789,-25.391,-14.160,8.301
1628133221.912,32.227,-17.578,-24.414,21.973
1628133221.916,-56.152,-33.691,-38.574,-46.875
1628133221.920,-95.215,-44.922,-29.785,-80.078
1628133221.924,-29.785,-26.367,-35.645,-28.809
1628133221.919,18.555,-23.926,-36.621,6.836
1628133221.923,-23.438,-28.809,-36.133,-27.832
1628133221.927,-81.543,-26.855,-37.109,-75.195
1628133221.931,-32.715,-11.719,-14.160,-39.551
1628133221.935,43.457,-17.578,-3.418,27.832
1628133221.939,4.883,-27.344,-19.043,2.930
1628133221.943,-85.449,-23.926,-46.875,-73.730
1628133221.946,-73.730,-33.691,-47.852,-66.895
1628133221.950,19.531,-44.434,-28.320,3.906
1628133221.954,17.578,-44.922,-33.203,7.324
1628133221.958,-69.336,-39.551,-35.156,-59.570
1628133221.962,-74.707,-28.320,-24.902,-65.918
1628133221.956,-5.859,-40.039,-31.250,-11.719
1628133221.960,25.879,-56.641,-25.391,15.137
1628133221.964,-38.086,-42.969,-45.410,-34.180
1628133221.968,-84.961,-17.578,-56.641,-68.848
1628133221.972,-28.320,-17.578,-38.574,-23.926
1628133221.976,29.297,-35.645,-29.297,13.672
1628133221.980,-31.250,-48.340,-20.508,-30.273
1628133221.983,-105.957,-37.598,-21.973,-93.750
1628133221.987,-63.477,-17.578,-30.273,-62.012
1628133221.991,28.809,0.000,-28.809,13.184
1628133221.995,11.719,-8.789,-30.762,2.441
1628133221.999,-83.984,-30.273,-32.227,-73.730
1628133222.050,-81.543,-31.738,-30.762,-79.590
1628133222.054,2.441,-24.414,-35.645,-10.742
1628133222.058,20.508,-27.344,-33.203,7.812
1628133222.062,-67.383,-41.992,-40.039,-59.570
1628133222.066,-96.191,-33.203,-40.527,-76.660
1628133222.070,-11.719,-17.578,-34.180,-14.160
1628133222.074,27.344,-28.809,-42.480,12.207
1628133222.077,-53.223,-41.016,-44.922,-51.758
1628133222.081,-114.258,-41.504,-37.598,-100.586
1628133222.085,-52.246,-28.809,-30.273,-46.387
1628133222.089,16.602,-16.602,-24.902,9.766
1628133222.093,20.020,-12.695,-23.926,12.207
1628133222.088,-37.109,-13.184,-31.738,-23.926
1628133222.092,-90.820,-32.227,-41.016,-71.777
1628133222.096,-12.207,-20.020,-23.438,-20.996
1628133222.100,52.246,-19.043,-5.859,34.180
1628133222.104,-22.949,-42.969,-28.809,-20.996
1628133222.108,-81.543,-40.527,-45.410,-70.312
1628133222.112,-41.016,-39.551,-54.199,-41.992
1628133222.115,10.742,-33.203,-45.410,4.395
1628133222.119,-8.789,-14.648,-37.598,-6.836
1628133222.123,-77.148,-24.414,-24.414,-60.547
1628133222.127,-70.801,-50.293,-4.883,-62.500
1628133222.131,1.953,-47.363,-12.207,-10.254
1628133222.126,15.625,-37.598,-15.137,6.348
1628133222.130,-59.570,-41.016,-29.785,-50.781
1628133222.134,-77.637,-40.527,-38.574,-69.336
1628133222.138,-0.488,-40.527,-33.691,-13.672
1628133222.142,25.879,-43.457,-41.992,10.254
1628133222.146,-43.945,-52.734,-62.012,-36.133
1628133222.150,-90.820,-51.758,-60.547,-77.637
1628133222.153,-35.156,-24.414,-35.156,-34.180
1628133222.157,24.414,-8.301,-26.855,12.207
1628133222.161,-20.508,-19.043,-26.367,-19.531
1628133222.165,-77.637,-27.344,-23.926,-69.336
1628133222.169,-35.645,-20.020,-11.230,-39.062
1628133222.181,36.133,-39.062,-9.766,23.438
1628133222.185,6.836,-47.852,-32.227,-0.977
1628133222.189,-75.195,-25.391,-35.645,-64.453
1628133222.193,-73.730,-26.367,-46.387,-62.988
1628133222.197,6.348,-27.832,-44.922,0.488
1628133222.201,25.879,-19.531,-32.715,19.043
1628133222.205,-62.988,-33.203,-32.227,-52.246
1628133222.208,-92.285,-41.504,-29.785,-77.637
1628133222.212,-7.812,-24.902,-26.367,-12.695
1628133222.216,23.438,-21.484,-24.414,10.254
1628133222.220,-45.898,-38.086,-17.578,-41.016
1628133222.224,-91.797,-44.922,-28.809,-76.172
1628133222.220,-33.691,-33.203,-35.645,-37.598
1628133222.224,31.738,-17.090,-20.508,19.531
1628133222.228,-12.207,-24.902,-29.785,-4.395
1628133222.232,-75.684,-43.457,-54.688,-54.688
1628133222.236,-34.180,-33.203,-47.852,-26.855
1628133222.240,39.062,-17.578,-25.879,26.855
1628133222.244,21.973,-11.230,-19.043,14.648
1628133222.247,-66.406,-14.648,-23.926,-48.828
1628133222.251,-79.590,-24.414,-44.922,-63.965
1628133222.255,6.348,-34.180,-41.504,-2.930
1628133222.259,33.203,-37.109,-13.184,18.555
1628133222.263,-50.293,-39.551,-18.555,-38.086
1628133222.275,-95.215,-27.832,-37.598,-73.730
1628133222.279,-23.926,-16.113,-36.133,-27.832
1628133222.283,25.391,-29.785,-37.598,9.277
1628133222.287,-39.062,-46.387,-47.363,-41.992
1628133222.291,-85.938,-47.852,-42.969,-80.566
1628133222.295,-17.090,-39.062,-27.832,-20.996
1628133222.299,63.965,-20.020,-16.113,47.363
1628133222.302,23.438,-33.203,-14.648,13.672
1628133222.306,-69.336,-62.500,-34.668,-61.523
1628133222.310,-45.410,-43.945,-34.180,-41.992
1628133222.314,45.410,-23.926,-11.230,29.297
1628133222.318,20.508,-32.715,-15.625,14.648
1628133222.312,-83.984,-35.645,-38.574,-67.383
1628133222.316,-84.473,-27.344,-39.551,-76.660
1628133222.320,13.672,-29.297,-36.621,-0.977
1628133222.324,41.504,-28.809,-28.320,29.297
1628133222.328,-43.945,-26.855,-30.762,-32.715
1628133222.332,-90.820,-32.227,-34.668,-71.289
1628133222.336,-15.137,-23.438,-11.230,-13.184
1628133222.339,41.016,-23.926,-9.277,31.738
1628133222.343,-30.762,-41.504,-41.016,-30.762
1628133222.347,-94.238,-42.969,-46.875,-85.938
1628133222.351,-36.133,-30.762,-26.855,-41.016
1628133222.355,40.039,-19.531,-33.203,20.996
1628133222.370,5.371,-24.414,-41.992,-2.441
1628133222.374,-65.430,-35.645,-25.391,-54.199
1628133222.378,-49.316,-43.945,-24.414,-46.875
1628133222.382,21.484,-35.156,-24.902,11.230
1628133222.386,22.461,-34.668,-20.996,23.438
1628133222.390,-53.711,-51.758,-43.457,-39.551
1628133222.394,-75.195,-41.992,-41.016,-57.129
1628133222.397,-5.371,-34.668,-16.602,-1.465
1628133222.401,26.367,-35.645,-22.949,20.996
1628133222.405,-41.504,-32.715,-27.832,-29.297
1628133222.409,-85.449,-35.645,-32.715,-65.430
1628133222.413,-26.855,-33.203,-40.527,-22.949
1628133222.406,27.344,-24.414,-35.156,25.879
1628133222.410,-13.672,-21.484,-34.180,-8.301
1628133222.414,-79.102,-26.855,-26.367,-65.430
1628133222.418,-37.109,-27.344,-6.836,-29.297
1628133222.422,53.223,-30.762,-3.418,36.133
1628133222.426,25.391,-37.598,-34.180,6.836
1628133222.430,-65.918,-45.898,-44.922,-70.312
1628133222.433,-76.660,-46.875,-32.227,-82.520
1628133222.437,-9.277,-39.062,-32.715,-18.555
1628133222.441,12.695,-41.504,-28.809,1.953
1628133222.445,-43.945,-39.551,-19.531,-43.457
1628133222.449,-73.730,-23.438,-48.340,-66.895
1628133222.462,-3.906,-12.207,-53.223,-10.254
1628133222.466,46.875,-23.438,-26.855,30.273
1628133222.470,-27.344,-48.828,-34.668,-24.414
1628133222.474,-85.938,-47.363,-38.086,-70.312
1628133222.478,-27.832,-39.062,-22.461,-35.156
1628133222.482,43.457,-28.320,-8.789,16.113
1628133222.486,3.906,-23.926,-21.973,-16.113
1628133222.489,-73.242,-23.438,-39.551,-79.102
1628133222.493,-50.293,-17.578,-25.879,-55.176
1628133222.497,25.391,-22.461,-18.555,-0.977
1628133222.501,11.719,-27.832,-29.785,-10.742
1628133222.505,-77.637,-39.062,-52.734,-70.312
1628133222.500,-86.426,-49.805,-59.570,-81.055
1628133222.504,6.348,-50.293,-32.227,-6.836
1628133222.508,33.691,-39.062,-12.207,23.926
1628133222.512,-48.828,-29.785,-25.391,-37.109
1628133222.516,-83.984,-26.855,-32.715,-69.824
1628133222.520,-11.230,-21.973,-28.809,-15.137
1628133222.524,27.832,-24.414,-31.738,13.672
1628133222.527,-31.738,-31.250,-47.363,-32.227
1628133222.531,-90.820,-29.297,-57.129,-75.195
1628133222.535,-52.734,-22.949,-29.785,-45.898
1628133222.539,24.414,-24.902,-9.766,13.184
1628133222.543,-11.230,-40.039,-20.508,-13.184
1628133222.556,-100.586,-53.223,-28.809,-89.355
1628133222.560,-72.754,-29.297,-32.715,-71.777
1628133222.564,25.879,-14.160,-34.668,10.742
1628133222.568,9.766,-50.781,-33.203,2.441
1628133222.572,-81.543,-67.871,-36.133,-66.406
1628133222.576,-74.219,-38.574,-40.527,-63.477
1628133222.580,10.742,-21.973,-45.410,-4.883
1628133222.583,31.250,-19.531,-30.273,12.695
1628133222.587,-46.875,-25.391,-27.832,-49.316
1628133222.591,-83.984,-30.762,-35.645,-77.637
1628133222.595,-19.043,-27.344,-50.293,-27.344
1628133222.599,30.273,-26.367,-61.035,8.301
1628133222.594,-12.207,-32.227,-36.133,-12.695
1628133222.598,-69.824,-29.297,-18.555,-47.363
1628133222.602,-38.086,-27.832,-20.020,-26.855
1628133222.606,35.645,-33.203,-16.113,26.367
1628133222.610,11.719,-53.223,-20.508,-2.441
1628133222.614,-83.984,-60.547,-32.227,-78.125
1628133222.618,-76.172,-34.668,-28.809,-67.383
1628133222.621,11.230,-20.020,-20.508,0.977
1628133222.625,1.953,-33.691,-23.926,0.977
1628133222.629,-82.520,-42.969,-33.203,-59.082
1628133222.633,-91.797,-43.945,-36.133,-72.754
1628133222.637,-19.043,-32.715,-34.180,-18.066
1628133222.650,34.180,-14.160,-21.973,30.273
1628133222.654,-30.762,-28.809,-24.414,-17.090
1628133222.658,-93.262,-39.551,-17.090,-62.012
1628133222.662,-32.715,-29.297,-1.465,-12.207
1628133222.666,25.879,-29.297,-3.418,27.832
1628133222.670,-23.926,-36.133,-13.672,-16.113
1628133222.674,-92.285,-36.621,-22.461,-71.289
1628133222.677,-47.852,-26.367,-5.371,-34.668
1628133222.681,30.273,-27.344,-6.836,29.297
1628133222.685,0.977,-25.391,-32.227,-2.441
1628133222.689,-81.055,-29.297,-41.504,-71.289
1628133222.693,-69.336,-27.832,-30.273,-61.523
1628133222.689,11.230,-18.066,-13.184,2.441
1628133222.693,29.297,-16.602,-3.418,26.367
1628133222.697,-59.082,-38.086,-23.926,-42.480
1628133222.701,-86.914,-46.387,-43.457,-76.172
1628133222.705,-1.465,-27.832,-29.297,-11.719
1628133222.709,34.668,-20.020,-25.879,19.531
1628133222.713,-26.367,-28.320,-34.668,-28.320
1628133222.716,-78.125,-34.668,-16.113,-67.871
1628133222.720,-34.180,-38.086,-9.766,-42.480
1628133222.724,27.344,-36.133,-18.066,6.348
1628133222.728,-10.742,-34.668,-29.297,-6.348
1628133222.732,-81.055,-24.414,-53.711,-67.383
1628133222.744,-46.875,-14.160,-41.016,-50.781
1628133222.748,30.273,-20.020,-18.066,20.996
1628133222.752,15.625,-35.645,-15.137,9.766
1628133222.756,-62.012,-42.969,-16.602,-55.176
1628133222.760,-56.641,-22.949,-19.531,-56.641
1628133222.764,29.785,-15.137,-21.973,6.348
1628133222.768,36.133,-26.367,-44.434,16.602
1628133222.771,-49.316,-45.410,-62.988,-53.223
1628133222.775,-74.707,-41.504,-42.969,-75.195
1628133222.779,0.488,-12.695,-22.461,-8.789
1628133222.783,31.250,-23.926,-20.020,11.719
1628133222.787,-44.922,-51.270,-48.828,-47.852
1628133222.782,-96.680,-33.203,-55.176,-88.867
1628133222.786,-36.133,-10.254,-22.461,-48.828
1628133222.790,25.391,-20.996,-19.531,7.812
1628133222.794,-21.973,-30.762,-26.855,-25.391
1628133222.798,-100.098,-33.691,-20.508,-81.543
1628133222.802,-68.848,-28.320,-32.227,-58.105
1628133222.806,24.902,-20.996,-39.551,10.254
1628133222.809,18.555,-38.574,-43.945,10.254
1628133222.813,-74.707,-40.527,-53.223,-62.012
1628133222.817,-79.102,-29.785,-33.203,-65.918
1628133222.821,14.160,-26.367,-5.371,5.859
1628133222.825,24.414,-39.551,-21.973,22.461
1628133222.839,-70.312,-42.969,-33.203,-41.504
1628133222.843,-115.723,-25.879,-29.785,-83.984
1628133222.847,-38.574,-11.719,-23.438,-28.809
1628133222.851,24.902,-15.625,-21.973,24.414
1628133222.855,-37.109,-35.156,-46.875,-16.113
1628133222.859,-91.797,-29.785,-45.410,-64.941
1628133222.863,-51.270,-9.277,-33.203,-43.945
1628133222.866,8.789,-9.277,-32.227,3.906
1628133222.870,-14.648,-27.832,-27.344,-17.578
1628133222.874,-92.773,-44.434,-14.648,-77.637
1628133222.878,-83.984,-40.039,-18.555,-68.848
1628133222.882,6.348,-33.691,-28.809,6.348
1628133222.875,7.324,-29.297,-27.344,14.648
1628133222.879,-80.566,-27.832,-26.855,-52.734
1628133222.883,-98.145,-28.320,-27.832,-74.707
1628133222.887,-0.977,-12.695,-34.180,-5.371
1628133222.891,41.992,-10.254,-53.223,34.180
1628133222.895,-46.387,-23.438,-53.223,-29.297
1628133222.899,-86.426,-25.391,-25.391,-74.219
1628133222.902,-12.695,-16.602,-6.836,-17.578
1628133222.906,31.738,-17.090,-10.742,20.508
1628133222.910,-36.621,-33.203,-28.809,-38.086
1628133222.914,-110.352,-51.758,-39.551,-88.379
1628133222.918,-67.383,-36.621,-33.691,-58.594
1628133222.932,12.695,-15.625,-25.879,-2.441
1628133222.936,-16.602,-31.738,-42.480,-17.090
1628133222.940,-85.938,-33.203,-36.133,-65.918
1628133222.944,-63.477,-17.578,-18.555,-48.828
1628133222.948,9.277,-25.879,-23.926,2.930
1628133222.952,11.719,-42.969,-41.016,-10.254
1628133222.956,-72.754,-45.410,-49.805,-77.148
1628133222.959,-101.562,-42.480,-35.156,-97.656
1628133222.963,-17.090,-25.391,-11.719,-32.715
1628133222.967,22.949,-20.508,-9.766,9.277
1628133222.971,-61.035,-48.828,-41.992,-53.223
1628133222.975,-114.746,-44.434,-39.551,-98.145
1628133222.969,-47.363,-17.090,-23.438,-42.969
1628133222.973,29.785,6.348,-20.508,22.461
1628133222.977,-18.066,-14.648,-30.762,-18.555
1628133222.981,-113.770,-50.293,-55.176,-101.562
1628133222.985,-91.309,-41.016,-54.199,-83.008
1628133222.989,8.301,-26.855,-41.992,-1.953
1628133222.993,1.953,-32.227,-39.551,-8.789
1628133222.996,-92.773,-52.246,-34.668,-83.008
1628133223.000,-96.191,-50.781,-29.297,-84.961
1628133223.004,1.465,-34.668,-16.602,-12.207
1628133223.008,30.273,-30.273,-4.395,6.836
1628133223.012,-50.781,-34.668,-6.836,-50.293
1628133223.025,-90.820,-36.621,-23.926,-78.125
1628133223.029,-23.438,-18.066,-30.762,-25.391
1628133223.033,29.785,-9.766,-35.156,14.160
1628133223.037,-28.809,-11.719,-41.016,-40.527
1628133223.041,-86.426,-16.113,-25.879,-87.891
1628133223.045,-33.691,-17.578,-20.996,-40.039
1628133223.049,33.203,-19.531,-28.320,15.137
1628133223.052,-9.277,-36.133,-42.969,-20.508
1628133223.056,-87.891,-45.410,-50.781,-87.402
1628133223.060,-71.289,-43.457,-29.785,-76.172
1628133223.064,11.719,-46.875,-16.113,-6.348
1628133223.068,17.578,-50.781,-20.996,-4.883
1628133223.063,-68.359,-33.691,-24.902,-76.660
1628133223.067,-86.426,-11.230,-18.555,-91.309
1628133223.071,0.000,-12.207,-26.855,-23.438
1628133223.075,23.438,-35.156,-49.316,3.906
1628133223.079,-57.617,-37.598,-48.828,-48.340
1628133223.083,-83.008,-24.414,-36.621,-70.312
1628133223.087,-17.578,-22.949,-39.062,-30.762
1628133223.090,22.949,-33.203,-23.438,4.395
1628133223.094,-30.762,-38.086,-13.672,-31.250
1628133223.098,-91.797,-36.621,-23.926,-76.172
1628133223.102,-41.504,-38.574,-19.043,-44.434
1628133223.106,17.090,-44.434,-22.949,-3.906
1628133223.119,-23.438,-54.199,-31.250,-26.855
1628133223.123,-96.191,-44.434,-29.785,-82.520
1628133223.127,-72.266,-29.785,-20.508,-71.777
1628133223.131,14.160,-36.621,-19.531,-13.184
1628133223.135,12.695,-51.270,-33.203,-7.324
1628133223.139,-55.664,-42.969,-36.133,-54.199
1628133223.143,-68.848,-27.344,-33.203,-71.777
1628133223.146,2.441,-22.949,-26.367,-17.090
1628133223.150,31.250,-35.645,-24.902,11.230
1628133223.154,-46.387,-46.875,-26.855,-42.480
1628133223.158,-85.449,-48.828,-37.109,-83.008
1628133223.162,-22.461,-44.922,-46.387,-32.715
1628133223.156,41.504,-21.484,-33.203,23.438
1628133223.160,5.371,-7.812,-12.207,-4.883
1628133223.164,-84.961,-31.738,-18.066,-71.777
1628133223.168,-57.129,-31.738,-24.414,-50.293
1628133223.172,43.457,-0.977,-18.555,32.227
1628133223.176,16.602,-18.555,-23.926,17.578
1628133223.180,-88.867,-54.688,-26.367,-65.430
1628133223.183,-85.449,-56.641,-22.949,-65.918
1628133223.187,-2.930,-39.551,-24.414,-3.906
1628133223.191,8.789,-24.414,-27.832,9.766
1628133223.195,-73.242,-45.898,-30.762,-46.875
1628133223.199,-108.887,-59.082,-24.902,-78.125
1628133223.212,-34.668,-29.297,-30.762,-31.738
1628133223.216,13.672,-16.602,-34.180,10.742
1628133223.220,-43.945,-27.344,-10.742,-27.344
1628133223.224,-101.074,-25.391,-12.695,-70.801
1628133223.228,-48.340,-20.996,-25.391,-35.645
1628133223.232,21.973,-20.020,-16.113,16.602
1628133223.236,-13.672,-28.320,-11.719,-2.441
1628133223.239,-87.891,-47.363,-15.625,-65.918
1628133223.243,-62.012,-36.133,-34.668,-55.664
1628133223.247,31.250,-9.277,-41.016,17.090
1628133223.251,25.879,-26.855,-26.367,10.254
1628133223.255,-75.684,-56.152,-33.203,-62.012
1628133223.251,-89.355,-66.895,-47.363,-72.266
1628133223.255,1.465,-53.223,-29.297,-14.160
1628133223.259,23.438,-37.598,-24.414,8.301
1628133223.263,-72.266,-41.016,-45.410,-61.523
1628133223.267,-105.957,-32.715,-40.039,-89.355
1628133223.271,-31.738,-19.531,-35.156,-29.785
1628133223.275,17.090,-23.438,-36.621,1.465
1628133223.278,-41.992,-30.762,-28.320,-49.316
1628133223.282,-112.793,-35.156,-21.484,-102.051
1628133223.286,-51.270,-38.574,-19.531,-50.781
1628133223.290,21.973,-38.086,-34.180,13.672
1628133223.294,-18.066,-36.621,-35.156,-13.672
1628133223.306,-92.773,-36.621,-33.203,-73.730
1628133223.310,-63.477,-33.203,-35.645,-62.500
1628133223.314,29.785,-31.250,-36.621,14.160
1628133223.318,33.691,-44.922,-45.898,22.461
1628133223.322,-61.523,-52.734,-41.504,-55.664
1628133223.326,-84.473,-44.922,-41.992,-79.102
1628133223.330,-3.906,-25.391,-39.551,-18.066
1628133223.333,20.508,-10.254,-14.160,10.742
1628133223.337,-57.617,-19.531,-10.254,-49.316
1628133223.341,-99.609,-21.973,-14.160,-83.496
1628133223.345,-19.043,-16.113,-10.742,-16.113
1628133223.349,29.297,-39.062,-10.254,25.391
1628133223.344,-35.156,-46.875,-23.926,-28.809
1628133223.348,-95.215,-33.691,-35.645,-81.543
1628133223.352,-54.688,-26.855,-30.762,-51.758
1628133223.356,23.438,-27.344,-32.715,9.277
1628133223.360,-5.371,-36.133,-40.039,-9.277
1628133223.364,-85.938,-40.527,-47.363,-73.242
1628133223.368,-48.828,-21.484,-20.996,-46.387
1628133223.371,31.738,-20.508,-20.508,8.301
1628133223.375,13.672,-42.969,-51.270,-15.625
1628133223.379,-82.520,-40.527,-52.734,-90.332
1628133223.383,-105.469,-31.738,-31.250,-104.492
1628133223.387,-16.113,-31.738,-17.090,-36.133
1628133223.400,18.555,-32.715,-17.578,-9.766
1628133223.404,-57.129,-33.203,-36.621,-61.523
1628133223.408,-98.145,-25.391,-41.992,-91.309
1628133223.412,-24.414,-25.879,-28.809,-39.551
1628133223.416,43.457,-39.551,-30.762,19.043
1628133223.420,-20.508,-48.340,-55.664,-17.578
1628133223.424,-91.797,-48.340,-62.500,-81.055
1628133223.427,-30.273,-33.203,-38.574,-45.898
1628133223.431,46.387,-37.598,-21.484,16.113
1628133223.435,9.277,-46.387,-20.508,-2.930
1628133223.439,-86.426,-36.621,-25.879,-73.242
1628133223.443,-83.984,-15.625,-30.762,-72.754
1628133223.439,3.906,2.441,-40.039,1.953
1628133223.443,17.090,-23.438,-40.527,17.090
1628133223.447,-49.805,-39.062,-21.484,-40.039
1628133223.451,-78.125,-21.973,-10.254,-65.430
1628133223.455,-20.020,-27.832,-11.719,-25.879
1628133223.459,28.320,-31.738,-13.672,-1.465
1628133223.463,-23.926,-31.250,-10.742,-45.410
1628133223.466,-79.590,-33.203,-20.996,-79.102
1628133223.470,-41.992,-42.480,-27.832,-44.922
1628133223.474,13.184,-55.176,-39.062,1.953
1628133223.478,-25.391,-48.828,-53.223,-19.043
1628133223.482,-93.750,-32.227,-46.875,-72.754
1628133223.494,-54.199,-20.020,-39.062,-50.781
1628133223.498,29.785,-28.809,-14.160,7.324
1628133223.502,29.297,-25.391,10.254,9.277
1628133223.506,-57.129,-25.879,-14.648,-54.688
1628133223.510,-74.707,-29.785,-34.180,-67.383
1628133223.514,19.043,-14.160,-18.555,11.230
1628133223.518,38.574,-19.043,-22.949,28.809
1628133223.521,-55.664,-32.715,-33.203,-42.969
1628133223.525,-95.215,-41.992,-27.832,-70.312
1628133223.529,-18.555,-30.762,-7.812,-13.672
1628133223.533,26.367,-23.926,-19.043,25.879
1628133223.537,-39.551,-41.504,-37.109,-20.508
1628133223.531,-94.727,-43.457,-21.973,-72.754
1628133223.535,-44.922,-30.762,-24.902,-38.086
1628133223.539,29.785,-16.113,-25.391,20.020
1628133223.543,3.906,-14.160,-25.879,-2.441
1628133223.547,-71.289,-19.531,-33.691,-62.988
1628133223.551,-64.453,-29.297,-33.203,-53.711
1628133223.555,10.254,-45.410,-24.414,3.906
1628133223.558,19.531,-27.832,-16.113,6.348
1628133223.562,-62.012,-8.301,-30.273,-57.129
1628133223.566,-83.008,-17.578,-30.273,-73.730
1628133223.570,1.465,-30.273,-12.695,-11.230
1628133223.574,24.902,-41.016,-24.414,12.207
1628133223.589,-47.363,-36.133,-37.598,-35.645
1628133223.593,-91.797,-31.250,-37.109,-71.777
1628133223.597,-27.832,-31.738,-25.879,-17.578
1628133223.601,35.645,-35.645,-13.184,28.809
1628133223.605,-8.301,-39.551,-17.578,-5.371
1628133223.609,-75.195,-31.250,-29.785,-60.547
1628133223.613,-55.176,-20.996,-34.668,-54.199
1628133223.616,10.742,-16.113,-27.344,-2.930
1628133223.620,1.465,-18.066,-28.320,-8.789
1628133223.624,-79.590,-29.297,-33.203,-68.848
1628133223.628,-74.219,-35.156,-15.625,-60.059
1628133223.632,15.137,-34.180,-7.324,9.766
1628133223.625,14.648,-33.203,-23.438,4.883
1628133223.629,-62.988,-32.715,-49.805,-50.781
1628133223.633,-83.984,-41.016,-64.453,-63.477
1628133223.637,-16.602,-41.504,-44.434,-22.949
1628133223.641,20.996,-49.316,-16.113,2.441
1628133223.645,-33.203,-49.316,-11.719,-35.645
1628133223.649,-82.520,-41.992,-32.227,-76.660
1628133223.652,-32.715,-39.062,-45.410,-33.691
1628133223.656,11.719,-23.438,-45.898,3.906
1628133223.660,-47.363,-16.602,-44.922,-42.480
1628133223.664,-91.797,-9.766,-29.785,-77.637
1628133223.668,-47.852,-4.883,-36.621,-42.480
1628133223.681,31.250,-7.812,-40.527,21.484
1628133223.685,18.066,-16.602,-25.879,11.230
1628133223.689,-81.055,-39.551,-23.438,-68.359
1628133223.693,-90.332,-52.246,-29.297,-76.660
1628133223.697,-12.695,-49.316,-40.527,-15.137
1628133223.701,18.555,-39.062,-28.809,11.719
1628133223.705,-57.129,-51.270,-23.926,-50.293
1628133223.708,-108.887,-47.852,-32.227,-97.656
1628133223.712,-29.297,-18.555,-39.062,-38.574
1628133223.716,25.391,-17.090,-46.875,9.277
1628133223.720,-37.598,-34.180,-41.016,-31.738
1628133223.724,-95.703,-35.645,-40.527,-78.613
1628133223.719,-40.039,-16.602,-35.645,-39.062
1628133223.723,25.391,-28.809,-26.367,16.602
1628133223.727,-10.742,-46.875,-18.066,-7.324
1628133223.731,-66.895,-38.574,-13.184,-49.805
1628133223.735,-38.574,-33.203,-31.738,-34.668
1628133223.739,22.461,-15.137,-43.945,8.789
1628133223.743,5.371,0.977,-35.645,6.348
1628133223.746,-80.566,-20.996,-35.645,-57.617
1628133223.750,-89.844,-30.762,-45.410,-74.219
1628133223.754,-4.395,-33.691,-66.406,-11.719
1628133223.758,20.996,-45.898,-57.129,7.812
1628133223.762,-49.805,-48.828,-42.480,-49.316
1628133223.794,-103.516,-42.480,-48.340,-87.891
1628133223.798,-43.457,-24.902,-44.922,-46.387
1628133223.802,20.020,-18.555,-33.691,-3.418
1628133223.806,-27.832,-19.043,-21.973,-38.086
1628133223.810,-99.121,-15.625,-25.391,-97.656
1628133223.814,-41.504,-34.668,-39.062,-52.734
1628133223.818,31.250,-31.738,-44.922,16.113
1628133223.821,-37.598,-24.414,-63.477,-38.574
1628133223.825,-97.656,-51.758,-56.641,-88.379
1628133223.829,-34.668,-46.387,-33.691,-38.086
1628133223.833,17.578,-34.180,-45.898,-1.465
1628133223.837,-40.039,-43.457,-61.523,-44.434
1628133223.832,-95.703,-25.391,-53.711,-85.938
1628133223.836,-44.922,-3.418,-38.086,-50.781
1628133223.840,30.273,-8.301,-35.156,2.441
1628133223.844,-2.441,-27.344,-47.852,-19.531
1628133223.848,-77.637,-39.551,-29.297,-69.824
1628133223.852,-75.195,-40.039,-20.020,-67.383
1628133223.856,5.371,-28.320,-37.109,-10.742
1628133223.859,15.137,-32.227,-32.227,0.488
1628133223.863,-55.664,-28.809,-15.137,-48.828
1628133223.867,-80.078,-18.066,-29.785,-76.172
1628133223.871,-10.742,-11.230,-52.246,-32.715
1628133223.875,36.133,-5.371,-34.180,8.301
1628133223.889,-42.480,-26.855,-40.527,-45.898
1628133223.893,-88.867,-37.598,-32.227,-71.289
1628133223.897,-20.020,-26.367,-11.230,-23.438
1628133223.901,38.086,-22.949,-25.391,15.137
1628133223.905,-5.371,-26.367,-36.133,-16.602
1628133223.909,-95.703,-35.645,-44.434,-91.797
1628133223.913,-76.172,-39.551,-43.945,-77.148
1628133223.916,24.414,-24.414,-25.391,7.812
1628133223.920,7.324,-31.250,-21.973,0.488
1628133223.924,-75.684,-42.480,-20.996,-61.523
1628133223.928,-59.082,-8.789,-12.695,-47.363
1628133223.932,17.090,-4.395,-27.344,5.371
1628133223.925,16.602,-31.738,-46.875,0.488
1628133223.929,-58.594,-18.555,-49.805,-50.781
1628133223.933,-72.754,-10.742,-36.621,-62.988
1628133223.937,-5.859,-24.902,-32.227,-18.066
1628133223.941,33.691,-25.879,-31.250,10.742
1628133223.945,-31.738,-33.203,-30.273,-36.133
1628133223.949,-79.590,-31.250,-25.391,-73.730
1628133223.952,-23.438,-18.555,-26.367,-36.133
1628133223.956,36.621,-19.531,-35.156,11.719
1628133223.960,-3.418,-33.691,-31.250,-11.230
1628133223.964,-76.172,-41.504,-26.367,-63.965
1628133223.968,-44.434,-35.156,-14.648,-48.828
1628133223.962,30.273,-19.531,-18.066,9.766
1628133223.966,23.438,-16.113,-34.180,21.973
1628133223.970,-52.734,-30.273,-28.809,-33.203
1628133223.974,-73.730,-40.527,-16.113,-54.199
1628133223.978,-6.836,-43.945,-33.203,-3.418
1628133223.982,20.996,-26.855,-53.223,19.531
1628133223.986,-49.316,-17.090,-35.156,-42.969
1628133223.989,-81.543,-8.301,-22.461,-76.660
1628133223.993,-12.695,-3.906,-20.020,-23.438
1628133223.997,26.367,-19.043,-14.648,13.672
1628133224.001,-41.992,-37.109,-21.484,-30.762
1628133224.005,-102.051,-38.086,-31.738,-79.102
1628133224.001,-38.574,-31.738,-35.645,-35.645
1628133224.005,33.203,-24.414,-30.762,20.508
1628133224.009,-0.488,-21.484,-17.578,-2.441
1628133224.013,-72.266,-33.691,-20.020,-62.500
1628133224.017,-64.941,-35.156,-34.180,-60.547
1628133224.021,19.043,-25.391,-41.016,2.930
1628133224.025,29.297,-33.691,-34.180,16.602
1628133224.028,-61.523,-42.480,-44.922,-54.688
1628133224.032,-86.914,-34.180,-44.922,-80.566
1628133224.036,3.906,-16.602,-26.855,-15.625
1628133224.040,41.992,-24.902,-30.273,16.113
1628133224.044,-45.898,-48.828,-42.969,-51.270
1628133224.094,-94.727,-41.504,-29.297,-90.820
1628133224.098,-24.902,-14.160,-9.766,-28.320
1628133224.102,20.508,-16.113,-26.367,9.277
1628133224.106,-29.297,-42.480,-42.480,-41.016
1628133224.110,-86.914,-48.340,-40.039,-83.496
1628133224.114,-41.992,-27.344,-25.879,-38.086
1628133224.118,35.156,-13.184,-24.902,22.461
1628133224.121,2.930,-26.855,-24.902,-0.488
1628133224.125,-76.660,-25.879,-13.672,-62.988
1628133224.129,-61.523,-24.902,-31.738,-51.758
1628133224.133,-61.035,-24.414,-48.340,-47.363
1628133224.137,-92.773,-23.438,-51.270,-75.195
1628133224.113,-17.578,-38.574,-52.734,-20.020
1628133224.117,27.832,-38.574,-30.273,19.043
1628133224.121,-39.551,-49.316,-13.672,-30.273
1628133224.125,-87.891,-44.434,-15.625,-66.406
1628133224.129,-38.574,-11.719,-30.762,-28.809
1628133224.133,22.949,-16.113,-36.133,14.160
1628133224.137,-24.414,-55.176,-30.273,-21.484
1628133224.140,-102.539,-41.016,-35.156,-81.055
1628133224.144,-57.617,-9.766,-24.414,-45.410
1628133224.148,25.879,-22.461,-10.254,16.602
1628133224.152,10.254,-41.016,-16.602,7.324
1628133224.156,-75.195,-47.363,-39.551,-58.105
1628133224.153,-87.402,-48.340,-56.152,-74.707
1628133224.157,-1.465,-49.316,-57.617,-14.648
1628133224.161,34.180,-36.133,-52.734,6.348
1628133224.165,-44.922,-29.785,-43.945,-51.758
1628133224.169,-92.285,-33.691,-32.227,-80.566
1628133224.173,-27.344,-21.973,-18.066,-27.344
1628133224.177,29.297,-14.160,-15.625,16.602
1628133224.180,-17.578,-16.602,-22.949,-19.043
1628133224.184,-82.031,-26.367,-35.645,-65.430
1628133224.188,-46.387,-38.086,-43.945,-40.527
1628133224.192,20.508,-41.016,-38.086,10.254
1628133224.196,-3.906,-40.039,-32.227,-3.906
1628133224.206,-82.520,-48.828,-38.086,-67.383
1628133224.210,-75.195,-43.457,-33.691,-65.918
1628133224.214,0.977,-24.902,-23.438,-11.230
1628133224.218,2.930,-20.508,-18.066,-7.324
1628133224.222,-76.660,-26.855,-18.066,-67.383
1628133224.226,-88.867,-21.484,-14.160,-80.078
1628133224.230,-16.113,-13.672,-19.043,-21.973
1628133224.233,6.836,-19.531,-39.551,-1.953
1628133224.237,-61.523,-27.344,-39.551,-48.828
1628133224.241,-93.262,-33.691,-29.785,-69.824
1628133224.245,-19.043,-35.156,-26.367,-8.789
1628133224.249,20.020,-27.832,-29.297,24.902
1628133224.252,-43.457,-35.645,-17.578,-42.969
1628133224.256,23.926,-42.969,-39.551,6.348
1628133224.260,-16.113,-43.945,-42.969,-21.973
1628133224.264,-104.004,-35.645,-25.391,-86.914
1628133224.268,-88.867,-14.160,-20.508,-75.684
1628133224.271,6.348,-8.789,-22.461,-9.766
1628133224.275,20.996,-24.414,-26.367,-1.465
1628133224.279,-57.129,-30.273,-28.809,-59.570
1628133224.283,-71.777,-8.301,-44.434,-71.289
1628133224.287,0.488,-1.953,-52.246,-12.695
1628133224.300,30.762,-30.762,-32.227,9.766
1628133224.304,-43.945,-47.852,-26.367,-49.316
1628133224.308,-103.516,-28.320,-24.414,-86.914
1628133224.312,-38.574,-20.996,-17.090,-31.738
1628133224.316,18.066,-40.527,-23.926,13.184
1628133224.320,-30.762,-37.109,-35.645,-24.902
1628133224.324,-97.656,-42.480,-36.133,-77.637
1628133224.327,-70.801,-37.598,-35.645,-55.664
1628133224.331,8.301,-25.879,-31.738,-1.465
1628133224.335,-14.160,-41.992,-32.715,-20.020
1628133224.339,-96.680,-44.434,-35.156,-72.754
1628133224.343,-81.055,-25.879,-29.297,-62.988
1628133224.338,14.160,-3.418,-26.855,1.465
1628133224.342,32.715,-2.441,-27.344,15.625
1628133224.346,-55.664,-35.156,-33.203,-52.734
1628133224.350,-87.402,-45.898,-37.598,-83.496
1628133224.354,-12.695,-36.133,-29.297,-32.227
1628133224.358,24.414,-29.785,-27.832,3.418
1628133224.362,-42.480,-30.273,-35.156,-40.527
1628133224.365,-107.422,-37.109,-36.133,-90.332
1628133224.369,-54.199,-34.668,-41.504,-47.363
1628133224.373,21.973,-31.738,-39.062,12.695
1628133224.377,-12.207,-36.621,-27.344,-14.648
1628133224.381,-91.309,-40.527,-30.762,-75.195
1628133224.394,-61.523,-26.855,-31.738,-49.805
1628133224.398,23.926,-15.137,-36.133,12.207
1628133224.402,5.859,-26.367,-43.457,-1.465
1628133224.406,-73.730,-31.738,-33.691,-51.758
1628133224.410,-81.055,-38.574,-40.039,-59.082
1628133224.414,2.441,-39.551,-54.688,0.977
1628133224.418,27.832,-44.434,-47.852,20.020
1628133224.421,-53.711,-50.293,-29.785,-37.109
1628133224.425,-89.355,-33.203,-9.277,-60.547
1628133224.429,-25.879,-9.277,-6.348,-14.648
1628133224.433,25.391,-0.977,-6.836,20.996
1628133224.437,-35.156,-37.598,-15.625,-24.902
1628133224.431,-101.562,-62.012,-21.973,-77.637
1628133224.435,-48.828,-40.039,-22.949,-36.621
1628133224.439,26.367,-27.832,-29.785,19.531
1628133224.443,-4.395,-27.344,-36.133,0.488
1628133224.447,-88.379,-32.227,-39.062,-60.059
1628133224.451,-61.523,-23.926,-38.086,-46.387
1628133224.455,23.926,-20.996,-37.109,18.555
1628133224.458,7.324,-32.227,-42.969,5.859
1628133224.462,-73.242,-34.668,-45.898,-59.570
1628133224.466,-85.449,-33.691,-37.598,-76.660
1628133224.470,-7.324,-24.902,-33.203,-13.672
1628133224.474,28.320,-28.320,-43.457,19.043
1628133224.489,-49.316,-40.527,-37.598,-39.062
1628133224.493,-88.379,-37.598,-24.902,-71.777
1628133224.497,-28.320,-27.832,-31.250,-35.645
1628133224.501,19.531,-33.691,-28.320,2.930
1628133224.505,-37.109,-54.199,-28.809,-32.715
1628133224.509,-103.516,-47.852,-37.598,-85.938
1628133224.513,-47.363,-31.738,-43.457,-50.293
1628133224.516,33.203,-25.879,-24.902,19.531
1628133224.520,5.859,-25.391,-5.859,5.859
1628133224.524,-76.660,-22.949,-12.207,-58.105
1628133224.528,-71.289,-22.949,-17.578,-56.152
1628133224.532,13.184,-21.973,-17.090,10.254
1628133224.526,20.020,-22.461,-25.391,16.113
1628133224.530,-59.082,-23.438,-28.320,-51.270
1628133224.534,-73.242,-14.648,-26.367,-62.012
1628133224.538,-4.883,-11.230,-22.461,-1.465
1628133224.542,30.273,-19.043,-20.996,33.203
1628133224.546,-26.367,-20.508,-37.598,-15.625
1628133224.550,-79.102,-33.203,-43.457,-70.801
1628133224.553,-24.902,-45.898,-26.855,-35.156
1628133224.557,37.109,-40.527,-23.926,12.695
1628133224.561,-10.254,-42.480,-34.180,-21.973
1628133224.565,-82.031,-36.133,-34.668,-68.359
1628133224.569,-53.711,-23.926,-28.809,-48.340
1628133224.581,41.016,-11.719,-21.973,17.090
1628133224.585,27.344,-10.254,-25.391,15.625
1628133224.589,-67.871,-21.484,-23.926,-58.105
1628133224.593,-65.918,-18.555,-21.973,-63.477
1628133224.597,24.414,-20.508,-33.203,9.277
1628133224.601,38.086,-33.691,-42.969,18.066
1628133224.605,-58.105,-45.410,-46.875,-57.617
1628133224.608,-92.285,-49.316,-30.273,-79.590
1628133224.612,-6.348,-36.133,-9.766,-10.254
1628133224.616,43.457,-31.250,-15.137,28.320
1628133224.620,-12.207,-32.715,-14.648,-8.789
1628133224.624,-64.941,-30.273,-10.254,-51.270
1628133224.619,-22.461,-32.227,-18.066,-25.391
1628133224.623,29.297,-36.621,-28.809,14.648
1628133224.627,-13.672,-30.762,-33.691,-23.438
1628133224.631,-89.355,-29.785,-50.293,-77.148
1628133224.635,-67.383,-29.297,-61.035,-61.035
1628133224.639,27.832,-10.254,-39.551,4.883
1628133224.643,32.715,-14.160,-29.785,7.324
1628133224.646,-62.988,-38.086,-43.457,-63.477
1628133224.650,-82.031,-46.875,-36.621,-78.125
1628133224.654,8.301,-37.109,-20.996,-10.742
1628133224.658,37.598,-28.320,-9.766,14.160
1628133224.662,-43.945,-35.645,-14.160,-44.922
1628133224.675,-75.684,-33.203,-30.273,-68.848
1628133224.679,0.488,-25.391,-29.785,-11.719
1628133224.683,47.363,-22.461,-21.484,25.391
1628133224.687,-13.672,-28.809,-22.461,-21.484
1628133224.691,-68.848,-24.414,-27.832,-62.988
1628133224.695,-19.043,-14.160,-26.855,-27.344
1628133224.699,45.410,-24.902,-17.578,24.902
1628133224.702,8.301,-31.738,-29.785,-2.930
1628133224.706,-71.777,-38.086,-44.434,-66.406
1628133224.710,-43.457,-33.691,-21.973,-44.922
1628133224.714,49.805,-10.742,-6.348,20.020
1628133224.718,30.273,-23.438,-23.438,11.719
1628133224.713,-58.105,-50.781,-35.645,-58.594
1628133224.717,-53.223,-27.344,-21.484,-56.152
1628133224.721,24.902,7.812,-16.602,13.672
1628133224.725,34.668,-10.742,-35.645,20.508
1628133224.729,-45.410,-47.852,-36.133,-49.316
1628133224.733,-88.867,-48.340,-28.320,-82.031
1628133224.737,-25.391,-31.738,-22.461,-27.832
1628133224.740,36.133,-34.180,-15.137,21.484
1628133224.744,-35.645,-56.641,-25.391,-24.414
1628133224.748,-100.586,-52.246,-31.738,-70.312
1628133224.752,-44.434,-28.809,-29.785,-29.785
1628133224.756,26.367,-20.508,-25.391,18.555
1628133224.770,4.395,-21.973,-19.531,-0.488
1628133224.774,-76.172,-37.598,-26.367,-59.082
1628133224.778,-66.895,-38.574,-21.973,-51.270
1628133224.782,28.320,-20.996,-6.836,21.973
1628133224.786,27.344,-32.715,-9.277,27.832
1628133224.790,-68.359,-60.059,-15.625,-38.574
1628133224.794,-88.379,-57.617,-13.184,-55.176
1628133224.797,-6.836,-34.180,-18.555,2.441
1628133224.801,39.551,-18.555,-22.949,27.832
1628133224.805,-27.832,-27.344,-16.602,-25.879
1628133224.809,-90.332,-28.320,-26.855,-68.359
1628133224.813,-27.344,-18.555,-50.293,-34.180
1628133224.808,34.180,-24.414,-52.246,1.953
1628133224.812,-13.184,-31.250,-28.320,-31.738
1628133224.816,-72.754,-27.344,-21.973,-74.707
1628133224.820,-34.668,-20.508,-29.297,-49.316
1628133224.824,35.156,-31.250,-25.391,4.883
1628133224.828,7.812,-33.203,-27.832,-9.766
1628133224.832,-78.125,-27.832,-33.203,-69.336
1628133224.835,-77.637,-27.344,-39.551,-68.848
1628133224.839,0.977,-34.180,-46.387,-13.184
1628133224.843,5.859,-40.527,-42.480,-9.277
1628133224.847,-77.148,-29.297,-38.574,-65.918
1628133224.851,-105.957,-22.461,-39.551,-81.055
1628133224.862,-29.297,-38.086,-35.645,-19.531
1628133224.866,10.742,-51.270,-28.809,13.184
1628133224.870,-54.688,-25.879,-28.320,-32.715
1628133224.874,-104.980,-15.625,-29.785,-70.801
1628133224.878,-53.711,-26.367,-34.180,-38.574
1628133224.882,26.367,-25.879,-33.691,18.555
1628133224.886,-12.207,-35.156,-27.344,-10.254
1628133224.889,-98.145,-31.738,-22.949,-78.613
1628133224.893,-72.266,-18.555,-34.180,-65.918
1628133224.897,13.672,-34.668,-36.133,-4.883
1628133224.901,12.207,-40.527,-25.391,-3.418
1628133224.905,-69.336,-23.926,-39.551,-64.941
1628133224.900,-75.195,-20.020,-56.152,-72.266
1628133224.904,12.695,-5.859,-43.457,4.395
1628133224.908,32.715,-6.348,-29.785,22.949
1628133224.912,-52.734,-35.156,-41.992,-44.434
1628133224.916,-93.262,-41.992,-42.480,-69.336
1628133224.920,-36.621,-48.340,-29.785,-30.762
1628133224.924,6.348,-57.129,-20.508,0.488
1628133224.927,-51.758,-53.223,-18.066,-37.109
1628133224.931,-114.746,-50.781,-29.785,-84.473
1628133224.935,-45.410,-27.344,-28.320,-39.062
1628133224.939,28.809,-11.719,-30.273,17.090
1628133224.943,-23.438,-16.113,-27.344,-21.484
1628133224.956,-99.121,-24.414,-23.926,-77.148
1628133224.960,-74.219,-31.738,-30.273,-54.688
1628133224.964,18.555,-20.996,-28.809,11.719
1628133224.968,17.090,-29.785,-35.645,5.859
1628133224.972,-81.543,-46.875,-51.758,-76.172
1628133224.976,-98.633,-50.293,-49.316,-84.473
1628133224.980,-3.906,-35.156,-29.297,-8.301
1628133224.983,35.645,-29.785,-23.438,15.137
1628133224.987,-47.363,-55.176,-46.387,-46.387
1628133224.991,-105.469,-38.574,-51.270,-83.984
1628133224.995,-52.246,-16.113,-29.297,-45.898
1628133224.999,14.648,-17.578,-13.672,2.930
1628133224.994,-38.086,-27.832,-19.043,-34.180
1628133224.998,-117.188,-36.133,-40.527,-91.309
1628133225.002,-66.895,-26.855,-39.062,-57.617
1628133225.006,18.555,-25.391,-35.156,-4.883
1628133225.010,-9.766,-32.227,-38.574,-25.879
1628133225.014,-84.473,-33.691,-43.945,-84.961
1628133225.018,-66.895,-39.551,-46.875,-77.637
1628133225.021,13.672,-33.691,-41.504,-12.207
1628133225.025,25.879,-23.438,-47.852,12.695
1628133225.029,-45.898,-22.949,-44.434,-34.668
1628133225.033,-75.684,-25.391,-36.621,-74.707
1628133225.037,-5.371,-28.320,-33.203,-33.203
1628133225.050,37.598,-33.691,-28.320,0.977
1628133225.054,-35.645,-36.621,-34.668,-41.016
1628133225.058,-88.379,-32.227,-43.945,-76.660
1628133225.062,-25.391,-26.855,-41.504,-39.551
1628133225.066,31.250,-34.668,-30.273,5.371
1628133225.070,-15.137,-43.945,-24.414,-18.066
1628133225.074,-80.566,-43.945,-31.738,-67.871
1628133225.077,-54.199,-27.344,-41.992,-47.363
1628133225.081,18.555,-20.020,-29.297,14.160
1628133225.085,-0.977,-29.297,-16.113,8.789
1628133225.089,-75.195,-28.809,-23.926,-46.875
1628133225.093,-77.148,-18.066,-27.832,-61.035
1628133225.089,7.324,-13.184,-19.531,-3.418
1628133225.093,31.738,-23.926,-28.809,17.578
1628133225.097,-51.270,-36.133,-30.762,-41.992
1628133225.101,-89.844,-35.156,-25.879,-67.871
1628133225.105,-23.926,-33.203,-26.855,-20.996
1628133225.109,35.156,-27.832,-24.414,15.625
1628133225.113,-23.926,-33.203,-37.598,-28.320
1628133225.116,-82.520,-38.086,-49.805,-66.895
1628133225.120,-27.832,-33.203,-34.180,-23.926
1628133225.124,27.344,-33.203,-23.438,17.578
1628133225.128,-13.672,-41.016,-20.508,-16.602
1628133225.132,-93.262,-50.293,-20.020,-82.520
1628133225.144,-78.125,-41.992,-22.949,-72.266
1628133225.148,12.695,-20.508,-19.043,-3.906
1628133225.152,14.648,-10.742,-23.926,2.930
1628133225.156,-72.266,-21.484,-40.527,-56.152
1628133225.160,-82.031,-28.320,-51.758,-71.289
1628133225.164,2.930,-20.020,-42.969,-3.906
1628133225.168,33.691,-30.762,-25.391,22.461
1628133225.171,-41.016,-39.062,-26.367,-36.133
1628133225.175,-85.938,-46.875,-41.992,-66.895
1628133225.179,-23.438,-47.852,-45.898,-18.555
1628133225.183,21.484,-26.855,-35.156,20.996
1628133225.187,-40.527,-26.855,-30.762,-29.297
1628133225.181,-104.004,-25.879,-37.109,-84.473
1628133225.185,-49.805,-15.625,-38.086,-49.316
1628133225.189,21.973,-20.508,-35.156,2.441
1628133225.193,-23.926,-34.668,-35.156,-25.391
1628133225.197,-104.492,-30.273,-35.156,-82.520
1628133225.201,-78.613,-19.531,-41.016,-73.242
1628133225.205,13.672,-34.180,-27.832,-8.301
1628133225.208,17.578,-44.434,-18.555,-3.418
1628133225.212,-77.148,-47.363,-42.969,-76.172
1628133225.216,-84.961,-35.645,-48.340,-77.148
1628133225.220,13.184,-20.508,-30.762,-10.254
1628133225.224,46.875,-22.949,-21.484,13.184
1628133225.239,-27.832,-20.020,-33.203,-40.039
1628133225.243,-80.566,-30.273,-39.551,-79.102
1628133225.247,-21.484,-33.691,-21.973,-31.250
1628133225.251,41.992,-30.273,-17.578,15.137
1628133225.255,-8.789,-25.879,-35.156,-18.066
1628133225.259,-97.168,-33.203,-44.922,-75.684
1628133225.263,-65.918,-38.086,-49.805,-55.176
1628133225.266,21.973,-26.367,-53.223,5.859
1628133225.270,-3.906,-28.320,-43.945,-12.695
1628133225.274,-93.262,-38.574,-42.480,-73.730
1628133225.278,-78.613,-37.598,-37.109,-66.406
1628133225.282,16.602,-29.297,-20.020,-3.906
1628133225.275,17.090,-27.832,-20.508,0.977
1628133225.279,-71.289,-29.297,-24.902,-63.477
1628133225.283,-85.449,-24.902,-23.438,-77.148
1628133225.287,-9.766,-23.438,-23.926,-18.555
1628133225.291,26.367,-26.367,-21.973,8.301
1628133225.295,-32.715,-43.945,-27.344,-41.016
1628133225.299,-97.656,-46.875,-36.133,-90.820
1628133225.302,-51.270,-21.973,-40.527,-50.293
1628133225.306,18.555,-19.531,-48.828,3.906
1628133225.310,-20.020,-34.180,-64.453,-23.438
1628133225.314,-86.426,-33.691,-51.270,-66.895
1628133225.318,-60.547,-37.598,-24.414,-57.129
1628133225.331,4.883,-35.645,-38.574,-13.672
1628133225.335,-19.043,-38.574,-43.945,-25.391
1628133225.339,-102.539,-47.852,-22.461,-87.402
1628133225.343,-89.844,-38.086,-23.438,-76.172
1628133225.347,11.230,-17.090,-20.020,-5.859
1628133225.351,14.648,-15.137,-22.461,-8.301
1628133225.355,-84.961,-42.480,-30.273,-80.078
1628133225.358,-109.863,-48.828,-29.785,-103.027
1628133225.362,-14.160,-28.320,-33.691,-28.809
1628133225.366,40.527,-16.113,-36.621,24.414
1628133225.370,-32.715,-20.020,-43.457,-31.250
1628133225.374,-101.562,-25.391,-42.480,-85.449
1628133225.370,-48.340,-21.484,-26.367,-43.945
1628133225.374,38.574,-13.184,-21.973,13.672
1628133225.378,5.859,-19.043,-36.621,-16.602
1628133225.382,-71.777,-27.832,-48.828,-77.637
1628133225.386,-48.828,-25.391,-42.969,-58.105
1628133225.390,28.809,-25.879,-28.320,5.371
1628133225.394,13.672,-30.762,-25.391,-4.395
1628133225.397,-72.754,-33.691,-26.855,-64.453
1628133225.401,-86.426,-43.945,-33.691,-76.172
1628133225.405,-11.719,-43.945,-48.340,-26.367
1628133225.409,28.320,-20.020,-42.480,9.766
1628133225.413,-45.898,-11.719,-21.484,-41.016
1628133225.463,-94.238,-13.672,-14.648,-75.684
1628133225.467,-20.996,-16.113,-15.625,-20.020
1628133225.471,33.691,-27.344,-30.762,19.043
1628133225.475,-31.250,-40.039,-45.898,-30.273
1628133225.479,-101.562,-33.691,-33.203,-87.402
1628133225.483,-55.664,-18.555,-28.320,-56.641
1628133225.487,13.672,-26.367,-30.273,-4.883
1628133225.490,-20.508,-40.039,-32.715,-32.227
1628133225.494,-98.633,-45.410,-42.480,-85.938
1628133225.498,-79.102,-36.621,-38.574,-65.918
1628133225.502,-3.418,-21.484,-39.551,-19.043
1628133225.506,27.832,-27.344,-56.152,1.953
1628133225.500,-29.785,-49.805,-61.523,-40.527
1628133225.504,-104.980,-47.363,-47.852,-98.633
1628133225.508,-63.965,-28.320,-39.551,-68.848
1628133225.512,22.461,-27.832,-36.621,0.488
1628133225.516,4.395,-26.367,-38.574,-6.836
1628133225.520,-85.449,-43.945,-50.781,-73.242
1628133225.524,-83.496,-52.734,-52.246,-72.266
1628133225.527,9.766,-41.504,-28.809,-3.418
1628133225.531,30.273,-50.293,-22.949,17.578
1628133225.535,-52.734,-45.410,-20.996,-42.480
1628133225.539,-98.633,-31.738,-24.902,-77.637
1628133225.543,-20.508,-25.391,-37.598,-20.020
1628133225.538,28.809,-26.367,-32.227,19.531
1628133225.542,-50.293,-32.715,-31.250,-43.457
1628133225.546,-96.191,-24.902,-26.855,-77.148
1628133225.550,-33.691,-29.785,-20.508,-27.832
1628133225.554,36.133,-29.297,-21.973,22.949
1628133225.558,5.859,-31.250,-22.949,4.883
1628133225.562,-83.984,-45.410,-29.785,-62.500
1628133225.565,-63.965,-39.062,-23.926,-49.805
1628133225.569,14.648,-35.156,-32.227,7.324
1628133225.573,5.859,-26.367,-41.504,1.953
1628133225.577,-74.219,-30.762,-41.016,-63.477
1628133225.581,-83.984,-39.551,-40.527,-69.824
1628133225.611,-0.488,-25.391,-25.879,1.465
1628133225.615,20.020,-18.066,-23.926,13.184
1628133225.619,-50.781,-15.137,-20.996,-41.016
1628133225.623,-81.055,-16.113,-9.766,-61.035
1628133225.627,-11.719,-21.973,-9.766,-12.207
1628133225.631,41.016,-41.504,-10.742,31.250
1628133225.635,-24.902,-58.105,-23.926,-17.090
1628133225.638,-95.703,-40.527,-42.480,-77.637
1628133225.642,-49.805,-21.484,-41.504,-46.387
1628133225.646,21.484,-20.996,-37.109,9.277
1628133225.650,-9.277,-29.297,-47.852,-4.883
1628133225.654,-83.496,-27.832,-49.316,-61.523
1628133225.632,-66.895,-27.832,-22.461,-53.223
1628133225.636,13.184,-26.367,-15.137,15.137
1628133225.640,12.207,-28.320,-38.086,14.160
1628133225.644,-59.570,-26.855,-28.809,-48.828
1628133225.648,-69.336,-20.508,-18.066,-62.988
1628133225.652,5.371,-23.438,-25.879,-10.254
1628133225.656,45.410,-12.695,-30.273,18.555
1628133225.659,-26.855,-15.137,-39.062,-31.250
1628133225.663,-73.730,-27.832,-36.133,-60.059
1628133225.667,-1.953,-20.996,-30.762,-8.301
1628133225.671,43.457,-40.039,-36.133,16.113
1628133225.675,-23.438,-64.941,-41.016,-36.621
1628133225.689,-83.008,-57.617,-39.551,-85.449
1628133225.693,-30.273,-22.949,-39.062,-49.805
1628133225.697,45.410,-8.789,-47.852,9.277
1628133225.701,17.090,-8.789,-44.922,-6.836
1628133225.705,-56.641,-7.812,-26.855,-57.129
1628133225.709,-49.316,-9.766,-29.297,-54.688
1628133225.713,25.391,-13.672,-32.227,-1.465
1628133225.716,34.668,-23.438,-36.133,6.836
1628133225.720,-59.570,-37.109,-49.316,-63.965
1628133225.724,-90.332,-41.504,-53.711,-88.379
1628133225.728,-3.418,-28.809,-40.039,-27.832
1628133225.732,44.434,-9.766,-21.973,10.254
1628133225.726,-20.020,-14.160,-13.672,-23.926
1628133225.730,-78.125,-22.949,-23.926,-68.848
1628133225.734,-29.297,-26.855,-33.691,-34.180
1628133225.738,22.461,-39.551,-34.668,12.695
1628133225.742,-14.648,-25.879,-32.227,-25.879
1628133225.746,-77.637,-10.742,-21.973,-77.637
1628133225.750,-53.711,-15.625,-28.320,-56.641
1628133225.753,28.809,-28.809,-37.598,7.324
1628133225.757,18.066,-41.992,-36.133,10.742
1628133225.761,-75.195,-52.734,-32.227,-54.688
1628133225.765,-83.008,-37.598,-29.297,-62.500
1628133225.769,8.301,-21.484,-29.297,-0.488
1628133225.781,10.254,-38.086,-39.551,2.441
1628133225.785,-82.031,-44.922,-49.805,-67.383
1628133225.789,-97.168,-38.574,-47.363,-82.520
1628133225.793,-12.695,-26.367,-26.855,-20.996
1628133225.797,24.902,-25.879,-18.555,12.207
1628133225.801,-33.203,-34.668,-26.855,-26.855
1628133225.805,-87.402,-38.574,-29.297,-72.754
1628133225.808,-48.828,-36.621,-29.297,-42.480
1628133225.812,25.879,-28.809,-20.996,22.461
1628133225.816,-17.578,-31.250,-34.668,-10.254
1628133225.820,-97.656,-31.738,-43.945,-73.242
1628133225.824,-66.895,-20.020,-24.902,-56.152
1628133225.819,4.883,-35.156,-35.156,0.977
1628133225.823,2.441,-47.363,-46.875,6.348
1628133225.827,-75.684,-48.828,-39.551,-48.828
1628133225.831,-85.938,-35.156,-24.902,-55.664
1628133225.835,-3.906,-22.461,-28.320,-4.883
1628133225.839,19.531,-33.203,-42.969,7.324
1628133225.843,-58.105,-36.621,-33.203,-46.387
1628133225.846,-102.539,-44.434,-29.785,-81.543
1628133225.850,-36.133,-59.082,-35.645,-35.156
1628133225.854,20.508,-45.898,-24.414,13.672
1628133225.858,-41.992,-38.574,-22.461,-25.391
1628133225.862,-98.145,-40.039,-26.855,-75.684
1628133225.875,-39.551,-27.832,-24.902,-42.969
1628133225.879,37.598,-15.625,-20.020,24.414
1628133225.883,1.465,-21.484,-26.855,0.488
1628133225.887,-85.449,-33.203,-32.715,-72.754
1628133225.891,-58.105,-25.879,-23.926,-56.152
1628133225.895,24.414,-20.020,-29.297,9.766
1628133225.899,11.719,-37.109,-39.551,-0.488
1628133225.902,-54.199,-33.691,-34.180,-57.129
1628133225.906,-66.406,-16.602,-32.227,-64.941
1628133225.910,-9.766,-36.621,-38.574,-13.672
1628133225.914,15.625,-54.688,-42.969,3.906
1628133225.918,-46.875,-34.668,-45.898,-52.246
1628133225.913,-88.867,-8.789,-52.246,-84.473
1628133225.917,-30.273,-1.465,-36.133,-40.039
1628133225.921,29.785,-15.625,-12.695,7.324
1628133225.925,-19.043,-27.344,-16.602,-23.926
1628133225.929,-90.332,-31.738,-28.320,-74.219
1628133225.933,-53.223,-24.902,-29.785,-46.875
1628133225.937,14.160,-18.066,-32.227,6.348
1628133225.940,-9.766,-43.457,-36.133,-7.324
1628133225.944,-92.285,-71.289,-37.598,-66.406
1628133225.948,-89.355,-54.199,-34.668,-68.848
1628133225.952,2.930,-14.648,-29.785,-4.883
1628133225.956,23.438,-3.906,-16.602,20.508
1628133225.969,-55.176,-19.043,-23.926,-41.016
1628133225.973,-89.844,-26.367,-39.062,-84.473
1628133225.977,-25.391,-32.715,-45.410,-36.621
1628133225.981,16.113,-36.133,-46.875,5.859
1628133225.985,-50.293,-40.527,-41.504,-43.457
1628133225.989,-99.609,-36.133,-36.133,-89.355
1628133225.993,-47.363,-31.738,-34.180,-48.828
1628133225.996,17.578,-31.738,-33.691,10.742
1628133226.000,-23.438,-31.738,-32.715,-15.137
1628133226.004,-87.891,-22.949,-20.508,-69.336
1628133226.008,-54.688,-25.391,-12.207,-42.480
1628133226.012,13.184,-36.621,-22.461,12.207
1628133226.007,-0.488,-38.574,-31.738,-4.395
1628133226.011,-66.406,-47.363,-31.250,-57.129
1628133226.015,-76.172,-46.387,-38.086,-64.453
1628133226.019,-19.531,-34.180,-51.270,-28.809
1628133226.023,-6.348,-37.598,-57.617,-23.926
1628133226.027,-78.125,-36.133,-52.246,-75.684
1628133226.031,-97.168,-22.949,-50.293,-89.355
1628133226.034,-27.832,-25.879,-47.363,-30.762
1628133226.038,18.066,-38.086,-39.062,5.859
1628133226.042,-25.391,-36.621,-26.855,-23.926
1628133226.046,-88.379,-29.297,-29.785,-68.359
1628133226.050,-35.645,-10.254,-30.273,-36.133
1628133226.062,41.504,2.441,-32.227,21.484
1628133226.066,-18.066,-32.715,-49.316,-25.391
1628133226.070,-95.215,-58.105,-32.715,-84.473
1628133226.074,-54.199,-27.832,-6.348,-42.480
1628133226.078,28.809,-16.113,-8.789,13.184
1628133226.082,11.230,-35.156,-35.645,-9.277
1628133226.086,-80.566,-52.246,-50.781,-73.730
1628133226.089,-84.473,-42.480,-37.598,-72.754
1628133226.093,-0.977,-27.832,-24.414,0.488
1628133226.097,34.668,-39.062,-19.531,30.762
1628133226.101,-37.598,-53.223,-11.230,-29.785
1628133226.105,-91.309,-41.016,-23.926,-69.336
1628133226.100,-24.414,-17.090,-35.156,-19.043
1628133226.104,34.668,-17.090,-26.367,17.578
1628133226.108,-19.531,-25.879,-24.414,-30.273
1628133226.112,-83.496,-39.551,-25.879,-71.777
1628133226.116,-41.504,-35.645,-21.973,-43.457
1628133226.120,29.785,-14.160,-17.578,8.789
1628133226.124,-2.441,-26.367,-24.902,-1.953
1628133226.127,-83.008,-49.805,-26.367,-64.941
1628133226.131,-76.172,-54.688,-28.320,-67.383
1628133226.135,11.719,-41.504,-21.973,0.977
1628133226.139,19.043,-35.645,-24.902,8.301
1628133226.143,-70.801,-34.180,-30.762,-61.523
1628133226.156,-94.238,-21.484,-18.066,-74.219
1628133226.160,-8.301,-18.066,-18.555,-13.672
1628133226.164,23.926,-33.203,-35.645,-3.906
1628133226.168,-57.617,-40.039,-44.922,-56.641
1628133226.172,-94.238,-25.879,-36.621,-75.684
1628133226.176,-29.785,-25.879,-38.574,-29.785
1628133226.180,32.715,-31.250,-46.387,12.207
1628133226.183,-12.207,-31.250,-35.156,-25.391
1628133226.187,-85.449,-31.738,-24.414,-81.055
1628133226.191,-46.387,-14.648,-15.625,-52.246
1628133226.195,40.527,-4.395,-6.836,11.719
1628133226.199,9.766,-26.855,-27.344,-3.906
1628133226.195,-84.961,-59.082,-35.645,-69.824
1628133226.199,-74.707,-61.035,-13.184,-62.500
1628133226.203,9.766,-40.527,-9.277,1.953
1628133226.207,9.766,-35.645,-33.203,5.859
1628133226.211,-71.777,-43.457,-46.875,-58.594
1628133226.215,-86.914,-29.785,-34.180,-75.195
1628133226.219,-9.277,-17.090,-23.926,-17.090
1628133226.222,29.297,-24.902,-29.785,14.648
1628133226.226,-41.504,-39.551,-35.156,-30.762
1628133226.230,-86.914,-25.879,-38.574,-66.406
1628133226.234,-22.949,-16.602,-31.250,-23.438
1628133226.238,42.969,-32.227,-10.742,33.203
1628133226.250,-7.324,-57.617,-5.859,5.859
1628133226.254,-65.918,-52.246,-0.488,-35.156
1628133226.258,-41.016,-33.691,-4.883,-26.855
1628133226.262,4.395,-44.922,-35.645,2.930
1628133226.266,-10.254,-49.316,-33.691,-1.953
1628133226.270,-85.449,-34.668,-25.879,-58.594
1628133226.274,-81.543,-15.625,-37.598,-68.359
1628133226.277,12.695,-17.578,-35.645,-3.906
1628133226.281,32.227,-20.508,-22.949,16.602
1628133226.285,-46.387,-20.508,-16.602,-39.551
1628133226.289,-80.078,-41.992,-25.879,-58.594
1628133226.293,-9.766,-26.367,-16.602,-5.859
1628133226.288,31.738,-11.230,-7.812,26.367
1628133226.292,-50.781,-34.668,-28.809,-32.227
1628133226.296,-122.559,-38.086,-28.809,-89.844
1628133226.300,-49.316,-20.508,-12.207,-42.969
1628133226.304,36.621,-10.742,-8.789,26.855
1628133226.308,-3.906,-36.621,-38.086,0.488
1628133226.312,-79.102,-63.965,-50.781,-64.941
1628133226.315,-53.223,-37.598,-38.086,-48.828
1628133226.319,10.254,-25.391,-34.668,0.488
1628133226.323,0.488,-28.809,-32.227,-2.930
1628133226.327,-64.453,-24.414,-30.273,-57.129
1628133226.331,-74.219,-10.742,-26.855,-73.242
1628133226.344,6.348,-9.766,-25.879,-15.625
1628133226.348,46.387,-9.766,-15.625,23.926
1628133226.352,-40.039,-18.555,-11.230,-36.621
1628133226.356,-89.355,-26.367,-19.043,-75.684
1628133226.360,-13.184,-23.926,-22.461,-20.020
1628133226.364,33.203,-31.738,-26.367,17.090
1628133226.368,-19.043,-41.504,-23.926,-18.066
1628133226.371,-73.730,-38.574,-20.508,-57.129
1628133226.375,-24.414,-39.551,-18.066,-23.438
1628133226.379,38.574,-53.223,-26.367,30.273
1628133226.383,-9.766,-48.828,-45.410,1.465
1628133226.387,-86.914,-24.902,-39.551,-60.547
1628133226.381,-67.871,-8.789,-20.020,-43.457
1628133226.385,17.578,-10.742,-34.180,22.461
1628133226.389,26.367,-25.391,-32.715,21.484
1628133226.393,-56.152,-39.551,-20.996,-49.805
1628133226.397,-77.637,-41.504,-39.062,-71.777
1628133226.401,3.906,-25.879,-33.203,-9.277
1628133226.405,44.434,-17.090,-17.578,20.996
1628133226.408,-39.551,-48.828,-33.691,-49.805
1628133226.412,-95.215,-49.805,-53.711,-88.867
1628133226.416,-16.602,-25.391,-45.410,-23.926
1628133226.420,41.504,-32.227,-42.969,17.578
1628133226.424,-8.789,-33.203,-50.293,-21.973
1628133226.439,-71.777,-30.273,-43.945,-68.359
1628133226.443,-35.645,-17.090,-20.508,-36.621
1628133226.447,45.898,-11.719,-13.184,30.762
1628133226.451,14.648,-31.738,-30.273,2.441
1628133226.455,-77.148,-35.645,-36.133,-69.336
1628133226.459,-62.012,-25.391,-27.832,-55.664
1628133226.463,21.484,-20.508,-28.809,4.395
1628133226.466,23.926,-15.137,-41.504,6.836
1628133226.470,-50.781,-14.160,-37.109,-54.199
1628133226.474,-67.871,-15.137,-26.367,-66.406
1628133226.478,1.465,-32.715,-36.133,-7.812
1628133226.482,32.227,-46.875,-49.805,9.277
1628133226.475,-41.504,-40.039,-45.410,-46.875
1628133226.479,-102.539,-31.738,-36.621,-88.379
1628133226.483,-54.688,-26.855,-20.996,-52.734
1628133226.487,10.742,-50.781,-15.625,5.371
1628133226.491,-27.832,-75.684,-24.414,-19.043
1628133226.495,-106.445,-51.758,-26.855,-79.102
1628133226.499,-70.312,-9.277,-22.949,-56.152
1628133226.502,8.789,-13.672,-33.691,-8.301
1628133226.506,-19.043,-40.039,-44.922,-22.461
1628133226.510,-83.008,-30.762,-32.715,-64.941
1628133226.514,-74.707,-22.949,-36.621,-67.383
1628133226.518,7.812,-20.508,-41.016,-7.324
1628133226.531,25.879,-28.320,-30.762,15.625
1628133226.535,-57.617,-42.969,-32.227,-41.504
1628133226.539,-93.262,-39.062,-36.621,-75.195
1628133226.543,-28.809,-44.434,-39.551,-26.367
1628133226.547,13.184,-59.570,-48.828,1.953
1628133226.551,-55.176,-42.969,-44.922,-52.246
1628133226.555,-114.746,-28.320,-42.969,-98.633
1628133226.558,-54.199,-26.367,-36.621,-54.199
1628133226.562,16.113,-20.508,-33.203,3.418
1628133226.566,-9.277,-24.902,-29.785,-2.441
1628133226.570,-77.637,-43.945,-31.250,-56.152
1628133226.574,-66.895,-33.203,-42.969,-55.176
1628133226.570,9.277,-3.418,-33.691,7.812
1628133226.574,8.789,-15.137,-30.273,-3.418
1628133226.578,-67.383,-46.387,-49.805,-75.195
1628133226.582,-82.031,-52.734,-43.457,-82.031
1628133226.586,-1.953,-18.555,-17.090,-19.531
1628133226.590,24.414,-6.836,-14.160,0.000
1628133226.594,-60.059,-23.438,-24.902,-56.152
1628133226.597,-106.445,-38.086,-38.574,-89.844
1628133226.601,-35.645,-35.645,-54.199,-34.180
1628133226.605,17.578,-38.574,-47.852,8.301
1628133226.609,-41.992,-54.199,-33.691,-35.156
1628133226.613,-97.656,-37.109,-41.016,-78.613
1628133226.625,-39.062,-18.555,-42.969,-35.156
1628133226.629,43.457,-17.578,-29.297,34.668
1628133226.633,8.301,-35.156,-23.926,7.812
1628133226.637,-84.473,-40.039,-24.902,-70.312
1628133226.641,-77.637,-20.020,-17.090,-66.406
1628133226.645,-4.883,-15.625,-18.066,-17.090
1628133226.649,-1.465,-26.855,-22.461,-16.602
1628133226.652,-75.195,-25.391,-26.367,-65.430
1628133226.656,-89.844,-21.973,-41.504,-78.613
1628133226.660,-7.812,-17.090,-55.664,-22.461
1628133226.664,24.902,-28.320,-51.270,3.418
1628133226.668,-44.434,-49.805,-35.156,-49.316
1628133226.663,-81.543,-53.223,-32.715,-75.195
1628133226.667,4.883,-24.414,-26.855,-5.859
1628133226.671,51.758,-17.578,-19.043,28.320
1628133226.675,-16.113,-37.109,-20.508,-19.043
1628133226.679,-79.590,-34.180,-19.043,-62.012
1628133226.683,-56.152,-26.855,-28.320,-42.480
1628133226.687,23.438,-17.578,-45.898,12.695
1628133226.690,14.160,-32.227,-38.574,9.277
1628133226.694,-74.707,-37.598,-15.625,-55.176
1628133226.698,-71.777,-32.227,-27.832,-66.406
1628133226.702,8.789,-41.504,-34.180,-12.207
1628133226.706,18.066,-32.227,-14.160,-1.465
1628133226.719,-55.176,-25.391,-10.742,-54.688
1628133226.723,-79.590,-25.391,-20.020,-76.660
1628133226.727,-7.812,-34.180,-18.066,-36.133
1628133226.731,38.574,-41.504,-23.438,-5.859
1628133226.735,-27.832,-47.363,-31.738,-41.016
1628133226.739,-92.285,-46.387,-45.410,-79.102
1628133226.743,-37.109,-32.227,-44.922,-34.180
1628133226.746,29.297,-43.945,-23.438,19.043
1628133226.750,-6.836,-60.547,-37.598,-7.324
1628133226.754,-79.102,-48.340,-58.594,-64.941
1628133226.758,-73.730,-29.785,-40.039,-58.594
1628133226.762,-2.930,-20.508,-20.996,-0.488
1628133226.757,-7.324,-20.020,-19.531,-4.883
1628133226.761,-87.402,-28.320,-7.324,-67.383
1628133226.765,-85.938,-46.387,-16.602,-68.359
1628133226.769,-1.465,-50.781,-34.668,-6.348
1628133226.773,20.996,-35.156,-21.484,5.371
1628133226.777,-59.082,-35.645,-26.855,-52.734
1628133226.781,-95.703,-30.273,-30.762,-79.590
1628133226.784,-20.996,-22.461,-24.902,-19.531
1628133226.788,32.227,-34.180,-35.156,20.508
1628133226.792,-24.414,-44.434,-39.062,-28.809
1628133226.796,-84.961,-39.551,-32.227,-72.266
1628133226.800,-41.504,-26.367,-13.672,-33.691
1628133226.813,15.137,-35.156,-15.625,6.836
1628133226.817,-23.926,-47.852,-26.367,-24.902
1628133226.821,-81.543,-40.527,-24.902,-66.406
1628133226.825,-35.156,-24.414,-22.461,-37.109
1628133226.829,50.293,-5.859,-33.203,33.691
1628133226.833,19.531,-17.090,-45.410,17.090
1628133226.837,-74.707,-36.621,-45.410,-61.523
1628133226.840,-91.797,-42.969,-39.062,-74.219
1628133226.844,-12.695,-44.434,-20.020,-13.184
1628133226.848,27.344,-27.832,-27.344,18.066
1628133226.852,-61.035,-27.344,-57.617,-47.852
1628133226.856,-102.539,-24.902,-39.062,-79.590
1628133226.852,-20.020,-24.414,-4.395,-13.672
1628133226.856,38.574,-40.527,-7.324,23.438
1628133226.860,-15.137,-43.457,-18.066,-20.508
1628133226.864,-77.637,-21.484,-24.902,-68.848
1628133226.868,-43.945,-19.531,-29.785,-48.340
1628133226.872,26.367,-40.527,-21.973,9.766
1628133226.876,3.418,-50.781,-24.902,-2.441
1628133226.879,-78.613,-51.758,-45.410,-68.359
1628133226.883,-74.707,-35.645,-44.434,-65.918
1628133226.887,-1.465,-14.160,-34.180,-1.465
1628133226.891,-2.930,-22.461,-34.180,-4.883
1628133226.895,-77.637,-39.551,-30.762,-65.430
1628133226.906,-89.844,-42.480,-35.645,-79.590
1628133226.910,-16.602,-32.715,-29.297,-18.555
1628133226.914,36.133,-23.926,-14.648,24.902
1628133226.918,-23.438,-33.203,-24.414,-23.926
1628133226.922,-87.402,-31.738,-41.016,-75.195
1628133226.926,-37.598,-22.949,-42.480,-53.223
1628133226.930,20.996,-29.297,-36.621,-2.441
1628133226.933,-16.113,-26.367,-47.363,-23.438
1628133226.937,-76.172,-16.602,-51.758,-69.824
1628133226.941,-35.645,-18.066,-38.574,-34.180
1628133226.945,42.969,-23.438,-29.297,25.391
1628133226.949,19.531,-25.879,-26.367,13.184
1628133226.963,-75.195,-31.738,-24.902,-52.246
1628133226.967,-79.590,-39.062,-24.414,-58.105
1628133226.971,-7.812,-26.367,-29.785,-6.836
1628133226.975,6.836,-24.414,-25.879,7.812
1628133226.979,-53.711,-33.691,-14.648,-33.203
1628133226.983,-70.801,-22.461,0.977,-42.480
1628133226.987,-2.930,-21.973,-5.859,7.324
1628133226.990,21.973,-57.129,-22.461,24.414
1628133226.994,-55.176,-73.730,-30.762,-38.086
1628133226.998,-106.934,-56.152,-37.109,-82.031
1628133227.002,-35.156,-34.668,-58.594,-35.156
1628133227.006,44.434,-17.578,-68.848,19.043
1628133227.000,1.953,-26.855,-31.250,-5.371
1628133227.004,-86.914,-32.227,-8.789,-73.242
1628133227.008,-66.895,-24.414,-14.160,-64.453
1628133227.012,22.949,-17.578,-12.207,3.418
1628133227.016,17.578,-17.090,-17.578,-0.488
1628133227.020,-59.082,-40.039,-17.578,-57.129
1628133227.024,-70.312,-61.523,-26.855,-63.965
1628133227.027,-3.906,-37.109,-53.711,-12.695
1628133227.031,16.602,-19.531,-53.711,-0.488
1628133227.035,-56.641,-28.809,-26.855,-57.129
1628133227.039,-104.004,-36.133,-20.508,-93.750
1628133227.043,-38.086,-20.996,-22.461,-42.969
1628133227.038,34.180,-3.906,-22.461,13.184
1628133227.042,-12.695,-26.855,-27.344,-21.973
1628133227.046,-78.125,-43.945,-26.367,-67.871
1628133227.050,-36.133,-25.879,-22.461,-34.180
1628133227.054,36.621,-11.230,-22.461,32.227
1628133227.058,6.836,-26.855,-37.109,9.277
1628133227.062,-64.453,-40.527,-48.340,-45.410
1628133227.065,-49.316,-36.621,-36.621,-33.691
1628133227.069,19.531,-28.320,-22.949,5.859
1628133227.073,14.160,-16.113,-29.785,-0.488
1628133227.077,-69.824,-21.973,-44.922,-61.035
1628133227.081,-81.543,-22.461,-42.969,-70.801
1628133227.094,-4.883,-15.625,-41.504,-14.160
1628133227.098,26.367,-27.832,-42.480,14.648
1628133227.102,-34.180,-37.598,-28.809,-31.738
1628133227.106,-64.453,-21.484,-10.254,-52.246
1628133227.110,-4.883,-18.555,-16.602,-8.301
1628133227.114,31.250,-37.109,-52.246,13.672
1628133227.118,-21.973,-38.086,-48.340,-13.672
1628133227.121,-83.008,-23.438,-30.273,-53.223
1628133227.125,-51.758,-19.531,-29.297,-45.410
1628133227.129,20.996,-25.879,-15.625,5.371
1628133227.133,-6.348,-45.410,-24.414,-8.301
1628133227.137,-81.055,-32.227,-29.785,-61.523
1628133227.132,-70.312,-19.043,-40.039,-58.105
1628133227.136,10.254,-30.762,-41.016,-3.418
1628133227.140,20.508,-27.344,-29.297,8.789
1628133227.144,-62.012,-30.273,-34.180,-46.387
1628133227.148,-83.008,-50.781,-24.414,-66.406
1628133227.152,-11.230,-45.410,-18.555,-6.348
1628133227.156,24.414,-33.203,-31.738,27.832
1628133227.159,-49.316,-42.480,-50.293,-34.668
1628133227.163,-101.074,-41.992,-41.992,-80.078
1628133227.167,-29.785,-19.043,-20.508,-30.762
1628133227.171,30.273,-23.926,-20.020,10.742
1628133227.175,-1.465,-27.832,-9.277,-7.324
1628133227.188,-67.871,-15.625,-20.996,-47.852
1628133227.192,-68.359,-14.648,-50.781,-50.781
1628133227.196,-0.977,-25.391,-49.316,-6.348
1628133227.200,-20.020,-40.527,-52.246,-16.602
1628133227.204,-96.680,-41.504,-54.199,-68.848
1628133227.208,-82.520,-35.645,-39.062,-61.523
1628133227.212,-3.906,-31.738,-24.414,-6.348
1628133227.215,5.859,-35.156,-28.809,0.000
1628133227.219,-70.312,-39.551,-24.414,-64.453
1628133227.223,-102.051,-44.434,-20.508,-87.891
1628133227.227,-31.738,-42.480,-33.691,-30.273
1628133227.231,24.902,-24.902,-38.086,20.996
1628133227.225,-28.320,-26.367,-49.805,-15.625
1628133227.229,-100.098,-41.992,-48.340,-77.637
1628133227.233,-56.641,-34.180,-22.461,-44.434
1628133227.237,10.254,-21.973,-22.949,5.371
1628133227.241,-19.043,-24.414,-35.156,-22.949
1628133227.245,-82.031,-30.762,-42.969,-74.707
1628133227.249,-56.152,-29.785,-30.762,-58.594
1628133227.252,13.672,-54.688,-30.762,-1.465
1628133227.256,-7.812,-78.613,-49.316,-6.836
1628133227.260,-87.891,-54.199,-47.852,-67.871
1628133227.264,-98.145,-29.785,-30.762,-67.871
1628133227.268,-17.090,-33.691,-13.184,1.953
1628133227.281,-4.883,-54.199,-25.391,5.371
1628133227.285,-79.590,-47.852,-31.738,-58.105
1628133227.289,-100.586,-22.949,-22.461,-78.125
1628133227.293,-30.762,-7.812,-31.738,-22.461
1628133227.297,25.879,-8.301,-49.316,20.020
1628133227.301,-32.227,-37.598,-55.664,-30.273
1628133227.305,-97.168,-48.340,-34.668,-81.543
1628133227.308,-42.480,-25.879,-26.367,-41.504
1628133227.312,21.973,-35.645,-37.109,1.953
1628133227.316,-19.531,-42.969,-24.414,-21.973
1628133227.320,-100.586,-35.156,-20.020,-78.125
1628133227.324,-82.031,-26.855,-30.273,-75.195
1628133227.320,10.254,-40.039,-36.621,-14.648
1628133227.324,21.484,-61.523,-22.461,6.836
1628133227.328,-66.895,-48.828,-32.715,-52.734
1628133227.332,-94.727,-34.180,-53.223,-79.590
1628133227.336,-16.113,-28.809,-33.691,-22.461
1628133227.340,23.926,-26.855,-21.484,18.555
1628133227.344,-41.016,-26.367,-31.250,-23.926
1628133227.347,-95.703,-20.020,-30.273,-62.500
1628133227.351,-45.410,-18.066,-26.367,-31.250
1628133227.355,8.789,-19.043,-48.340,-1.953
1628133227.359,-43.457,-34.180,-63.965,-43.945
1628133227.363,-104.980,-39.062,-45.898,-97.168
1628133227.375,-71.777,-41.016,-38.574,-80.078
1628133227.379,1.953,-43.457,-43.945,-13.184
1628133227.383,-1.465,-41.992,-32.715,-4.883
1628133227.387,-67.383,-58.105,-25.391,-57.617
1628133227.391,-62.012,-40.527,-20.508,-49.316
1628133227.395,10.742,3.418,-19.531,6.836
1628133227.399,14.648,-3.418,-34.668,0.000
1628133227.402,-73.730,-35.156,-48.340,-68.848
1628133227.406,-104.004,-32.715,-50.781,-91.309
1628133227.410,-24.902,-35.645,-61.035,-42.480
1628133227.414,13.672,-44.922,-63.965,-11.230
1628133227.418,-41.992,-41.504,-39.551,-46.387
1628133227.412,-87.891,-49.805,-17.090,-76.660
1628133227.416,-39.062,-41.016,-14.648,-38.086
1628133227.420,18.555,-19.043,-30.273,4.883
1628133227.424,-28.809,-22.461,-41.016,-23.926
1628133227.428,-93.262,-36.621,-31.250,-71.289
1628133227.432,-59.082,-39.062,-31.738,-57.129
1628133227.436,25.879,-33.203,-36.621,2.930
1628133227.439,17.090,-42.969,-30.273,8.789
1628133227.443,-81.055,-59.570,-45.898,-65.430
1628133227.447,-81.543,-49.805,-43.945,-71.777
1628133227.451,17.578,-17.090,-11.230,0.000
1628133227.455,31.738,-15.625,-17.578,7.324
1628133227.469,-59.082,-51.270,-48.340,-57.617
1628133227.473,-93.262,-58.594,-57.617,-83.008
1628133227.477,-15.625,-41.504,-46.875,-30.762
1628133227.481,40.527,-26.855,-38.086,18.066
1628133227.485,-22.461,-23.438,-47.852,-24.414
1628133227.489,-71.777,-24.414,-34.180,-62.988
1628133227.493,-20.996,-36.133,-10.742,-24.414
1628133227.496,32.227,-34.180,-22.461,5.371
1628133227.500,-8.789,-23.438,-38.086,-28.320
1628133227.504,-83.496,-26.367,-43.945,-75.195
1628133227.508,-61.035,-30.273,-39.551,-50.293
1628133227.512,21.484,-41.504,-20.996,14.160
1628133227.525,24.902,-50.293,-17.578,19.531
1628133227.529,-62.500,-40.527,-33.203,-47.363
1628133227.533,-79.102,-19.531,-43.945,-72.266
1628133227.537,7.324,-19.531,-32.715,-12.207
1628133227.541,22.949,-27.832,-26.855,8.301
1628133227.545,-64.453,-23.438,-40.039,-54.688
1628133227.549,-102.539,-16.113,-41.504,-85.938
1628133227.552,-25.391,-24.902,-30.762,-20.996
1628133227.556,21.484,-49.805,-37.109,11.230
1628133227.560,-42.480,-43.945,-48.828,-40.527
1628133227.564,-105.957,-33.691,-41.016,-91.309
1628133227.568,-66.406,-37.598,-41.992,-64.453
1628133227.564,10.742,-35.156,-46.875,-2.930
1628133227.568,-6.348,-26.367,-29.297,-11.230
1628133227.572,-82.031,-25.391,-21.484,-72.754
1628133227.576,-76.172,-36.621,-26.855,-65.918
1628133227.580,6.348,-34.180,-21.973,-2.930
1628133227.584,23.438,-29.297,-17.090,15.625
1628133227.588,-50.781,-40.527,-22.949,-36.133
1628133227.591,-82.031,-47.852,-28.809,-66.895
1628133227.595,-15.625,-40.527,-31.250,-19.531
1628133227.599,22.461,-25.391,-33.203,10.254
1628133227.603,-55.176,-28.809,-39.551,-48.828
1628133227.607,-93.262,-38.574,-22.949,-78.125
1628133227.602,-23.438,-30.273,-24.414,-25.879
1628133227.606,26.855,-29.297,-53.711,16.113
1628133227.610,-19.531,-41.504,-57.129,-16.602
1628133227.614,-88.867,-48.828,-43.457,-76.172
1628133227.618,-54.688,-47.363,-34.180,-59.570
1628133227.622,28.320,-30.762,-27.344,0.977
1628133227.626,14.160,-20.508,-9.277,-4.883
1628133227.629,-70.801,-44.434,-10.254,-72.754
1628133227.633,-84.473,-60.059,-21.973,-79.102
1628133227.637,-5.859,-34.180,-20.508,-18.555
1628133227.641,18.066,-17.090,-12.207,-2.930
1628133227.645,-59.082,-25.879,-12.207,-48.828
1628133227.656,-93.750,-33.203,-30.273,-82.520
1628133227.660,-28.809,-27.832,-40.039,-43.457
1628133227.664,27.344,-14.160,-17.578,9.277
1628133227.668,-27.832,-17.090,-22.949,-22.461
1628133227.672,-87.402,-25.879,-55.664,-75.195
1628133227.676,-33.203,-24.414,-44.434,-43.945
1628133227.680,40.039,-36.133,-20.508,5.371
1628133227.683,-1.465,-47.363,-23.926,-25.879
1628133227.687,-78.125,-35.645,-34.668,-78.613
1628133227.691,-54.688,-24.414,-37.598,-56.641
1628133227.695,20.020,-26.855,-38.086,-1.465
1628133227.699,15.137,-39.551,-36.133,-5.371
1628133227.693,-69.824,-47.852,-34.180,-67.383
1628133227.697,-89.355,-31.738,-32.715,-86.914
1628133227.701,-10.742,-25.391,-32.227,-25.879
1628133227.705,17.090,-25.879,-22.949,2.441
1628133227.709,-63.965,-24.414,-28.320,-46.387
1628133227.713,-104.492,-29.785,-42.480,-79.590
1628133227.717,-39.062,-42.480,-32.227,-36.133
1628133227.720,17.090,-46.875,-18.555,8.789
1628133227.724,-25.391,-42.480,-18.066,-21.484
1628133227.728,-80.566,-37.598,-20.508,-59.570
1628133227.732,-41.992,-37.598,-34.668,-42.480
1628133227.736,19.043,-42.480,-39.551,-1.953
1628133227.750,-19.531,-43.945,-44.922,-22.461
1628133227.754,-89.355,-38.574,-32.227,-67.871
1628133227.758,-76.172,-40.527,-20.996,-57.129
1628133227.762,-1.953,-28.809,-38.574,-1.465
1628133227.766,4.883,-23.926,-46.875,2.930
1628133227.770,-82.031,-33.203,-38.086,-65.918
1628133227.774,-86.426,-24.902,-28.320,-74.219
1628133227.777,-1.953,-20.508,-21.484,-7.324
1628133227.781,22.949,-26.367,-14.160,22.461
1628133227.785,-44.434,-38.086,-30.273,-28.809
1628133227.789,-93.750,-51.758,-38.086,-69.824
1628133227.793,-50.781,-43.945,-25.879,-42.969
1628133227.789,-1.465,-31.738,-28.320,-10.742
1628133227.793,-43.945,-47.852,-35.645,-42.480
1628133227.797,-102.539,-46.875,-31.738,-83.984
1628133227.801,-62.012,-21.973,-36.133,-51.270
1628133227.805,25.391,-0.488,-45.410,11.230
1628133227.809,9.766,12.207,-35.645,9.277
1628133227.813,-75.195,2.441,-20.996,-53.223
1628133227.816,-65.918,-16.113,-20.020,-56.641
1628133227.820,20.508,-17.090,-12.695,3.418
1628133227.824,30.273,-12.207,-20.020,7.812
1628133227.828,-57.617,-20.996,-51.270,-54.199
1628133227.832,-85.938,-21.484,-49.316,-69.336
1628133227.845,-16.113,-31.738,-30.762,-21.484
1628133227.849,27.344,-40.039,-21.484,5.859
1628133227.853,-31.250,-23.926,-24.414,-40.527
1628133227.857,-76.172,-6.836,-32.715,-77.148
1628133227.861,-11.719,14.648,-30.762,-29.297
1628133227.865,47.363,-1.465,-29.297,19.043
1628133227.869,3.418,-17.578,-40.527,-17.090
1628133227.872,-83.008,-19.043,-46.875,-84.473
1628133227.876,-60.547,-30.762,-40.527,-64.941
1628133227.880,16.602,-27.344,-36.621,-7.324
1628133227.884,-6.836,-29.785,-46.875,-21.484
1628133227.888,-83.008,-21.973,-43.457,-72.754
1628133227.900,-75.684,-13.184,-27.344,-67.871
1628133227.904,10.742,-15.137,-25.879,-13.184
1628133227.908,23.438,-14.160,-27.832,-4.883
1628133227.912,-59.082,-25.391,-34.180,-60.059
1628133227.916,-84.961,-28.320,-43.945,-81.543
1628133227.920,-7.324,-27.344,-40.039,-32.715
1628133227.924,33.691,-37.109,-42.480,-4.883
1628133227.927,-23.926,-34.180,-50.293,-38.086
1628133227.931,-65.918,-33.203,-43.945,-63.965
1628133227.935,-15.137,-18.066,-37.598,-32.715
1628133227.939,42.480,-20.996,-37.598,7.324
1628133227.943,3.418,-41.016,-31.738,-13.672
1628133227.939,-89.355,-32.715,-37.598,-79.102
1628133227.943,-72.266,-18.066,-40.527,-67.383
1628133227.947,22.461,-19.531,-21.973,1.953
1628133227.951,11.230,-32.227,-19.043,0.000
1628133227.955,-74.219,-29.785,-28.320,-66.895
1628133227.959,-82.031,-29.785,-41.992,-84.961
1628133227.963,-3.418,-35.645,-52.246,-16.113
1628133227.966,27.344,-37.598,-43.945,17.090
1628133227.970,-35.645,-34.668,-42.969,-28.809
1628133227.974,-64.453,-14.648,-44.434,-45.410
1628133227.978,-2.930,-9.277,-32.227,0.488
1628133227.982,47.363,-16.602,-27.344,30.273
1628133227.975,-8.301,-20.508,-43.945,-16.113
1628133227.979,-75.684,-26.367,-33.203,-68.848
1628133227.983,-34.668,-29.785,-16.602,-35.156
1628133227.987,36.133,-15.625,-26.855,20.020
1628133227.991,10.254,-24.414,-51.758,-10.254
1628133227.995,-60.547,-40.039,-50.781,-65.430
1628133227.999,-36.133,-20.508,-17.090,-41.992
1628133228.002,30.762,-12.695,-20.020,15.625
1628133228.006,6.348,-29.785,-43.457,-1.465
1628133228.010,-73.242,-40.527,-36.133,-59.570
1628133228.014,-80.566,-31.250,-22.949,-69.824
1628133228.018,-4.883,-13.672,-17.578,-16.602
1628133228.072,36.621,-2.930,-16.113,19.043
1628133228.076,-23.926,-13.184,-27.832,-31.250
1628133228.080,-77.148,-30.762,-41.992,-73.242
1628133228.084,-35.156,-32.715,-50.293,-41.504
1628133228.088,24.414,-20.996,-47.852,3.906
1628133228.092,-12.695,-30.273,-40.527,-22.949
1628133228.096,-85.449,-60.059,-34.180,-72.266
1628133228.099,-56.641,-58.594,-36.133,-52.246
1628133228.103,15.625,-44.434,-40.527,0.977
1628133228.107,3.906,-34.180,-35.645,-0.977
1628133228.111,-78.125,-30.762,-53.711,-71.289
1628133228.115,-78.613,-31.738,-47.363,-66.895
1628133228.089,11.230,-23.926,-38.086,6.348
1628133228.093,1.465,-30.762,-47.852,-6.836
1628133228.097,-17.090,-27.344,-36.133,-21.484
1628133228.101,27.344,-30.273,-26.367,15.137
1628133228.105,-48.340,-49.316,-20.508,-33.203
1628133228.109,-107.422,-58.105,-33.691,-80.078
1628133228.113,-48.828,-57.617,-47.363,-35.156
1628133228.116,24.414,-37.109,-27.344,20.996
1628133228.120,-2.930,-18.066,-14.648,2.930
1628133228.124,-81.055,-20.508,-25.391,-58.105
1628133228.128,-70.801,-41.992,-30.762,-58.594
1628133228.132,2.930,-31.250,-22.949,-0.977
1628133228.126,-9.766,-20.020,-20.508,-13.672
1628133228.130,-101.074,-31.250,-28.809,-82.031
1628133228.134,-104.004,-31.738,-28.320,-79.102
1628133228.138,-14.160,-39.062,-20.996,-12.695
1628133228.142,9.766,-52.734,-22.461,14.160
1628133228.146,-61.035,-39.551,-34.180,-33.691
1628133228.150,-99.609,-30.762,-25.879,-66.895
1628133228.153,-42.480,-36.621,-27.832,-26.855
1628133228.157,-7.324,-41.504,-41.504,-11.230
1628133228.161,-56.641,-36.621,-29.297,-54.688
1628133228.165,-97.168,-37.109,-32.227,-81.055
1628133228.169,-38.574,-32.227,-24.902,-33.203
1628133228.182,25.391,-33.691,-5.371,2.930
1628133228.186,-13.672,-41.504,-23.438,-27.344
1628133228.190,-82.520,-42.480,-31.738,-76.172
1628133228.194,-56.152,-39.551,-16.113,-62.500
1628133228.198,29.785,-22.949,-12.207,7.324
1628133228.202,12.695,-26.367,-20.508,-3.906
1628133228.206,-82.520,-48.828,-34.668,-81.055
1628133228.209,-87.402,-36.133,-22.949,-79.590
1628133228.213,-6.348,-15.625,-16.602,-15.137
1628133228.217,12.695,-28.809,-39.551,-2.930
1628133228.221,-68.848,-50.293,-55.664,-64.941
1628133228.225,-116.699,-58.105,-49.316,-94.238
1628133228.220,-44.434,-43.457,-27.344,-25.391
1628133228.224,21.973,-42.969,-22.461,29.785
1628133228.228,-24.902,-51.270,-31.250,-17.578
1628133228.232,-89.355,-32.227,-23.926,-72.754
1628133228.236,-41.504,-5.371,-20.508,-32.227
1628133228.240,36.133,-4.395,-21.484,23.926
1628133228.244,4.395,-15.625,-18.555,-2.930
1628133228.247,-69.336,-21.973,-33.691,-57.617
1628133228.251,-59.570,-35.645,-39.551,-53.711
1628133228.255,17.578,-34.668,-25.879,3.418
1628133228.259,27.832,-23.926,-21.973,17.578
1628133228.263,-44.922,-29.785,-21.973,-32.227
1628133228.276,-55.176,-37.109,-9.277,-35.645
1628133228.280,20.020,-12.695,-11.230,16.602
1628133228.284,42.969,2.930,-33.203,23.438
1628133228.288,-42.480,-19.531,-44.922,-40.039
1628133228.292,-99.121,-37.598,-48.340,-79.590
1628133228.296,-35.645,-39.062,-43.945,-31.250
1628133228.300,27.344,-34.180,-24.902,18.066
1628133228.303,-13.672,-39.551,-31.250,-9.766
1628133228.307,-92.773,-51.758,-62.012,-58.594
1628133228.311,-70.801,-29.785,-53.223,-48.340
1628133228.315,8.789,-14.160,-8.789,11.230
1628133228.319,-3.906,-23.438,9.766,11.230
1628133228.312,-82.520,-33.203,0.000,-60.547
1628133228.316,-89.844,-39.551,-17.090,-78.125
1628133228.320,-10.254,-35.645,-31.250,-12.695
1628133228.324,-0.977,-43.457,-38.086,-4.395
1628133228.328,-80.566,-44.922,-39.062,-60.547
1628133228.332,-101.562,-33.691,-38.086,-83.008
1628133228.336,-31.250,-20.020,-22.461,-39.062
1628133228.339,17.578,-5.371,-7.324,4.395
1628133228.343,-48.828,-26.367,-25.879,-44.922
1628133228.347,-113.281,-62.988,-43.945,-108.398
1628133228.351,-51.270,-64.941,-33.203,-57.617
1628133228.355,16.602,-40.039,-33.203,-3.906
1628133228.370,-43.457,-37.598,-51.270,-54.688
1628133228.374,-126.465,-46.387,-62.988,-112.793
1628133228.378,-88.867,-33.203,-53.711,-83.008
1628133228.382,8.789,-20.020,-25.391,-10.742
1628133228.386,5.371,-25.391,-19.043,-16.113
1628133228.390,-87.402,-39.062,-30.273,-79.590
1628133228.394,-103.516,-51.270,-39.062,-92.773
1628133228.397,-14.648,-39.551,-30.762,-24.414
1628133228.401,11.230,-33.203,-22.461,3.418
1628133228.405,-64.453,-44.922,-41.504,-61.035
1628133228.409,-98.633,-43.945,-49.805,-87.891
1628133228.413,-20.020,-25.391,-22.949,-29.785
1628133228.406,39.062,-23.438,-13.672,16.113
1628133228.410,-38.574,-41.992,-30.273,-38.086
1628133228.414,-106.934,-34.668,-29.785,-87.891
1628133228.418,-42.969,-18.066,-29.297,-35.645
1628133228.422,41.016,-29.297,-44.922,23.438
1628133228.426,15.137,-39.551,-41.504,2.441
1628133228.430,-62.012,-29.297,-20.508,-51.758
1628133228.433,-45.898,-12.695,-14.160,-39.551
1628133228.437,26.855,-22.461,-19.531,9.766
1628133228.441,19.531,-44.922,-32.227,7.812
1628133228.445,-53.711,-32.715,-30.273,-38.086
1628133228.449,-70.312,-26.855,-22.949,-55.176
1628133228.462,1.953,-33.203,-23.438,-6.836
1628133228.466,38.086,-31.250,-14.160,23.438
1628133228.470,-34.668,-39.551,-19.531,-24.414
1628133228.474,-84.473,-48.340,-39.062,-62.988
1628133228.478,-21.973,-35.645,-35.645,-23.438
1628133228.482,31.738,-38.086,-31.250,18.555
1628133228.486,-24.414,-54.199,-32.227,-17.090
1628133228.489,-85.938,-48.340,-18.555,-64.453
1628133228.493,-32.227,-26.367,-9.277,-24.414
1628133228.497,45.410,-11.230,-5.371,43.457
1628133228.501,6.348,-34.668,-26.367,11.719
1628133228.505,-80.566,-48.828,-48.340,-57.129
1628133228.500,-69.336,-47.852,-40.039,-46.875
1628133228.504,16.602,-50.293,-19.531,9.277
1628133228.508,10.742,-47.852,-11.230,2.441
1628133228.512,-71.777,-50.293,-15.625,-57.129
1628133228.516,-75.195,-53.711,-15.137,-60.547
1628133228.520,-14.648,-48.828,-30.762,-20.020
1628133228.524,2.930,-43.457,-36.133,-6.836
1628133228.527,-55.176,-40.527,-22.461,-43.945
1628133228.531,-100.098,-36.133,-37.109,-80.566
1628133228.535,-42.969,-31.250,-53.711,-41.504
1628133228.539,14.648,-31.250,-40.039,6.348
1628133228.543,-26.855,-38.086,-7.812,-26.367
1628133228.557,-81.543,-31.250,0.977,-71.289
1628133228.561,-44.434,-19.531,-16.113,-46.387
1628133228.565,24.414,-25.879,-20.996,2.930
1628133228.569,-5.371,-26.367,-23.926,-18.555
1628133228.573,-87.891,-16.113,-27.832,-82.520
1628133228.577,-82.520,-24.414,-20.996,-71.289
1628133228.581,-3.906,-30.762,-22.949,-7.812
1628133228.584,13.672,-27.344,-25.391,6.348
1628133228.588,-50.781,-41.992,-21.973,-42.969
1628133228.592,-81.543,-48.828,-24.414,-73.242
1628133228.596,-12.207,-30.273,-17.090,-20.996
1628133228.600,38.086,-21.484,-17.090,19.531
1628133228.594,-23.438,-31.250,-29.785,-21.973
1628133228.598,-76.172,-35.645,-27.344,-62.012
1628133228.602,-34.668,-26.367,-11.230,-32.227
1628133228.606,42.480,-14.160,-3.418,21.484
1628133228.610,-1.953,-20.996,-22.461,-10.742
1628133228.614,-100.586,-36.133,-33.203,-82.031
1628133228.618,-77.148,-31.250,-25.391,-68.848
1628133228.621,2.930,-15.137,-12.207,-3.906
1628133228.625,-8.301,-30.273,-12.207,-0.977
1628133228.629,-81.543,-43.457,-25.391,-57.617
1628133228.633,-77.637,-32.715,-22.949,-65.430
1628133228.637,7.812,-25.391,-24.414,-5.859
1628133228.650,22.461,-31.250,-39.062,6.836
1628133228.654,-73.730,-62.500,-43.457,-67.383
1628133228.658,-115.234,-58.105,-46.875,-108.887
1628133228.662,-44.922,-30.762,-47.852,-60.547
1628133228.666,11.230,-21.973,-34.668,-12.695
1628133228.670,-48.340,-33.691,-30.273,-51.758
1628133228.674,-103.516,-41.504,-34.180,-88.867
1628133228.677,-53.223,-38.086,-43.457,-57.129
1628133228.681,7.812,-41.016,-48.828,-11.230
1628133228.685,-18.555,-38.086,-37.109,-24.414
1628133228.689,-101.562,-47.363,-25.879,-87.402
1628133228.693,-85.938,-39.062,-27.832,-79.102
1628133228.688,0.977,-27.344,-30.762,-11.719
1628133228.692,0.488,-28.320,-35.156,-8.301
1628133228.696,-75.684,-39.551,-54.688,-67.871
1628133228.700,-85.449,-44.922,-53.711,-73.242
1628133228.704,-10.742,-30.273,-29.297,-11.719
1628133228.708,12.207,-23.438,-20.020,10.254
1628133228.712,-42.480,-25.391,-18.555,-36.621
1628133228.715,-73.730,-40.039,-14.160,-68.848
1628133228.719,-28.320,-43.457,-26.367,-37.598
1628133228.723,25.391,-25.879,-30.273,5.371
1628133228.727,-23.926,-22.949,-32.227,-28.320
1628133228.731,-96.191,-30.762,-48.828,-88.867
1628133228.744,-58.105,-27.832,-49.316,-62.988
1628133228.748,20.020,-25.391,-29.785,0.488
1628133228.752,-3.906,-27.832,-40.039,-4.395
1628133228.756,-83.008,-34.668,-46.875,-62.988
1628133228.760,-72.266,-31.738,-22.461,-59.570
1628133228.764,5.859,-39.062,-27.344,-1.953
1628133228.768,9.277,-56.641,-51.758,0.977
1628133228.771,-70.312,-47.363,-46.875,-65.918
1628133228.775,-79.590,-15.137,-15.137,-74.707
1628133228.779,-5.371,-9.277,-9.277,-12.695
1628133228.783,28.809,-27.344,-24.902,22.461
1628133228.787,-40.527,-38.574,-27.344,-23.926
1628133228.800,-90.820,-38.574,-21.484,-64.453
1628133228.804,-18.066,-18.555,-13.672,-19.043
1628133228.808,33.691,-23.926,-17.578,13.672
1628133228.812,-34.668,-39.551,-35.156,-35.156
1628133228.816,-108.398,-43.457,-33.203,-82.520
1628133228.820,-73.730,-37.598,-28.809,-52.734
1628133228.824,6.348,-23.438,-37.598,11.719
1628133228.827,-5.371,-14.648,-29.785,9.277
1628133228.831,-95.215,-22.461,-27.344,-66.895
1628133228.835,-102.051,-35.156,-41.992,-80.078
1628133228.839,-17.090,-30.762,-45.898,-18.555
1628133228.843,1.953,-44.434,-36.621,-2.930
1628133228.838,-82.520,-52.734,-39.551,-63.477
1628133228.842,-103.516,-36.621,-30.273,-85.449
1628133228.846,-17.578,-25.879,-13.184,-21.484
1628133228.850,31.738,-18.066,-15.625,17.090
1628133228.854,-34.180,-18.555,-27.344,-35.156
1628133228.858,-96.680,-34.668,-34.180,-79.590
1628133228.862,-44.434,-44.922,-33.203,-45.898
1628133228.865,16.602,-34.668,-31.738,-2.441
1628133228.869,-30.762,-33.691,-29.785,-36.621
1628133228.873,-96.191,-37.598,-26.855,-86.426
1628133228.877,-68.848,-43.457,-29.785,-60.547
1628133228.881,6.836,-45.898,-33.691,-7.812
1628133228.875,-6.348,-38.574,-26.367,-18.555
1628133228.879,-83.008,-41.992,-24.902,-69.824
1628133228.883,-79.590,-32.227,-33.203,-65.918
1628133228.887,-14.160,-26.855,-46.875,-9.277
1628133228.891,10.254,-36.133,-35.645,13.184
1628133228.895,-61.035,-37.109,-29.785,-43.945
1628133228.899,-110.352,-42.969,-32.227,-88.867
1628133228.902,-37.109,-22.949,-15.625,-39.551
1628133228.906,19.531,-9.277,-16.602,2.930
1628133228.910,-39.062,-24.414,-25.879,-42.969
1628133228.914,-102.051,-41.016,-21.484,-81.543
1628133228.918,-54.688,-40.039,-20.020,-44.434
1628133228.932,13.184,-26.855,-33.203,-1.953
1628133228.936,-14.160,-23.438,-34.668,-25.391
1628133228.940,-88.867,-23.438,-37.598,-78.613
1628133228.944,-66.406,-21.484,-45.410,-62.500
1628133228.948,20.020,-25.879,-39.062,-8.789
1628133228.952,16.602,-29.297,-37.598,-8.301
1628133228.956,-64.941,-29.785,-37.109,-62.012
1628133228.959,-87.402,-31.738,-40.039,-80.078
1628133228.963,-13.672,-27.344,-42.969,-21.973
1628133228.967,15.625,-33.691,-40.039,2.930
1628133228.971,-52.246,-37.598,-38.086,-37.109
1628133228.975,-89.355,-31.738,-44.922,-65.918
1628133228.969,-19.043,-33.203,-37.109,-21.973
1628133228.973,41.992,-27.832,-19.043,25.879
1628133228.977,-13.672,-29.297,-21.973,-15.137
1628133228.981,-78.613,-41.504,-17.578,-61.523
1628133228.985,-40.527,-34.668,-15.137,-32.715
1628133228.989,25.879,-14.160,-31.250,14.648
1628133228.993,-0.977,-10.254,-58.105,-2.930
1628133228.996,-83.008,-10.254,-58.594,-62.500
1628133229.000,-72.754,-13.184,-26.855,-56.641
1628133229.004,17.090,-26.367,-7.812,2.930
1628133229.008,34.180,-26.367,-12.695,14.648
1628133229.012,-54.688,-31.738,-27.832,-48.340
1628133229.025,-77.148,-29.297,-41.016,-64.941
1628133229.029,10.742,-17.090,-41.992,-3.906
1628133229.033,44.922,-30.273,-23.926,16.113
1628133229.037,-32.715,-44.922,-20.020,-36.621
1628133229.041,-85.449,-39.551,-42.969,-73.730
1628133229.045,-19.043,-28.320,-40.527,-29.297
1628133229.049,50.781,-19.531,-15.137,22.949
1628133229.052,3.418,-21.484,-18.555,-5.859
1628133229.056,-79.590,-36.621,-32.227,-67.871
1628133229.060,-47.363,-44.434,-20.020,-52.246
1628133229.064,27.832,-33.203,-19.531,8.789
1628133229.068,19.043,-22.461,-26.855,6.348
1628133229.063,-64.941,-38.574,-31.250,-59.082
1628133229.067,-72.754,-37.598,-29.297,-64.453
1628133229.071,11.719,-13.184,-22.461,5.371
1628133229.075,26.855,-24.902,-34.668,20.508
1628133229.079,-54.688,-42.480,-45.898,-44.434
1628133229.083,-86.914,-34.668,-28.809,-71.777
1628133229.087,0.977,-23.926,-7.812,-8.301
1628133229.090,52.734,-22.949,-5.371,35.645
1628133229.094,-21.484,-33.203,-19.043,-14.648
1628133229.098,-80.078,-35.645,-25.879,-56.152
1628133229.102,-18.555,-20.508,-22.461,-7.812
1628133229.106,48.340,-16.113,-27.344,39.062
1628133229.120,2.930,-35.645,-37.598,1.465
1628133229.124,-73.242,-40.527,-40.039,-60.059
1628133229.128,-54.199,-33.203,-30.273,-49.316
1628133229.132,41.992,-14.160,-7.812,23.926
1628133229.136,37.598,-2.930,-14.160,30.762
1628133229.140,-65.430,-39.551,-32.715,-42.480
1628133229.144,-80.078,-56.152,-30.273,-59.082
1628133229.147,-6.836,-35.645,-20.996,-9.277
1628133229.151,18.555,-24.414,-7.812,12.207
1628133229.155,-53.223,-22.461,-9.277,-35.156
1628133229.159,-94.727,-28.320,-20.996,-65.430
1628133229.163,-27.344,-25.879,-14.160,-17.090
1628133229.157,25.879,-20.508,-10.742,24.902
1628133229.161,-33.203,-34.668,-26.855,-22.461
1628133229.165,-86.426,-37.109,-36.133,-65.918
1628133229.169,-29.785,-30.762,-24.414,-24.414
1628133229.173,27.344,-37.598,-11.719,17.090
1628133229.177,-0.977,-36.133,-12.695,3.906
1628133229.181,-58.105,-19.043,-14.648,-37.109
1628133229.184,-47.852,-17.090,-19.043,-39.062
1628133229.188,16.113,-33.203,-35.156,6.348
1628133229.192,14.160,-37.109,-32.715,6.836
1628133229.196,-59.082,-34.180,-31.738,-43.945
1628133229.200,-58.105,-26.367,-40.039,-57.617
1628133229.213,10.254,-22.461,-36.133,-13.672
1628133229.217,30.273,-25.391,-29.297,9.277
1628133229.221,-38.086,-40.039,-28.320,-36.133
1628133229.225,-78.613,-37.109,-23.438,-67.871
1628133229.229,-6.348,-4.883,-17.578,-24.902
1628133229.233,41.992,-8.301,-27.832,21.973
1628133229.237,-19.043,-29.785,-29.785,-12.695
1628133229.240,-76.172,-33.203,-32.715,-59.082
1628133229.244,-33.203,-34.180,-47.363,-30.273
1628133229.248,44.922,-32.227,-34.180,34.668
1628133229.252,15.137,-45.410,-35.645,18.555
1628133229.256,-82.520,-40.039,-40.039,-56.152
1628133229.269,-79.590,-19.531,-40.039,-69.824
1628133229.273,7.812,-22.461,-42.969,-7.812
1628133229.277,32.715,-32.227,-19.531,20.508
1628133229.281,-49.316,-26.367,-27.832,-40.527
1628133229.285,-82.031,-17.090,-40.527,-68.359
1628133229.289,-8.301,-21.484,-31.250,-11.719
1628133229.293,36.621,-22.949,-18.066,21.973
1628133229.296,-32.227,-48.828,-19.043,-30.762
1628133229.300,-100.098,-73.730,-54.199,-77.148
1628133229.304,-42.480,-40.527,-52.734,-23.438
1628133229.308,20.996,-18.066,-29.297,17.578
1628133229.312,-28.809,-30.762,-36.621,-35.156
1628133229.308,-85.938,-28.809,-23.438,-73.730
1628133229.312,-41.016,-20.508,-17.578,-37.598
1628133229.316,45.410,-24.414,-26.367,22.461
1628133229.320,22.949,-36.133,-40.039,3.418
1628133229.324,-72.266,-38.574,-45.898,-66.895
1628133229.328,-58.594,-36.133,-21.973,-49.805
1628133229.332,34.180,-25.391,-17.578,22.949
1628133229.335,45.410,-6.348,-32.715,27.832
1628133229.339,-46.387,-13.184,-36.621,-38.086
1628133229.343,-92.285,-31.738,-39.062,-74.219
1628133229.347,-15.625,-16.602,-39.551,-18.066
1628133229.351,37.109,-14.160,-37.109,29.785
1628133229.343,-38.086,-51.758,-39.551,-29.297
1628133229.347,-109.375,-58.105,-37.598,-87.891
1628133229.351,-44.434,-22.461,-10.742,-34.180
1628133229.355,37.598,-31.250,-0.488,30.273
1628133229.359,-10.742,-46.875,-26.855,-8.301
1628133229.363,-89.355,-9.766,-57.617,-71.289
1628133229.367,-61.523,-1.953,-59.082,-56.152
1628133229.370,26.367,-24.414,-20.996,1.465
1628133229.374,20.996,-33.203,-3.906,-4.395
1628133229.378,-73.242,-37.598,-13.184,-74.707
1628133229.382,-80.078,-32.227,-28.320,-74.219
1628133229.386,6.348,-18.066,-43.457,-3.906
1628133229.456,42.969,-11.230,-35.645,28.320
1628133229.460,-35.156,-27.832,-23.438,-23.438
1628133229.464,-85.449,-56.152,-14.648,-59.570
1628133229.468,-11.230,-50.293,-2.441,-11.719
1628133229.472,44.434,-30.273,0.488,26.367
1628133229.476,-24.414,-21.484,-9.277,-22.949
1628133229.480,-101.562,-21.484,-30.762,-74.707
1628133229.483,-44.922,-9.277,-28.320,-33.203
1628133229.487,40.527,-1.465,-31.250,24.902
1628133229.491,9.277,-13.184,-59.082,7.324
1628133229.495,-79.590,-31.738,-52.734,-59.082
1628133229.499,-66.895,-38.086,-20.020,-58.105
1628133229.475,18.555,-17.578,-9.277,6.348
1628133229.479,4.883,-20.508,-10.742,2.441
1628133229.483,-71.289,-45.410,-14.160,-62.988
