timestamps,TP9,AF7,AF8,TP10,Right AUX
1626062687.8620448,31.738000000000003,-34.18,-31.25,1.0,1.0
1626062687.865951,7.812,-25.879,-32.227,1.0,1.0
1626062687.8698573,-73.242,-9.277000000000001,-34.18,1.0,1.0
1626062687.8737636,-68.848,-24.901999999999997,-31.25,1.0,1.0
1626062687.8776698,14.648,-44.922,-21.973000000000003,1.0,1.0
1626062687.881576,12.695,-61.523,-47.852,1.0,1.0
1626062687.8854823,-63.965,-44.434,-55.176,1.0,1.0
1626062687.8893886,-79.59,-25.879,-31.25,1.0,1.0
1626062687.8932948,-13.672,-18.066,-28.32,1.0,1.0
1626062687.897201,21.973000000000003,-11.23,-29.296999999999997,1.0,1.0
1626062687.9011073,-53.711000000000006,-29.785,-37.109,1.0,1.0
1626062687.9050138,-94.238,-46.387,-41.016000000000005,1.0,1.0
1626062687.9089198,-17.578,-40.039,-24.414,22.461,1.0
1626062687.912826,39.062,-42.48,-14.648,280.27299999999997,1.0
1626062687.9167323,-13.672,-44.922,-25.879,-4.883,1.0
1626062687.9206386,-91.79700000000001,-40.527,-38.574,-321.777,1.0
1626062687.9245448,-51.27,-26.366999999999997,-27.344,-95.215,1.0
1626062687.928451,25.879,-23.926,-20.02,265.625,1.0
1626062687.932357,-12.695,-43.945,-39.551,86.914,1.0
1626062687.9362638,-89.844,-43.945,-38.086,-299.805,1.0
1626062687.9401696,-66.895,-23.438000000000002,-20.996,-201.66,1.0
1626062687.9440763,18.066,-13.672,-16.113,203.613,1.0
1626062687.947982,21.973000000000003,-29.785,-17.09,198.73,1.0
1626062687.9518883,-63.965,-37.109,-27.831999999999997,-203.613,1.0
1626062687.955795,-104.98,-69.336,-12.695,-270.996,1.0
1626062687.959701,-96.68,-58.105,-12.207,-219.238,1.0
1626062687.963607,-11.23,-52.733999999999995,-3.418,187.012,1.0
1626062687.9675136,2.441,-68.359,-20.508000000000003,222.168,1.0
1626062687.9714196,-76.172,-82.031,-29.296999999999997,-171.875,1.0
1626062687.975326,-100.098,-67.383,-17.09,-284.668,1.0
1626062687.9792323,-19.043,-55.663999999999994,-7.812,90.82,1.0
1626062687.9831386,31.738000000000003,-72.266,-7.324,276.855,1.0
1626062687.9870448,-28.809,-78.613,-16.602,-55.176,1.0
1626062687.990951,-94.238,-71.289,-17.09,-313.47700000000003,1.0
1626062687.9948573,-45.898,-63.477,-9.766,-35.645,1.0
1626062687.9987636,26.366999999999997,-38.574,-8.789,270.996,1.0
1626062688.0026696,-14.648,-25.879,-13.184000000000001,1.0,1.0
1626062688.006576,-95.215,-23.926,-20.508000000000003,1.0,1.0
1626062688.0104823,-72.75399999999999,-40.527,-28.809,1.0,1.0
1626062688.0143886,10.742,-61.523,-25.879,1.0,1.0
1626062688.0182948,9.277000000000001,-63.477,-20.508000000000003,1.0,1.0
1626062688.022201,-72.75399999999999,-47.363,-19.043,1.0,1.0
1626062688.0261073,-85.93799999999999,-45.898,-19.531,1.0,1.0
1626062688.0300136,-15.137,-56.641000000000005,-32.227,1.0,1.0
1626062688.0339198,6.836,-30.273000000000003,-33.691,1.0,1.0
1626062688.037826,-59.57,-14.16,-19.531,1.0,1.0
1626062688.0417323,-92.285,-26.855,-8.301,1.0,1.0
1626062688.0456386,-23.438000000000002,-29.785,-11.719000000000001,1.0,1.0
1626062688.049545,20.508000000000003,-28.32,-25.879,257.812,1.0
1626062688.053451,-26.366999999999997,-20.996,-29.785,-50.781000000000006,1.0
1626062688.057357,-93.262,-30.273000000000003,-33.691,-336.914,1.0
1626062688.0612638,-60.059,-53.711000000000006,-34.668,-92.773,1.0
1626062688.0651696,20.02,-70.801,-26.366999999999997,234.375,1.0
1626062688.0690758,-9.277000000000001,-77.148,-27.344,62.012,1.0
1626062688.072982,-75.684,-47.363,-34.18,-291.01599999999996,1.0
1626062688.0768883,-58.105,-17.578,-36.621,-181.15200000000002,1.0
1626062688.080795,16.113,-11.719000000000001,-28.32,215.332,1.0
1626062688.084701,24.414,-5.859,-17.578,191.895,1.0
1626062688.0886073,-75.195,-24.901999999999997,-21.973000000000003,-232.91,1.0
1626062688.0925136,-110.84,-38.574,-34.668,-294.434,1.0
1626062688.0964196,-20.996,-45.41,-31.738000000000003,112.79299999999999,1.0
1626062688.100326,14.648,-86.426,-18.555,242.676,1.0
1626062688.1042323,-61.035,-89.355,-20.508000000000003,-134.766,1.0
1626062688.1081383,-100.098,-34.668,-24.414,-332.031,1.0
1626062688.1120448,-31.25,1.953,-24.901999999999997,8.301,1.0
1626062688.115951,14.648,-16.602,-27.831999999999997,256.836,1.0
1626062688.1198573,-29.296999999999997,-32.227,-22.949,-15.625,1.0
1626062688.1237636,-87.891,-41.016000000000005,-30.761999999999997,-323.73,1.0
1626062688.1276698,-53.223,-49.805,-34.18,-115.234,1.0
1626062688.131576,21.484,-33.203,-32.227,247.55900000000003,1.0
1626062688.1354823,-0.977,-38.086,-44.922,105.469,1.0
1626062688.1393886,-75.684,-62.5,-45.898,-286.621,1.0
1626062688.1432948,-64.453,-53.711000000000006,-22.949,-210.449,1.0
1626062688.147201,13.672,-24.414,-10.742,202.148,1.0
1626062688.1511073,3.906,-20.02,-20.996,187.988,1.0
1626062688.1550138,-90.33200000000001,-30.761999999999997,-39.062,-235.352,1.0
1626062688.1589198,-105.95700000000001,-20.508000000000003,-39.551,-312.988,1.0
1626062688.162826,-15.137,-7.324,-24.901999999999997,92.773,1.0
1626062688.1667323,26.855,-21.484,-30.273000000000003,260.742,1.0
1626062688.1706386,-35.156,-39.551,-45.898,-98.145,1.0
1626062688.1745448,-75.684,-51.27,-36.133,-333.496,1.0
1626062688.178451,-9.766,-56.641000000000005,-24.414,-17.09,1.0
1626062688.182357,54.199,-25.391,-18.555,282.22700000000003,1.0
1626062688.1862638,3.906,-2.441,-23.438000000000002,30.761999999999997,1.0
1626062688.1901696,-30.761999999999997,-33.691,-16.602,-316.895,1.0
1626062688.1940763,-97.16799999999999,-33.691,-20.02,-134.27700000000002,1.0
1626062688.197982,-45.41,-28.32,-25.391,245.11700000000002,1.0
1626062688.2018883,26.366999999999997,-35.645,-29.785,134.766,1.0
1626062688.205795,-4.395,-44.922,-34.668,-274.414,1.0
1626062688.209701,-83.008,-37.598,-25.391,-250.0,1.0
1626062688.213607,-51.758,-3.906,-0.488,160.156,1.0
1626062688.2175136,20.996,0.0,-5.371,223.145,1.0
1626062688.2214196,0.488,-28.32,-41.504,-172.363,1.0
1626062688.225326,-67.87100000000001,-45.898,-38.086,-307.617,1.0
1626062688.2292323,-78.125,-52.733999999999995,-23.438000000000002,60.547,1.0
1626062688.2331386,-7.812,-34.18,-17.09,257.812,1.0
1626062688.2370448,16.113,-18.066,-20.996,224.12099999999998,1.0
1626062688.240951,-57.617,-20.02,-30.761999999999997,-159.668,1.0
1626062688.2448573,-91.309,-21.484,-29.296999999999997,-322.26599999999996,1.0
1626062688.2487636,-17.09,-20.02,-20.02,38.574,1.0
1626062688.2526696,44.434,-26.855,-13.672,280.27299999999997,1.0
1626062688.256576,-10.254000000000001,-42.968999999999994,-20.996,-22.461,1.0
1626062688.2604823,-75.684,-39.062,-32.715,-322.26599999999996,1.0
1626062688.2643886,-37.109,-23.926,-29.785,-79.102,1.0
1626062688.2682948,21.484,-16.602,-30.761999999999997,254.395,1.0
1626062688.272201,-13.184000000000001,-6.836,-35.156,70.312,1.0
1626062688.2761073,-91.79700000000001,-18.066,-40.527,-307.129,1.0
1626062688.2800136,-69.824,-24.414,-31.25,-194.824,1.0
1626062688.2839198,16.602,-13.184000000000001,-24.414,206.543,1.0
1626062688.287826,22.461,-35.645,-25.391,180.66400000000002,1.0
1626062688.2917323,-58.593999999999994,-59.57,-24.414,-223.63299999999998,1.0
1626062688.2956386,-74.219,-22.949,-22.461,-271.973,1.0
1626062688.299545,13.184000000000001,-8.789,-12.207,131.836,1.0
1626062688.303451,37.598,-35.156,-10.742,255.37099999999998,1.0
1626062688.307357,-37.598,-31.738000000000003,-9.766,-116.211,1.0
1626062688.3112638,-84.961,-26.855,-27.831999999999997,-329.59,1.0
1626062688.3151696,-28.32,-28.809,-52.733999999999995,-6.836,1.0
1626062688.3190758,25.879,-25.879,-45.898,266.113,1.0
1626062688.322982,-16.602,-39.062,-26.366999999999997,1.953,1.0
1626062688.3268883,-76.66,-20.996,-9.277000000000001,-311.035,1.0
1626062688.330795,-85.93799999999999,-12.207,-26.366999999999997,-333.00800000000004,1.0
1626062688.334701,-33.203,-20.508000000000003,-26.366999999999997,-31.738000000000003,1.0
1626062688.3386073,38.574,-40.039,-23.438000000000002,269.531,1.0
1626062688.3425136,-17.09,-64.941,-29.296999999999997,15.625,1.0
1626062688.3464196,-90.82,-69.824,-26.855,-330.566,1.0
1626062688.350326,-44.434,-34.668,-16.602,-136.719,1.0
1626062688.3542323,35.645,6.348,-11.23,248.047,1.0
1626062688.3581383,16.113,-3.906,-28.809,140.625,1.0
1626062688.3620448,-62.012,-23.926,-42.48,-259.277,1.0
1626062688.365951,-58.593999999999994,-3.906,-34.18,-231.445,1.0
1626062688.3698573,21.973000000000003,-7.324,-22.949,174.31599999999997,1.0
1626062688.3737636,36.133,-31.738000000000003,-19.043,226.074,1.0
1626062688.3776698,-49.805,-49.805,-30.273000000000003,1.0,1.0
1626062688.381576,-84.961,-54.688,-38.574,1.0,1.0
1626062688.3854823,-7.324,-36.133,-27.831999999999997,1.0,1.0
1626062688.3893886,39.062,-19.531,-15.137,1.0,1.0
1626062688.3932948,-33.203,-25.879,-13.672,1.0,1.0
1626062688.397201,-103.027,-57.129,-27.344,1.0,1.0
1626062688.4011073,-54.688,-55.176,-23.438000000000002,1.0,1.0
1626062688.4050138,20.508000000000003,-13.672,-11.23,1.0,1.0
1626062688.4089198,-7.812,-7.324,-20.508000000000003,1.0,1.0
1626062688.412826,-83.984,-17.09,-35.156,1.0,1.0
1626062688.4167323,-70.801,-19.043,-57.129,1.0,1.0
1626062688.4206386,12.207,-15.625,-48.828,1.0,1.0
1626062688.4245448,13.672,-40.039,-35.156,1.0,1.0
1626062688.428451,-80.078,-84.961,-37.598,1.0,1.0
1626062688.432357,-82.031,-81.055,-22.949,1.0,1.0
1626062688.4362638,10.742,-43.945,-17.09,1.0,1.0
1626062688.4401696,21.484,-19.043,-27.831999999999997,1.0,1.0
1626062688.4440763,-60.059,-16.602,-36.621,1.0,1.0
1626062688.447982,-92.285,-25.391,-27.344,1.0,1.0
1626062688.4518883,-22.949,-24.414,-17.09,1.0,1.0
1626062688.455795,17.09,-32.715,-30.761999999999997,1.0,1.0
1626062688.459701,-34.668,-32.715,-45.41,1.0,1.0
1626062688.463607,-96.191,-40.039,-54.199,1.0,1.0
1626062688.4675136,-55.663999999999994,-54.688,-45.41,1.0,1.0
1626062688.4714196,24.901999999999997,-45.898,-35.156,1.0,1.0
1626062688.475326,-6.348,-27.831999999999997,-40.039,1.0,1.0
1626062688.4792323,-79.59,-43.945,-37.598,1.0,1.0
1626062688.4831386,-55.176,-62.988,-17.09,1.0,1.0
1626062688.4870448,20.02,-37.109,-17.09,1.0,1.0
1626062688.490951,15.625,-1.465,-40.527,1.0,1.0
1626062688.4948573,-65.43,7.324,-41.016000000000005,1.0,1.0
1626062688.4987636,-92.773,-5.859,-34.668,1.0,1.0
1626062688.5026696,-6.348,-12.695,-27.344,1.0,1.0
1626062688.506576,40.527,-37.109,-20.996,1.0,1.0
1626062688.5104823,-42.48,-65.918,-36.133,1.0,1.0
1626062688.5143886,-91.309,-47.363,-43.457,1.0,1.0
1626062688.5182948,-22.461,-28.32,-40.039,1.465,1.0
1626062688.522201,36.621,-25.879,-37.598,270.996,1.0
1626062688.5261073,-15.625,-27.344,-31.738000000000003,-2.93,1.0
1626062688.5300136,-83.49600000000001,-16.113,-19.531,-321.777,1.0
1626062688.5339198,-46.387,-13.184000000000001,-17.09,-117.676,1.0
1626062688.537826,26.855,-32.227,-22.949,249.512,1.0
1626062688.5417323,12.207,-30.761999999999997,-23.926,120.605,1.0
1626062688.5456386,-69.824,-18.066,-20.996,-274.902,1.0
1626062688.549545,-68.848,-31.738000000000003,-30.273000000000003,-229.98,1.0
1626062688.553451,14.648,-43.945,-40.527,171.387,1.0
1626062688.557357,30.273000000000003,-23.926,-37.598,205.56599999999997,1.0
1626062688.5612638,-36.133,-19.531,-37.598,-187.012,1.0
1626062688.5651696,-145.50799999999998,-22.461,-33.691,-339.844,1.0
1626062688.5690758,-175.293,-21.973000000000003,-39.062,-346.68,1.0
1626062688.572982,-108.398,-16.602,-31.25,50.781000000000006,1.0
1626062688.5768883,-105.95700000000001,-19.043,-34.668,96.68,1.0
1626062688.580795,-199.707,-23.926,-36.621,-314.453,1.0
1626062688.584701,-244.62900000000002,-20.508000000000003,-39.551,-465.332,1.0
1626062688.5886073,-179.199,-20.02,-30.273000000000003,-96.68,1.0
1626062688.5925136,-140.625,-26.855,-27.344,107.42200000000001,1.0
1626062688.5964196,-193.84799999999998,-21.973000000000003,-39.062,-220.703,1.0
1626062688.600326,-248.047,-33.203,-38.086,-496.094,1.0
1626062688.6042323,-210.449,-46.875,-30.273000000000003,-236.328,1.0
1626062688.6081383,-147.94899999999998,-44.434,-21.484,95.70299999999999,1.0
1626062688.6120448,-177.24599999999998,-32.227,-31.25,1.0,1.0
1626062688.615951,-258.301,-34.18,-48.34,1.0,1.0
1626062688.6198573,-233.398,-28.809,-46.875,1.0,1.0
1626062688.6237636,-127.93,-23.926,-31.25,1.0,1.0
1626062688.6276698,-127.441,-35.645,-31.25,1.0,1.0
1626062688.631576,-205.56599999999997,-28.809,-36.133,1.0,1.0
1626062688.6354823,-210.449,-20.508000000000003,-21.973000000000003,1.0,1.0
1626062688.6393886,-116.699,-16.113,-13.184000000000001,1.0,1.0
1626062688.6432948,-87.402,-30.761999999999997,-31.738000000000003,1.0,1.0
1626062688.647201,-156.738,-41.992,-58.105,1.0,1.0
1626062688.6511073,-191.895,-17.09,-55.663999999999994,1.0,1.0
1626062688.6550138,-116.211,-11.719000000000001,-32.227,1.0,1.0
1626062688.6589198,-46.387,-31.25,-24.901999999999997,195.801,1.0
1626062688.662826,-96.191,-41.992,-46.875,-93.262,1.0
1626062688.6667323,-140.137,-22.461,-51.27,-378.906,1.0
1626062688.6706386,-78.613,3.906,-15.137,-121.094,1.0
1626062688.6745448,1.953,5.371,-5.859,227.051,1.0
1626062688.678451,-10.254000000000001,-20.02,-17.09,71.289,1.0
1626062688.682357,-76.66,-51.27,-28.32,-296.875,1.0
1626062688.6862638,-46.875,-36.133,-23.926,-197.75400000000002,1.0
1626062688.6901696,38.574,-20.02,-29.785,212.891,1.0
1626062688.6940763,40.039,-32.715,-53.711000000000006,205.56599999999997,1.0
1626062688.697982,-31.738000000000003,-40.527,-53.223,-196.77700000000002,1.0
1626062688.7018883,-40.039,-36.621,-37.598,-260.742,1.0
1626062688.705795,0.488,-71.777,-39.551,-153.32,1.0
1626062688.709701,67.383,-35.156,-39.062,235.84,1.0
1626062688.713607,74.219,-36.621,-45.898,266.113,1.0
1626062688.7175136,0.977,-27.831999999999997,-49.805,-131.34799999999998,1.0
1626062688.7214196,-20.996,-12.695,-37.598,-242.188,1.0
1626062688.725326,62.012,-32.227,-18.066,144.043,1.0
1626062688.7292323,95.215,-41.016000000000005,-24.414,328.125,1.0
1626062688.7331386,15.137,-19.043,-43.457,-27.344,1.0
1626062688.7370448,-36.133,-2.93,-40.039,-277.344,1.0
1626062688.740951,33.203,-14.648,-21.484,27.344,1.0
1626062688.7448573,92.285,-48.828,-27.344,324.219,1.0
1626062688.7487636,42.968999999999994,-59.082,-42.48,87.891,1.0
1626062688.7526696,24.901999999999997,-42.968999999999994,-45.41,-258.301,1.0
1626062688.756576,-52.733999999999995,-45.898,-61.035,-96.191,1.0
1626062688.7604823,-4.395,-18.555,-36.621,296.387,1.0
1626062688.7643886,71.777,-1.465,-22.461,216.797,1.0
1626062688.7682948,32.227,-23.438000000000002,-19.043,-184.082,1.0
1626062688.772201,-51.758,-42.968999999999994,-25.391,-178.71099999999998,1.0
1626062688.7761073,-36.133,-32.227,-32.227,222.65599999999998,1.0
1626062688.7800136,56.641000000000005,-22.949,-22.461,291.992,1.0
1626062688.7839198,60.059,-23.926,-25.879,-106.445,1.0
1626062688.787826,-19.043,-25.391,-22.949,-267.09,1.0
1626062688.7917323,-32.715,-21.484,-6.348,85.93799999999999,1.0
1626062688.7956386,52.733999999999995,-20.508000000000003,-23.438000000000002,317.871,1.0
1626062688.799545,72.75399999999999,-31.25,-51.758,1.0,1.0
1626062688.803451,-15.137,-49.805,-37.598,1.0,1.0
1626062688.807357,-58.593999999999994,-46.875,-16.113,1.0,1.0
1626062688.8112638,-7.812,-17.578,-22.461,1.0,1.0
1626062688.8151696,36.621,-13.184000000000001,-20.996,1.0,1.0
1626062688.8190758,-4.395,-21.484,-20.996,1.0,1.0
1626062688.822982,-61.523,-25.879,-24.901999999999997,1.0,1.0
1626062688.8268883,-24.901999999999997,-28.32,-20.508000000000003,1.0,1.0
1626062688.830795,50.293,-30.273000000000003,-15.625,1.0,1.0
1626062688.834701,23.926,-24.414,-20.508000000000003,1.0,1.0
1626062688.8386073,-54.199,-29.296999999999997,-27.831999999999997,1.0,1.0
1626062688.8425136,-46.387,-29.785,-23.926,1.0,1.0
1626062688.8464196,28.809,-29.296999999999997,-26.366999999999997,206.543,1.0
1626062688.850326,36.621,-58.105,-20.508000000000003,211.91400000000002,1.0
1626062688.8542323,-50.293,-64.453,-17.578,-196.28900000000002,1.0
1626062688.8581383,-86.914,-37.109,-27.831999999999997,-285.156,1.0
1626062688.8620448,-10.254000000000001,-21.973000000000003,-23.438000000000002,104.492,1.0
1626062688.865951,31.738000000000003,-16.113,-15.137,262.207,1.0
1626062688.8698573,-32.715,-24.414,-28.809,-86.426,1.0
1626062688.8737636,-80.566,-30.273000000000003,-29.785,-304.199,1.0
1626062688.8776698,-26.855,-35.645,-11.23,-2.441,1.0
1626062688.881576,28.32,-57.129,-15.625,256.348,1.0
1626062688.8854823,-7.812,-53.223,-31.25,21.484,1.0
1626062688.8893886,-72.75399999999999,-37.598,-48.34,-302.246,1.0
1626062688.8932948,-61.523,-58.593999999999994,-16.113,-314.941,1.0
1626062688.897201,-18.555,-61.523,-6.348,-35.645,1.0
1626062688.9011073,37.109,-39.551,-9.277000000000001,268.555,1.0
1626062688.9050138,0.0,-21.973000000000003,-10.742,52.733999999999995,1.0
1626062688.9089198,-73.242,-27.344,-12.207,-297.85200000000003,1.0
1626062688.912826,-58.593999999999994,-21.973000000000003,-5.859,-151.855,1.0
1626062688.9167323,13.184000000000001,-13.184000000000001,-14.16,217.285,1.0
1626062688.9206386,-2.441,-16.113,-34.18,136.719,1.0
1626062688.9245448,-76.172,-26.366999999999997,-29.785,-254.395,1.0
1626062688.928451,-72.75399999999999,-45.41,-16.113,-249.023,1.0
1626062688.932357,12.695,-65.918,-11.719000000000001,159.668,1.0
1626062688.9362638,46.387,-43.945,0.488,253.90599999999998,1.0
1626062688.9401696,-47.852,-28.809,-2.441,1.0,1.0
1626062688.9440763,-103.027,-32.715,-17.09,1.0,1.0
1626062688.947982,-29.296999999999997,-21.973000000000003,-8.301,1.0,1.0
1626062688.9518883,26.855,-10.742,-1.953,1.0,1.0
1626062688.955795,-26.366999999999997,-23.438000000000002,-30.273000000000003,1.0,1.0
1626062688.959701,-99.12100000000001,-48.828,-48.828,1.0,1.0
1626062688.963607,-39.062,-54.688,-22.949,1.0,1.0
1626062688.9675136,35.645,-38.086,-11.23,1.0,1.0
1626062688.9714196,5.371,-20.02,-21.973000000000003,1.0,1.0
1626062688.975326,-62.988,-22.461,-26.855,1.0,1.0
1626062688.9792323,-59.57,-33.203,-39.062,1.0,1.0
1626062688.9831386,20.02,-17.09,-27.344,1.0,1.0
1626062688.9870448,24.414,-19.531,-2.93,1.0,1.0
1626062688.990951,-60.547,-32.715,-3.418,1.0,1.0
1626062688.9948573,-79.102,-19.531,-6.836,1.0,1.0
1626062688.9987636,2.441,-35.645,-0.488,1.0,1.0
1626062689.0026696,47.363,-37.598,4.395,1.0,1.0
1626062689.006576,-12.207,-12.695,-8.789,1.0,1.0
1626062689.0104823,-69.824,-40.527,-23.926,1.0,1.0
1626062689.0143886,-29.296999999999997,-54.199,-32.715,1.0,1.0
1626062689.0182948,24.414,-20.996,-45.41,1.0,1.0
1626062689.022201,-17.578,-10.742,-43.945,1.0,1.0
1626062689.0261073,-82.52,-18.066,-28.32,1.0,1.0
1626062689.0300136,-36.621,-13.184000000000001,-6.836,1.0,1.0
1626062689.0339198,40.039,-3.906,-8.789,1.0,1.0
1626062689.037826,16.113,-10.742,-27.831999999999997,1.0,1.0
1626062689.0417323,-63.965,-17.09,-33.691,1.0,1.0
1626062689.0456386,-52.246,-7.812,-23.926,1.0,1.0
1626062689.049545,27.831999999999997,-9.277000000000001,-21.484,1.0,1.0
1626062689.053451,26.855,-22.461,-37.598,1.0,1.0
1626062689.057357,-55.663999999999994,-33.691,-35.645,1.0,1.0
1626062689.0612638,-77.148,-19.043,-18.555,1.0,1.0
1626062689.0651696,4.395,-18.555,0.0,1.0,1.0
1626062689.0690758,35.156,-39.551,-11.23,1.0,1.0
1626062689.072982,-47.363,-51.27,-39.551,1.0,1.0
1626062689.0768883,-97.16799999999999,-41.016000000000005,-38.086,1.0,1.0
1626062689.080795,-36.621,-42.968999999999994,-21.484,-35.156,1.0
1626062689.084701,30.761999999999997,-62.5,-10.254000000000001,262.207,1.0
1626062689.0886073,-0.977,-54.199,-13.672,24.414,1.0
1626062689.0925136,-74.707,-31.738000000000003,-25.391,-310.547,1.0
1626062689.0964196,-54.199,-7.812,-30.761999999999997,-105.469,1.0
1626062689.100326,22.461,3.906,-28.32,242.676,1.0
1626062689.1042323,24.901999999999997,5.371,-37.598,132.32399999999998,1.0
1626062689.1081383,-64.941,-36.621,-58.105,-263.672,1.0
1626062689.1120448,-85.93799999999999,-42.968999999999994,-65.918,-257.324,1.0
1626062689.115951,19.531,-7.812,-39.551,171.875,1.0
1626062689.1198573,44.434,-26.855,-25.879,229.98,1.0
1626062689.1237636,-44.434,-68.848,-21.973000000000003,-173.34,1.0
1626062689.1276698,-61.035,-19.043,-25.879,-311.035,1.0
1626062689.131576,-62.5,-5.371,-28.32,43.457,1.0
1626062689.1354823,2.93,-6.348,-44.922,245.605,1.0
1626062689.1393886,1.465,-21.973000000000003,-44.434,-69.336,1.0
1626062689.1432948,-66.895,-31.25,-33.691,-297.363,1.0
1626062689.147201,-88.867,-34.18,-26.366999999999997,-27.831999999999997,1.0
1626062689.1511073,-19.531,-47.363,-21.973000000000003,263.672,1.0
1626062689.1550138,35.156,-74.707,-22.461,64.453,1.0
1626062689.1589198,-15.625,-81.055,-17.09,-285.156,1.0
1626062689.162826,-88.867,-48.34,-20.508000000000003,-154.297,1.0
1626062689.1667323,-59.57,-20.02,-23.438000000000002,224.12099999999998,1.0
1626062689.1706386,13.184000000000001,-0.977,-24.414,158.691,1.0
1626062689.1745448,-18.555,-15.625,-41.992,1.0,1.0
1626062689.178451,-86.914,-47.363,-29.785,1.0,1.0
1626062689.182357,-74.707,-38.086,-20.996,1.0,1.0
1626062689.1862638,-2.93,-16.113,-22.461,1.0,1.0
1626062689.1901696,5.371,-29.785,-29.785,1.0,1.0
1626062689.1940763,-65.918,-47.363,-45.898,1.0,1.0
1626062689.197982,-66.406,-42.48,-33.691,1.0,1.0
1626062689.2018883,-1.953,-38.574,-17.578,1.0,1.0
1626062689.205795,15.625,-34.668,-23.438000000000002,1.0,1.0
1626062689.209701,-51.758,-25.391,-26.855,1.0,1.0
1626062689.213607,-98.145,-22.949,-31.25,1.0,1.0
1626062689.2175136,-32.715,-10.742,-41.504,1.0,1.0
1626062689.2214196,36.133,-26.855,-32.227,276.367,1.0
1626062689.225326,-16.113,-47.852,-19.043,-2.441,1.0
1626062689.2292323,-100.098,-39.062,-15.137,-332.52,1.0
1626062689.2331386,-59.57,-31.738000000000003,-2.441,-119.141,1.0
1626062689.2370448,20.02,-37.598,-16.602,240.72299999999998,1.0
1626062689.240951,-9.277000000000001,-48.34,-37.109,95.215,1.0
1626062689.2448573,-83.984,-37.598,-28.809,-282.715,1.0
1626062689.2487636,-71.289,-29.296999999999997,-28.809,-218.75,1.0
1626062689.2526696,-1.953,-35.156,-49.805,170.898,1.0
1626062689.256576,18.555,-35.645,-42.48,201.172,1.0
1626062689.2604823,-54.199,-31.25,-19.043,-193.359,1.0
1626062689.2643886,-90.82,-22.949,-14.648,-290.527,1.0
1626062689.2682948,-67.383,-23.438000000000002,-1.465,-228.02700000000002,1.0
1626062689.272201,16.602,-1.465,1.953,177.24599999999998,1.0
1626062689.2761073,27.344,-16.602,-20.508000000000003,228.02700000000002,1.0
1626062689.2800136,-52.246,-55.663999999999994,-31.738000000000003,-164.062,1.0
1626062689.2839198,-73.242,-69.336,-20.02,-292.48,1.0
1626062689.287826,0.977,-54.199,-4.883,75.684,1.0
1626062689.2917323,35.645,-33.691,-18.066,272.949,1.0
1626062689.2956386,-23.926,-24.901999999999997,-34.668,-57.129,1.0
1626062689.299545,-82.031,-31.738000000000003,-21.973000000000003,-322.754,1.0
1626062689.303451,-24.901999999999997,-22.461,0.0,-47.363,1.0
1626062689.307357,50.781000000000006,-20.996,0.977,278.32,1.0
1626062689.3112638,16.602,-11.719000000000001,-3.418,78.613,1.0
1626062689.3151696,-58.105,-5.859,-19.043,1.0,1.0
1626062689.3190758,-41.504,-41.504,-34.668,1.0,1.0
1626062689.322982,43.945,-39.062,-16.602,1.0,1.0
1626062689.3268883,37.109,-22.461,-6.348,1.0,1.0
1626062689.330795,-53.711000000000006,-22.949,-19.531,1.0,1.0
1626062689.334701,-70.312,-6.348,-21.973000000000003,1.0,1.0
1626062689.3386073,6.348,0.488,-17.578,1.0,1.0
1626062689.3425136,30.761999999999997,-20.02,-25.879,1.0,1.0
1626062689.3464196,-39.551,-43.945,-22.461,1.0,1.0
1626062689.350326,-81.055,-43.945,-13.672,1.0,1.0
1626062689.3542323,-27.344,-33.691,-11.23,1.0,1.0
1626062689.3581383,17.578,-27.344,-18.555,1.0,1.0
1626062689.3620448,-30.761999999999997,-41.016000000000005,-42.968999999999994,1.0,1.0
1626062689.365951,-89.844,-66.406,-60.059,1.0,1.0
1626062689.3698573,-44.922,-49.805,-45.898,1.0,1.0
1626062689.3737636,29.296999999999997,-37.598,-20.508000000000003,1.0,1.0
1626062689.3776698,5.371,-22.949,-27.344,1.0,1.0
1626062689.381576,-71.289,-16.113,-40.527,1.0,1.0
1626062689.3854823,-63.965,-16.602,-11.23,1.0,1.0
1626062689.3893886,18.066,0.977,4.883,1.0,1.0
1626062689.3932948,25.879,9.277000000000001,-18.066,1.0,1.0
1626062689.397201,-62.012,-14.648,-36.621,1.0,1.0
1626062689.4011073,-90.82,-45.898,-35.645,1.0,1.0
1626062689.4050138,-8.789,-42.48,-25.391,1.0,1.0
1626062689.4089198,34.668,-28.32,-21.973000000000003,1.0,1.0
1626062689.412826,-27.344,-32.227,-26.855,1.0,1.0
1626062689.4167323,-78.613,-38.086,-32.227,1.0,1.0
1626062689.4206386,-29.296999999999997,-34.18,-28.809,1.0,1.0
1626062689.4245448,30.761999999999997,-37.598,-36.133,1.0,1.0
1626062689.428451,-8.789,-50.781000000000006,-39.062,1.0,1.0
1626062689.432357,-72.266,-40.039,-27.831999999999997,1.0,1.0
1626062689.4362638,-41.504,-14.648,-20.508000000000003,1.0,1.0
1626062689.4401696,26.855,-3.418,-16.602,1.0,1.0
1626062689.4440763,14.648,-14.648,-16.602,1.0,1.0
1626062689.447982,-57.129,-22.461,-17.09,1.0,1.0
1626062689.4518883,-54.199,-8.789,-13.672,1.0,1.0
1626062689.455795,38.086,0.977,-27.831999999999997,188.477,1.0
1626062689.459701,56.152,-36.621,-35.645,217.773,1.0
1626062689.463607,-32.715,-57.129,-20.996,-182.61700000000002,1.0
1626062689.4675136,-75.684,-38.574,-17.09,-293.945,1.0
1626062689.4714196,-9.766,-36.133,-10.742,77.148,1.0
1626062689.475326,26.855,-42.48,-24.414,251.465,1.0
1626062689.4792323,-27.831999999999997,-26.855,-44.434,-86.914,1.0
1626062689.4831386,-79.59,-10.254000000000001,-21.973000000000003,-326.66,1.0
1626062689.4870448,-37.109,-11.719000000000001,-8.789,-36.621,1.0
1626062689.490951,25.391,-24.414,-16.113,258.789,1.0
1626062689.4948573,-11.23,-25.391,-21.484,31.738000000000003,1.0
1626062689.4987636,-80.078,-26.855,-19.043,-304.199,1.0
1626062689.5026696,-98.633,-18.555,-27.831999999999997,-326.172,1.0
1626062689.506576,-61.523,-24.901999999999997,-28.32,-76.66,1.0
1626062689.5104823,-3.418,-21.484,-41.016000000000005,230.957,1.0
1626062689.5143886,-37.598,-21.973000000000003,-47.363,35.645,1.0
1626062689.5182948,-94.727,-30.761999999999997,-43.457,-313.47700000000003,1.0
1626062689.522201,-66.406,-36.621,-35.156,-181.15200000000002,1.0
1626062689.5261073,16.113,-36.621,-38.574,217.285,1.0
1626062689.5300136,17.578,-56.152,-49.316,176.75799999999998,1.0
1626062689.5339198,-61.035,-47.852,-44.922,-228.02700000000002,1.0
1626062689.537826,-81.543,-43.457,-31.738000000000003,-269.531,1.0
1626062689.5417323,-6.836,-52.733999999999995,-22.949,123.04700000000001,1.0
1626062689.5456386,25.879,-20.508000000000003,-24.901999999999997,236.328,1.0
1626062689.549545,-43.457,0.488,-8.301,-129.395,1.0
1626062689.553451,-87.402,-9.277000000000001,-11.23,-316.895,1.0
1626062689.557357,-28.32,-10.254000000000001,-36.133,12.695,1.0
1626062689.5612638,24.414,-14.648,-30.761999999999997,260.742,1.0
1626062689.5651696,-21.484,-29.296999999999997,-22.461,-20.996,1.0
1626062689.5690758,-83.984,-40.527,-23.926,-327.14799999999997,1.0
1626062689.572982,-48.828,-45.41,-7.324,-101.56200000000001,1.0
1626062689.5768883,12.207,-40.039,-3.418,238.28099999999998,1.0
1626062689.580795,-19.531,-33.691,-14.16,67.87100000000001,1.0
1626062689.584701,-100.586,-35.156,-19.531,-311.52299999999997,1.0
1626062689.5886073,-94.238,-39.062,-23.926,-225.58599999999998,1.0
1626062689.5925136,-14.648,-20.508000000000003,-23.438000000000002,168.945,1.0
1626062689.5964196,-5.859,-8.789,-24.414,1.0,1.0
1626062689.600326,-82.52,-20.996,-30.761999999999997,1.0,1.0
1626062689.6042323,-115.234,-25.879,-38.574,1.0,1.0
1626062689.6081383,-49.805,-26.855,-39.062,1.0,1.0
1626062689.6120448,-21.484,-33.203,-37.109,1.0,1.0
1626062689.615951,-94.238,-30.273000000000003,-31.25,1.0,1.0
1626062689.6198573,-151.36700000000002,-33.691,-32.227,1.0,1.0
1626062689.6237636,-117.676,-28.32,-27.831999999999997,1.0,1.0
1626062689.6276698,-84.961,-19.531,-22.461,1.0,1.0
1626062689.631576,-149.414,-23.438000000000002,-41.016000000000005,1.0,1.0
1626062689.6354823,-234.863,-24.901999999999997,-47.363,1.0,1.0
1626062689.6393886,-211.91400000000002,-20.508000000000003,-33.691,1.0,1.0
1626062689.6432948,-145.02,-31.738000000000003,-21.973000000000003,1.0,1.0
1626062689.647201,-177.24599999999998,-47.363,-27.344,1.0,1.0
1626062689.6511073,-263.184,-30.273000000000003,-40.527,1.0,1.0
1626062689.6550138,-266.113,-23.438000000000002,-49.316,1.0,1.0
1626062689.6589198,-190.918,-62.012,-44.434,1.0,1.0
1626062689.662826,-171.387,-61.523,-37.109,1.0,1.0
1626062689.6667323,-238.28099999999998,-18.555,-43.945,1.0,1.0
1626062689.6706386,-270.508,-6.348,-55.176,1.0,1.0
1626062689.6745448,-202.148,-16.113,-47.852,1.0,1.0
1626062689.678451,-150.879,-26.366999999999997,-24.901999999999997,1.0,1.0
1626062689.682357,-201.172,-35.156,-31.738000000000003,1.0,1.0
1626062689.6862638,-245.605,-28.809,-32.227,1.0,1.0
1626062689.6901696,-193.359,-21.484,-17.09,-192.38299999999998,1.0
1626062689.6940763,-123.535,-18.066,-19.043,129.88299999999998,1.0
1626062689.697982,-141.602,-24.901999999999997,-41.504,-76.66,1.0
1626062689.7018883,-191.40599999999998,-61.523,-32.227,-418.945,1.0
1626062689.705795,-153.32,-72.75399999999999,-20.02,-250.977,1.0
1626062689.709701,-73.242,-20.996,-32.227,136.719,1.0
1626062689.713607,-86.426,-6.348,-38.086,53.223,1.0
1626062689.7175136,-176.27,-26.855,-42.48,-353.027,1.0
1626062689.7214196,-164.551,-25.879,-42.48,-331.055,1.0
1626062689.725326,-68.848,-23.926,-47.363,91.309,1.0
1626062689.7292323,-36.133,-30.273000000000003,-32.715,175.78099999999998,1.0
1626062689.7331386,-79.59,-32.227,-20.02,-183.105,1.0
1626062689.7370448,-4.883,-64.941,-40.527,-317.871,1.0
1626062689.740951,-8.789,-46.875,-20.02,55.176,1.0
1626062689.7448573,73.242,-27.344,-9.277000000000001,282.22700000000003,1.0
1626062689.7487636,106.934,-14.16,-24.414,-23.438000000000002,1.0
1626062689.7526696,24.414,-15.137,-48.828,-285.645,1.0
1626062689.756576,-19.531,-28.809,-32.715,-25.879,1.0
1626062689.7604823,45.898,-48.34,-17.09,300.293,1.0
1626062689.7643886,100.098,-42.48,-30.761999999999997,112.79299999999999,1.0
1626062689.7682948,52.733999999999995,-20.508000000000003,-42.48,-246.09400000000002,1.0
1626062689.772201,-11.719000000000001,-19.043,-45.898,-118.652,1.0
1626062689.7761073,24.901999999999997,-23.926,-41.504,296.387,1.0
1626062689.7800136,95.70299999999999,-22.949,-30.273000000000003,264.16,1.0
1626062689.7839198,81.543,-44.434,-20.02,1.0,1.0
1626062689.787826,17.09,-51.758,-10.254000000000001,1.0,1.0
1626062689.7917323,36.133,-41.504,-0.977,1.0,1.0
1626062689.7956386,105.95700000000001,-26.366999999999997,-10.254000000000001,1.0,1.0
1626062689.799545,91.79700000000001,-39.551,-31.738000000000003,1.0,1.0
1626062689.803451,3.418,-47.363,-42.48,1.0,1.0
1626062689.807357,-17.578,-24.901999999999997,-29.296999999999997,1.0,1.0
1626062689.8112638,53.711000000000006,-16.602,-11.719000000000001,1.0,1.0
1626062689.8151696,95.215,-15.137,-12.695,1.0,1.0
1626062689.8190758,35.645,-18.066,-23.438000000000002,1.0,1.0
1626062689.822982,-23.438000000000002,-32.715,-23.926,1.0,1.0
1626062689.8268883,46.875,-38.086,-1.465,1.0,1.0
1626062689.830795,104.98,-50.781000000000006,-5.371,355.957,1.0
1626062689.834701,40.039,-39.551,-28.32,86.426,1.0
1626062689.8386073,-22.461,-27.344,-23.926,-236.328,1.0
1626062689.8425136,11.23,-33.691,-20.508000000000003,-47.852,1.0
1626062689.8464196,79.59,-28.32,-19.531,310.547,1.0
1626062689.850326,66.406,-36.621,-16.602,206.543,1.0
1626062689.8542323,-13.672,-56.152,-29.785,-193.359,1.0
1626062689.8581383,-6.348,-38.086,-17.578,-160.645,1.0
1626062689.8620448,70.801,-10.254000000000001,-3.906,240.72299999999998,1.0
1626062689.865951,76.66,-1.953,-12.695,272.461,1.0
1626062689.8698573,-6.836,-22.949,-29.296999999999997,-129.395,1.0
1626062689.8737636,-43.945,-37.598,-40.039,-250.977,1.0
1626062689.8776698,-65.918,-32.227,-24.901999999999997,-234.375,1.0
1626062689.881576,15.625,-28.32,-30.761999999999997,161.13299999999998,1.0
1626062689.8854823,39.551,-25.391,-44.434,251.953,1.0
1626062689.8893886,-25.879,-32.227,-48.34,-126.465,1.0
1626062689.8932948,-76.172,-40.039,-30.273000000000003,-304.199,1.0
1626062689.897201,-16.113,-42.48,-13.672,44.434,1.0
1626062689.9011073,43.457,-49.805,-16.113,282.22700000000003,1.0
1626062689.9050138,-17.09,-37.598,-29.785,-22.461,1.0
1626062689.9089198,-81.055,-25.391,-34.18,-310.059,1.0
1626062689.912826,-38.574,-39.551,-28.809,-62.5,1.0
1626062689.9167323,23.926,-39.551,-26.366999999999997,267.09,1.0
1626062689.9206386,-1.953,-37.109,-35.645,84.961,1.0
1626062689.9245448,-73.242,-30.273000000000003,-39.062,1.0,1.0
1626062689.928451,-58.105,-22.461,-28.32,1.0,1.0
1626062689.932357,31.25,-23.438000000000002,-18.066,1.0,1.0
1626062689.9362638,39.551,-34.18,-30.761999999999997,1.0,1.0
1626062689.9401696,-44.922,-64.453,-59.57,1.0,1.0
1626062689.9440763,-62.988,-60.059,-50.293,1.0,1.0
1626062689.947982,11.23,-56.641000000000005,-34.18,1.0,1.0
1626062689.9518883,44.922,-38.086,-43.945,1.0,1.0
1626062689.955795,-15.137,3.906,-33.203,1.0,1.0
1626062689.959701,-70.801,-5.371,-11.719000000000001,1.0,1.0
1626062689.963607,-14.648,-28.32,-3.418,1.0,1.0
1626062689.9675136,48.34,-26.366999999999997,-4.883,1.0,1.0
1626062689.9714196,-9.277000000000001,-27.344,-26.366999999999997,1.0,1.0
1626062689.975326,-88.37899999999999,-46.387,-48.828,1.0,1.0
1626062689.9792323,-52.733999999999995,-45.41,-44.922,1.0,1.0
1626062689.9831386,21.973000000000003,-24.901999999999997,-28.809,1.0,1.0
1626062689.9870448,13.184000000000001,-11.23,-6.836,1.0,1.0
1626062689.990951,-58.593999999999994,-8.789,-8.301,1.0,1.0
1626062689.9948573,-60.547,-30.273000000000003,-24.414,1.0,1.0
1626062689.9987636,12.207,-46.387,-24.414,1.0,1.0
1626062690.0026696,25.879,-57.129,-15.625,1.0,1.0
1626062690.006576,-53.223,-49.316,-24.414,1.0,1.0
1626062690.0104823,-92.285,-43.945,-47.852,1.0,1.0
1626062690.0143886,-15.625,-43.945,-36.621,1.0,1.0
1626062690.0182948,25.391,-40.527,-28.32,1.0,1.0
1626062690.022201,-39.551,-34.18,-42.48,1.0,1.0
1626062690.0261073,-82.52,-23.438000000000002,-51.27,1.0,1.0
1626062690.0300136,-13.672,-21.484,-37.598,1.0,1.0
1626062690.0339198,57.617,-16.113,-23.438000000000002,1.0,1.0
1626062690.037826,-1.465,-16.113,-36.621,1.0,1.0
1626062690.0417323,-81.543,-28.32,-20.02,1.0,1.0
1626062690.0456386,-51.27,-13.184000000000001,-0.488,1.0,1.0
1626062690.049545,25.879,-4.395,2.441,1.0,1.0
1626062690.053451,14.648,-19.043,-2.93,1.0,1.0
1626062690.057357,-73.73,-38.086,-22.461,1.0,1.0
1626062690.0612638,-70.801,-30.273000000000003,-31.738000000000003,1.0,1.0
1626062690.0651696,-0.977,-29.296999999999997,-31.738000000000003,152.832,1.0
1626062690.0690758,16.113,-46.875,-37.109,207.03099999999998,1.0
1626062690.072982,-51.27,-35.645,-39.551,-186.523,1.0
1626062690.0768883,-87.891,-8.301,-33.203,-314.453,1.0
1626062690.080795,-7.812,0.977,-27.344,85.449,1.0
1626062690.084701,38.574,-11.23,-32.715,280.27299999999997,1.0
1626062690.0886073,-25.879,-8.301,-40.527,-53.711000000000006,1.0
1626062690.0925136,-87.891,-20.02,-48.828,-311.035,1.0
1626062690.0964196,-48.34,-38.086,-56.641000000000005,-43.457,1.0
1626062690.100326,18.555,-32.715,-53.223,265.625,1.0
1626062690.1042323,-2.441,-33.203,-41.016000000000005,51.27,1.0
1626062690.1081383,-69.336,-30.761999999999997,-32.715,-303.711,1.0
1626062690.1120448,-84.473,-58.593999999999994,-44.434,-324.707,1.0
1626062690.115951,-35.645,-70.312,-41.016000000000005,-84.473,1.0
1626062690.1198573,35.645,-43.945,-26.855,256.348,1.0
1626062690.1237636,14.648,-16.602,-30.273000000000003,87.891,1.0
1626062690.1276698,-55.176,-11.719000000000001,-41.016000000000005,-287.10900000000004,1.0
1626062690.131576,-44.922,-12.207,-49.805,-180.176,1.0
1626062690.1354823,45.898,-7.812,-39.062,225.09799999999998,1.0
1626062690.1393886,53.711000000000006,-9.277000000000001,-20.02,202.637,1.0
1626062690.1432948,-44.922,-25.391,-28.809,-216.30900000000003,1.0
1626062690.147201,-84.473,-22.949,-32.715,-292.48,1.0
1626062690.1511073,-7.812,-14.648,-27.344,106.445,1.0
1626062690.1550138,37.598,-26.855,-25.879,243.16400000000002,1.0
1626062690.1589198,-25.391,-36.621,-21.484,1.0,1.0
1626062690.162826,-74.219,-38.574,-15.137,1.0,1.0
1626062690.1667323,-10.254000000000001,-43.945,-17.578,1.0,1.0
1626062690.1706386,48.828,-28.32,-29.785,1.0,1.0
1626062690.1745448,-3.418,-9.277000000000001,-40.527,1.0,1.0
1626062690.178451,-79.59,-22.949,-39.062,1.0,1.0
1626062690.182357,-44.922,-41.016000000000005,-38.574,1.0,1.0
1626062690.1862638,32.715,-41.504,-25.391,1.0,1.0
1626062690.1901696,10.254000000000001,-35.156,-19.043,1.0,1.0
1626062690.1940763,-60.547,-19.531,-22.461,1.0,1.0
1626062690.197982,-54.199,-18.066,-21.484,1.0,1.0
1626062690.2018883,14.648,-17.09,-20.02,1.0,1.0
1626062690.205795,22.949,-9.766,-34.668,1.0,1.0
1626062690.209701,-47.852,-17.09,-42.968999999999994,1.0,1.0
1626062690.213607,-78.125,-43.457,-40.527,1.0,1.0
1626062690.2175136,-9.766,-55.663999999999994,-27.344,1.0,1.0
1626062690.2214196,36.621,-23.926,-6.836,1.0,1.0
1626062690.225326,-36.621,-9.766,-21.973000000000003,1.0,1.0
1626062690.2292323,-102.539,-41.016000000000005,-49.316,1.0,1.0
1626062690.2331386,-32.227,-43.457,-31.738000000000003,1.0,1.0
1626062690.2370448,45.41,-29.785,-0.977,1.0,1.0
1626062690.240951,-8.789,-55.176,-5.371,1.0,1.0
1626062690.2448573,-91.309,-47.852,-24.901999999999997,1.0,1.0
1626062690.2487636,-63.477,-12.695,-28.32,1.0,1.0
1626062690.2526696,19.043,-12.207,-25.879,240.72299999999998,1.0
1626062690.256576,27.831999999999997,-22.461,-17.578,168.945,1.0
1626062690.2604823,-59.57,-33.691,-21.484,-234.375,1.0
1626062690.2643886,-86.914,-43.457,-23.438000000000002,-242.188,1.0
1626062690.2682948,-12.207,-31.25,-26.855,153.32,1.0
1626062690.272201,9.277000000000001,-10.254000000000001,-38.086,218.262,1.0
1626062690.2761073,-71.777,-15.137,-45.41,-182.61700000000002,1.0
1626062690.2800136,-104.00399999999999,-24.414,-45.898,-329.102,1.0
1626062690.2839198,-24.414,-13.184000000000001,-37.109,48.34,1.0
1626062690.287826,31.738000000000003,-13.184000000000001,-29.785,264.16,1.0
1626062690.2917323,-23.438000000000002,-44.922,-37.598,-47.852,1.0
1626062690.2956386,-92.285,-61.035,-49.805,-314.453,1.0
1626062690.299545,-52.733999999999995,-35.645,-51.758,-59.082,1.0
1626062690.303451,25.879,-20.02,-43.457,274.902,1.0
1626062690.307357,-5.859,-24.414,-42.968999999999994,74.707,1.0
1626062690.3112638,-82.031,-22.461,-37.598,-300.293,1.0
1626062690.3151696,-57.129,-14.648,-31.738000000000003,-166.50400000000002,1.0
1626062690.3190758,12.695,2.93,-30.273000000000003,225.09799999999998,1.0
1626062690.322982,-0.977,-12.207,-32.227,162.109,1.0
1626062690.3268883,-73.242,-31.25,-33.691,-240.72299999999998,1.0
1626062690.330795,-78.613,-36.133,-32.227,-262.207,1.0
1626062690.334701,-5.371,-39.062,-25.391,134.766,1.0
1626062690.3386073,25.391,-45.41,-24.901999999999997,236.81599999999997,1.0
1626062690.3425136,-43.457,-41.992,-31.738000000000003,-137.695,1.0
1626062690.3464196,-59.082,-29.785,-15.625,-311.52299999999997,1.0
1626062690.350326,-97.16799999999999,-40.527,-38.086,40.039,1.0
1626062690.3542323,-32.227,-25.391,-40.527,281.25,1.0
1626062690.3581383,6.836,-27.831999999999997,-28.32,-17.09,1.0
1626062690.3620448,-52.246,-27.831999999999997,-22.949,-323.73,1.0
1626062690.365951,-98.633,-41.504,-23.926,-97.16799999999999,1.0
1626062690.3698573,-34.18,-55.176,-22.461,258.301,1.0
1626062690.3737636,27.831999999999997,-28.809,-17.578,104.98,1.0
1626062690.3776698,-16.113,-11.23,-13.184000000000001,-265.625,1.0
1626062690.381576,-80.566,-34.668,-22.461,-178.71099999999998,1.0
1626062690.3854823,-49.316,-17.578,-25.391,206.055,1.0
1626062690.3893886,16.602,7.812,-18.066,203.613,1.0
1626062690.3932948,-19.531,-50.781000000000006,-39.062,1.0,1.0
1626062690.397201,-89.355,-70.312,-43.457,1.0,1.0
1626062690.4011073,-78.125,-27.831999999999997,-23.926,1.0,1.0
1626062690.4050138,-8.301,-38.574,-20.02,1.0,1.0
1626062690.4089198,17.578,-33.203,-20.508000000000003,1.0,1.0
1626062690.412826,-54.688,-13.672,-27.344,1.0,1.0
1626062690.4167323,-88.867,-12.695,-33.203,1.0,1.0
1626062690.4206386,-16.113,-16.602,-40.039,1.0,1.0
1626062690.4245448,33.691,-39.062,-50.293,1.0,1.0
1626062690.428451,-16.602,-51.27,-33.691,1.0,1.0
1626062690.432357,-88.867,-41.992,-20.508000000000003,1.0,1.0
1626062690.4362638,-44.922,-31.25,-25.879,1.0,1.0
1626062690.4401696,23.926,-24.901999999999997,-25.391,262.207,1.0
1626062690.4440763,-20.508000000000003,-30.273000000000003,-41.504,22.949,1.0
1626062690.447982,-96.191,-43.457,-50.293,-322.26599999999996,1.0
1626062690.4518883,-73.242,-24.901999999999997,-29.785,-157.227,1.0
1626062690.455795,16.113,-4.883,-34.668,229.49200000000002,1.0
1626062690.459701,23.926,-23.926,-41.992,158.691,1.0
1626062690.463607,-62.5,-50.781000000000006,-33.203,-241.699,1.0
1626062690.4675136,-86.426,-49.805,-23.438000000000002,-249.023,1.0
1626062690.4714196,-17.09,-27.344,-23.438000000000002,144.043,1.0
1626062690.475326,10.254000000000001,-18.066,-18.555,220.703,1.0
1626062690.4792323,-56.152,-30.273000000000003,-19.043,-154.297,1.0
1626062690.4831386,-90.82,-31.738000000000003,-19.043,-297.85200000000003,1.0
1626062690.4870448,-87.402,-44.922,-30.273000000000003,-269.531,1.0
1626062690.490951,-21.973000000000003,-40.039,-16.602,122.07,1.0
1626062690.4948573,13.672,-21.484,-14.16,238.28099999999998,1.0
1626062690.4987636,-56.152,-31.25,-23.926,-141.602,1.0
1626062690.5026696,-90.33200000000001,-58.105,-20.996,-321.289,1.0
1626062690.506576,-23.438000000000002,-50.293,-26.855,19.043,1.0
1626062690.5104823,24.901999999999997,-20.996,-45.41,263.184,1.0
1626062690.5143886,-29.296999999999997,-10.254000000000001,-51.758,-28.32,1.0
1626062690.5182948,-94.238,-15.137,-42.968999999999994,-329.59,1.0
1626062690.522201,-57.129,-28.32,-28.32,-99.609,1.0
1626062690.5261073,18.066,-50.293,-27.831999999999997,250.0,1.0
1626062690.5300136,-0.488,-54.199,-42.968999999999994,99.609,1.0
1626062690.5339198,-76.66,-38.086,-45.41,1.0,1.0
1626062690.537826,-64.453,-28.32,-26.855,1.0,1.0
1626062690.5417323,29.785,-17.578,-13.672,1.0,1.0
1626062690.5456386,40.527,-24.414,-14.648,1.0,1.0
1626062690.549545,-48.828,-21.973000000000003,-13.672,1.0,1.0
1626062690.553451,-67.87100000000001,5.371,-13.184000000000001,1.0,1.0
1626062690.557357,12.695,-4.883,-20.508000000000003,1.0,1.0
1626062690.5612638,35.645,-26.366999999999997,-29.785,1.0,1.0
1626062690.5651696,-35.645,-25.879,-39.551,1.0,1.0
1626062690.5690758,-88.37899999999999,-38.086,-40.527,1.0,1.0
1626062690.572982,-31.25,-47.363,-31.25,1.0,1.0
1626062690.5768883,42.48,-29.296999999999997,-21.484,1.0,1.0
1626062690.580795,-7.812,-26.855,-32.227,7.324,1.0
1626062690.584701,-86.914,-38.086,-45.41,-332.52,1.0
1626062690.5886073,-48.34,-41.016000000000005,-39.062,-128.906,1.0
1626062690.5925136,32.715,-37.598,-32.715,250.488,1.0
1626062690.5964196,0.0,-36.133,-40.527,123.04700000000001,1.0
1626062690.600326,-91.309,-39.062,-54.199,-283.203,1.0
1626062690.6042323,-77.148,-46.387,-39.062,-228.516,1.0
1626062690.6081383,20.996,-53.711000000000006,-25.391,188.965,1.0
1626062690.6120448,38.086,-31.738000000000003,-30.761999999999997,222.65599999999998,1.0
1626062690.615951,-45.41,-14.16,-36.133,-178.71099999999998,1.0
1626062690.6198573,-72.266,-15.137,-32.715,-299.316,1.0
1626062690.6237636,1.953,-7.324,-20.02,82.52,1.0
1626062690.6276698,22.949,-8.301,-31.25,1.0,1.0
1626062690.631576,-42.968999999999994,-28.32,-59.57,1.0,1.0
1626062690.6354823,-81.055,-37.109,-56.152,1.0,1.0
1626062690.6393886,-19.043,-24.414,-27.344,1.0,1.0
1626062690.6432948,39.551,-34.18,-19.531,1.0,1.0
1626062690.647201,-11.719000000000001,-50.293,-23.438000000000002,1.0,1.0
1626062690.6511073,-80.566,-41.504,-24.901999999999997,1.0,1.0
1626062690.6550138,-54.688,-27.831999999999997,-32.227,1.0,1.0
1626062690.6589198,18.066,-17.578,-30.273000000000003,1.0,1.0
1626062690.662826,12.695,-9.277000000000001,-31.738000000000003,1.0,1.0
1626062690.6667323,-76.172,-20.508000000000003,-42.968999999999994,1.0,1.0
1626062690.6706386,-87.402,-30.761999999999997,-28.32,1.0,1.0
1626062690.6745448,-0.488,-22.461,-4.395,158.691,1.0
1626062690.678451,27.344,-34.668,-11.23,246.582,1.0
1626062690.682357,-44.922,-59.082,-41.992,-137.695,1.0
1626062690.6862638,-90.82,-67.87100000000001,-47.363,-304.688,1.0
1626062690.6901696,-18.555,-35.645,-13.672,54.688,1.0
1626062690.6940763,26.366999999999997,-34.668,-13.184000000000001,278.809,1.0
1626062690.697982,-34.18,-52.246,-24.414,-35.156,1.0
1626062690.7018883,-83.984,-11.23,-32.715,-312.5,1.0
1626062690.705795,-43.457,10.742,-46.387,-64.941,1.0
1626062690.709701,16.113,-14.16,-27.344,263.184,1.0
1626062690.713607,-18.066,-35.645,-17.578,69.336,1.0
1626062690.7175136,-82.031,-49.316,-24.901999999999997,-296.875,1.0
1626062690.7214196,-74.707,-0.488,-31.738000000000003,-171.875,1.0
1626062690.725326,-46.875,-17.09,-44.434,214.355,1.0
1626062690.7292323,37.109,-26.366999999999997,-30.273000000000003,177.24599999999998,1.0
1626062690.7331386,3.906,-29.296999999999997,-23.438000000000002,-217.773,1.0
1626062690.7370448,-85.449,-38.086,-27.344,-271.48400000000004,1.0
1626062690.740951,-54.199,-22.461,-20.02,119.141,1.0
1626062690.7448573,20.02,-37.598,-38.086,246.09400000000002,1.0
1626062690.7487636,12.695,-21.973000000000003,-47.852,-123.04700000000001,1.0
1626062690.7526696,-62.012,-9.766,-36.621,-322.26599999999996,1.0
1626062690.756576,-83.008,-22.949,-35.645,6.836,1.0
1626062690.7604823,10.254000000000001,-3.906,-34.668,262.695,1.0
1626062690.7643886,63.965,-3.418,-39.062,-1.953,1.0
1626062690.7682948,-10.742,-26.366999999999997,-62.012,1.0,1.0
1626062690.772201,-65.918,-11.719000000000001,-70.312,1.0,1.0
1626062690.7761073,-10.254000000000001,-2.441,-65.918,1.0,1.0
1626062690.7800136,44.434,-17.578,-76.66,1.0,1.0
1626062690.7839198,0.0,-27.831999999999997,-84.961,1.0,1.0
1626062690.787826,-83.984,-37.598,-90.33200000000001,1.0,1.0
1626062690.7917323,-61.523,-35.645,-83.49600000000001,1.0,1.0
1626062690.7956386,23.438000000000002,-12.207,-69.824,1.0,1.0
1626062690.799545,16.113,-11.23,-81.055,1.0,1.0
1626062690.803451,-62.5,-37.598,-98.633,1.0,1.0
1626062690.807357,-67.383,-51.758,-83.49600000000001,1.0,1.0
1626062690.8112638,13.184000000000001,-15.625,-53.711000000000006,1.0,1.0
1626062690.8151696,35.645,13.184000000000001,-61.035,222.65599999999998,1.0
1626062690.8190758,-48.828,5.859,-68.359,-176.75799999999998,1.0
1626062690.822982,-84.961,-0.977,-64.941,-294.922,1.0
1626062690.8268883,-15.137,-17.09,-54.199,83.49600000000001,1.0
1626062690.830795,24.901999999999997,-27.344,-43.945,241.21099999999998,1.0
1626062690.834701,-21.973000000000003,-30.761999999999997,-37.598,-57.617,1.0
1626062690.8386073,-69.336,-38.574,-27.831999999999997,-286.133,1.0
1626062690.8425136,-27.831999999999997,-42.48,-26.855,-20.508000000000003,1.0
1626062690.8464196,37.598,-53.223,-28.32,294.922,1.0
1626062690.850326,21.973000000000003,-50.781000000000006,-16.602,90.82,1.0
1626062690.8542323,-42.48,-50.781000000000006,-8.301,-252.93,1.0
1626062690.8581383,-33.691,-56.641000000000005,-19.043,-115.234,1.0
1626062690.8620448,-42.968999999999994,-43.945,8.301,-63.477,1.0
1626062690.865951,36.133,-67.383,20.02,283.203,1.0
1626062690.8698573,8.301,-44.434,13.672,115.723,1.0
1626062690.8737636,-88.867,-30.761999999999997,-11.23,-270.996,1.0
1626062690.8776698,-79.59,-24.901999999999997,-18.555,-171.875,1.0
1626062690.881576,9.277000000000001,-19.043,-19.043,228.02700000000002,1.0
1626062690.8854823,12.207,-22.949,-2.441,200.195,1.0
1626062690.8893886,-76.172,-12.207,1.465,-212.891,1.0
1626062690.8932948,-98.633,-45.898,-19.043,-274.414,1.0
1626062690.897201,-3.906,-41.016000000000005,-18.555,130.859,1.0
1626062690.9011073,37.109,-12.695,-7.324,257.812,1.0
1626062690.9050138,-36.621,-31.738000000000003,-11.23,-119.141,1.0
1626062690.9089198,-67.383,-24.414,-38.574,-337.89099999999996,1.0
1626062690.912826,-59.57,13.184000000000001,-19.043,-16.113,1.0
1626062690.9167323,17.578,-2.441,-24.901999999999997,256.348,1.0
1626062690.9206386,33.203,-37.598,-43.457,-22.949,1.0
1626062690.9245448,-18.066,-50.293,-19.531,-346.68,1.0
1626062690.928451,-71.289,-45.41,-20.508000000000003,-125.977,1.0
1626062690.932357,-37.109,-31.738000000000003,-43.457,245.605,1.0
1626062690.9362638,35.156,-20.996,-38.574,91.309,1.0
1626062690.9401696,6.348,-15.137,-23.926,-308.594,1.0
1626062690.9440763,-67.383,-18.066,-7.324,-225.58599999999998,1.0
1626062690.947982,-44.922,-16.113,7.324,174.805,1.0
1626062690.9518883,11.23,-24.414,-14.16,167.48,1.0
1626062690.955795,-19.043,-42.48,-51.27,1.0,1.0
1626062690.959701,-97.656,-30.761999999999997,-69.336,1.0,1.0
1626062690.963607,-102.051,-30.273000000000003,-84.473,1.0,1.0
1626062690.9675136,-6.348,-30.273000000000003,-35.645,1.0,1.0
1626062690.9714196,39.062,-41.016000000000005,19.043,1.0,1.0
1626062690.975326,-52.246,-56.641000000000005,-15.625,1.0,1.0
1626062690.9792323,-112.305,-40.039,-26.855,1.0,1.0
1626062690.9831386,-50.781000000000006,-20.996,-0.488,1.0,1.0
1626062690.9870448,3.906,-27.831999999999997,0.488,1.0,1.0
1626062690.990951,-52.733999999999995,-45.41,-44.922,1.0,1.0
1626062690.9948573,-123.535,-51.27,-74.219,1.0,1.0
1626062690.9987636,-59.57,-46.387,-29.785,1.0,1.0
1626062691.0026696,30.761999999999997,-30.273000000000003,13.672,276.367,1.0
1626062691.006576,8.789,-53.223,17.578,83.49600000000001,1.0
1626062691.0104823,-71.289,-125.0,1.953,-276.855,1.0
1626062691.0143886,-64.941,-95.215,-9.766,-149.414,1.0
1626062691.0182948,29.785,0.488,-7.812,244.62900000000002,1.0
1626062691.022201,29.296999999999997,-13.184000000000001,-19.043,183.59400000000002,1.0
1626062691.0261073,-65.43,-60.547,-36.621,-227.53900000000002,1.0
1626062691.0300136,-77.148,-47.363,-61.035,-251.953,1.0
1626062691.0339198,-0.488,-15.625,-58.105,138.672,1.0
1626062691.037826,25.879,-14.648,-34.18,228.02700000000002,1.0
1626062691.0417323,-32.715,-36.133,-30.761999999999997,-147.94899999999998,1.0
1626062691.0456386,-73.73,-23.926,-13.672,-311.035,1.0
1626062691.049545,-99.12100000000001,-23.926,-18.555,-280.27299999999997,1.0
1626062691.053451,-14.16,-17.09,-32.227,111.32799999999999,1.0
1626062691.057357,27.344,-33.691,-39.062,244.62900000000002,1.0
1626062691.0612638,-41.992,-56.152,-39.551,-126.95299999999999,1.0
1626062691.0651696,-104.98,-67.87100000000001,-40.039,-342.773,1.0
1626062691.0690758,-26.366999999999997,-43.945,-33.203,9.277000000000001,1.0
1626062691.072982,39.551,-41.504,-42.968999999999994,270.508,1.0
1626062691.0768883,-21.484,-24.901999999999997,-55.176,-15.625,1.0
1626062691.080795,-90.82,10.742,-48.828,-336.914,1.0
1626062691.084701,-53.223,7.324,-39.062,-131.836,1.0
1626062691.0886073,23.438000000000002,-15.137,-34.18,229.00400000000002,1.0
1626062691.0925136,-0.488,-31.25,-30.273000000000003,88.867,1.0
1626062691.0964196,-82.52,-55.176,-22.949,1.0,1.0
1626062691.100326,-87.891,-68.848,-20.508000000000003,1.0,1.0
1626062691.1042323,-18.066,-52.246,-33.203,1.0,1.0
1626062691.1081383,1.953,-49.316,-63.477,1.0,1.0
1626062691.1120448,-56.152,-54.199,-66.895,1.0,1.0
1626062691.115951,-87.402,-25.879,-37.109,1.0,1.0
1626062691.1198573,-16.113,-6.348,-16.113,1.0,1.0
1626062691.1237636,36.621,-18.066,-8.789,1.0,1.0
1626062691.1276698,-33.691,-22.461,-9.277000000000001,1.0,1.0
1626062691.131576,-109.863,-7.324,-28.32,1.0,1.0
1626062691.1354823,-60.059,2.93,-35.156,1.0,1.0
1626062691.1393886,12.207,-4.883,-26.366999999999997,1.0,1.0
1626062691.1432948,-19.531,-9.277000000000001,-20.02,1.0,1.0
1626062691.147201,-81.055,-17.09,-19.531,1.0,1.0
1626062691.1511073,-62.012,-49.316,-35.645,1.0,1.0
1626062691.1550138,5.859,-69.824,-36.133,1.0,1.0
1626062691.1589198,-9.766,-62.012,-24.901999999999997,1.0,1.0
1626062691.162826,-97.16799999999999,-50.781000000000006,-34.668,1.0,1.0
1626062691.1667323,-94.727,-55.663999999999994,-61.035,1.0,1.0
1626062691.1706386,-2.93,-44.922,-72.75399999999999,1.0,1.0
1626062691.1745448,26.855,-12.695,-42.48,1.0,1.0
1626062691.178451,-46.387,-4.883,-14.16,1.0,1.0
1626062691.182357,-84.961,-26.366999999999997,-14.16,1.0,1.0
1626062691.1862638,-21.484,-19.043,-21.973000000000003,1.0,1.0
1626062691.1901696,13.672,-16.113,-37.598,1.0,1.0
1626062691.1940763,-47.363,-42.48,-47.363,1.0,1.0
1626062691.197982,-97.16799999999999,-46.387,-36.621,1.0,1.0
1626062691.2018883,-47.363,-21.973000000000003,-21.484,1.0,1.0
1626062691.205795,16.113,-11.719000000000001,-17.578,1.0,1.0
1626062691.209701,-16.113,-13.672,-18.555,1.0,1.0
1626062691.213607,-94.727,-30.273000000000003,-28.32,1.0,1.0
1626062691.2175136,-78.125,-29.785,-27.831999999999997,1.0,1.0
1626062691.2214196,2.93,-17.578,-17.09,1.0,1.0
1626062691.225326,-32.715,-24.901999999999997,-23.926,1.0,1.0
1626062691.2292323,-105.469,-25.879,-33.691,1.0,1.0
1626062691.2331386,-73.242,-27.831999999999997,-24.414,1.0,1.0
1626062691.2370448,-9.766,-30.761999999999997,-22.461,225.58599999999998,1.0
1626062691.240951,-40.527,-28.32,-32.715,33.203,1.0
1626062691.2448573,-134.27700000000002,-25.879,-25.879,-351.56199999999995,1.0
1626062691.2487636,-139.16,-12.695,-26.855,-255.859,1.0
1626062691.2526696,-70.312,-6.348,-28.809,122.07,1.0
1626062691.256576,-81.055,-13.184000000000001,-28.32,81.055,1.0
1626062691.2604823,-177.24599999999998,-16.113,-39.551,-334.473,1.0
1626062691.2643886,-225.09799999999998,-20.508000000000003,-45.41,-414.551,1.0
1626062691.2682948,-163.57399999999998,-25.391,-29.785,-30.273000000000003,1.0
1626062691.272201,-135.254,-44.434,-29.296999999999997,92.773,1.0
1626062691.2761073,-214.84400000000002,-44.922,-41.992,-283.691,1.0
1626062691.2800136,-247.55900000000003,-11.23,-34.18,-472.168,1.0
1626062691.2839198,-178.22299999999998,-34.668,-47.852,-136.23,1.0
1626062691.287826,-105.95700000000001,-50.781000000000006,-54.688,112.79299999999999,1.0
1626062691.2917323,-57.617,-42.48,-44.434,-165.52700000000002,1.0
1626062691.2956386,-104.492,-35.645,-50.781000000000006,-471.191,1.0
1626062691.299545,-130.371,-61.035,-47.363,-256.836,1.0
1626062691.303451,-52.246,-46.875,-27.344,102.539,1.0
1626062691.307357,11.719000000000001,-3.906,-19.043,-22.949,1.0
1626062691.3112638,-40.527,-12.695,-32.227,-391.11300000000006,1.0
1626062691.3151696,-113.77,-27.831999999999997,-43.945,-330.566,1.0
1626062691.3190758,-54.688,-30.761999999999997,-26.855,45.898,1.0
1626062691.322982,56.641000000000005,-47.363,-17.09,61.035,1.0
1626062691.3268883,37.109,-81.543,-40.039,-300.293,1.0
1626062691.330795,-58.105,-96.191,-53.223,1.0,1.0
1626062691.334701,-50.293,-55.663999999999994,-56.641000000000005,1.0,1.0
1626062691.3386073,44.922,-15.137,-57.129,1.0,1.0
1626062691.3425136,65.918,-28.809,-38.574,1.0,1.0
1626062691.3464196,-10.254000000000001,-62.012,-29.785,1.0,1.0
1626062691.350326,-37.109,-45.898,-32.715,1.0,1.0
1626062691.3542323,33.203,-25.391,-39.551,1.0,1.0
1626062691.3581383,75.684,-26.855,-48.828,1.0,1.0
1626062691.3620448,18.066,-18.066,-44.922,1.0,1.0
1626062691.365951,-47.852,-29.785,-38.574,1.0,1.0
1626062691.3698573,2.93,-36.621,-26.366999999999997,1.0,1.0
1626062691.3737636,66.406,-20.02,-27.831999999999997,1.0,1.0
1626062691.3776698,26.366999999999997,-8.789,-33.203,84.961,1.0
1626062691.381576,-37.598,-41.504,-37.598,-264.16,1.0
1626062691.3854823,1.465,-55.176,-33.203,-100.586,1.0
1626062691.3893886,98.145,-24.414,-18.066,301.27,1.0
1626062691.3932948,87.402,-55.176,-30.761999999999997,224.12099999999998,1.0
1626062691.397201,-18.555,-82.031,-40.527,-186.523,1.0
1626062691.4011073,-42.48,-37.598,-22.461,-204.59,1.0
1626062691.4050138,35.156,-5.371,-13.672,185.547,1.0
1626062691.4089198,63.965,-20.996,-18.555,274.902,1.0
1626062691.412826,-2.93,-46.387,-23.438000000000002,-99.609,1.0
1626062691.4167323,-35.645,-40.039,-18.066,-252.93,1.0
1626062691.4206386,36.133,-38.086,-8.301,103.516,1.0
1626062691.4245448,31.738000000000003,-45.41,-25.391,156.25,1.0
1626062691.428451,58.593999999999994,-47.363,-26.855,278.32,1.0
1626062691.432357,-13.184000000000001,-50.293,-37.109,-95.215,1.0
1626062691.4362638,-56.641000000000005,-54.199,-32.715,-290.039,1.0
1626062691.4401696,8.301,-40.039,-29.296999999999997,45.41,1.0
1626062691.4440763,71.289,-28.809,-41.504,319.336,1.0
1626062691.447982,31.25,-22.461,-44.434,54.688,1.0
1626062691.4518883,-43.457,-27.344,-32.715,-278.32,1.0
1626062691.455795,-10.742,-19.043,-10.254000000000001,-66.895,1.0
1626062691.459701,77.637,-9.766,-0.488,307.129,1.0
1626062691.463607,57.617,-40.527,-1.465,161.621,1.0
1626062691.4675136,-40.527,-59.082,-16.113,-250.0,1.0
1626062691.4714196,-64.453,-47.363,-29.785,-197.75400000000002,1.0
1626062691.475326,-37.109,-44.434,-22.949,210.449,1.0
1626062691.4792323,34.18,-23.438000000000002,-27.831999999999997,231.445,1.0
1626062691.4831386,21.973000000000003,-26.366999999999997,-38.086,-168.457,1.0
1626062691.4870448,-77.148,-50.781000000000006,-47.363,-266.113,1.0
1626062691.490951,-78.125,-57.617,-35.156,117.18799999999999,1.0
1626062691.4948573,21.484,-41.504,-21.484,292.48,1.0
1626062691.4987636,22.461,-45.41,-33.691,-51.758,1.0
1626062691.5026696,-61.523,-62.012,-56.152,-289.062,1.0
1626062691.506576,-72.266,-25.879,-56.152,-0.977,1.0
1626062691.5104823,0.488,-11.23,-42.48,281.25,1.0
1626062691.5143886,32.227,-33.691,-36.621,40.039,1.0
1626062691.5182948,-33.691,-60.059,-36.133,-69.824,1.0
1626062691.522201,-82.031,-54.199,-26.366999999999997,-329.102,1.0
1626062691.5261073,-24.901999999999997,-27.344,-34.668,-47.363,1.0
1626062691.5300136,39.062,-8.301,-58.105,277.832,1.0
1626062691.5339198,-6.348,-9.766,-58.593999999999994,61.035,1.0
1626062691.537826,-95.70299999999999,-23.926,-41.016000000000005,-313.47700000000003,1.0
1626062691.5417323,-74.219,-24.901999999999997,-25.879,-175.293,1.0
1626062691.5456386,13.672,-33.203,-20.996,220.215,1.0
1626062691.549545,8.789,-40.039,-30.273000000000003,165.52700000000002,1.0
1626062691.553451,-68.359,-47.852,-38.574,-238.77,1.0
1626062691.557357,-74.219,-37.598,-28.809,-252.93,1.0
1626062691.5612638,12.207,-19.043,-13.184000000000001,150.879,1.0
1626062691.5651696,34.668,-25.879,-22.461,241.21099999999998,1.0
1626062691.5690758,-42.48,-30.761999999999997,-34.668,-133.30100000000002,1.0
1626062691.572982,-83.984,-20.02,-37.109,-309.57,1.0
1626062691.5768883,-14.16,-37.109,-32.227,34.668,1.0
1626062691.580795,47.852,-62.012,-21.973000000000003,284.668,1.0
1626062691.584701,-3.906,-37.109,-37.598,-11.719000000000001,1.0
1626062691.5886073,-75.195,-22.461,-50.293,-314.453,1.0
1626062691.5925136,-49.316,-17.578,-34.18,-86.914,1.0
1626062691.5964196,27.831999999999997,-18.066,-21.484,260.742,1.0
1626062691.600326,14.16,-40.039,-20.508000000000003,98.145,1.0
1626062691.6042323,-63.965,-50.781000000000006,-16.602,-286.133,1.0
1626062691.6081383,-54.199,-39.551,-8.789,-185.547,1.0
1626062691.6120448,-55.176,-37.109,-35.645,-118.164,1.0
1626062691.615951,22.461,-40.039,-14.16,253.418,1.0
1626062691.6198573,4.883,-53.223,-14.16,118.652,1.0
1626062691.6237636,-82.52,-63.965,-25.391,-285.156,1.0
1626062691.6276698,-67.87100000000001,-45.41,-23.438000000000002,-204.59,1.0
1626062691.631576,22.949,-37.598,-25.391,211.91400000000002,1.0
1626062691.6354823,29.296999999999997,-53.223,-40.527,217.285,1.0
1626062691.6393886,-43.945,-57.617,-41.504,-178.22299999999998,1.0
1626062691.6432948,-66.406,-35.156,-23.438000000000002,-281.738,1.0
1626062691.647201,9.766,-37.109,-9.766,102.051,1.0
1626062691.6511073,50.781000000000006,-49.316,-24.414,286.133,1.0
1626062691.6550138,-34.18,-30.273000000000003,-46.387,-75.195,1.0
1626062691.6589198,-95.215,-16.602,-39.062,1.0,1.0
1626062691.662826,-27.831999999999997,-5.371,-18.555,1.0,1.0
1626062691.6667323,28.809,-11.719000000000001,-23.438000000000002,1.0,1.0
1626062691.6706386,-11.23,-25.391,-30.761999999999997,1.0,1.0
1626062691.6745448,-81.055,-28.809,-30.273000000000003,1.0,1.0
1626062691.678451,-63.965,-36.133,-33.203,1.0,1.0
1626062691.682357,17.578,-34.668,-24.414,1.0,1.0
1626062691.6862638,13.672,-34.18,-23.438000000000002,1.0,1.0
1626062691.6901696,-62.988,-58.105,-33.203,1.0,1.0
1626062691.6940763,-58.593999999999994,-81.055,-41.504,1.0,1.0
1626062691.697982,34.668,-57.617,-28.809,1.0,1.0
1626062691.7018883,62.012,-17.09,-28.809,1.0,1.0
1626062691.705795,-22.949,9.277000000000001,-36.133,1.0,1.0
1626062691.709701,-83.49600000000001,12.207,-19.531,1.0,1.0
1626062691.713607,-42.968999999999994,-16.113,-17.578,1.0,1.0
1626062691.7175136,5.859,-32.715,-20.508000000000003,1.0,1.0
1626062691.7214196,-31.25,-29.296999999999997,-19.043,1.0,1.0
1626062691.725326,-80.078,-28.32,-23.926,1.0,1.0
1626062691.7292323,-26.855,-49.805,-22.461,1.0,1.0
1626062691.7331386,40.527,-56.641000000000005,-20.508000000000003,1.0,1.0
1626062691.7370448,-4.395,-40.527,-42.48,1.0,1.0
1626062691.740951,-83.49600000000001,-34.668,-47.852,1.0,1.0
1626062691.7448573,-65.43,-26.366999999999997,-37.598,1.0,1.0
1626062691.7487636,9.277000000000001,-19.531,-35.645,1.0,1.0
1626062691.7526696,13.184000000000001,-36.621,-33.203,1.0,1.0
1626062691.756576,-57.617,-26.366999999999997,-36.621,1.0,1.0
1626062691.7604823,-73.73,-8.301,-27.831999999999997,1.0,1.0
1626062691.7643886,-1.465,-13.672,-16.113,1.0,1.0
1626062691.7682948,37.109,-4.883,-11.719000000000001,1.0,1.0
1626062691.772201,-22.949,-8.301,-13.184000000000001,1.0,1.0
1626062691.7761073,-81.055,-22.949,-27.831999999999997,1.0,1.0
1626062691.7800136,-24.414,-23.438000000000002,-39.551,1.0,1.0
1626062691.7839198,41.992,-41.016000000000005,-33.203,1.0,1.0
1626062691.787826,-9.277000000000001,-49.316,-23.438000000000002,1.0,1.0
1626062691.7917323,-80.078,-40.527,-20.508000000000003,1.0,1.0
1626062691.7956386,-48.34,-55.176,-19.531,1.0,1.0
1626062691.799545,28.32,-37.109,-27.344,255.37099999999998,1.0
1626062691.803451,9.766,-0.977,-36.133,93.75,1.0
1626062691.807357,-62.012,-6.836,-17.578,-278.809,1.0
1626062691.8112638,-53.711000000000006,-33.691,-5.859,-180.66400000000002,1.0
1626062691.8151696,14.16,-40.527,-15.625,204.59,1.0
1626062691.8190758,15.137,-57.129,-19.531,188.965,1.0
1626062691.822982,-68.848,-66.406,-27.831999999999997,-215.82,1.0
1626062691.8268883,-82.031,-25.879,-36.621,-286.133,1.0
1626062691.830795,3.906,5.859,-30.273000000000003,107.91,1.0
1626062691.834701,42.968999999999994,0.488,-13.672,266.60200000000003,1.0
1626062691.8386073,-17.578,3.418,-6.836,-83.008,1.0
1626062691.8425136,-71.777,1.465,-16.602,-307.129,1.0
1626062691.8464196,-68.359,-12.695,-20.02,-286.621,1.0
1626062691.850326,-3.906,-24.414,-21.973000000000003,78.125,1.0
1626062691.8542323,31.738000000000003,-40.527,-34.668,251.465,1.0
1626062691.8581383,-31.738000000000003,-48.828,-44.434,-88.37899999999999,1.0
1626062691.8620448,-92.773,-38.086,-45.41,-346.68,1.0
1626062691.865951,-26.855,-26.366999999999997,-41.504,-36.133,1.0
1626062691.8698573,49.805,-31.738000000000003,-38.086,287.598,1.0
1626062691.8737636,-9.766,-38.086,-46.875,34.668,1.0
1626062691.8776698,-99.12100000000001,-57.617,-62.012,-335.449,1.0
1626062691.881576,-68.359,-56.152,-48.828,-171.387,1.0
1626062691.8854823,14.648,-40.039,-20.02,219.238,1.0
1626062691.8893886,15.137,-52.733999999999995,-23.438000000000002,133.30100000000002,1.0
1626062691.8932948,-53.711000000000006,-51.27,-35.156,1.0,1.0
1626062691.897201,-72.75399999999999,-23.438000000000002,-42.48,1.0,1.0
1626062691.9011073,-3.906,-16.602,-41.016000000000005,1.0,1.0
1626062691.9050138,20.02,-19.043,-33.691,1.0,1.0
1626062691.9089198,-50.781000000000006,-20.508000000000003,-26.855,1.0,1.0
1626062691.912826,-77.148,-34.668,-15.625,1.0,1.0
1626062691.9167323,-0.488,-47.363,-11.719000000000001,1.0,1.0
1626062691.9206386,56.641000000000005,-48.34,-17.578,1.0,1.0
1626062691.9245448,-1.953,-38.086,-29.296999999999997,1.0,1.0
1626062691.928451,-67.383,-28.809,-38.086,1.0,1.0
1626062691.932357,-13.672,-17.578,-38.574,1.0,1.0
1626062691.9362638,65.918,-18.066,-20.996,1.0,1.0
1626062691.9401696,20.508000000000003,-35.645,-22.949,89.355,1.0
1626062691.9440763,-76.172,-41.992,-29.785,-303.223,1.0
1626062691.947982,-64.941,-46.387,-25.879,-190.43,1.0
1626062691.9518883,16.602,-65.43,-25.879,201.172,1.0
1626062691.955795,16.602,-66.895,-33.203,158.203,1.0
1626062691.959701,-61.523,-55.176,-49.316,-235.84,1.0
1626062691.963607,-78.613,-41.992,-44.434,-269.531,1.0
1626062691.9675136,4.883,-5.859,-21.973000000000003,130.859,1.0
1626062691.9714196,36.133,7.324,-20.02,249.512,1.0
1626062691.975326,-51.758,-32.715,-27.344,-136.23,1.0
1626062691.9792323,-100.586,-61.523,-33.203,-326.66,1.0
1626062691.9831386,-33.203,-50.781000000000006,-38.086,16.113,1.0
1626062691.9870448,-8.789,-35.156,-39.551,93.262,1.0
1626062691.990951,21.484,-24.414,-20.996,238.28099999999998,1.0
1626062691.9948573,-36.621,-37.598,-22.949,-111.816,1.0
1626062691.9987636,-78.613,-24.901999999999997,-20.996,-323.73,1.0
1626062692.0026696,-19.531,-22.949,-21.484,-5.859,1.0
1626062692.006576,37.109,-35.645,-20.02,279.297,1.0
1626062692.0104823,-17.09,-32.227,-32.227,12.695,1.0
1626062692.0143886,-87.402,-31.25,-39.062,-327.637,1.0
1626062692.0182948,-53.711000000000006,-28.809,-27.831999999999997,-142.09,1.0
1626062692.022201,18.066,-10.742,-39.062,227.53900000000002,1.0
1626062692.0261073,4.395,-13.184000000000001,-41.016000000000005,119.62899999999999,1.0
1626062692.0300136,-74.219,-48.828,-37.598,-270.508,1.0
1626062692.0339198,-98.145,-59.57,-44.434,-228.516,1.0
1626062692.037826,-23.926,-31.25,-35.645,168.945,1.0
1626062692.0417323,29.296999999999997,-11.719000000000001,-31.738000000000003,202.637,1.0
1626062692.0456386,-29.785,-24.901999999999997,-39.062,-198.24200000000002,1.0
1626062692.049545,-91.309,-37.109,-49.805,-321.289,1.0
1626062692.053451,-49.316,-24.901999999999997,-56.152,71.289,1.0
1626062692.057357,18.066,-20.996,-38.574,137.695,1.0
1626062692.0612638,-23.438000000000002,-29.296999999999997,-33.203,-279.297,1.0
1626062692.0651696,-104.00399999999999,-30.761999999999997,-37.109,-262.695,1.0
1626062692.0690758,-77.148,-63.477,-31.738000000000003,158.691,1.0
1626062692.072982,2.441,-72.266,-39.551,204.59,1.0
1626062692.0768883,8.301,-34.668,-41.504,-195.312,1.0
1626062692.080795,-65.43,-24.901999999999997,-40.527,1.0,1.0
1626062692.084701,-84.961,-22.461,-41.992,1.0,1.0
1626062692.0886073,-3.906,-7.324,-28.32,1.0,1.0
1626062692.0925136,36.133,-0.488,-11.23,1.0,1.0
1626062692.0964196,-35.645,-6.348,-13.672,1.0,1.0
1626062692.100326,-81.055,-11.23,-29.296999999999997,1.0,1.0
1626062692.1042323,-1.953,-20.508000000000003,-23.438000000000002,1.0,1.0
1626062692.1081383,46.875,-62.012,-20.996,1.0,1.0
1626062692.1120448,-18.555,-74.707,-28.809,1.0,1.0
1626062692.115951,-94.727,-45.898,-44.922,1.0,1.0
1626062692.1198573,-53.223,-24.414,-53.223,1.0,1.0
1626062692.1237636,20.996,-23.926,-45.41,1.0,1.0
1626062692.1276698,-4.395,-44.922,-45.898,70.312,1.0
1626062692.131576,-72.266,-43.457,-46.387,-299.805,1.0
1626062692.1354823,-56.152,-19.531,-37.598,-202.148,1.0
1626062692.1393886,22.949,-8.301,-32.227,198.73,1.0
1626062692.1432948,20.508000000000003,2.441,-40.039,164.062,1.0
1626062692.147201,-61.523,-9.277000000000001,-41.992,-234.863,1.0
1626062692.1511073,-77.148,-26.366999999999997,-19.531,-285.645,1.0
1626062692.1550138,-1.465,-38.086,-15.625,98.633,1.0
1626062692.1589198,36.133,-56.641000000000005,-27.831999999999997,242.188,1.0
1626062692.162826,-33.691,-47.363,-26.366999999999997,-107.42200000000001,1.0
1626062692.1667323,-95.70299999999999,-35.156,-32.227,-329.102,1.0
1626062692.1706386,-44.922,-34.668,-38.086,-21.484,1.0
1626062692.1745448,-29.785,-13.672,-51.758,60.547,1.0
1626062692.178451,19.531,-20.996,-32.715,244.62900000000002,1.0
1626062692.182357,-40.527,-41.504,-25.879,-90.82,1.0
1626062692.1862638,-95.215,-44.434,-17.578,-333.496,1.0
1626062692.1901696,-36.621,-49.805,-13.184000000000001,-30.273000000000003,1.0
1626062692.1940763,28.32,-56.641000000000005,-18.555,276.855,1.0
1626062692.197982,-8.789,-36.133,-20.996,43.457,1.0
1626062692.2018883,-85.449,-38.086,-28.32,-315.918,1.0
1626062692.205795,-60.547,-39.551,-31.738000000000003,-154.297,1.0
1626062692.209701,20.02,-16.113,-30.761999999999997,236.328,1.0
1626062692.213607,1.465,0.977,-40.527,146.97299999999998,1.0
1626062692.2175136,-83.008,-12.695,-56.152,-259.76599999999996,1.0
1626062692.2214196,-73.242,-41.016000000000005,-44.434,1.0,1.0
1626062692.225326,11.719000000000001,-42.48,-31.25,1.0,1.0
1626062692.2292323,41.504,-18.066,-45.898,1.0,1.0
1626062692.2331386,-22.461,-10.742,-59.57,1.0,1.0
1626062692.2370448,-77.637,-31.738000000000003,-49.316,1.0,1.0
1626062692.240951,-10.742,-43.945,-23.926,1.0,1.0
1626062692.2448573,41.016000000000005,-21.973000000000003,-9.277000000000001,1.0,1.0
1626062692.2487636,-20.996,-2.441,-19.043,1.0,1.0
1626062692.2526696,-74.707,-14.648,-35.645,1.0,1.0
1626062692.256576,-28.32,-25.391,-34.668,1.0,1.0
1626062692.2604823,53.711000000000006,-23.438000000000002,-15.625,1.0,1.0
1626062692.2643886,15.625,-34.668,-13.184000000000001,1.0,1.0
1626062692.2682948,-70.312,-35.645,-24.901999999999997,1.0,1.0
1626062692.272201,-54.688,-22.949,-26.366999999999997,1.0,1.0
1626062692.2761073,9.766,-22.461,-34.668,1.0,1.0
1626062692.2800136,13.184000000000001,-19.531,-28.32,1.0,1.0
1626062692.2839198,-60.059,-30.761999999999997,-27.831999999999997,1.0,1.0
1626062692.287826,-75.684,-29.785,-34.668,1.0,1.0
1626062692.2917323,-3.418,-9.766,-19.531,1.0,1.0
1626062692.2956386,23.926,-16.602,-19.043,1.0,1.0
1626062692.299545,-43.457,-27.344,-32.227,1.0,1.0
1626062692.303451,-97.656,-42.48,-30.761999999999997,1.0,1.0
1626062692.307357,-28.809,-48.828,-17.09,1.0,1.0
1626062692.3112638,22.461,-50.781000000000006,-22.949,1.0,1.0
1626062692.3151696,-25.391,-39.062,-30.273000000000003,-35.156,1.0
1626062692.3190758,-87.891,-25.391,-29.785,-335.449,1.0
1626062692.322982,-60.547,-21.973000000000003,-32.715,-113.77,1.0
1626062692.3268883,20.996,-9.277000000000001,-26.366999999999997,243.65200000000002,1.0
1626062692.330795,0.0,-36.133,-22.949,87.891,1.0
1626062692.334701,-81.055,-54.199,-26.366999999999997,-298.828,1.0
1626062692.3386073,-69.336,-35.645,-24.901999999999997,-208.984,1.0
1626062692.3425136,21.973000000000003,-33.203,-20.508000000000003,201.66,1.0
1626062692.3464196,32.227,-39.062,-39.062,199.21900000000002,1.0
1626062692.350326,-69.336,-52.246,-67.87100000000001,-216.797,1.0
1626062692.3542323,-97.656,-33.691,-48.34,-291.01599999999996,1.0
1626062692.3581383,-7.812,-4.395,-13.184000000000001,112.79299999999999,1.0
1626062692.3620448,28.809,-18.555,-19.043,258.789,1.0
1626062692.365951,-40.527,-55.663999999999994,-31.25,-99.12100000000001,1.0
1626062692.3698573,-96.68,-48.34,-35.645,-322.754,1.0
1626062692.3737636,-51.27,-26.366999999999997,-25.391,-20.996,1.0
1626062692.3776698,12.695,-39.551,-11.23,263.184,1.0
1626062692.381576,-15.625,-42.48,-17.09,22.949,1.0
1626062692.3854823,-88.37899999999999,-30.761999999999997,-33.691,-316.406,1.0
1626062692.3893886,-61.035,-24.901999999999997,-34.18,-134.27700000000002,1.0
1626062692.3932948,25.391,-18.555,-16.602,243.16400000000002,1.0
1626062692.397201,12.695,-9.277000000000001,-7.324,125.977,1.0
1626062692.4011073,-75.684,-20.02,-17.09,-274.902,1.0
1626062692.4050138,-86.914,-40.039,-28.809,-241.699,1.0
1626062692.4089198,-64.453,-26.855,-33.203,162.59799999999998,1.0
1626062692.412826,8.301,-37.109,-36.133,200.195,1.0
1626062692.4167323,-0.977,-63.965,-40.039,-184.082,1.0
1626062692.4206386,-72.75399999999999,-50.293,-33.203,-301.758,1.0
1626062692.4245448,-78.125,-18.066,-38.574,61.035,1.0
1626062692.428451,-1.953,1.953,-40.527,263.672,1.0
1626062692.432357,25.391,-0.977,-31.25,-64.941,1.0
1626062692.4362638,-42.968999999999994,-32.227,-41.992,-326.172,1.0
1626062692.4401696,-76.172,-41.992,-43.945,-41.992,1.0
1626062692.4440763,-0.488,-32.227,-26.855,263.184,1.0
1626062692.447982,48.34,-20.996,-31.738000000000003,43.457,1.0
1626062692.4518883,-18.066,-11.719000000000001,-32.227,-314.453,1.0
1626062692.455795,-86.426,-24.901999999999997,-25.879,1.0,1.0
1626062692.459701,-43.457,-36.133,-26.855,1.0,1.0
1626062692.463607,34.18,-48.34,-36.621,1.0,1.0
1626062692.4675136,4.883,-58.105,-42.48,1.0,1.0
1626062692.4714196,-89.355,-38.086,-40.039,1.0,1.0
1626062692.475326,-85.449,-16.602,-34.668,1.0,1.0
1626062692.4792323,1.953,-15.137,-22.461,1.0,1.0
1626062692.4831386,11.719000000000001,-12.207,-25.391,1.0,1.0
1626062692.4870448,-77.148,-20.508000000000003,-47.852,1.0,1.0
1626062692.490951,-103.027,-36.621,-57.617,1.0,1.0
1626062692.4948573,-4.883,-23.438000000000002,-52.733999999999995,1.0,1.0
1626062692.4987636,27.831999999999997,-47.852,-53.711000000000006,1.0,1.0
1626062692.5026696,-54.688,-71.289,-49.316,-143.555,1.0
1626062692.506576,-99.12100000000001,-25.879,-49.316,-338.86699999999996,1.0
1626062692.5104823,-37.598,-4.883,-64.453,-3.906,1.0
1626062692.5143886,22.949,-17.09,-73.242,259.277,1.0
1626062692.5182948,-24.901999999999997,-27.831999999999997,-67.383,-21.484,1.0
1626062692.522201,-93.262,-37.598,-55.663999999999994,-328.125,1.0
1626062692.5261073,-56.152,-45.41,-53.711000000000006,-103.516,1.0
1626062692.5300136,34.18,-43.457,-58.105,243.16400000000002,1.0
1626062692.5339198,16.113,-17.09,-73.73,107.91,1.0
1626062692.537826,-87.891,-9.766,-78.613,-290.039,1.0
1626062692.5417323,-91.79700000000001,-19.531,-63.965,-229.98,1.0
1626062692.5456386,-1.953,-21.484,-51.758,187.988,1.0
1626062692.549545,25.879,-23.926,-47.852,239.74599999999998,1.0
1626062692.553451,-0.488,-16.113,-54.688,115.723,1.0
1626062692.557357,-86.914,-29.296999999999997,-79.102,-284.668,1.0
1626062692.5612638,-67.87100000000001,-18.066,-66.895,-237.793,1.0
1626062692.5651696,18.555,-17.09,-47.852,167.48,1.0
1626062692.5690758,22.949,-42.48,-52.733999999999995,205.078,1.0
1626062692.572982,-55.663999999999994,-58.593999999999994,-59.57,-195.312,1.0
1626062692.5768883,-89.844,-65.43,-60.547,-327.637,1.0
1626062692.580795,-17.09,-54.688,-60.059,55.663999999999994,1.0
1626062692.584701,41.504,-40.527,-56.152,270.996,1.0
1626062692.5886073,-8.789,-24.414,-43.945,-54.688,1.0
1626062692.5925136,-90.33200000000001,-21.973000000000003,-55.663999999999994,-334.961,1.0
1626062692.5964196,-80.078,-19.531,-60.547,-82.52,1.0
1626062692.600326,-14.648,-33.691,-56.152,236.328,1.0
1626062692.6042323,38.574,-54.688,-55.176,35.645,1.0
1626062692.6081383,-5.859,-57.129,-46.387,-312.5,1.0
1626062692.6120448,-72.266,-55.176,-33.691,-166.016,1.0
1626062692.615951,-29.785,-31.738000000000003,-15.137,226.074,1.0
1626062692.6198573,33.691,-22.949,-12.207,162.59799999999998,1.0
1626062692.6237636,-11.23,-41.992,-31.738000000000003,-245.605,1.0
1626062692.6276698,-94.727,-47.852,-33.691,-260.254,1.0
1626062692.631576,-89.355,-37.598,-16.602,138.184,1.0
1626062692.6354823,-16.113,-25.879,-16.602,231.93400000000003,1.0
1626062692.6393886,-11.719000000000001,-37.109,-30.761999999999997,-147.461,1.0
1626062692.6432948,-80.566,-47.363,-35.156,1.0,1.0
1626062692.647201,-85.449,-44.922,-14.648,1.0,1.0
1626062692.6511073,-11.719000000000001,-47.852,2.93,1.0,1.0
1626062692.6550138,20.996,-38.574,-5.859,1.0,1.0
1626062692.6589198,-38.574,-13.672,-28.32,1.0,1.0
1626062692.662826,-81.543,-16.113,-43.457,1.0,1.0
1626062692.6667323,-23.926,-13.184000000000001,-38.574,1.0,1.0
1626062692.6706386,34.668,-2.93,-23.438000000000002,1.0,1.0
1626062692.6745448,-8.301,-31.738000000000003,-12.207,1.0,1.0
1626062692.678451,-64.453,-38.574,-15.625,1.0,1.0
1626062692.682357,-24.901999999999997,-23.926,-16.602,1.0,1.0
1626062692.6862638,39.062,-34.668,-22.949,1.0,1.0
1626062692.6901696,18.555,-31.25,-25.879,93.75,1.0
1626062692.6940763,-65.918,-33.203,-14.16,-297.363,1.0
1626062692.697982,-74.219,-46.875,-23.926,-236.81599999999997,1.0
1626062692.7018883,12.695,-39.062,-29.785,167.96900000000002,1.0
1626062692.705795,30.273000000000003,-25.391,-19.043,189.453,1.0
1626062692.709701,-51.758,-19.043,-20.508000000000003,-209.47299999999998,1.0
1626062692.713607,-83.008,-7.324,-32.227,-311.035,1.0
1626062692.7175136,-18.555,-17.578,-40.527,68.359,1.0
1626062692.7214196,17.578,-41.016000000000005,-42.48,234.863,1.0
1626062692.725326,-42.48,-36.621,-37.598,-123.535,1.0
1626062692.7292323,-91.309,-24.901999999999997,-24.901999999999997,-334.473,1.0
1626062692.7331386,-35.156,-12.695,-4.883,-15.625,1.0
1626062692.7370448,-19.531,-23.926,-22.461,44.922,1.0
1626062692.740951,27.831999999999997,-34.668,-24.901999999999997,249.512,1.0
1626062692.7448573,-46.875,-48.828,-50.781000000000006,-82.52,1.0
1626062692.7487636,-91.309,-45.41,-61.523,-337.89099999999996,1.0
1626062692.7526696,-33.691,-42.968999999999994,-52.246,-55.176,1.0
1626062692.756576,30.761999999999997,-31.25,-35.156,269.531,1.0
1626062692.7604823,-15.137,-17.09,-28.809,53.223,1.0
1626062692.7643886,-99.609,-36.133,-49.805,-317.383,1.0
1626062692.7682948,-71.777,-33.203,-45.898,-167.48,1.0
1626062692.772201,9.277000000000001,-16.113,-22.461,224.609,1.0
1626062692.7761073,0.0,-23.926,-19.531,162.59799999999998,1.0
1626062692.7800136,-87.402,-34.18,-36.621,-247.55900000000003,1.0
1626062692.7839198,-89.355,-22.949,-32.227,-260.742,1.0
1626062692.787826,-2.93,-12.695,-15.137,148.438,1.0
1626062692.7917323,5.859,-26.366999999999997,-37.598,222.168,1.0
1626062692.7956386,-66.406,-47.852,-53.711000000000006,-163.086,1.0
1626062692.799545,-102.051,-59.57,-50.293,-315.43,1.0
1626062692.803451,-25.879,-34.18,-41.504,44.434,1.0
1626062692.807357,39.551,-28.809,-21.973000000000003,282.715,1.0
1626062692.8112638,-18.066,-53.711000000000006,-7.812,-21.484,1.0
1626062692.8151696,-74.219,-54.688,-8.301,-319.824,1.0
1626062692.8190758,-33.691,-49.805,-18.555,-85.93799999999999,1.0
1626062692.822982,35.645,-33.691,-30.273000000000003,260.254,1.0
1626062692.8268883,9.277000000000001,-1.953,-33.691,90.33200000000001,1.0
1626062692.830795,-77.637,6.836,-41.504,-296.387,1.0
1626062692.834701,-61.523,-6.836,-32.227,-191.895,1.0
1626062692.8386073,14.648,-26.366999999999997,-28.32,207.52,1.0
1626062692.8425136,14.648,-51.758,-29.785,181.641,1.0
1626062692.8464196,-63.477,-54.688,-29.296999999999997,-219.727,1.0
1626062692.850326,-76.66,-20.996,-32.227,-270.02,1.0
1626062692.8542323,11.23,-3.906,-14.648,129.88299999999998,1.0
1626062692.8581383,34.18,-24.901999999999997,-36.133,251.465,1.0
1626062692.8620448,-43.457,-36.621,-69.336,-122.559,1.0
1626062692.865951,-87.891,-21.484,-43.457,-328.61300000000006,1.0
1626062692.8698573,-29.296999999999997,-14.648,-18.066,1.953,1.0
1626062692.8737636,25.879,-43.457,-29.296999999999997,270.508,1.0
1626062692.8776698,29.296999999999997,-17.09,-19.043,264.16,1.0
1626062692.881576,-34.668,-25.879,-19.043,-78.613,1.0
1626062692.8854823,-95.70299999999999,-39.062,-23.926,-326.172,1.0
1626062692.8893886,-35.645,-46.875,-21.973000000000003,-25.879,1.0
1626062692.8932948,33.203,-35.156,-12.207,274.414,1.0
1626062692.897201,-6.836,-21.973000000000003,-19.043,44.434,1.0
1626062692.9011073,-77.637,-45.41,-28.809,-295.89799999999997,1.0
1626062692.9050138,-56.152,-64.453,-14.648,-136.23,1.0
1626062692.9089198,31.25,-26.855,0.0,251.465,1.0
1626062692.912826,29.296999999999997,16.113,-6.348,168.457,1.0
1626062692.9167323,-55.663999999999994,14.648,-22.461,-241.21099999999998,1.0
1626062692.9206386,-73.73,-13.184000000000001,-26.855,-240.72299999999998,1.0
1626062692.9245448,-56.152,-13.184000000000001,-35.156,159.668,1.0
1626062692.928451,21.973000000000003,-28.809,-50.781000000000006,232.91,1.0
1626062692.932357,18.555,-46.387,-66.406,-158.691,1.0
1626062692.9362638,-54.688,-29.785,-44.922,-308.594,1.0
1626062692.9401696,-61.035,-48.828,-27.344,51.27,1.0
1626062692.9440763,20.996,-51.758,-35.645,266.113,1.0
1626062692.947982,49.316,-28.32,-35.156,-47.852,1.0
1626062692.9518883,-25.391,-60.547,-30.761999999999997,-326.66,1.0
1626062692.955795,-71.777,-62.988,-41.504,-61.523,1.0
1626062692.959701,-12.207,-22.949,-42.48,256.836,1.0
1626062692.963607,37.598,-7.812,-35.156,44.434,1.0
1626062692.9675136,-19.531,-3.418,-49.316,-310.547,1.0
1626062692.9714196,-77.637,1.953,-46.875,1.0,1.0
1626062692.975326,-39.551,-7.812,-39.551,1.0,1.0
1626062692.9792323,21.973000000000003,-36.621,-45.898,1.0,1.0
1626062692.9831386,-2.93,-43.457,-41.992,1.0,1.0
1626062692.9870448,-77.637,-62.988,-52.733999999999995,1.0,1.0
1626062692.990951,-69.336,-70.801,-52.733999999999995,1.0,1.0
1626062692.9948573,17.578,-22.949,-39.551,1.0,1.0
1626062692.9987636,19.531,-20.508000000000003,-48.828,1.0,1.0
1626062693.0026696,-64.941,-43.945,-58.593999999999994,1.0,1.0
1626062693.006576,-79.59,-33.691,-48.828,1.0,1.0
1626062693.0104823,-9.766,-21.973000000000003,-39.551,1.0,1.0
1626062693.0143886,23.438000000000002,-20.996,-38.086,1.0,1.0
1626062693.0182948,-33.691,-36.133,-31.738000000000003,-103.516,1.0
1626062693.022201,-82.52,-30.761999999999997,-27.831999999999997,-309.57,1.0
1626062693.0261073,-32.227,-20.996,-24.414,11.23,1.0
1626062693.0300136,28.809,-49.316,-24.901999999999997,277.832,1.0
1626062693.0339198,-14.648,-46.875,-40.039,-1.953,1.0
1626062693.037826,-80.078,-27.831999999999997,-45.898,-319.824,1.0
1626062693.0417323,-53.711000000000006,-45.898,-34.18,-124.023,1.0
1626062693.0456386,13.672,-26.366999999999997,-35.156,232.422,1.0
1626062693.049545,0.977,-7.324,-39.551,117.18799999999999,1.0
1626062693.053451,-69.336,-27.831999999999997,-49.316,-272.949,1.0
1626062693.057357,-66.406,-48.828,-60.547,-234.375,1.0
1626062693.0612638,1.465,-52.733999999999995,-45.898,160.156,1.0
1626062693.0651696,7.324,-13.672,-31.25,212.40200000000002,1.0
1626062693.0690758,10.254000000000001,-23.926,-25.391,134.766,1.0
1626062693.072982,-61.035,-23.438000000000002,-20.996,-257.812,1.0
1626062693.0768883,-70.801,-27.831999999999997,-35.645,-250.0,1.0
1626062693.080795,2.441,-39.551,-42.48,146.97299999999998,1.0
1626062693.084701,20.996,-30.273000000000003,-42.48,217.285,1.0
1626062693.0886073,-48.828,-40.039,-55.176,-166.99200000000002,1.0
1626062693.0925136,-91.79700000000001,-77.148,-67.87100000000001,-321.777,1.0
1626062693.0964196,-28.809,-69.336,-47.363,45.41,1.0
1626062693.100326,43.457,-30.761999999999997,-12.207,280.762,1.0
1626062693.1042323,-10.254000000000001,-29.785,-2.441,-35.156,1.0
1626062693.1081383,-101.56200000000001,-21.973000000000003,-14.16,-338.379,1.0
1626062693.1120448,-65.43,-15.137,-16.113,1.0,1.0
1626062693.115951,12.695,-14.648,-10.742,1.0,1.0
1626062693.1198573,-10.254000000000001,-18.555,-20.508000000000003,1.0,1.0
1626062693.1237636,-91.79700000000001,-36.621,-43.457,1.0,1.0
1626062693.1276698,-79.102,-34.18,-58.105,1.0,1.0
1626062693.131576,13.184000000000001,-31.25,-54.688,1.0,1.0
1626062693.1354823,14.648,-34.18,-48.828,1.0,1.0
1626062693.1393886,-79.59,-39.062,-53.711000000000006,1.0,1.0
1626062693.1432948,-99.609,-26.366999999999997,-42.968999999999994,1.0,1.0
1626062693.147201,-23.438000000000002,-21.973000000000003,-29.785,1.0,1.0
1626062693.1511073,14.648,-59.082,-32.227,1.0,1.0
1626062693.1550138,-44.434,-75.195,-44.434,1.0,1.0
1626062693.1589198,-99.12100000000001,-48.34,-56.641000000000005,1.0,1.0
1626062693.162826,-35.645,-11.719000000000001,-48.828,1.0,1.0
1626062693.1667323,29.785,2.441,-28.809,1.0,1.0
1626062693.1706386,-33.203,-26.366999999999997,-38.086,1.0,1.0
1626062693.1745448,-99.609,-46.387,-45.898,1.0,1.0
1626062693.178451,-50.293,-33.691,-45.898,1.0,1.0
1626062693.182357,20.02,-20.02,-52.246,1.0,1.0
1626062693.1862638,-6.836,-23.438000000000002,-45.41,1.0,1.0
1626062693.1901696,-77.637,-31.25,-23.926,1.0,1.0
1626062693.1940763,-70.801,-40.039,-22.949,1.0,1.0
1626062693.197982,9.766,-35.645,-37.109,1.0,1.0
1626062693.2018883,21.484,-24.414,-43.945,1.0,1.0
1626062693.205795,-60.547,-22.949,-46.387,1.0,1.0
1626062693.209701,-95.215,-13.184000000000001,-44.922,1.0,1.0
1626062693.213607,-28.32,-5.371,-25.391,1.0,1.0
1626062693.2175136,16.113,-15.625,-16.113,1.0,1.0
1626062693.2214196,-45.898,-37.598,-27.831999999999997,1.0,1.0
1626062693.225326,-97.16799999999999,-41.504,-36.621,1.0,1.0
1626062693.2292323,-43.457,-60.059,-40.039,1.0,1.0
1626062693.2331386,32.227,-50.781000000000006,-43.945,1.0,1.0
1626062693.2370448,-1.953,1.953,-33.203,1.0,1.0
1626062693.240951,-82.52,-2.441,-29.296999999999997,1.0,1.0
1626062693.2448573,-63.477,-42.968999999999994,-41.504,1.0,1.0
1626062693.2487636,6.836,-39.551,-41.992,1.0,1.0
1626062693.2526696,-0.977,-38.086,-34.18,107.91,1.0
1626062693.256576,-70.801,-42.48,-32.227,-275.879,1.0
1626062693.2604823,-52.733999999999995,-28.809,-20.996,-218.262,1.0
1626062693.2643886,39.062,-36.133,-11.23,188.477,1.0
1626062693.2682948,39.062,-44.434,-34.18,198.73,1.0
1626062693.272201,-30.761999999999997,-48.34,-30.273000000000003,-176.75799999999998,1.0
1626062693.2761073,-60.547,-56.641000000000005,-11.23,-285.645,1.0
1626062693.2800136,-19.531,-41.992,-38.574,55.663999999999994,1.0
1626062693.2839198,17.578,-7.812,-44.434,237.793,1.0
1626062693.287826,-29.296999999999997,-4.395,-28.32,-88.867,1.0
1626062693.2917323,-78.125,-17.09,-24.901999999999997,-333.496,1.0
1626062693.2956386,-30.761999999999997,-23.438000000000002,-23.438000000000002,-44.434,1.0
1626062693.299545,-10.254000000000001,-25.879,-16.113,44.434,1.0
1626062693.303451,28.32,-35.645,-12.207,262.207,1.0
1626062693.307357,-41.016000000000005,-53.711000000000006,-15.137,-58.105,1.0
1626062693.3112638,-98.145,-47.363,-11.719000000000001,-325.195,1.0
1626062693.3151696,-49.316,-15.625,-24.901999999999997,-66.406,1.0
1626062693.3190758,26.366999999999997,-11.719000000000001,-27.344,266.60200000000003,1.0
1626062693.322982,-6.348,-23.926,-22.949,78.613,1.0
1626062693.3268883,-90.82,-24.901999999999997,-22.949,-308.594,1.0
1626062693.330795,-61.523,-35.156,-6.836,-187.5,1.0
1626062693.334701,21.484,-39.062,-5.859,215.332,1.0
1626062693.3386073,9.766,-21.484,-15.625,166.50400000000002,1.0
1626062693.3425136,-80.566,-36.621,-32.227,-248.047,1.0
1626062693.3464196,-100.098,-53.711000000000006,-28.809,1.0,1.0
1626062693.350326,-9.766,-49.805,-12.207,1.0,1.0
1626062693.3542323,20.996,-63.965,-16.602,1.0,1.0
1626062693.3581383,-50.781000000000006,-46.387,-31.25,1.0,1.0
1626062693.3620448,-87.891,-6.348,-30.761999999999997,1.0,1.0
1626062693.365951,-25.391,-3.906,-5.859,1.0,1.0
1626062693.3698573,30.761999999999997,-10.742,8.301,1.0,1.0
1626062693.3737636,-24.901999999999997,-32.227,-12.695,1.0,1.0
1626062693.3776698,-95.215,-34.18,-14.648,1.0,1.0
1626062693.381576,-59.57,-31.25,-20.02,1.0,1.0
1626062693.3854823,11.23,-44.434,-31.25,1.0,1.0
1626062693.3893886,6.836,-42.48,-5.859,1.0,1.0
1626062693.3932948,-62.5,-45.898,10.254000000000001,-274.902,1.0
1626062693.397201,-63.477,-42.48,7.324,-206.543,1.0
1626062693.4011073,4.883,-31.25,-5.371,190.43,1.0
1626062693.4050138,4.883,-29.296999999999997,-11.23,191.895,1.0
1626062693.4089198,-77.148,-17.09,-25.391,-218.262,1.0
1626062693.412826,-92.773,-12.207,-32.715,-291.992,1.0
1626062693.4167323,-20.996,-30.273000000000003,-24.901999999999997,88.867,1.0
1626062693.4206386,13.184000000000001,-40.527,-13.672,239.74599999999998,1.0
1626062693.4245448,-33.203,-37.109,-6.348,-93.75,1.0
1626062693.428451,-83.984,-41.016000000000005,-2.441,-323.242,1.0
1626062693.432357,-32.715,-54.199,2.93,-22.949,1.0
1626062693.4362638,34.668,-41.504,-0.488,269.531,1.0
1626062693.4401696,21.484,-21.973000000000003,-32.715,255.859,1.0
1626062693.4440763,-26.855,-17.09,-25.879,-63.965,1.0
1626062693.447982,-94.238,-32.715,-16.113,-339.844,1.0
1626062693.4518883,-46.387,-40.527,-12.207,-72.75399999999999,1.0
1626062693.455795,27.831999999999997,-46.387,-17.09,253.418,1.0
1626062693.459701,-4.883,-37.598,-24.414,42.968999999999994,1.0
1626062693.463607,-82.52,-26.855,-30.761999999999997,-317.383,1.0
1626062693.4675136,-71.777,-39.551,-32.715,-182.61700000000002,1.0
1626062693.4714196,14.16,-47.852,-19.043,214.355,1.0
1626062693.475326,15.625,-42.48,-24.901999999999997,150.391,1.0
1626062693.4792323,-62.5,-41.992,-35.645,-246.09400000000002,1.0
1626062693.4831386,-78.613,-39.551,-36.133,-252.44099999999997,1.0
1626062693.4870448,-67.383,-16.113,-21.973000000000003,138.184,1.0
1626062693.490951,15.625,-10.742,-13.672,226.562,1.0
1626062693.4948573,22.461,-24.901999999999997,-27.831999999999997,-149.414,1.0
1626062693.4987636,-54.199,-42.48,-49.316,-319.336,1.0
1626062693.5026696,-60.059,-29.296999999999997,-34.668,24.414,1.0
1626062693.506576,25.879,-10.254000000000001,-6.836,253.418,1.0
1626062693.5104823,42.968999999999994,-14.648,-7.324,-47.852,1.0
1626062693.5143886,-32.715,-21.484,-17.09,-332.031,1.0
1626062693.5182948,-72.266,-17.578,-17.578,-90.82,1.0
1626062693.522201,-12.207,-28.809,-24.901999999999997,241.21099999999998,1.0
1626062693.5261073,45.898,-38.574,-27.344,70.801,1.0
1626062693.5300136,-6.836,-34.18,-32.227,-307.129,1.0
1626062693.5339198,-83.008,-40.527,-47.852,1.0,1.0
1626062693.537826,-50.781000000000006,-26.855,-47.363,1.0,1.0
1626062693.5417323,17.578,-14.16,-30.273000000000003,1.0,1.0
1626062693.5456386,3.418,-26.855,-6.836,1.0,1.0
1626062693.549545,-68.359,-38.574,0.488,1.0,1.0
1626062693.553451,-77.148,-39.551,-15.625,1.0,1.0
1626062693.557357,-4.395,-35.645,-14.16,1.0,1.0
1626062693.5612638,9.766,-32.715,-12.207,1.0,1.0
1626062693.5651696,-66.895,-52.246,-22.461,1.0,1.0
1626062693.5690758,-95.215,-54.688,-25.879,1.0,1.0
1626062693.572982,-12.207,-24.901999999999997,-33.691,1.0,1.0
1626062693.5768883,37.598,-19.043,-45.41,1.0,1.0
1626062693.580795,-28.809,-50.781000000000006,-44.434,-89.355,1.0
1626062693.584701,-95.215,-59.57,-31.25,-330.07800000000003,1.0
1626062693.5886073,-44.434,-31.25,-12.695,-25.879,1.0
1626062693.5925136,25.391,-5.859,-15.137,270.996,1.0
1626062693.5964196,-7.812,-8.789,-32.227,27.344,1.0
1626062693.600326,-81.055,-29.296999999999997,-31.25,-317.871,1.0
1626062693.6042323,-56.641000000000005,-46.875,-22.949,-139.648,1.0
1626062693.6081383,24.901999999999997,-48.828,-20.508000000000003,239.25799999999998,1.0
1626062693.6120448,1.465,-20.508000000000003,-20.508000000000003,89.844,1.0
1626062693.615951,-77.148,-16.602,-29.296999999999997,-290.527,1.0
1626062693.6198573,-75.684,-27.344,-38.574,-250.0,1.0
1626062693.6237636,7.812,-23.438000000000002,-29.785,149.90200000000002,1.0
1626062693.6276698,3.906,-21.484,-41.504,208.00799999999998,1.0
1626062693.631576,17.578,-45.41,-32.227,163.086,1.0
1626062693.6354823,-55.176,-65.43,-26.366999999999997,-233.887,1.0
1626062693.6393886,-75.195,-29.296999999999997,-37.109,-264.16,1.0
1626062693.6432948,-6.348,-2.93,-38.574,132.32399999999998,1.0
1626062693.647201,12.695,-13.672,-37.109,219.727,1.0
1626062693.6511073,-45.898,-20.02,-32.227,-158.203,1.0
1626062693.6550138,-89.844,-39.551,-34.668,-326.172,1.0
1626062693.6589198,-42.48,-43.945,-40.039,15.625,1.0
1626062693.662826,13.184000000000001,-25.391,-28.32,250.977,1.0
1626062693.6667323,-38.574,-31.738000000000003,-34.18,-50.781000000000006,1.0
1626062693.6706386,-92.773,-36.133,-32.227,-336.426,1.0
1626062693.6745448,-53.223,-35.645,-38.086,1.0,1.0
1626062693.678451,17.578,-49.805,-38.574,1.0,1.0
1626062693.682357,0.0,-49.805,-21.973000000000003,1.0,1.0
1626062693.6862638,-85.449,-26.366999999999997,-22.949,1.0,1.0
1626062693.6901696,-78.125,-0.977,-21.484,1.0,1.0
1626062693.6940763,2.441,2.93,-20.02,1.0,1.0
1626062693.697982,17.09,-5.371,-15.625,1.0,1.0
1626062693.7018883,-58.105,-32.227,-17.578,1.0,1.0
1626062693.705795,-86.914,-46.875,-24.414,1.0,1.0
1626062693.709701,0.0,-28.809,-16.113,1.0,1.0
1626062693.713607,38.574,-14.16,-16.113,1.0,1.0
1626062693.7175136,-36.621,-13.184000000000001,-31.738000000000003,1.0,1.0
1626062693.7214196,-84.961,-16.113,-44.922,-326.66,1.0
1626062693.725326,-29.785,-29.785,-45.41,3.906,1.0
1626062693.7292323,37.109,-47.852,-19.531,282.715,1.0
1626062693.7331386,-16.602,-56.152,-21.973000000000003,-0.977,1.0
1626062693.7370448,-91.79700000000001,-42.968999999999994,-50.293,-322.754,1.0
1626062693.740951,-50.293,-26.855,-50.293,-110.352,1.0
1626062693.7448573,25.879,-35.156,-30.761999999999997,242.676,1.0
1626062693.7487636,5.859,-39.062,-28.32,100.586,1.0
1626062693.7526696,-70.801,-32.227,-38.574,-284.668,1.0
1626062693.756576,-62.012,-26.855,-31.25,-214.84400000000002,1.0
1626062693.7604823,18.555,-25.391,-29.785,190.43,1.0
1626062693.7643886,35.156,-27.344,-26.855,213.86700000000002,1.0
1626062693.7682948,-48.828,-48.828,-22.461,1.0,1.0
1626062693.772201,-94.727,-41.016000000000005,-25.391,1.0,1.0
1626062693.7761073,-21.484,-4.883,-23.926,1.0,1.0
1626062693.7800136,35.156,2.441,-24.414,1.0,1.0
1626062693.7839198,-20.996,-24.901999999999997,-24.901999999999997,1.0,1.0
1626062693.787826,-85.93799999999999,-46.875,-33.691,1.0,1.0
1626062693.7917323,-38.086,-45.41,-37.598,1.0,1.0
1626062693.7956386,33.203,-36.133,-26.855,1.0,1.0
1626062693.799545,-6.348,-36.621,-21.973000000000003,1.0,1.0
1626062693.803451,-90.33200000000001,-44.922,-27.344,1.0,1.0
1626062693.807357,-58.593999999999994,-18.555,-28.32,1.0,1.0
1626062693.8112638,18.555,-7.812,-34.18,1.0,1.0
1626062693.8151696,1.465,-31.738000000000003,-49.316,120.605,1.0
1626062693.8190758,-75.684,-54.199,-55.176,-278.809,1.0
1626062693.822982,-84.961,-58.593999999999994,-43.457,-258.789,1.0
1626062693.8268883,4.883,-34.668,-22.461,152.344,1.0
1626062693.830795,32.715,-20.508000000000003,-28.32,218.75,1.0
1626062693.834701,-56.641000000000005,-34.18,-49.805,-180.176,1.0
1626062693.8386073,-91.79700000000001,-20.508000000000003,-46.875,-320.801,1.0
1626062693.8425136,-24.414,-27.344,-33.203,42.48,1.0
1626062693.8464196,22.461,-43.945,-22.461,251.465,1.0
1626062693.850326,-34.668,-42.48,-32.227,-68.848,1.0
1626062693.8542323,-94.238,-38.574,-44.434,-347.656,1.0
1626062693.8581383,-36.133,-32.715,-37.109,-71.777,1.0
1626062693.8620448,-39.551,-21.973000000000003,-28.32,249.512,1.0
1626062693.865951,9.766,-11.23,-39.062,41.016000000000005,1.0
1626062693.8698573,-27.831999999999997,-23.438000000000002,-34.668,-320.801,1.0
1626062693.8737636,-84.473,-30.273000000000003,-28.32,-188.477,1.0
1626062693.8776698,-44.434,-18.555,-26.366999999999997,208.49599999999998,1.0
1626062693.881576,23.926,-26.366999999999997,-24.414,151.855,1.0
1626062693.8854823,-4.395,-45.41,-28.32,-255.37099999999998,1.0
1626062693.8893886,-89.355,-55.176,-37.598,-265.137,1.0
1626062693.8932948,-71.289,-39.062,-34.18,139.16,1.0
1626062693.897201,19.531,-33.203,-31.25,230.46900000000002,1.0
1626062693.9011073,25.391,-29.785,-27.344,-146.97299999999998,1.0
1626062693.9050138,-57.129,-21.973000000000003,-25.391,-324.707,1.0
1626062693.9089198,-88.37899999999999,-24.901999999999997,-47.852,1.0,1.0
1626062693.912826,-2.441,-17.09,-52.733999999999995,1.0,1.0
1626062693.9167323,39.062,-4.883,-31.25,1.0,1.0
1626062693.9206386,-36.621,-12.207,-21.484,1.0,1.0
1626062693.9245448,-98.633,-26.366999999999997,-26.855,1.0,1.0
1626062693.928451,-40.039,-34.668,-21.484,1.0,1.0
1626062693.932357,29.785,-41.016000000000005,-12.207,1.0,1.0
1626062693.9362638,-8.301,-36.133,-20.996,1.0,1.0
1626062693.9401696,-76.66,-35.645,-33.203,1.0,1.0
1626062693.9440763,-50.781000000000006,-41.504,-37.109,1.0,1.0
1626062693.947982,28.32,-35.645,-30.273000000000003,1.0,1.0
1626062693.9518883,11.23,-36.133,-31.738000000000003,1.0,1.0
1626062693.955795,-78.125,-34.18,-39.551,-281.25,1.0
1626062693.959701,-72.266,-15.625,-37.109,-229.49200000000002,1.0
1626062693.963607,-0.488,-25.879,-29.296999999999997,177.24599999999998,1.0
1626062693.9675136,11.719000000000001,-35.156,-16.602,206.055,1.0
1626062693.9714196,-60.059,-22.949,-23.438000000000002,-195.312,1.0
1626062693.975326,-83.984,-16.602,-24.901999999999997,-290.527,1.0
1626062693.9792323,0.488,-17.578,-15.625,98.145,1.0
1626062693.9831386,40.527,-31.25,-24.414,270.996,1.0
1626062693.9870448,-27.831999999999997,-60.547,-30.273000000000003,-66.406,1.0
1626062693.990951,-92.773,-67.383,-37.109,-323.242,1.0
1626062693.9948573,-37.598,-32.715,-30.273000000000003,-33.203,1.0
1626062693.9987636,36.133,-28.32,-19.531,274.414,1.0
1626062694.0026696,24.414,-19.531,-27.831999999999997,257.812,1.0
1626062694.006576,-27.344,-5.859,-37.109,-60.547,1.0
1626062694.0104823,-95.70299999999999,-46.875,-30.273000000000003,-334.961,1.0
1626062694.0143886,-51.758,-61.523,-22.949,-69.336,1.0
1626062694.0182948,19.043,-24.414,-23.926,255.37099999999998,1.0
1626062694.022201,-3.418,-21.484,-19.531,67.87100000000001,1.0
1626062694.0261073,-78.125,-35.156,-25.391,-296.875,1.0
1626062694.0300136,-69.336,-24.414,-38.574,-182.12900000000002,1.0
1626062694.0339198,7.812,-1.465,-35.645,206.543,1.0
1626062694.037826,11.719000000000001,-12.695,-39.551,163.57399999999998,1.0
1626062694.0417323,-59.082,-42.968999999999994,-36.133,-227.53900000000002,1.0
1626062694.0456386,-64.941,-33.691,-11.719000000000001,-246.582,1.0
1626062694.049545,-69.336,-49.316,-19.531,148.92600000000002,1.0
1626062694.053451,7.812,-33.691,-35.156,258.301,1.0
1626062694.057357,14.16,-47.852,-49.316,-113.77,1.0
1626062694.0612638,-64.453,-31.25,-52.733999999999995,-307.617,1.0
1626062694.0651696,-74.219,-3.906,-50.293,16.602,1.0
1626062694.0690758,4.395,-4.883,-37.598,250.977,1.0
1626062694.072982,32.715,-9.766,-25.879,-24.901999999999997,1.0
1626062694.0768883,-20.996,-24.901999999999997,-21.973000000000003,-325.195,1.0
1626062694.080795,-59.082,-36.621,-27.831999999999997,-84.473,1.0
1626062694.084701,-21.973000000000003,-31.25,-41.016000000000005,275.39099999999996,1.0
1626062694.0886073,22.461,-11.719000000000001,-31.738000000000003,110.84,1.0
1626062694.0925136,-15.625,-15.625,-34.668,-281.25,1.0
1626062694.0964196,-77.637,-53.223,-49.805,1.0,1.0
1626062694.100326,-41.504,-51.27,-36.621,1.0,1.0
1626062694.1042323,26.855,-16.113,-19.043,1.0,1.0
1626062694.1081383,10.742,-23.926,-23.926,1.0,1.0
1626062694.1120448,-49.805,-58.105,-24.414,1.0,1.0
1626062694.115951,-51.27,-46.875,-25.391,1.0,1.0
1626062694.1198573,13.184000000000001,-4.883,-24.901999999999997,1.0,1.0
1626062694.1237636,14.16,2.93,-16.602,1.0,1.0
1626062694.1276698,-69.824,-13.672,-23.438000000000002,1.0,1.0
1626062694.131576,-104.98,-20.02,-33.691,1.0,1.0
1626062694.1354823,-29.785,-34.18,-33.203,1.0,1.0
1626062694.1393886,39.551,-63.965,-20.996,1.0,1.0
1626062694.1432948,-4.883,-59.57,-21.484,-52.733999999999995,1.0
1626062694.147201,-76.66,-34.18,-48.828,-321.289,1.0
1626062694.1511073,-36.621,-19.531,-35.645,-52.246,1.0
1626062694.1550138,29.296999999999997,-19.531,-7.812,262.695,1.0
1626062694.1589198,-10.742,-25.391,-13.672,18.555,1.0
1626062694.162826,-82.031,-18.555,-16.113,-317.383,1.0
1626062694.1667323,-70.312,-18.555,-25.879,-155.273,1.0
1626062694.1706386,-3.418,-49.316,-46.875,205.078,1.0
1626062694.1745448,-3.906,-65.43,-46.387,124.023,1.0
1626062694.178451,-84.961,-51.27,-38.574,-272.461,1.0
1626062694.182357,-81.543,-23.438000000000002,-26.366999999999997,-249.023,1.0
1626062694.1862638,15.137,-2.93,-16.602,161.621,1.0
1626062694.1901696,24.414,-26.855,-30.761999999999997,208.49599999999998,1.0
1626062694.1940763,26.366999999999997,-19.531,-21.973000000000003,172.363,1.0
1626062694.197982,-66.406,-27.344,-38.574,-239.25799999999998,1.0
1626062694.2018883,-83.008,-21.973000000000003,-46.387,-276.367,1.0
1626062694.205795,-3.906,-22.461,-36.621,124.023,1.0
1626062694.209701,25.879,-48.828,-18.555,237.793,1.0
1626062694.213607,-40.527,-58.105,-18.555,-136.719,1.0
1626062694.2175136,-102.051,-43.945,-38.086,-345.70300000000003,1.0
1626062694.2214196,-41.992,-34.668,-38.574,-5.859,1.0
1626062694.225326,22.461,-27.831999999999997,-38.086,263.672,1.0
1626062694.2292323,-27.344,-25.879,-40.527,-19.531,1.0
1626062694.2331386,-87.891,-26.855,-34.668,-329.59,1.0
1626062694.2370448,-35.156,-33.691,-29.296999999999997,1.0,1.0
1626062694.240951,43.457,-28.32,-22.949,1.0,1.0
1626062694.2448573,5.371,-35.645,-27.831999999999997,1.0,1.0
1626062694.2487636,-77.637,-64.941,-31.25,1.0,1.0
1626062694.2526696,-74.219,-57.617,-41.016000000000005,1.0,1.0
1626062694.256576,8.301,-22.461,-39.551,1.0,1.0
1626062694.2604823,12.695,-26.855,-26.855,1.0,1.0
1626062694.2643886,-69.824,-35.645,-32.227,1.0,1.0
1626062694.2682948,-85.449,-11.719000000000001,-34.668,1.0,1.0
1626062694.272201,-17.578,-20.996,-42.48,1.0,1.0
1626062694.2761073,28.809,-29.296999999999997,-35.645,1.0,1.0
1626062694.2800136,-33.203,-14.16,-39.062,1.0,1.0
1626062694.2839198,-83.008,-20.508000000000003,-41.992,1.0,1.0
1626062694.287826,-30.761999999999997,-60.547,-31.25,1.0,1.0
1626062694.2917323,24.414,-61.035,-25.391,1.0,1.0
1626062694.2956386,-7.324,-19.531,-26.366999999999997,1.0,1.0
1626062694.299545,-85.93799999999999,-17.578,-44.922,1.0,1.0
1626062694.303451,-58.105,-14.16,-38.086,1.0,1.0
1626062694.307357,20.508000000000003,-3.418,-23.438000000000002,1.0,1.0
1626062694.3112638,3.418,-19.043,-29.785,1.0,1.0
1626062694.3151696,-71.777,-27.344,-29.785,1.0,1.0
1626062694.3190758,-75.684,-32.715,-28.32,1.0,1.0
1626062694.322982,-2.441,-37.598,-29.785,1.0,1.0
1626062694.3268883,12.695,-48.34,-36.133,1.0,1.0
1626062694.330795,-63.477,-56.641000000000005,-42.48,1.0,1.0
1626062694.334701,-86.914,-53.711000000000006,-39.551,1.0,1.0
1626062694.3386073,-10.742,-49.805,-37.598,1.0,1.0
1626062694.3425136,31.738000000000003,-28.809,-37.109,1.0,1.0
1626062694.3464196,-33.691,-23.438000000000002,-31.738000000000003,1.0,1.0
1626062694.350326,-90.33200000000001,-27.831999999999997,-28.809,1.0,1.0
1626062694.3542323,-36.621,-9.277000000000001,-21.973000000000003,1.0,1.0
1626062694.3581383,22.949,-3.906,-15.137,1.0,1.0
1626062694.3620448,-10.254000000000001,-32.715,-21.973000000000003,1.0,1.0
1626062694.365951,-90.82,-52.246,-45.41,1.0,1.0
1626062694.3698573,-72.75399999999999,-27.831999999999997,-43.457,1.0,1.0
1626062694.3737636,19.043,-26.855,-22.461,1.0,1.0
1626062694.3776698,6.836,-42.48,-22.949,151.855,1.0
1626062694.381576,-84.473,-41.992,-42.48,-261.719,1.0
1626062694.3854823,-94.238,-36.621,-50.293,-271.48400000000004,1.0
1626062694.3893886,2.93,-40.039,-24.901999999999997,148.92600000000002,1.0
1626062694.3932948,32.227,-39.062,-19.531,233.398,1.0
1626062694.397201,-51.758,-28.809,-30.761999999999997,-162.109,1.0
1626062694.4011073,-92.773,-29.785,-40.527,-322.26599999999996,1.0
1626062694.4050138,-24.901999999999997,-25.391,-37.109,29.296999999999997,1.0
1626062694.4089198,25.391,-19.043,-20.02,264.64799999999997,1.0
1626062694.412826,-28.809,-35.645,-27.344,-45.898,1.0
1626062694.4167323,-93.262,-57.617,-34.18,-345.70300000000003,1.0
1626062694.4206386,-53.711000000000006,-54.199,-32.715,-92.285,1.0
1626062694.4245448,-26.366999999999997,-38.086,-27.831999999999997,254.88299999999998,1.0
1626062694.428451,28.809,-38.086,-24.901999999999997,69.336,1.0
1626062694.432357,-28.809,-51.758,-32.227,-307.617,1.0
1626062694.4362638,-93.75,-48.34,-30.761999999999997,-192.38299999999998,1.0
1626062694.4401696,-46.387,-61.035,-19.043,201.66,1.0
1626062694.4440763,27.831999999999997,-49.316,-25.879,165.52700000000002,1.0
1626062694.447982,-5.371,-12.695,-53.223,-224.609,1.0
1626062694.4518883,-98.633,-14.16,-59.082,-268.066,1.0
1626062694.455795,-85.449,-12.695,-32.715,114.74600000000001,1.0
1626062694.459701,-0.488,-24.414,-25.391,234.375,1.0
1626062694.463607,13.184000000000001,-40.527,-27.344,-130.371,1.0
1626062694.4675136,-58.105,-51.758,-33.203,-315.918,1.0
1626062694.4714196,-86.426,-57.129,-45.898,1.0,1.0
1626062694.475326,-0.977,-30.761999999999997,-37.109,1.0,1.0
1626062694.4792323,39.551,-25.879,-26.855,1.0,1.0
1626062694.4831386,-32.227,-41.992,-28.32,1.0,1.0
1626062694.4870448,-94.238,-34.18,-35.156,1.0,1.0
1626062694.490951,-40.039,-13.672,-36.621,1.0,1.0
1626062694.4948573,30.761999999999997,2.441,-26.366999999999997,1.0,1.0
1626062694.4987636,-5.859,-12.207,-24.901999999999997,1.0,1.0
1626062694.5026696,-87.891,-46.387,-42.48,1.0,1.0
1626062694.506576,-74.707,-67.87100000000001,-50.781000000000006,1.0,1.0
1626062694.5104823,11.719000000000001,-44.434,-32.715,1.0,1.0
1626062694.5143886,5.859,-19.531,-21.484,1.0,1.0
1626062694.5182948,-55.663999999999994,-38.086,-17.578,-244.62900000000002,1.0
1626062694.522201,-59.57,-45.41,-40.039,-223.145,1.0
1626062694.5261073,-2.93,-29.785,-64.453,162.109,1.0
1626062694.5300136,21.973000000000003,-10.742,-37.598,214.84400000000002,1.0
1626062694.5339198,-55.663999999999994,-25.391,-16.602,-180.176,1.0
1626062694.537826,-91.309,-27.831999999999997,-14.648,-302.73400000000004,1.0
1626062694.5417323,-19.043,-26.855,-22.949,67.87100000000001,1.0
1626062694.5456386,22.949,-64.941,-27.344,247.07,1.0
1626062694.549545,-13.672,-66.895,-23.438000000000002,-49.805,1.0
1626062694.553451,-69.824,-30.761999999999997,-32.227,-309.57,1.0
1626062694.557357,-47.363,1.953,-33.203,-65.918,1.0
1626062694.5612638,5.859,13.672,-34.668,241.21099999999998,1.0
1626062694.5651696,23.926,-30.761999999999997,-26.366999999999997,270.996,1.0
1626062694.5690758,-35.156,-36.621,-35.645,-40.039,1.0
1626062694.572982,-93.262,-47.852,-42.48,-336.426,1.0
1626062694.5768883,-44.434,-45.898,-23.926,-77.637,1.0
1626062694.580795,31.25,-31.738000000000003,-1.465,273.926,1.0
1626062694.584701,0.977,-31.738000000000003,-8.789,89.844,1.0
1626062694.5886073,-82.52,-49.805,-15.625,-293.945,1.0
1626062694.5925136,-72.266,-34.18,-11.23,-185.05900000000003,1.0
1626062694.5964196,12.695,-1.953,-12.695,222.168,1.0
1626062694.600326,18.066,-2.441,-23.438000000000002,198.73,1.0
1626062694.6042323,-62.988,-22.461,-33.203,-212.891,1.0
1626062694.6081383,-86.914,-44.434,-38.086,-278.32,1.0
1626062694.6120448,-70.312,-33.691,-43.945,114.74600000000001,1.0
1626062694.615951,6.348,-27.831999999999997,-47.363,257.324,1.0
1626062694.6198573,16.602,-40.527,-52.733999999999995,-98.145,1.0
1626062694.6237636,-54.199,-36.621,-29.296999999999997,-307.129,1.0
1626062694.6276698,-84.473,-28.32,-7.812,12.695,1.0
1626062694.631576,-11.23,-46.387,0.977,291.504,1.0
1626062694.6354823,33.691,-54.688,-8.301,22.461,1.0
1626062694.6393886,-44.922,-67.87100000000001,-39.062,-313.965,1.0
1626062694.6432948,-107.42200000000001,-50.293,-32.227,-114.258,1.0
1626062694.647201,-58.593999999999994,-10.742,-22.461,241.21099999999998,1.0
1626062694.6511073,4.395,-7.812,-22.949,112.305,1.0
1626062694.6550138,-39.062,-25.391,-34.668,-268.066,1.0
1626062694.6589198,-112.305,-31.25,-38.574,-347.656,1.0
1626062694.662826,-76.66,-20.508000000000003,-25.391,-170.41,1.0
1626062694.6667323,-2.441,-27.831999999999997,-33.691,200.68400000000003,1.0
1626062694.6706386,-10.742,-46.387,-36.621,98.145,1.0
1626062694.6745448,-79.102,-49.805,-37.109,-292.969,1.0
1626062694.678451,-83.008,-65.918,-44.434,-269.043,1.0
1626062694.682357,-3.418,-71.777,-33.203,146.97299999999998,1.0
1626062694.6862638,2.441,-63.477,-32.715,196.28900000000002,1.0
1626062694.6901696,-80.566,-50.293,-47.363,-205.56599999999997,1.0
1626062694.6940763,-121.094,-23.926,-55.663999999999994,-350.098,1.0
1626062694.697982,-44.434,-2.93,-44.922,22.461,1.0
1626062694.7018883,19.531,-11.719000000000001,-27.831999999999997,244.62900000000002,1.0
1626062694.705795,-41.504,-21.973000000000003,-36.133,-78.125,1.0
1626062694.709701,-104.98,-37.109,-43.945,-349.60900000000004,1.0
1626062694.713607,-61.035,-60.059,-37.598,-75.195,1.0
1626062694.7175136,16.113,-47.852,-30.761999999999997,251.465,1.0
1626062694.7214196,-8.301,-55.663999999999994,-26.855,11.23,1.0
1626062694.725326,-87.402,-77.148,-39.551,-336.426,1.0
1626062694.7292323,-74.707,-44.434,-50.781000000000006,-174.31599999999997,1.0
1626062694.7331386,12.695,-15.137,-43.457,218.262,1.0
1626062694.7370448,4.395,-8.789,-42.48,149.414,1.0
1626062694.740951,-101.074,-11.719000000000001,-61.035,-270.996,1.0
1626062694.7448573,-111.816,-10.742,-50.293,-281.25,1.0
1626062694.7487636,-20.02,-22.949,-40.039,129.395,1.0
1626062694.7526696,11.719000000000001,-40.527,-18.555,203.613,1.0
1626062694.756576,19.531,-38.086,-19.531,181.15200000000002,1.0
1626062694.7604823,-67.383,-33.203,-30.761999999999997,-239.74599999999998,1.0
1626062694.7643886,-83.008,-20.996,-35.645,-298.828,1.0
1626062694.7682948,-4.395,-23.926,-35.645,103.027,1.0
1626062694.772201,36.621,-22.461,-41.016000000000005,242.676,1.0
1626062694.7761073,-21.484,-29.296999999999997,-52.733999999999995,-111.816,1.0
1626062694.7800136,-72.75399999999999,-50.781000000000006,-46.875,-320.312,1.0
1626062694.7839198,-27.831999999999997,-55.176,-23.926,-14.16,1.0
1626062694.787826,42.968999999999994,-34.668,-13.184000000000001,265.137,1.0
1626062694.7917323,6.836,-17.09,-26.366999999999997,5.859,1.0
1626062694.7956386,-66.895,-18.066,-41.992,-325.684,1.0
1626062694.799545,-43.457,-13.672,-24.901999999999997,1.0,1.0
1626062694.803451,20.996,-25.391,-24.414,1.0,1.0
1626062694.807357,3.906,-44.922,-41.992,1.0,1.0
1626062694.8112638,-66.406,-48.34,-36.133,1.0,1.0
1626062694.8151696,-60.547,-37.109,-37.109,1.0,1.0
1626062694.8190758,14.16,-34.18,-36.621,1.0,1.0
1626062694.822982,23.438000000000002,-36.621,-24.414,1.0,1.0
1626062694.8268883,-47.852,-39.551,-23.926,1.0,1.0
1626062694.830795,-77.637,-43.945,-23.438000000000002,1.0,1.0
1626062694.834701,-23.926,-33.691,-38.086,1.0,1.0
1626062694.8386073,8.789,-27.344,-48.828,1.0,1.0
1626062694.8425136,-43.457,-36.621,-40.527,1.0,1.0
1626062694.8464196,-95.70299999999999,-37.598,-43.945,-349.60900000000004,1.0
1626062694.850326,-48.34,-40.039,-54.199,-43.945,1.0
1626062694.8542323,28.809,-28.809,-36.133,271.48400000000004,1.0
1626062694.8581383,7.812,-17.578,-10.254000000000001,47.363,1.0
1626062694.8620448,-69.336,-22.461,-17.09,-281.25,1.0
1626062694.865951,-55.176,-12.695,-19.043,-131.34799999999998,1.0
1626062694.8698573,18.066,-16.602,-14.16,236.328,1.0
1626062694.8737636,16.113,-41.992,-10.254000000000001,151.36700000000002,1.0
1626062694.8776698,-62.988,-41.992,-17.578,-252.44099999999997,1.0
1626062694.881576,-73.73,-30.761999999999997,-34.18,-244.141,1.0
1626062694.8854823,18.066,-50.293,-35.645,165.03900000000002,1.0
1626062694.8893886,53.711000000000006,-64.941,-20.996,245.605,1.0
1626062694.8932948,-18.066,-34.18,-21.973000000000003,-138.672,1.0
1626062694.897201,-69.336,1.953,-26.366999999999997,-293.945,1.0
1626062694.9011073,-28.809,-9.766,-17.578,46.387,1.0
1626062694.9050138,9.277000000000001,-45.41,-22.949,244.62900000000002,1.0
1626062694.9089198,-44.434,-52.733999999999995,-34.668,-70.312,1.0
1626062694.912826,-102.539,-53.711000000000006,-33.691,-341.79699999999997,1.0
1626062694.9167323,-46.875,-47.852,-28.809,-65.918,1.0
1626062694.9206386,47.852,-30.761999999999997,-22.949,282.715,1.0
1626062694.9245448,22.949,-40.527,-20.996,85.93799999999999,1.0
1626062694.928451,-72.266,-48.828,-39.062,-301.27,1.0
1626062694.932357,-65.43,-29.296999999999997,-48.34,-183.105,1.0
1626062694.9362638,14.648,-8.789,-38.086,207.52,1.0
1626062694.9401696,12.695,-16.113,-32.227,156.25,1.0
1626062694.9440763,-64.941,-47.852,-28.809,-241.21099999999998,1.0
1626062694.947982,-87.402,-44.434,-35.645,-280.27299999999997,1.0
1626062694.9518883,-8.789,-17.578,-37.109,121.58200000000001,1.0
1626062694.955795,28.809,-34.668,-35.645,235.84,1.0
1626062694.959701,-45.898,-53.711000000000006,-36.621,-139.16,1.0
1626062694.963607,-86.914,-31.25,-27.344,-317.383,1.0
1626062694.9675136,-19.531,-10.742,-20.508000000000003,29.785,1.0
1626062694.9714196,31.738000000000003,-17.578,-27.831999999999997,273.926,1.0
1626062694.975326,-32.715,-35.645,-32.227,-36.621,1.0
1626062694.9792323,-98.145,-37.598,-32.227,-337.402,1.0
1626062694.9831386,-39.062,-24.901999999999997,-28.809,-82.031,1.0
1626062694.9870448,-16.113,-44.434,-28.809,-15.137,1.0
1626062694.990951,50.293,-49.805,-8.301,272.461,1.0
1626062694.9948573,-2.93,-49.316,-13.184000000000001,12.695,1.0
1626062694.9987636,-78.613,-30.761999999999997,-14.648,-319.824,1.0
1626062695.0026696,-47.852,-1.953,-34.668,-127.93,1.0
1626062695.006576,29.785,2.93,-39.551,245.11700000000002,1.0
1626062695.0104823,17.578,-2.441,-25.879,125.977,1.0
1626062695.0143886,-72.266,-17.09,-28.32,-273.438,1.0
1626062695.0182948,-64.941,-32.715,-26.366999999999997,-218.75,1.0
1626062695.022201,21.484,-32.227,-41.016000000000005,181.15200000000002,1.0
1626062695.0261073,27.344,-26.855,-53.223,211.91400000000002,1.0
1626062695.0300136,-54.199,-41.016000000000005,-44.922,-186.035,1.0
1626062695.0339198,-82.52,-39.551,-38.574,1.0,1.0
1626062695.037826,-7.812,-16.602,-32.227,1.0,1.0
1626062695.0417323,30.273000000000003,-7.812,-28.32,1.0,1.0
1626062695.0456386,-31.738000000000003,-18.555,-37.109,1.0,1.0
1626062695.049545,-81.055,-24.414,-33.691,1.0,1.0
1626062695.053451,-19.531,-23.438000000000002,-16.602,1.0,1.0
1626062695.057357,50.293,-27.831999999999997,-13.672,1.0,1.0
1626062695.0612638,0.488,-26.366999999999997,-23.926,1.0,1.0
1626062695.0651696,-83.008,-26.366999999999997,-30.761999999999997,1.0,1.0
1626062695.0690758,-63.477,-20.508000000000003,-33.691,1.0,1.0
1626062695.072982,14.16,-15.137,-34.18,1.0,1.0
1626062695.0768883,12.695,-10.254000000000001,-39.551,1.0,1.0
1626062695.080795,-67.87100000000001,-22.949,-48.34,-245.11700000000002,1.0
1626062695.084701,-79.59,-43.457,-43.457,-242.676,1.0
1626062695.0886073,0.0,-50.781000000000006,-33.691,147.461,1.0
1626062695.0925136,24.901999999999997,-37.109,-34.668,226.074,1.0
1626062695.0964196,-54.688,-32.715,-44.434,-163.57399999999998,1.0
1626062695.100326,-93.262,-51.27,-35.645,-311.035,1.0
1626062695.1042323,-19.043,-46.875,-23.438000000000002,53.711000000000006,1.0
1626062695.1081383,29.785,-24.414,-21.484,267.09,1.0
1626062695.1120448,-27.344,-23.926,-23.926,-49.805,1.0
1626062695.115951,-87.402,-25.879,-31.25,-332.52,1.0
1626062695.1198573,-38.086,-21.973000000000003,-29.785,-70.312,1.0
1626062695.1237636,32.227,-34.668,-20.02,261.23,1.0
1626062695.1276698,27.344,-16.602,-23.926,276.855,1.0
1626062695.131576,-27.831999999999997,-34.668,-40.527,-14.16,1.0
1626062695.1354823,-85.449,-51.758,-37.109,-321.289,1.0
1626062695.1393886,-45.41,-41.016000000000005,-31.25,-91.309,1.0
1626062695.1432948,15.625,-32.715,-40.039,250.977,1.0
1626062695.147201,1.953,-40.039,-39.551,94.238,1.0
1626062695.1511073,-77.148,-36.133,-33.203,-290.039,1.0
1626062695.1550138,-85.93799999999999,-38.574,-37.109,-221.19099999999997,1.0
1626062695.1589198,2.441,-39.062,-32.715,190.918,1.0
1626062695.162826,20.02,-19.531,-37.598,193.359,1.0
1626062695.1667323,-61.523,-17.578,-57.617,-215.332,1.0
1626062695.1706386,-88.867,-41.016000000000005,-44.434,-292.969,1.0
1626062695.1745448,-2.441,-66.406,-25.879,1.0,1.0
1626062695.178451,38.086,-47.852,-26.855,1.0,1.0
1626062695.182357,-34.668,-12.207,-27.344,1.0,1.0
1626062695.1862638,-74.219,-14.648,-33.691,1.0,1.0
1626062695.1901696,-21.484,-31.738000000000003,-37.598,1.0,1.0
1626062695.1940763,18.066,-29.785,-36.621,1.0,1.0
1626062695.197982,-32.227,-19.043,-30.761999999999997,1.0,1.0
1626062695.2018883,-96.191,-23.438000000000002,-21.484,1.0,1.0
1626062695.205795,-58.105,-34.668,-23.926,1.0,1.0
1626062695.209701,12.695,-38.086,-28.809,1.0,1.0
1626062695.213607,-2.93,-36.133,-24.414,1.0,1.0
1626062695.2175136,-73.242,-52.246,-34.18,1.0,1.0
1626062695.2214196,-70.801,-58.105,-36.621,1.0,1.0
1626062695.225326,18.555,-48.828,-28.32,1.0,1.0
1626062695.2292323,25.879,-58.593999999999994,-33.691,1.0,1.0
1626062695.2331386,-59.082,-49.316,-28.32,1.0,1.0
1626062695.2370448,-86.426,-18.066,-32.715,1.0,1.0
1626062695.240951,-25.879,-19.531,-47.363,1.0,1.0
1626062695.2448573,12.695,-47.852,-35.645,1.0,1.0
1626062695.2487636,-46.387,-71.289,-27.344,1.0,1.0
1626062695.2526696,-93.75,-49.316,-28.32,1.0,1.0
1626062695.256576,-26.855,-19.531,-22.461,1.0,1.0
1626062695.2604823,36.621,-17.578,-21.973000000000003,1.0,1.0
1626062695.2643886,-0.977,-27.831999999999997,-29.296999999999997,1.0,1.0
1626062695.2682948,-78.125,-29.785,-40.527,1.0,1.0
1626062695.272201,-61.523,-20.02,-40.527,1.0,1.0
1626062695.2761073,29.785,-27.344,-29.785,1.0,1.0
1626062695.2800136,29.296999999999997,-34.668,-33.203,1.0,1.0
1626062695.2839198,-53.223,-34.668,-36.621,1.0,1.0
1626062695.287826,-64.453,-42.48,-32.227,1.0,1.0
1626062695.2917323,9.766,-33.691,-25.391,1.0,1.0
1626062695.2956386,41.992,-28.32,-21.484,1.0,1.0
1626062695.299545,-20.02,-34.668,-18.066,1.0,1.0
1626062695.303451,-64.453,-21.973000000000003,-24.414,1.0,1.0
1626062695.307357,14.16,-2.441,-8.301,1.0,1.0
1626062695.3112638,59.082,-16.113,-10.742,1.0,1.0
1626062695.3151696,-14.648,-19.531,-41.504,-33.203,1.0
1626062695.3190758,-83.008,-20.996,-42.48,-324.707,1.0
1626062695.322982,-38.574,-22.949,-21.484,-62.988,1.0
1626062695.3268883,51.27,-18.066,-12.695,286.621,1.0
1626062695.330795,21.484,-46.875,-17.09,96.191,1.0
1626062695.334701,-65.43,-40.039,-16.113,-275.879,1.0
1626062695.3386073,-56.641000000000005,-2.93,-24.901999999999997,-165.52700000000002,1.0
1626062695.3425136,21.484,-6.348,-33.691,223.63299999999998,1.0
1626062695.3464196,26.855,-17.578,-18.555,188.965,1.0
1626062695.350326,-51.758,-12.695,-10.742,-213.37900000000002,1.0
1626062695.3542323,-69.336,-9.277000000000001,-17.09,-256.348,1.0
1626062695.3581383,-0.488,-26.855,-27.344,132.812,1.0
1626062695.3620448,19.531,-25.391,-1.953,199.707,1.0
1626062695.365951,48.34,-0.977,4.395,227.53900000000002,1.0
1626062695.3698573,-49.805,-29.296999999999997,-29.785,-195.312,1.0
1626062695.3737636,-88.37899999999999,-40.039,-37.598,-290.527,1.0
1626062695.3776698,-18.066,-20.508000000000003,-34.18,100.098,1.0
1626062695.381576,20.508000000000003,-0.977,-32.227,247.55900000000003,1.0
1626062695.3854823,-35.645,-18.555,-27.831999999999997,-100.586,1.0
1626062695.3893886,-94.727,-33.203,-35.156,-328.125,1.0
1626062695.3932948,-30.273000000000003,-28.809,-28.809,-12.695,1.0
1626062695.397201,49.805,-39.062,-23.438000000000002,282.715,1.0
1626062695.4011073,5.859,-51.758,-31.738000000000003,28.809,1.0
1626062695.4050138,-74.707,-40.527,-34.668,-312.5,1.0
1626062695.4089198,-51.27,-21.484,-31.738000000000003,1.0,1.0
1626062695.412826,12.695,-27.344,-22.461,1.0,1.0
1626062695.4167323,-14.648,-24.901999999999997,-28.32,1.0,1.0
1626062695.4206386,-86.426,-9.766,-47.363,1.0,1.0
1626062695.4245448,-83.49600000000001,-14.648,-48.34,1.0,1.0
1626062695.428451,0.977,-32.715,-23.438000000000002,1.0,1.0
1626062695.432357,25.391,-48.34,-40.039,1.0,1.0
1626062695.4362638,-51.758,-65.43,-58.105,1.0,1.0
1626062695.4401696,-86.914,-44.434,-28.809,1.0,1.0
1626062695.4440763,-30.273000000000003,-7.324,-21.484,1.0,1.0
1626062695.447982,15.625,3.418,-29.296999999999997,1.0,1.0
1626062695.4518883,-28.809,-20.508000000000003,-29.296999999999997,1.0,1.0
1626062695.455795,-93.262,-46.875,-31.738000000000003,-342.285,1.0
1626062695.459701,-52.246,-25.879,-29.296999999999997,-65.43,1.0
1626062695.463607,7.324,-19.043,-39.551,237.793,1.0
1626062695.4675136,-27.344,-36.133,-35.645,20.508000000000003,1.0
1626062695.4714196,-96.191,-30.761999999999997,-28.809,-332.52,1.0
1626062695.475326,-67.87100000000001,-20.02,-30.761999999999997,-170.41,1.0
1626062695.4792323,20.508000000000003,-19.043,-24.901999999999997,231.93400000000003,1.0
1626062695.4831386,13.184000000000001,-35.156,-37.598,148.92600000000002,1.0
1626062695.4870448,-67.87100000000001,-33.203,-61.035,-263.184,1.0
1626062695.490951,-71.289,-31.738000000000003,-59.57,-266.113,1.0
1626062695.4948573,16.602,-21.484,-27.831999999999997,147.461,1.0
1626062695.4987636,33.203,-23.438000000000002,-16.113,226.074,1.0
1626062695.5026696,26.366999999999997,-33.691,-7.812,200.195,1.0
