timestamps,TP9,AF7,AF8,TP10,Right AUX
1626062628.4245448,-47.363,-32.227,-30.761999999999997,-145.996,1.0
1626062628.428451,-97.16799999999999,-32.227,-33.203,-343.26199999999994,1.0
1626062628.432357,-31.738000000000003,-20.508000000000003,-34.668,12.695,1.0
1626062628.4362638,21.484,-7.812,-44.922,280.762,1.0
1626062628.4401696,-42.48,-16.602,-40.039,-27.831999999999997,1.0
1626062628.4440763,-111.816,-23.438000000000002,-29.785,-355.469,1.0
1626062628.447982,-62.5,-25.879,-20.508000000000003,-102.539,1.0
1626062628.4518883,16.113,-42.48,-15.137,271.48400000000004,1.0
1626062628.455795,-8.789,-65.918,-22.949,100.586,1.0
1626062628.459701,-92.773,-65.43,-20.996,-302.73400000000004,1.0
1626062628.463607,-102.051,-46.875,-22.949,-230.46900000000002,1.0
1626062628.4675136,-11.23,-38.086,-26.855,196.28900000000002,1.0
1626062628.4714196,6.348,-25.879,-52.733999999999995,197.75400000000002,1.0
1626062628.475326,-8.301,-27.344,-36.133,-239.25799999999998,1.0
1626062628.4792323,-89.355,-29.296999999999997,-17.09,-300.781,1.0
1626062628.4831386,-96.68,-49.805,-23.926,122.07,1.0
1626062628.4870448,-8.301,-49.316,-30.761999999999997,265.625,1.0
1626062628.490951,23.926,-28.32,-35.645,-132.32399999999998,1.0
1626062628.4948573,-57.617,-20.996,-35.156,-371.582,1.0
1626062628.4987636,-102.051,-30.273000000000003,-37.109,-27.831999999999997,1.0
1626062628.5026696,-21.484,-34.668,-41.992,276.855,1.0
1626062628.506576,30.273000000000003,-21.484,-37.109,11.719000000000001,1.0
1626062628.5104823,-37.109,-14.648,-29.785,-344.727,1.0
1626062628.5143886,-100.586,-15.137,-27.831999999999997,-135.74200000000002,1.0
1626062628.5182948,-77.148,-15.137,-19.043,-315.918,1.0
1626062628.522201,-22.461,-39.551,-30.273000000000003,45.41,1.0
1626062628.5261073,19.043,-53.711000000000006,-27.344,275.39099999999996,1.0
1626062628.5300136,-36.133,-47.363,-36.133,-53.711000000000006,1.0
1626062628.5339198,-97.16799999999999,-50.781000000000006,-39.062,-358.398,1.0
1626062628.537826,-55.663999999999994,-41.992,-27.344,-82.031,1.0
1626062628.5417323,11.23,-13.184000000000001,-35.645,267.578,1.0
1626062628.5456386,-12.695,-0.488,-35.156,68.848,1.0
1626062628.549545,-103.516,-13.672,-34.668,-331.543,1.0
1626062628.553451,-84.473,-19.043,-54.199,-217.285,1.0
1626062628.557357,13.672,-40.527,-45.898,208.49599999999998,1.0
1626062628.5612638,11.23,-52.733999999999995,-17.09,175.78099999999998,1.0
1626062628.5651696,4.395,-58.593999999999994,-33.691,1.0,1.0
1626062628.5690758,-92.773,-52.733999999999995,-54.199,1.0,1.0
1626062628.572982,-80.078,-17.09,-39.551,1.0,1.0
1626062628.5768883,15.137,-6.836,-26.855,1.0,1.0
1626062628.580795,23.926,-20.02,-27.831999999999997,1.0,1.0
1626062628.584701,-48.34,-32.227,-17.09,1.0,1.0
1626062628.5886073,-75.684,-49.316,-9.766,1.0,1.0
1626062628.5925136,-14.16,-38.574,-11.719000000000001,1.0,1.0
1626062628.5964196,31.25,-17.578,-26.366999999999997,1.0,1.0
1626062628.600326,-26.366999999999997,-29.785,-29.785,1.0,1.0
1626062628.6042323,-88.37899999999999,-49.805,-23.926,1.0,1.0
1626062628.6081383,-30.273000000000003,-41.504,-23.438000000000002,1.0,1.0
1626062628.6120448,-20.02,-35.156,-21.484,83.49600000000001,1.0
1626062628.615951,24.901999999999997,-26.855,-35.156,280.762,1.0
1626062628.6198573,-26.855,-13.184000000000001,-50.781000000000006,-60.059,1.0
1626062628.6237636,-85.449,-21.973000000000003,-36.621,-345.215,1.0
1626062628.6276698,-33.691,-28.809,-22.461,-49.805,1.0
1626062628.631576,41.992,-40.527,-26.366999999999997,301.758,1.0
1626062628.6354823,11.23,-36.133,-13.672,84.961,1.0
1626062628.6393886,-81.055,-25.879,-21.973000000000003,-311.035,1.0
1626062628.6432948,-72.75399999999999,-27.831999999999997,-39.551,-182.61700000000002,1.0
1626062628.647201,8.789,-29.296999999999997,-32.227,229.98,1.0
1626062628.6511073,8.789,-35.645,-30.761999999999997,163.086,1.0
1626062628.6550138,-74.707,-43.945,-34.18,-273.926,1.0
1626062628.6589198,8.789,-29.785,-16.113,30.761999999999997,1.0
1626062628.662826,-92.773,-37.109,-41.016000000000005,-343.75,1.0
1626062628.6667323,-61.035,-29.785,-35.156,-141.602,1.0
1626062628.6706386,30.273000000000003,-7.812,-24.414,262.207,1.0
1626062628.6745448,5.859,-11.23,-29.785,124.512,1.0
1626062628.678451,-90.33200000000001,-31.25,-39.551,-299.316,1.0
1626062628.682357,-97.16799999999999,-45.898,-36.621,-253.418,1.0
1626062628.6862638,-5.371,-40.039,-29.785,173.34,1.0
1626062628.6901696,26.366999999999997,-32.227,-42.968999999999994,216.30900000000003,1.0
1626062628.6940763,-46.387,-45.898,-48.34,-199.21900000000002,1.0
1626062628.697982,-83.984,-47.363,-27.344,-314.941,1.0
1626062628.7018883,-20.02,-38.086,-14.16,84.473,1.0
1626062628.705795,17.578,-32.715,-30.273000000000003,1.0,1.0
1626062628.709701,-31.738000000000003,-22.949,-37.598,1.0,1.0
1626062628.713607,-89.844,-38.086,-25.391,1.0,1.0
1626062628.7175136,-56.152,-44.434,-30.273000000000003,1.0,1.0
1626062628.7214196,12.207,-27.344,-26.366999999999997,1.0,1.0
1626062628.725326,-20.996,-15.137,-25.879,1.0,1.0
1626062628.7292323,-98.145,-19.043,-42.968999999999994,1.0,1.0
1626062628.7331386,-64.941,-40.039,-28.809,1.0,1.0
1626062628.7370448,14.16,-50.293,-11.719000000000001,1.0,1.0
1626062628.740951,-10.254000000000001,-43.457,-32.715,1.0,1.0
1626062628.7448573,-85.93799999999999,-41.016000000000005,-42.968999999999994,1.0,1.0
1626062628.7487636,-82.031,-40.039,-43.457,1.0,1.0
1626062628.7526696,-75.684,-44.922,-40.039,-193.84799999999998,1.0
1626062628.756576,5.859,-48.34,-34.668,219.238,1.0
1626062628.7604823,12.207,-31.25,-32.715,181.15200000000002,1.0
1626062628.7643886,-75.195,-20.508000000000003,-40.039,-247.55900000000003,1.0
1626062628.7682948,-93.75,-22.949,-43.945,-286.133,1.0
1626062628.772201,-0.977,-8.789,-37.598,141.602,1.0
1626062628.7761073,37.598,-14.16,-35.156,260.254,1.0
1626062628.7800136,-40.527,-24.414,-21.484,-140.625,1.0
1626062628.7839198,-93.75,-39.551,-13.672,-351.56199999999995,1.0
1626062628.787826,-27.831999999999997,-43.457,-30.273000000000003,15.137,1.0
1626062628.7917323,43.457,-37.109,-20.508000000000003,303.223,1.0
1626062628.7956386,-15.625,-25.879,-9.766,-6.348,1.0
1626062628.799545,-53.223,-36.621,-23.926,-352.539,1.0
1626062628.803451,-98.145,-54.688,-32.715,-116.699,1.0
1626062628.807357,-39.551,-40.527,-30.273000000000003,254.88299999999998,1.0
1626062628.8112638,23.438000000000002,-24.901999999999997,-20.02,91.309,1.0
1626062628.8151696,-25.879,-18.066,-25.391,-303.711,1.0
1626062628.8190758,-104.492,-18.066,-31.25,-213.37900000000002,1.0
1626062628.822982,-67.383,-12.695,-25.879,206.055,1.0
1626062628.8268883,8.301,-14.16,-30.273000000000003,211.426,1.0
1626062628.830795,-9.277000000000001,-22.949,-34.668,-202.637,1.0
1626062628.834701,-84.961,-24.414,-32.715,-293.457,1.0
1626062628.8386073,-84.473,-21.484,-35.156,108.887,1.0
1626062628.8425136,-11.23,-19.531,-39.551,265.137,1.0
1626062628.8464196,-179.199,-50.781000000000006,-25.879,182.12900000000002,1.0
1626062628.850326,-173.828,-47.363,-17.578,-244.62900000000002,1.0
1626062628.8542323,-256.348,-56.152,-27.344,-383.789,1.0
1626062628.8581383,-270.02,-62.5,-37.109,1.465,1.0
1626062628.8620448,-183.59400000000002,-39.062,-36.133,190.43,1.0
1626062628.865951,-157.227,-41.992,-32.227,-175.78099999999998,1.0
1626062628.8698573,-237.793,-59.082,-38.086,-469.23800000000006,1.0
1626062628.8737636,-269.531,-42.48,-62.988,-202.637,1.0
1626062628.8776698,-192.87099999999998,-26.366999999999997,-74.219,121.094,1.0
1626062628.881576,-131.34799999999998,-21.973000000000003,-66.895,-115.234,1.0
1626062628.8854823,-179.199,-26.366999999999997,-46.387,-501.465,1.0
1626062628.8893886,-233.887,-52.733999999999995,-21.973000000000003,-356.934,1.0
1626062628.8932948,-52.733999999999995,-23.438000000000002,-48.34,-288.574,1.0
1626062628.897201,26.855,-18.555,-18.555,66.406,1.0
1626062628.9011073,104.492,-18.555,-11.719000000000001,361.816,1.0
1626062628.9050138,60.547,-18.555,-18.066,70.801,1.0
1626062628.9089198,5.859,-16.113,-31.738000000000003,-239.25799999999998,1.0
1626062628.912826,43.457,-8.789,-42.48,2.441,1.0
1626062628.9167323,114.74600000000001,-4.883,-40.527,353.027,1.0
1626062628.9206386,105.469,-41.992,-43.457,207.03099999999998,1.0
1626062628.9245448,30.761999999999997,-62.988,-38.574,-191.895,1.0
1626062628.928451,37.598,-42.968999999999994,-20.996,-123.535,1.0
1626062628.932357,118.652,-30.761999999999997,-15.137,291.01599999999996,1.0
1626062628.9362638,141.113,-43.457,-18.066,313.47700000000003,1.0
1626062628.9401696,92.285,-0.488,-27.831999999999997,1.0,1.0
1626062628.9440763,5.371,-25.391,-29.296999999999997,1.0,1.0
1626062628.947982,-8.301,-30.273000000000003,-31.738000000000003,1.0,1.0
1626062628.9518883,56.641000000000005,-31.25,-42.968999999999994,1.0,1.0
1626062628.955795,70.312,-30.273000000000003,-52.733999999999995,1.0,1.0
1626062628.959701,11.719000000000001,-10.254000000000001,-37.598,1.0,1.0
1626062628.963607,-26.366999999999997,-7.324,-15.625,1.0,1.0
1626062628.9675136,35.156,-16.113,-11.23,1.0,1.0
1626062628.9714196,99.609,-33.691,-4.395,1.0,1.0
1626062628.975326,42.968999999999994,-45.898,-14.648,1.0,1.0
1626062628.9792323,-28.32,-41.016000000000005,-24.901999999999997,1.0,1.0
1626062628.9831386,13.184000000000001,-35.156,-22.949,1.0,1.0
1626062628.9870448,-16.602,-26.366999999999997,-41.504,36.133,1.0
1626062628.990951,49.805,-20.02,-33.203,298.828,1.0
1626062628.9948573,6.348,-24.901999999999997,-41.992,3.418,1.0
1626062628.9987636,-52.733999999999995,-28.809,-39.062,-303.711,1.0
1626062629.0026696,-18.066,-10.254000000000001,-13.672,-64.941,1.0
1626062629.006576,51.27,-4.883,-7.324,300.293,1.0
1626062629.0104823,19.531,-27.344,-19.043,124.023,1.0
1626062629.0143886,-62.5,-60.059,-33.691,-286.621,1.0
1626062629.0182948,-46.387,-56.152,-37.598,-185.547,1.0
1626062629.022201,39.062,-34.18,-37.109,244.62900000000002,1.0
1626062629.0261073,49.316,-32.715,-44.434,233.887,1.0
1626062629.0300136,-33.691,-24.901999999999997,-31.738000000000003,-190.918,1.0
1626062629.0339198,-64.453,-16.113,-19.043,-280.762,1.0
1626062629.037826,-63.477,-1.953,-21.484,-235.352,1.0
1626062629.0417323,19.531,-7.324,-28.32,181.641,1.0
1626062629.0456386,22.461,-19.043,-37.598,203.613,1.0
1626062629.049545,-57.129,-13.672,-33.691,-210.938,1.0
1626062629.053451,-76.66,-12.695,-44.434,-305.176,1.0
1626062629.057357,-3.418,-26.855,-60.059,87.891,1.0
1626062629.0612638,41.504,-39.062,-41.016000000000005,280.27299999999997,1.0
1626062629.0651696,-24.901999999999997,-53.711000000000006,-23.926,-65.43,1.0
1626062629.0690758,-97.16799999999999,-45.41,-33.203,-342.773,1.0
1626062629.072982,-45.41,-17.578,-25.879,-43.945,1.0
1626062629.0768883,27.344,-16.602,-11.23,288.086,1.0
1626062629.080795,40.039,-40.039,-43.457,286.133,1.0
1626062629.084701,-25.391,-24.414,-40.039,-42.968999999999994,1.0
1626062629.0886073,-91.309,-15.625,-25.391,-340.332,1.0
1626062629.0925136,-34.18,-12.695,-18.066,-59.57,1.0
1626062629.0964196,50.293,-27.344,-18.066,303.711,1.0
1626062629.100326,11.23,-37.598,-20.508000000000003,92.773,1.0
1626062629.1042323,-78.613,-43.945,-24.901999999999997,-308.105,1.0
1626062629.1081383,-59.082,-28.809,-25.391,-180.176,1.0
1626062629.1120448,28.32,-22.949,-20.02,240.234,1.0
1626062629.115951,24.414,-29.296999999999997,-17.578,196.77700000000002,1.0
1626062629.1198573,-66.406,-20.508000000000003,-36.133,-233.887,1.0
1626062629.1237636,-88.37899999999999,-13.184000000000001,-37.109,-279.297,1.0
1626062629.1276698,-61.035,-70.312,-36.133,-210.938,1.0
1626062629.131576,15.625,-49.316,-38.574,205.078,1.0
1626062629.1354823,22.461,-16.113,-27.831999999999997,208.984,1.0
1626062629.1393886,-71.777,-25.879,-33.203,-211.426,1.0
1626062629.1432948,-96.191,-25.391,-29.785,-309.57,1.0
1626062629.147201,-16.113,-10.254000000000001,-16.602,94.727,1.0
1626062629.1511073,14.648,-13.184000000000001,-26.855,262.695,1.0
1626062629.1550138,-43.945,-47.852,-38.086,-106.445,1.0
1626062629.1589198,-89.355,-73.73,-44.434,-340.332,1.0
1626062629.162826,-26.855,-39.062,-27.344,-7.324,1.0
1626062629.1667323,35.156,-20.02,-8.301,298.828,1.0
1626062629.1706386,-21.973000000000003,-27.831999999999997,-15.137,21.484,1.0
1626062629.1745448,-22.461,-23.926,-39.551,1.0,1.0
1626062629.178451,-79.102,-30.273000000000003,-49.805,1.0,1.0
1626062629.182357,-25.391,-33.203,-61.035,1.0,1.0
1626062629.1862638,37.598,-43.945,-68.848,1.0,1.0
1626062629.1901696,-13.672,-55.663999999999994,-49.805,1.0,1.0
1626062629.1940763,-89.844,-38.574,-19.531,1.0,1.0
1626062629.197982,-70.801,-16.113,-5.859,1.0,1.0
1626062629.2018883,9.277000000000001,-7.812,-9.277000000000001,1.0,1.0
1626062629.205795,6.836,-29.296999999999997,-21.484,1.0,1.0
1626062629.209701,-84.961,-50.293,-30.273000000000003,1.0,1.0
1626062629.213607,-103.516,-37.598,-27.831999999999997,1.0,1.0
1626062629.2175136,-20.508000000000003,-36.133,-20.02,1.0,1.0
1626062629.2214196,34.18,-34.18,-20.508000000000003,225.58599999999998,1.0
1626062629.225326,15.625,-41.992,-30.273000000000003,-169.922,1.0
1626062629.2292323,-60.059,-43.945,-34.18,-341.309,1.0
1626062629.2331386,-74.219,-24.414,-42.968999999999994,37.109,1.0
1626062629.2370448,-4.395,-11.719000000000001,-41.992,293.945,1.0
1626062629.240951,32.715,-6.836,-25.391,-28.32,1.0
1626062629.2448573,-43.457,-35.156,-25.391,-334.961,1.0
1626062629.2487636,-108.887,-62.5,-29.296999999999997,-86.914,1.0
1626062629.2526696,-51.27,-52.246,-22.949,269.531,1.0
1626062629.256576,12.207,-35.156,-26.366999999999997,80.078,1.0
1626062629.2604823,-36.621,-30.761999999999997,-45.41,-325.684,1.0
1626062629.2643886,-110.352,-41.504,-50.781000000000006,-193.359,1.0
1626062629.2682948,-89.355,-34.668,-43.457,-352.539,1.0
1626062629.272201,-37.109,-29.296999999999997,-31.738000000000003,-33.203,1.0
1626062629.2761073,31.25,-27.344,-22.461,278.809,1.0
1626062629.2800136,-6.348,-37.109,-22.949,27.344,1.0
1626062629.2839198,-89.355,-22.949,-39.062,-348.63300000000004,1.0
1626062629.287826,-68.359,-10.254000000000001,-47.363,-175.293,1.0
1626062629.2917323,18.066,-17.09,-27.344,235.84,1.0
1626062629.2956386,7.812,-36.621,-35.156,134.27700000000002,1.0
1626062629.299545,-90.33200000000001,-40.527,-60.059,-297.85200000000003,1.0
1626062629.303451,-104.00399999999999,-32.715,-37.598,-285.645,1.0
1626062629.307357,-8.301,-33.203,-10.254000000000001,146.97299999999998,1.0
1626062629.3112638,10.254000000000001,-47.852,-15.137,216.30900000000003,1.0
1626062629.3151696,5.371,-12.695,-17.09,1.0,1.0
1626062629.3190758,-69.824,-57.129,-28.32,1.0,1.0
1626062629.322982,-86.914,-70.312,-29.296999999999997,1.0,1.0
1626062629.3268883,-10.254000000000001,-29.296999999999997,-39.551,1.0,1.0
1626062629.330795,23.438000000000002,-0.488,-51.27,1.0,1.0
1626062629.334701,-53.223,-9.277000000000001,-39.551,1.0,1.0
1626062629.3386073,-97.16799999999999,-7.324,-22.949,1.0,1.0
1626062629.3425136,-28.809,-26.366999999999997,-22.461,1.0,1.0
1626062629.3464196,28.32,-33.203,-29.296999999999997,1.0,1.0
1626062629.350326,-32.715,-17.09,-42.968999999999994,1.0,1.0
1626062629.3542323,-110.352,-20.996,-48.828,1.0,1.0
1626062629.3581383,-64.941,-18.555,-42.48,1.0,1.0
1626062629.3620448,-36.621,-42.968999999999994,-38.574,-28.32,1.0
1626062629.365951,36.133,-52.733999999999995,-24.414,276.855,1.0
1626062629.3698573,-3.906,-45.898,-31.738000000000003,20.02,1.0
1626062629.3737636,-85.93799999999999,-33.203,-56.641000000000005,-342.285,1.0
1626062629.3776698,-55.663999999999994,-24.414,-49.316,-133.789,1.0
1626062629.381576,18.555,-25.879,-22.949,263.184,1.0
1626062629.3854823,-0.488,-28.809,-19.531,122.559,1.0
1626062629.3893886,-90.82,-36.133,-27.831999999999997,-303.711,1.0
1626062629.3932948,-99.12100000000001,-35.156,-35.645,-256.348,1.0
1626062629.397201,-24.414,-31.738000000000003,-35.156,167.48,1.0
1626062629.4011073,-3.418,-46.387,-25.879,206.543,1.0
1626062629.4050138,-48.34,-37.109,-25.391,-183.105,1.0
1626062629.4089198,-70.801,-26.366999999999997,-23.926,-271.973,1.0
1626062629.412826,-70.312,-22.461,-25.879,-259.277,1.0
1626062629.4167323,25.879,-25.391,-31.738000000000003,174.805,1.0
1626062629.4206386,38.086,-32.227,-36.133,242.676,1.0
1626062629.4245448,-50.293,-25.879,-31.25,-174.31599999999997,1.0
1626062629.428451,-93.262,-11.719000000000001,-29.296999999999997,-339.844,1.0
1626062629.432357,-32.715,-15.137,-38.574,25.391,1.0
1626062629.4362638,18.066,-22.461,-57.129,260.254,1.0
1626062629.4401696,-28.809,-36.133,-63.965,-55.176,1.0
1626062629.4440763,-89.355,-48.34,-44.434,-359.375,1.0
1626062629.447982,-48.828,-42.48,-26.855,-97.16799999999999,1.0
1626062629.4518883,29.296999999999997,-35.645,-14.648,262.695,1.0
1626062629.455795,45.898,-40.527,-32.227,77.148,1.0
1626062629.459701,-14.16,-38.086,-36.133,-326.66,1.0
1626062629.463607,-85.449,-40.527,-37.598,-210.449,1.0
1626062629.4675136,-48.828,-35.156,-35.156,216.797,1.0
1626062629.4714196,30.273000000000003,-25.391,-28.809,178.22299999999998,1.0
1626062629.475326,15.137,0.0,-21.484,-241.21099999999998,1.0
1626062629.4792323,-72.266,-6.348,-23.926,-282.715,1.0
1626062629.4831386,-78.613,-24.901999999999997,-35.156,134.766,1.0
1626062629.4870448,10.254000000000001,-10.254000000000001,-17.578,249.023,1.0
1626062629.490951,24.901999999999997,-18.555,-9.766,-139.648,1.0
1626062629.4948573,-61.035,-37.109,-26.855,-329.102,1.0
1626062629.4987636,-78.125,-38.086,-28.809,23.926,1.0
1626062629.5026696,-4.883,-14.648,-31.738000000000003,-336.914,1.0
1626062629.506576,-84.961,-30.761999999999997,-39.062,-177.734,1.0
1626062629.5104823,-48.34,-25.391,-27.831999999999997,244.62900000000002,1.0
1626062629.5143886,19.043,-19.531,-15.137,166.016,1.0
1626062629.5182948,-2.441,-40.039,-9.277000000000001,-256.348,1.0
1626062629.522201,-74.707,-48.34,-20.508000000000003,-264.64799999999997,1.0
1626062629.5261073,-76.172,-40.039,-39.062,145.02,1.0
1626062629.5300136,-1.953,-24.414,-44.922,245.605,1.0
1626062629.5339198,4.883,-17.09,-46.875,-148.92600000000002,1.0
1626062629.537826,-71.777,-39.551,-42.968999999999994,-336.426,1.0
1626062629.5417323,-96.68,-63.965,-35.156,28.32,1.0
1626062629.5456386,-15.137,-36.133,-21.973000000000003,303.223,1.0
1626062629.549545,0.488,-40.527,-37.109,174.31599999999997,1.0
1626062629.553451,30.273000000000003,-37.109,-20.02,210.449,1.0
1626062629.557357,-63.477,-34.18,-26.855,-212.891,1.0
1626062629.5612638,-106.934,-43.945,-23.438000000000002,-325.684,1.0
1626062629.5651696,-31.25,-33.203,-12.695,76.172,1.0
1626062629.5690758,18.555,-13.672,-34.668,271.48400000000004,1.0
1626062629.572982,-32.227,-18.066,-36.133,-84.473,1.0
1626062629.5768883,-94.727,-29.296999999999997,-31.25,-355.957,1.0
1626062629.580795,-54.688,-31.738000000000003,-34.18,-53.711000000000006,1.0
1626062629.584701,20.508000000000003,-28.809,-28.32,280.27299999999997,1.0
1626062629.5886073,-9.277000000000001,-32.715,-23.926,45.41,1.0
1626062629.5925136,-86.914,-40.039,-32.227,-335.449,1.0
1626062629.5964196,-90.33200000000001,-34.668,-37.109,-343.75,1.0
1626062629.600326,-37.598,-28.809,-19.531,-69.336,1.0
1626062629.6042323,31.738000000000003,-25.879,-7.812,278.809,1.0
1626062629.6081383,6.348,-12.207,2.93,88.867,1.0
1626062629.6120448,-80.078,-21.484,-15.137,-313.47700000000003,1.0
1626062629.615951,-76.66,-20.02,-40.527,-199.707,1.0
1626062629.6198573,4.883,-12.207,-38.086,212.891,1.0
1626062629.6237636,-1.953,-15.625,-39.062,158.203,1.0
1626062629.6276698,-92.773,-50.293,-45.898,-262.207,1.0
1626062629.631576,-96.68,-68.848,-41.016000000000005,-286.133,1.0
1626062629.6354823,4.883,-32.715,-28.32,148.438,1.0
1626062629.6393886,27.831999999999997,-24.414,-29.296999999999997,259.277,1.0
1626062629.6432948,23.926,-49.316,-15.625,-149.90200000000002,1.0
1626062629.647201,-63.477,-42.48,-41.992,-348.63300000000004,1.0
1626062629.6511073,-80.566,-21.484,-45.898,11.719000000000001,1.0
1626062629.6550138,2.441,-11.23,-30.273000000000003,279.297,1.0
1626062629.6589198,26.366999999999997,-22.461,-14.648,-24.901999999999997,1.0
1626062629.662826,-50.781000000000006,-30.273000000000003,-22.461,-347.168,1.0
1626062629.6667323,-93.262,-31.25,-25.391,-105.95700000000001,1.0
1626062629.6706386,-28.809,-39.062,-29.296999999999997,260.742,1.0
1626062629.6745448,42.968999999999994,-41.016000000000005,-30.761999999999997,86.914,1.0
1626062629.678451,-12.207,-43.457,-38.574,-312.5,1.0
1626062629.682357,-91.79700000000001,-28.809,-42.968999999999994,-208.49599999999998,1.0
1626062629.6862638,-53.223,-7.812,-22.949,227.53900000000002,1.0
1626062629.6901696,-37.598,-9.766,-49.805,-41.504,1.0
1626062629.6940763,28.809,-18.066,-15.137,285.645,1.0
1626062629.697982,8.789,-17.09,-11.719000000000001,70.801,1.0
1626062629.7018883,-66.895,-33.203,-16.602,-318.35900000000004,1.0
1626062629.705795,-57.129,-46.387,-17.09,-157.227,1.0
1626062629.709701,30.761999999999997,-30.273000000000003,-16.113,273.438,1.0
1626062629.713607,34.18,-24.414,-27.344,174.805,1.0
1626062629.7175136,-49.316,-32.227,-42.48,-249.512,1.0
1626062629.7214196,-71.289,-36.133,-31.25,-250.0,1.0
1626062629.725326,14.16,-31.25,-11.23,178.22299999999998,1.0
1626062629.7292323,45.898,-20.508000000000003,-12.695,263.672,1.0
1626062629.7331386,-33.691,-23.438000000000002,-33.203,-146.484,1.0
1626062629.7370448,-67.383,-51.27,-76.66,-236.81599999999997,1.0
1626062629.740951,-85.449,-18.066,-66.406,-285.156,1.0
1626062629.7448573,-13.184000000000001,-8.789,-36.621,122.559,1.0
1626062629.7487636,17.578,-15.137,-31.25,247.55900000000003,1.0
1626062629.7526696,-50.293,-6.348,-32.227,-144.531,1.0
1626062629.756576,-90.82,-11.719000000000001,-27.831999999999997,-342.773,1.0
1626062629.7604823,-29.785,-4.395,-14.648,11.23,1.0
1626062629.7643886,25.879,0.488,-15.625,284.18,1.0
1626062629.7682948,-22.461,-17.578,-21.973000000000003,-2.441,1.0
1626062629.772201,-83.984,-32.715,-30.761999999999997,-333.98400000000004,1.0
1626062629.7761073,-39.551,-22.461,-32.715,-113.281,1.0
1626062629.7800136,31.738000000000003,-5.859,-22.461,265.625,1.0
1626062629.7839198,31.738000000000003,-45.898,-27.831999999999997,1.0,1.0
1626062629.787826,2.441,-33.691,-24.414,1.0,1.0
1626062629.7917323,-65.918,-18.555,-13.184000000000001,1.0,1.0
1626062629.7956386,-55.663999999999994,-18.555,-15.625,1.0,1.0
1626062629.799545,21.484,-10.254000000000001,-26.855,1.0,1.0
1626062629.803451,12.207,-5.859,-23.926,1.0,1.0
1626062629.807357,-71.777,-27.831999999999997,-10.742,1.0,1.0
1626062629.8112638,-65.918,-35.645,-4.395,1.0,1.0
1626062629.8151696,19.531,-26.366999999999997,-18.555,1.0,1.0
1626062629.8190758,32.227,-33.691,-24.414,1.0,1.0
1626062629.822982,-50.293,-41.016000000000005,-26.855,1.0,1.0
1626062629.8268883,-94.727,-43.457,-36.621,1.0,1.0
1626062629.830795,-73.73,-66.895,-31.738000000000003,-270.508,1.0
1626062629.834701,3.906,-42.48,-27.344,148.92600000000002,1.0
1626062629.8386073,24.901999999999997,-2.441,-39.551,259.76599999999996,1.0
1626062629.8425136,-52.733999999999995,-14.16,-52.246,-140.625,1.0
1626062629.8464196,-102.539,-41.504,-53.223,-340.332,1.0
1626062629.850326,-36.133,-32.715,-40.039,23.926,1.0
1626062629.8542323,20.02,-28.809,-38.086,278.809,1.0
1626062629.8581383,-28.32,-29.785,-33.203,-34.668,1.0
1626062629.8620448,-93.75,-27.344,-27.831999999999997,-355.469,1.0
1626062629.865951,-57.617,-35.156,-40.527,-112.79299999999999,1.0
1626062629.8698573,20.02,-49.805,-49.316,260.254,1.0
1626062629.8737636,-0.488,-45.898,-48.34,93.262,1.0
1626062629.8776698,4.883,-47.363,-9.766,31.738000000000003,1.0
1626062629.881576,-74.219,-5.371,-4.883,-314.941,1.0
1626062629.8854823,-64.941,-2.441,-19.531,-122.07,1.0
1626062629.8893886,8.789,-13.672,-38.574,265.137,1.0
1626062629.8932948,0.0,-25.391,-44.434,127.93,1.0
1626062629.897201,-81.055,-45.41,-30.273000000000003,-285.156,1.0
1626062629.9011073,-76.172,-43.457,-26.855,-230.957,1.0
1626062629.9050138,7.324,-26.366999999999997,-43.945,184.57,1.0
1626062629.9089198,19.043,-33.691,-44.434,209.47299999999998,1.0
1626062629.912826,-56.152,-24.414,-43.945,-204.102,1.0
1626062629.9167323,-73.73,-24.414,-39.062,-309.57,1.0
1626062629.9206386,2.441,-41.504,-26.366999999999997,84.961,1.0
1626062629.9245448,-78.613,-40.527,-35.156,-323.73,1.0
1626062629.928451,-50.293,-41.504,-28.32,-113.281,1.0
1626062629.932357,30.761999999999997,-46.875,-18.066,265.137,1.0
1626062629.9362638,14.16,-56.152,-30.761999999999997,109.863,1.0
1626062629.9401696,-64.941,-39.551,-53.711000000000006,-269.531,1.0
1626062629.9440763,-59.57,-16.113,-50.293,-174.31599999999997,1.0
1626062629.947982,10.254000000000001,-7.812,-33.691,204.102,1.0
1626062629.9518883,29.296999999999997,-17.578,-14.16,215.332,1.0
1626062629.955795,-42.48,-37.109,-12.207,-195.801,1.0
1626062629.959701,-89.844,-44.922,-24.414,-297.363,1.0
1626062629.963607,-28.32,-43.457,-27.831999999999997,97.16799999999999,1.0
1626062629.9675136,8.301,-31.738000000000003,-34.18,266.60200000000003,1.0
1626062629.9714196,19.043,-47.852,-20.508000000000003,-109.375,1.0
1626062629.975326,-60.059,-18.555,-29.296999999999997,-346.68,1.0
1626062629.9792323,-98.633,-16.113,-29.296999999999997,1.465,1.0
1626062629.9831386,-11.23,-29.785,-33.203,310.059,1.0
1626062629.9870448,27.344,-37.598,-37.109,29.296999999999997,1.0
1626062629.990951,-38.086,-23.926,-21.973000000000003,-328.125,1.0
1626062629.9948573,-82.52,-16.113,-13.672,-136.23,1.0
1626062629.9987636,-48.34,-40.039,-17.578,233.887,1.0
1626062630.0026696,18.066,-56.152,-12.695,113.281,1.0
1626062630.006576,-17.09,-32.227,-21.973000000000003,-288.086,1.0
1626062630.0104823,-79.102,-11.23,-38.574,-256.836,1.0
1626062630.0143886,-40.039,-7.812,-24.414,170.898,1.0
1626062630.0182948,-45.898,-20.996,-46.875,-342.285,1.0
1626062630.022201,-70.801,-39.062,-47.363,2.93,1.0
1626062630.0261073,-4.883,-40.527,-29.785,293.945,1.0
1626062630.0300136,30.273000000000003,-31.25,-11.719000000000001,5.859,1.0
1626062630.0339198,-52.246,-42.48,-14.648,-342.773,1.0
1626062630.037826,-105.469,-32.227,-26.366999999999997,-125.488,1.0
1626062630.0417323,-43.457,-12.695,-45.41,270.508,1.0
1626062630.0456386,29.296999999999997,-17.09,-27.831999999999997,134.27700000000002,1.0
1626062630.049545,-7.812,-48.828,-11.23,-279.785,1.0
1626062630.053451,-98.145,-53.711000000000006,-22.949,-219.238,1.0
1626062630.057357,-70.801,-27.831999999999997,-28.32,187.988,1.0
1626062630.0612638,22.949,-18.555,-22.949,207.52,1.0
1626062630.0651696,17.09,-23.438000000000002,-13.184000000000001,148.438,1.0
1626062630.0690758,-4.395,-24.901999999999997,-20.996,-281.25,1.0
1626062630.072982,-95.215,-57.617,-32.227,-262.207,1.0
1626062630.0768883,-84.961,-59.082,-32.227,173.34,1.0
1626062630.080795,2.93,-41.016000000000005,-26.366999999999997,239.25799999999998,1.0
1626062630.084701,15.625,-17.578,-16.602,-171.875,1.0
1626062630.0886073,-76.172,-19.531,-32.715,-323.73,1.0
1626062630.0925136,-111.816,-37.109,-50.781000000000006,62.012,1.0
1626062630.0964196,-23.926,-47.852,-39.062,283.691,1.0
1626062630.100326,28.809,-42.48,-20.02,-54.199,1.0
1626062630.1042323,-48.34,-26.366999999999997,-20.02,-351.56199999999995,1.0
1626062630.1081383,-109.375,-20.996,-39.062,-83.49600000000001,1.0
1626062630.1120448,-5.859,-2.93,-43.945,-285.645,1.0
1626062630.115951,-77.148,-16.602,-34.668,-240.72299999999998,1.0
1626062630.1198573,-58.105,-28.32,-26.366999999999997,186.523,1.0
1626062630.1237636,19.043,-20.996,-25.879,218.262,1.0
1626062630.1276698,7.812,-27.344,-33.203,-201.66,1.0
1626062630.131576,-69.336,-50.293,-20.02,-321.777,1.0
1626062630.1354823,-78.125,-53.711000000000006,-1.465,71.289,1.0
1626062630.1393886,-2.441,-48.828,-3.418,266.113,1.0
1626062630.1432948,27.831999999999997,-40.527,-21.484,-86.914,1.0
1626062630.147201,-47.363,-18.066,-31.738000000000003,-354.49199999999996,1.0
1626062630.1511073,-94.238,-10.254000000000001,-32.227,-62.5,1.0
1626062630.1550138,-27.831999999999997,-12.207,-39.062,267.578,1.0
1626062630.1589198,5.371,-13.672,-17.09,133.30100000000002,1.0
1626062630.162826,36.621,-13.184000000000001,-32.227,260.254,1.0
1626062630.1667323,-39.551,-40.039,-41.992,-131.836,1.0
1626062630.1706386,-87.402,-63.965,-33.691,-336.426,1.0
1626062630.1745448,-29.296999999999997,-48.828,-23.926,4.883,1.0
1626062630.178451,19.043,-20.996,-21.484,279.297,1.0
1626062630.182357,-40.039,-27.344,-37.598,-13.184000000000001,1.0
1626062630.1862638,-108.887,-38.574,-46.875,-349.60900000000004,1.0
1626062630.1901696,-64.941,-57.617,-35.645,-114.258,1.0
1626062630.1940763,17.09,-62.012,-31.25,266.113,1.0
1626062630.197982,-1.465,-35.645,-40.527,114.258,1.0
1626062630.2018883,-91.309,-20.996,-39.551,-302.73400000000004,1.0
1626062630.205795,-42.968999999999994,-21.484,-55.663999999999994,-90.82,1.0
1626062630.209701,-93.75,-17.09,-32.227,-368.164,1.0
1626062630.213607,-34.668,-29.785,-13.184000000000001,-70.801,1.0
1626062630.2175136,29.785,-25.391,-20.02,266.60200000000003,1.0
1626062630.2214196,-10.254000000000001,-30.273000000000003,-41.992,45.41,1.0
1626062630.225326,-86.426,-58.105,-46.875,-332.52,1.0
1626062630.2292323,-69.336,-50.293,-31.25,-195.312,1.0
1626062630.2331386,9.277000000000001,-26.366999999999997,-22.461,209.47299999999998,1.0
1626062630.2370448,2.441,-28.32,-32.227,147.461,1.0
1626062630.240951,-83.008,-25.391,-40.039,-281.738,1.0
1626062630.2448573,-97.16799999999999,-30.273000000000003,-33.691,-304.688,1.0
1626062630.2487636,-0.977,-30.273000000000003,-33.691,130.371,1.0
1626062630.2526696,39.062,-29.785,-21.484,1.0,1.0
1626062630.256576,-43.457,-46.875,-17.578,1.0,1.0
1626062630.2604823,-94.727,-45.41,-33.203,1.0,1.0
1626062630.2643886,-29.296999999999997,-18.066,-36.621,1.0,1.0
1626062630.2682948,39.551,9.277000000000001,-25.391,1.0,1.0
1626062630.272201,-37.109,-27.831999999999997,-29.785,1.0,1.0
1626062630.2761073,-101.074,-60.547,-37.598,1.0,1.0
1626062630.2800136,-6.348,-38.086,-23.438000000000002,1.0,1.0
1626062630.2839198,39.062,-35.156,-19.043,1.0,1.0
1626062630.287826,-48.34,-36.621,-27.831999999999997,1.0,1.0
1626062630.2917323,-91.309,-13.672,-22.461,1.0,1.0
1626062630.2956386,-10.742,-10.742,-12.695,1.0,1.0
1626062630.299545,-21.484,-6.348,-30.273000000000003,88.867,1.0
1626062630.303451,29.785,-15.137,-13.184000000000001,270.508,1.0
1626062630.307357,-31.738000000000003,-27.344,-19.531,-85.449,1.0
1626062630.3112638,-97.16799999999999,-39.062,-30.273000000000003,-338.379,1.0
1626062630.3151696,-41.504,-35.645,-29.785,-20.508000000000003,1.0
1626062630.3190758,35.645,-36.621,-16.602,294.434,1.0
1626062630.322982,-11.719000000000001,-51.758,-26.366999999999997,29.296999999999997,1.0
1626062630.3268883,-76.172,-41.504,-51.758,-319.824,1.0
1626062630.330795,-42.48,-21.484,-44.434,-131.34799999999998,1.0
1626062630.334701,29.296999999999997,-3.906,-31.738000000000003,251.953,1.0
1626062630.3386073,15.137,-8.301,-18.066,140.137,1.0
1626062630.3425136,-60.547,-27.344,-6.348,-270.508,1.0
1626062630.3464196,-85.449,-59.082,-23.926,-317.871,1.0
1626062630.350326,-68.359,-62.012,-19.531,-174.31599999999997,1.0
1626062630.3542323,17.578,-41.016000000000005,-21.484,252.93,1.0
1626062630.3581383,5.371,-45.898,-37.598,174.31599999999997,1.0
1626062630.3620448,-74.219,-44.922,-45.898,-267.09,1.0
1626062630.365951,-36.133,-33.691,-22.461,-92.285,1.0
1626062630.3698573,42.968999999999994,-22.461,-16.602,306.152,1.0
1626062630.3737636,-0.488,-9.766,-28.809,82.52,1.0
1626062630.3776698,-84.473,-19.531,-22.949,-312.5,1.0
1626062630.381576,-70.312,-20.02,-20.02,-198.73,1.0
1626062630.3854823,16.602,-16.602,-16.602,224.609,1.0
1626062630.3893886,20.02,-30.761999999999997,-25.879,186.523,1.0
1626062630.3932948,-3.906,-28.809,-31.738000000000003,-243.16400000000002,1.0
1626062630.397201,-99.12100000000001,-18.066,-24.901999999999997,-288.574,1.0
1626062630.4011073,-81.543,-5.859,-11.23,133.30100000000002,1.0
1626062630.4050138,8.789,-5.371,-10.254000000000001,259.76599999999996,1.0
1626062630.4089198,-4.883,-38.086,-36.133,-136.719,1.0
1626062630.412826,-95.215,-51.758,-57.129,-341.309,1.0
1626062630.4167323,-111.32799999999999,-35.156,-51.27,16.113,1.0
1626062630.4206386,-30.761999999999997,-44.434,-44.922,279.785,1.0
1626062630.4245448,25.879,-42.968999999999994,-34.18,-29.785,1.0
1626062630.428451,-32.227,-30.273000000000003,-24.414,-356.934,1.0
1626062630.432357,-105.469,-43.945,-30.273000000000003,-116.699,1.0
1626062630.4362638,-67.87100000000001,-43.945,-29.296999999999997,267.578,1.0
1626062630.4401696,-41.016000000000005,-27.344,-62.012,39.062,1.0
1626062630.4440763,25.879,-24.901999999999997,-63.965,267.09,1.0
1626062630.447982,-16.602,-34.18,-43.457,-61.523,1.0
1626062630.4518883,-86.426,-37.109,-32.227,-352.051,1.0
1626062630.455795,-32.715,-27.344,-19.531,-51.27,1.0
1626062630.459701,37.109,-38.086,-18.066,289.062,1.0
1626062630.463607,-0.977,-31.25,-18.066,61.523,1.0
1626062630.4675136,-74.707,-28.32,-21.973000000000003,-315.918,1.0
1626062630.4714196,-61.035,-38.086,-29.296999999999997,-171.875,1.0
1626062630.475326,19.043,-25.879,-33.203,233.398,1.0
1626062630.4792323,13.672,-12.207,-50.781000000000006,159.668,1.0
1626062630.4831386,-76.172,-24.414,-60.059,-266.113,1.0
1626062630.4870448,-88.37899999999999,-28.809,-25.879,1.0,1.0
1626062630.490951,-59.082,-42.968999999999994,-13.184000000000001,1.0,1.0
1626062630.4948573,17.578,-57.129,-24.414,1.0,1.0
1626062630.4987636,2.441,-55.176,-58.105,1.0,1.0
1626062630.5026696,-82.031,-35.645,-57.129,1.0,1.0
1626062630.506576,-99.609,-12.695,-41.016000000000005,1.0,1.0
1626062630.5104823,-16.602,-26.366999999999997,-24.414,1.0,1.0
1626062630.5143886,9.766,-54.199,-27.831999999999997,1.0,1.0
1626062630.5182948,-55.663999999999994,-50.781000000000006,-28.809,1.0,1.0
1626062630.522201,-94.727,-29.785,-29.296999999999997,1.0,1.0
1626062630.5261073,-44.434,-19.043,-41.016000000000005,1.0,1.0
1626062630.5300136,30.273000000000003,-20.508000000000003,-25.879,1.0,1.0
1626062630.5339198,47.363,-16.602,-25.879,291.992,1.0
1626062630.537826,-27.831999999999997,2.441,-36.133,-74.219,1.0
1626062630.5417323,-85.93799999999999,0.0,-26.366999999999997,-338.86699999999996,1.0
1626062630.5456386,-26.855,-22.949,-19.043,-25.879,1.0
1626062630.549545,38.574,-43.457,-18.555,279.297,1.0
1626062630.553451,-10.742,-34.18,-32.715,24.901999999999997,1.0
1626062630.557357,-78.613,-36.621,-42.968999999999994,-324.219,1.0
1626062630.5612638,-59.57,-36.621,-33.203,-161.13299999999998,1.0
1626062630.5651696,12.207,-9.766,-17.578,241.699,1.0
1626062630.5690758,3.906,-3.906,-10.254000000000001,147.461,1.0
1626062630.572982,-66.406,-6.836,-12.695,-265.137,1.0
1626062630.5768883,-71.777,-17.09,-25.391,-255.37099999999998,1.0
1626062630.580795,-62.5,-20.02,-19.043,-183.59400000000002,1.0
1626062630.584701,20.02,-30.273000000000003,-24.901999999999997,226.562,1.0
1626062630.5886073,19.043,-37.598,-29.785,179.199,1.0
1626062630.5925136,-65.918,-40.039,-31.25,-235.352,1.0
1626062630.5964196,-89.844,-41.504,-32.715,-270.02,1.0
1626062630.600326,-11.23,-36.621,-21.973000000000003,145.996,1.0
1626062630.6042323,19.043,-34.18,-22.461,258.301,1.0
1626062630.6081383,-58.105,-34.668,-27.344,-137.695,1.0
1626062630.6120448,-93.75,-35.645,-21.973000000000003,-331.543,1.0
1626062630.615951,-24.414,-34.18,-22.949,20.996,1.0
1626062630.6198573,28.809,-26.366999999999997,-21.973000000000003,287.10900000000004,1.0
1626062630.6237636,-18.555,-33.691,-20.02,-2.93,1.0
1626062630.6276698,-36.133,-40.039,-27.831999999999997,1.0,1.0
1626062630.631576,-91.309,-33.203,-34.18,1.0,1.0
1626062630.6354823,-42.968999999999994,-24.414,-25.879,1.0,1.0
1626062630.6393886,13.184000000000001,-27.831999999999997,-34.18,1.0,1.0
1626062630.6432948,-29.296999999999997,-34.18,-60.547,1.0,1.0
1626062630.647201,-95.70299999999999,-52.733999999999995,-51.27,1.0,1.0
1626062630.6511073,-62.012,-61.035,-27.344,1.0,1.0
1626062630.6550138,21.973000000000003,-50.293,-13.672,1.0,1.0
1626062630.6589198,7.812,-36.133,-11.23,1.0,1.0
1626062630.662826,-88.37899999999999,-27.831999999999997,-23.438000000000002,1.0,1.0
1626062630.6667323,-91.79700000000001,-30.273000000000003,-24.901999999999997,1.0,1.0
1626062630.6706386,0.977,-25.391,-23.438000000000002,1.0,1.0
1626062630.6745448,15.625,-24.414,-22.461,246.09400000000002,1.0
1626062630.678451,7.324,-27.831999999999997,-43.945,165.03900000000002,1.0
1626062630.682357,-86.914,-37.109,-32.715,-256.348,1.0
1626062630.6862638,-100.586,-44.434,-21.973000000000003,-274.414,1.0
1626062630.6901696,-11.23,-29.785,-17.09,149.414,1.0
1626062630.6940763,34.18,-11.719000000000001,-12.695,263.184,1.0
1626062630.697982,-38.574,-37.109,-26.855,-141.602,1.0
1626062630.7018883,-98.145,-54.199,-34.18,-327.637,1.0
1626062630.705795,-31.25,-58.593999999999994,-30.273000000000003,44.922,1.0
1626062630.709701,25.391,-55.663999999999994,-22.949,292.48,1.0
1626062630.713607,-32.715,-43.945,-21.484,-29.296999999999997,1.0
1626062630.7175136,-108.398,-44.434,-31.738000000000003,-354.49199999999996,1.0
1626062630.7214196,-95.70299999999999,-51.758,-33.691,-352.051,1.0
1626062630.725326,-29.785,-33.691,-30.273000000000003,2.93,1.0
1626062630.7292323,41.992,-28.32,-21.484,297.85200000000003,1.0
1626062630.7331386,-19.531,-39.062,-47.363,-7.812,1.0
1626062630.7370448,-93.262,-36.621,-70.801,-358.398,1.0
1626062630.740951,-49.316,-33.203,-36.133,-120.605,1.0
1626062630.7448573,15.137,-20.02,-30.273000000000003,256.836,1.0
1626062630.7487636,-5.859,-26.366999999999997,-58.105,103.027,1.0
1626062630.7526696,-74.219,-43.945,-41.016000000000005,-296.387,1.0
1626062630.756576,-73.73,-33.691,-21.484,-226.074,1.0
1626062630.7604823,-8.789,-32.715,-38.574,189.453,1.0
1626062630.7643886,13.184000000000001,-23.438000000000002,-26.366999999999997,210.449,1.0
1626062630.7682948,20.996,-13.672,-37.598,144.043,1.0
1626062630.772201,-62.988,-31.25,-41.992,-284.668,1.0
1626062630.7761073,-68.359,-32.715,-40.039,-266.113,1.0
1626062630.7800136,9.277000000000001,-41.992,-45.41,167.96900000000002,1.0
1626062630.7839198,27.831999999999997,-26.366999999999997,-40.527,202.637,1.0
1626062630.787826,-40.039,-0.488,-19.531,-212.40200000000002,1.0
1626062630.7917323,-73.242,-13.672,-9.766,-308.594,1.0
1626062630.7956386,-13.184000000000001,-14.16,-13.184000000000001,67.383,1.0
1626062630.799545,33.691,-12.695,-15.625,282.715,1.0
1626062630.803451,-29.296999999999997,-39.551,-22.461,-60.059,1.0
1626062630.807357,-93.75,-36.621,-30.761999999999997,-357.42199999999997,1.0
1626062630.8112638,-44.434,-19.043,-37.598,-74.219,1.0
1626062630.8151696,-5.371,-24.414,-25.879,37.598,1.0
1626062630.8190758,48.828,-28.809,-30.273000000000003,290.039,1.0
1626062630.822982,-20.508000000000003,-39.062,-47.852,-24.901999999999997,1.0
1626062630.8268883,-95.70299999999999,-36.621,-46.875,-345.70300000000003,1.0
1626062630.830795,-47.363,-35.645,-23.926,-96.191,1.0
1626062630.834701,34.18,-26.855,-20.996,280.27299999999997,1.0
1626062630.8386073,8.789,-20.508000000000003,-29.785,107.91,1.0
1626062630.8425136,-71.289,-31.25,-39.062,-290.039,1.0
1626062630.8464196,-65.918,-34.18,-59.082,-204.102,1.0
1626062630.850326,11.23,-32.715,-56.641000000000005,201.66,1.0
1626062630.8542323,12.207,-31.738000000000003,-40.039,181.641,1.0
1626062630.8581383,-72.75399999999999,-30.273000000000003,-32.227,-239.25799999999998,1.0
1626062630.8620448,-84.473,-40.039,-18.555,1.0,1.0
1626062630.865951,-79.102,-35.156,-16.602,1.0,1.0
1626062630.8698573,7.324,-19.531,-16.113,1.0,1.0
1626062630.8737636,20.508000000000003,-19.043,-32.227,1.0,1.0
1626062630.8776698,-56.641000000000005,-18.066,-42.48,1.0,1.0
1626062630.881576,-79.102,-23.438000000000002,-30.273000000000003,1.0,1.0
1626062630.8854823,2.93,-27.831999999999997,-12.695,1.0,1.0
1626062630.8893886,38.574,-49.805,-36.133,1.0,1.0
1626062630.8932948,-32.715,-67.383,-47.852,1.0,1.0
1626062630.897201,-82.52,-37.598,-13.184000000000001,1.0,1.0
1626062630.9011073,-27.831999999999997,-23.438000000000002,-7.812,1.0,1.0
1626062630.9050138,20.996,-23.438000000000002,-23.438000000000002,1.0,1.0
1626062630.9089198,28.809,-34.18,-42.968999999999994,289.551,1.0
1626062630.912826,-41.504,-30.761999999999997,-63.965,-47.852,1.0
1626062630.9167323,-111.816,-34.18,-45.41,-359.375,1.0
1626062630.9206386,-57.617,-27.831999999999997,-20.508000000000003,-78.125,1.0
1626062630.9245448,16.113,-19.043,-7.324,241.699,1.0
1626062630.928451,-9.277000000000001,-34.18,-7.324,33.203,1.0
1626062630.932357,-66.406,-48.34,-17.09,-294.922,1.0
1626062630.9362638,-54.688,-50.781000000000006,-27.344,-184.082,1.0
1626062630.9401696,12.695,-35.156,-27.831999999999997,220.215,1.0
1626062630.9440763,9.277000000000001,-18.066,-28.809,172.852,1.0
1626062630.947982,-71.289,-30.273000000000003,-38.574,-247.07,1.0
1626062630.9518883,-75.195,-37.598,-28.809,-277.344,1.0
1626062630.955795,-62.988,-41.504,-16.602,-215.82,1.0
1626062630.959701,17.578,-47.363,-23.926,205.078,1.0
1626062630.963607,31.738000000000003,-24.901999999999997,-15.625,220.215,1.0
1626062630.9675136,-48.828,-13.672,-25.879,-205.56599999999997,1.0
1626062630.9714196,-83.984,-26.855,-29.785,-310.547,1.0
1626062630.975326,-12.207,-29.785,-24.414,103.027,1.0
1626062630.9792323,36.621,-37.598,-26.855,282.22700000000003,1.0
1626062630.9831386,-35.156,-46.387,-49.316,-97.656,1.0
1626062630.9870448,-92.285,-42.48,-53.223,-341.309,1.0
1626062630.990951,-37.598,-40.039,-35.645,-26.366999999999997,1.0
1626062630.9948573,22.461,-20.508000000000003,-33.203,278.32,1.0
1626062630.9987636,-18.066,-5.859,-54.688,20.996,1.0
1626062631.0026696,-33.691,-22.461,-38.086,-68.848,1.0
1626062631.006576,-94.727,-32.227,-44.434,-358.398,1.0
1626062631.0104823,-39.551,-38.574,-32.227,-68.848,1.0
1626062631.0143886,40.527,-19.043,-29.296999999999997,279.297,1.0
1626062631.0182948,17.578,-13.184000000000001,-22.461,74.219,1.0
1626062631.022201,-68.848,-28.809,-38.574,-315.918,1.0
1626062631.0261073,-68.359,-34.18,-52.246,-189.453,1.0
1626062631.0300136,12.695,-23.926,-44.434,222.65599999999998,1.0
1626062631.0339198,10.254000000000001,-28.809,-44.434,163.086,1.0
1626062631.037826,-62.5,-32.227,-55.176,-255.859,1.0
1626062631.0417323,-73.242,-36.621,-43.457,-275.879,1.0
1626062631.0456386,1.465,-46.875,-15.137,143.555,1.0
1626062631.049545,8.789,-22.461,-27.831999999999997,212.40200000000002,1.0
1626062631.053451,22.949,-33.203,-24.901999999999997,208.00799999999998,1.0
1626062631.057357,-55.663999999999994,-45.41,-30.273000000000003,-212.891,1.0
1626062631.0612638,-77.637,-31.738000000000003,-35.645,-288.086,1.0
1626062631.0651696,-0.977,-21.973000000000003,-25.879,126.465,1.0
1626062631.0690758,30.761999999999997,-32.715,-21.484,271.48400000000004,1.0
1626062631.072982,-41.016000000000005,-39.551,-26.855,-107.91,1.0
1626062631.0768883,-89.355,-35.645,-24.414,-326.172,1.0
1626062631.080795,-42.48,-30.761999999999997,-29.296999999999997,0.977,1.0
1626062631.084701,19.043,-30.761999999999997,-34.18,291.01599999999996,1.0
1626062631.0886073,-13.672,-23.926,-36.133,19.043,1.0
1626062631.0925136,-84.961,-22.461,-37.598,-331.055,1.0
1626062631.0964196,-104.98,-36.133,-35.645,-126.465,1.0
1626062631.100326,-46.387,-17.09,-38.574,257.324,1.0
1626062631.1042323,27.344,-25.879,-27.831999999999997,113.281,1.0
1626062631.1081383,-15.137,-44.434,-34.18,-305.176,1.0
1626062631.1120448,-75.195,-41.992,-42.968999999999994,-241.21099999999998,1.0
1626062631.115951,-41.016000000000005,-29.785,-23.926,189.453,1.0
1626062631.1198573,24.901999999999997,-25.391,-11.23,225.58599999999998,1.0
1626062631.1237636,6.836,-35.156,-22.949,-192.38299999999998,1.0
1626062631.1276698,-70.312,-27.344,-26.855,-301.27,1.0
1626062631.131576,-72.75399999999999,-25.879,-29.785,89.355,1.0
1626062631.1354823,-7.812,-28.809,-43.457,267.09,1.0
1626062631.1393886,10.742,-37.109,-40.527,-93.75,1.0
1626062631.1432948,17.09,-21.484,-37.109,172.363,1.0
1626062631.147201,-64.941,-33.691,-47.852,-249.023,1.0
1626062631.1511073,-83.984,-34.668,-38.086,-286.133,1.0
1626062631.1550138,0.0,-62.988,-36.133,132.32399999999998,1.0
1626062631.1589198,47.852,-74.219,-31.738000000000003,252.93,1.0
1626062631.162826,-12.695,-15.625,-20.02,-127.93,1.0
1626062631.1667323,-74.707,1.465,-27.344,-328.125,1.0
1626062631.1706386,-25.879,-21.973000000000003,-31.25,6.348,1.0
1626062631.1745448,34.18,-23.438000000000002,-25.879,279.297,1.0
1626062631.178451,-28.809,-19.043,-19.531,-29.296999999999997,1.0
1626062631.182357,-107.91,-12.207,-16.113,-364.746,1.0
1626062631.1862638,-61.035,-21.484,-21.973000000000003,-126.95299999999999,1.0
1626062631.1901696,-33.691,-18.555,-31.738000000000003,-31.738000000000003,1.0
1626062631.1940763,28.32,-8.789,-26.366999999999997,269.531,1.0
1626062631.197982,-14.648,-24.901999999999997,-36.133,11.23,1.0
1626062631.2018883,-84.961,-44.434,-40.527,-350.586,1.0
1626062631.205795,-50.781000000000006,-28.32,-27.831999999999997,-156.738,1.0
1626062631.209701,31.738000000000003,-19.043,-29.296999999999997,250.488,1.0
1626062631.213607,22.461,-38.086,-35.645,140.137,1.0
1626062631.2175136,-75.195,-35.156,-39.551,-290.527,1.0
1626062631.2214196,-81.055,-24.901999999999997,-49.316,-260.254,1.0
1626062631.225326,10.254000000000001,-32.715,-45.898,170.898,1.0
1626062631.2292323,30.761999999999997,-30.273000000000003,-30.273000000000003,221.68,1.0
1626062631.2331386,-44.434,-33.203,-26.366999999999997,-185.547,1.0
1626062631.2370448,-53.223,-60.059,-22.461,1.0,1.0
1626062631.240951,-73.242,-40.527,-28.809,1.0,1.0
1626062631.2448573,-7.324,-38.086,-35.645,1.0,1.0
1626062631.2487636,27.831999999999997,-41.504,-26.366999999999997,1.0,1.0
1626062631.2526696,-44.434,-19.043,-31.738000000000003,1.0,1.0
1626062631.256576,-81.543,-3.418,-32.715,1.0,1.0
1626062631.2604823,-20.02,0.977,-34.18,1.0,1.0
1626062631.2643886,34.18,-0.977,-30.761999999999997,1.0,1.0
1626062631.2682948,-10.254000000000001,-8.789,-20.508000000000003,1.0,1.0
1626062631.272201,-81.055,-21.484,-18.066,1.0,1.0
1626062631.2761073,-43.945,-31.25,-21.484,1.0,1.0
1626062631.2800136,31.25,-21.973000000000003,-14.16,1.0,1.0
1626062631.2839198,39.551,-20.996,-31.738000000000003,295.89799999999997,1.0
1626062631.287826,-25.391,-34.668,-39.062,1.953,1.0
1626062631.2917323,-105.469,-57.129,-38.574,-345.215,1.0
1626062631.2956386,-64.941,-39.551,-21.973000000000003,-119.62899999999999,1.0
1626062631.299545,23.438000000000002,-22.949,-14.16,281.738,1.0
1626062631.303451,-3.906,-15.137,-34.18,130.859,1.0
1626062631.307357,-88.37899999999999,-23.926,-45.898,-288.574,1.0
1626062631.3112638,-66.895,-23.438000000000002,-28.809,-207.03099999999998,1.0
1626062631.3151696,18.066,-8.789,-20.02,213.37900000000002,1.0
1626062631.3190758,16.113,-32.715,-30.761999999999997,216.797,1.0
1626062631.322982,-66.895,-44.922,-36.133,-198.73,1.0
1626062631.3268883,-106.445,-32.227,-41.504,-315.43,1.0
1626062631.330795,-76.172,-27.831999999999997,-40.527,-228.02700000000002,1.0
1626062631.334701,2.441,-20.508000000000003,-54.199,148.438,1.0
1626062631.3386073,37.109,-31.738000000000003,-39.062,242.676,1.0
1626062631.3425136,-29.785,-37.598,-22.461,-149.414,1.0
1626062631.3464196,-81.543,-27.831999999999997,-27.344,-318.35900000000004,1.0
1626062631.350326,-27.344,-18.066,-20.02,42.968999999999994,1.0
1626062631.3542323,31.25,-25.391,-14.648,270.996,1.0
1626062631.3581383,-22.949,-33.203,-20.996,-57.129,1.0
1626062631.3620448,-97.656,-42.48,-26.855,-360.352,1.0
1626062631.365951,-53.711000000000006,-36.621,-26.855,-87.402,1.0
1626062631.3698573,26.366999999999997,-12.695,-18.555,274.902,1.0
1626062631.3737636,-2.441,-14.648,-12.695,73.242,1.0
1626062631.3776698,-13.672,-25.879,-27.344,-319.824,1.0
1626062631.381576,-85.93799999999999,-29.785,-29.785,-185.547,1.0
1626062631.3854823,-47.363,-21.484,-25.879,228.516,1.0
1626062631.3893886,29.296999999999997,-26.855,-25.391,171.387,1.0
1626062631.3932948,-5.371,-39.062,-39.551,-250.488,1.0
1626062631.397201,-93.262,-38.574,-44.434,-275.879,1.0
1626062631.4011073,-69.336,-27.344,-34.18,137.207,1.0
1626062631.4050138,16.602,-17.09,-18.066,237.305,1.0
1626062631.4089198,20.996,-42.968999999999994,-21.973000000000003,-157.715,1.0
1626062631.412826,-59.57,-66.895,-35.645,-331.543,1.0
1626062631.4167323,-79.59,-45.41,-39.062,38.086,1.0
1626062631.4206386,0.977,-12.207,-40.527,285.156,1.0
1626062631.4245448,4.883,-54.688,-38.574,174.31599999999997,1.0
1626062631.428451,22.461,-51.27,-29.785,221.68,1.0
1626062631.432357,-45.41,-33.203,-29.785,-188.965,1.0
1626062631.4362638,-76.66,-15.137,-50.293,-321.777,1.0
1626062631.4401696,-10.742,-19.531,-57.617,60.059,1.0
1626062631.4440763,33.203,-41.016000000000005,-38.086,260.742,1.0
1626062631.447982,-25.879,-24.901999999999997,-23.926,-83.008,1.0
1626062631.4518883,-89.355,2.441,-18.555,-354.49199999999996,1.0
1626062631.455795,-35.645,1.953,-19.043,-49.805,1.0
1626062631.459701,41.504,-16.113,-20.02,294.922,1.0
1626062631.463607,-0.977,-36.133,-30.761999999999997,64.941,1.0
1626062631.4675136,-88.37899999999999,-34.668,-42.48,-320.801,1.0
1626062631.4714196,-94.238,-29.296999999999997,-41.992,-175.78099999999998,1.0
1626062631.475326,-57.617,-20.02,-25.879,227.53900000000002,1.0
1626062631.4792323,3.418,-18.066,-19.531,145.50799999999998,1.0
1626062631.4831386,-25.879,-15.137,-24.901999999999997,-277.344,1.0
1626062631.4870448,-103.516,-21.484,-28.809,-279.297,1.0
1626062631.490951,-88.867,-40.527,-34.18,150.879,1.0
1626062631.4948573,6.836,-38.574,-29.785,234.375,1.0
1626062631.4987636,10.254000000000001,-32.715,-30.761999999999997,-180.66400000000002,1.0
1626062631.5026696,-78.125,-33.691,-37.598,-340.332,1.0
1626062631.506576,-92.285,-25.391,-39.551,39.551,1.0
1626062631.5104823,-2.93,-15.625,-37.598,298.34,1.0
1626062631.5143886,30.761999999999997,-32.227,-41.016000000000005,-27.831999999999997,1.0
1626062631.5182948,16.602,-13.184000000000001,-43.457,203.125,1.0
1626062631.522201,-58.593999999999994,-48.34,-53.711000000000006,-215.332,1.0
1626062631.5261073,-97.16799999999999,-53.223,-56.152,-326.66,1.0
1626062631.5300136,-31.25,-30.273000000000003,-38.574,81.543,1.0
1626062631.5339198,7.812,-23.438000000000002,-29.785,230.46900000000002,1.0
1626062631.537826,-54.199,-33.203,-40.039,-152.832,1.0
1626062631.5417323,-91.309,-52.246,-34.668,-353.027,1.0
1626062631.5456386,-24.901999999999997,-80.566,-20.02,-24.414,1.0
1626062631.549545,35.156,-58.593999999999994,-24.901999999999997,281.25,1.0
1626062631.553451,-8.789,-11.719000000000001,-29.296999999999997,18.066,1.0
1626062631.557357,-80.078,-15.625,-33.691,-341.309,1.0
1626062631.5612638,-54.688,-18.066,-24.414,-147.94899999999998,1.0
1626062631.5651696,-36.133,-10.254000000000001,-28.809,-53.711000000000006,1.0
1626062631.5690758,28.32,-12.207,-24.414,290.527,1.0
1626062631.572982,-9.277000000000001,-29.785,-29.296999999999997,69.336,1.0
1626062631.5768883,-80.566,-52.246,-35.645,-317.871,1.0
1626062631.580795,-60.547,-38.574,-31.25,-181.15200000000002,1.0
1626062631.584701,13.184000000000001,-32.227,-37.598,221.19099999999997,1.0
1626062631.5886073,13.184000000000001,-31.738000000000003,-33.203,178.22299999999998,1.0
1626062631.5925136,-69.336,-41.504,-34.18,-250.488,1.0
1626062631.5964196,-93.262,-37.598,-36.133,-294.922,1.0
1626062631.600326,-20.996,-18.066,-22.949,121.58200000000001,1.0
1626062631.6042323,14.648,-12.695,-22.949,241.699,1.0
1626062631.6081383,-58.105,-35.156,-31.25,-147.94899999999998,1.0
1626062631.6120448,-67.87100000000001,-27.831999999999997,-31.738000000000003,-350.098,1.0
1626062631.615951,-91.79700000000001,-31.25,-33.691,5.371,1.0
1626062631.6198573,-14.16,-26.366999999999997,-42.48,292.48,1.0
1626062631.6237636,23.438000000000002,-27.344,-49.316,-11.23,1.0
1626062631.6276698,-40.039,-29.785,-39.062,-355.469,1.0
1626062631.631576,-85.449,-34.668,-26.855,-110.352,1.0
1626062631.6354823,-21.973000000000003,-34.668,-20.996,263.672,1.0
1626062631.6393886,26.855,-33.691,-28.809,85.449,1.0
1626062631.6432948,-18.066,-35.156,-33.203,-312.012,1.0
1626062631.647201,-84.473,-41.992,-44.434,-211.426,1.0
1626062631.6511073,-46.387,-31.25,-38.086,205.078,1.0
1626062631.6550138,35.645,-19.531,-22.949,198.24200000000002,1.0
1626062631.6589198,13.672,-44.434,-51.758,276.367,1.0
1626062631.662826,-25.391,-44.922,-49.805,36.621,1.0
1626062631.6667323,-96.68,-40.527,-32.227,-334.961,1.0
1626062631.6706386,-68.359,-29.296999999999997,-25.879,-163.086,1.0
1626062631.6745448,11.23,-15.137,-19.043,222.65599999999998,1.0
1626062631.678451,6.348,-6.836,-20.508000000000003,135.254,1.0
1626062631.682357,-66.895,-28.32,-36.133,-249.023,1.0
1626062631.6862638,-84.473,-63.965,-41.016000000000005,-257.812,1.0
1626062631.6901696,5.859,-44.922,-21.484,173.34,1.0
1626062631.6940763,36.621,-9.277000000000001,-16.113,261.719,1.0
1626062631.697982,-61.523,-7.812,-34.668,-160.156,1.0
1626062631.7018883,-107.91,-19.531,-33.203,-334.961,1.0
1626062631.705795,-55.663999999999994,-29.785,-14.16,-253.418,1.0
1626062631.709701,20.508000000000003,-7.324,12.207,157.227,1.0
1626062631.713607,35.645,-13.672,-9.277000000000001,271.973,1.0
1626062631.7175136,-50.781000000000006,-36.133,-39.551,-132.812,1.0
1626062631.7214196,-88.867,-61.035,-24.414,-337.89099999999996,1.0
1626062631.725326,-16.602,-39.062,-18.066,20.02,1.0
1626062631.7292323,54.199,4.395,-20.508000000000003,310.059,1.0
1626062631.7331386,0.488,3.906,-29.296999999999997,15.625,1.0
1626062631.7370448,-83.008,-6.836,-40.039,-334.961,1.0
1626062631.740951,-50.781000000000006,-9.277000000000001,-20.996,-112.79299999999999,1.0
1626062631.7448573,23.438000000000002,-30.761999999999997,-4.883,268.066,1.0
1626062631.7487636,-2.441,-30.761999999999997,-14.16,104.98,1.0
1626062631.7526696,-4.395,-21.973000000000003,-29.785,-326.172,1.0
1626062631.756576,-71.777,-51.758,-35.645,-249.023,1.0
1626062631.7604823,-59.082,-50.781000000000006,-30.273000000000003,194.33599999999998,1.0
1626062631.7643886,5.371,-34.668,-30.273000000000003,201.66,1.0
1626062631.7682948,-0.488,-27.344,-18.066,-223.63299999999998,1.0
1626062631.772201,-74.219,-43.457,-13.672,-301.27,1.0
1626062631.7761073,-80.078,-41.504,-20.508000000000003,119.62899999999999,1.0
1626062631.7800136,2.441,-22.949,-19.531,286.133,1.0
1626062631.7839198,20.02,-21.973000000000003,-31.738000000000003,-107.91,1.0
1626062631.787826,-54.688,-47.852,-36.621,-375.48800000000006,1.0
1626062631.7917323,-84.473,-60.059,-20.996,-38.574,1.0
1626062631.7956386,-12.207,-26.855,-12.207,286.133,1.0
1626062631.799545,-1.953,-21.973000000000003,-29.785,140.625,1.0
1626062631.803451,22.461,-24.414,-39.551,252.93,1.0
1626062631.807357,-54.688,-28.809,-47.852,-143.555,1.0
1626062631.8112638,-110.84,-27.344,-45.898,-339.355,1.0
1626062631.8151696,-49.805,-33.203,-35.156,10.254000000000001,1.0
1626062631.8190758,20.02,-37.598,-23.926,274.414,1.0
1626062631.822982,-29.296999999999997,-50.781000000000006,-33.203,-28.809,1.0
1626062631.8268883,-106.445,-75.195,-54.688,-362.305,1.0
1626062631.830795,-64.453,-50.293,-34.668,-102.539,1.0
1626062631.834701,10.742,-16.113,-14.648,271.48400000000004,1.0
1626062631.8386073,-15.137,-15.625,-37.109,87.402,1.0
1626062631.8425136,-89.844,-21.973000000000003,-41.016000000000005,-312.988,1.0
1626062631.8464196,-108.887,-34.668,-29.296999999999997,-342.285,1.0
1626062631.850326,-76.66,-39.062,-32.227,-126.95299999999999,1.0
1626062631.8542323,2.93,-31.738000000000003,-37.598,258.301,1.0
1626062631.8581383,-13.184000000000001,-14.648,-31.738000000000003,118.652,1.0
1626062631.8620448,-85.449,-20.508000000000003,-22.949,-291.01599999999996,1.0
1626062631.865951,-76.172,-38.086,-16.602,-235.352,1.0
1626062631.8698573,-0.488,-26.855,-12.695,190.918,1.0
1626062631.8737636,14.16,-35.645,-20.02,219.727,1.0
1626062631.8776698,-57.617,-49.805,-30.761999999999997,-191.40599999999998,1.0
1626062631.881576,-85.93799999999999,-51.758,-31.738000000000003,-303.223,1.0
1626062631.8854823,-14.648,-41.504,-34.668,86.426,1.0
1626062631.8893886,24.901999999999997,-35.645,-39.062,274.902,1.0
1626062631.8932948,31.25,-80.078,-18.555,236.81599999999997,1.0
1626062631.897201,-39.062,-70.312,-30.273000000000003,-165.52700000000002,1.0
1626062631.9011073,-94.238,-25.879,-54.199,-335.93800000000005,1.0
1626062631.9050138,-33.203,-1.953,-42.968999999999994,35.156,1.0
1626062631.9089198,22.461,-1.465,-32.715,275.39099999999996,1.0
1626062631.912826,-40.527,-3.906,-37.109,-55.176,1.0
1626062631.9167323,-99.12100000000001,-12.695,-35.645,-351.56199999999995,1.0
1626062631.9206386,-46.875,-19.043,-40.527,-83.49600000000001,1.0
1626062631.9245448,22.461,-11.719000000000001,-40.527,263.672,1.0
1626062631.928451,6.348,-18.555,-18.066,76.66,1.0
1626062631.932357,-57.617,-40.527,-1.953,-304.199,1.0
1626062631.9362638,-49.805,-55.176,-4.395,-181.641,1.0
1626062631.9401696,-51.27,-42.968999999999994,-37.109,-106.934,1.0
1626062631.9440763,23.438000000000002,-36.133,-30.273000000000003,266.113,1.0
1626062631.947982,-1.465,-31.25,-24.414,104.98,1.0
1626062631.9518883,-76.66,-25.391,-18.555,-300.293,1.0
1626062631.955795,-63.477,-21.484,-13.184000000000001,-221.19099999999997,1.0
1626062631.959701,24.414,-17.09,-21.484,203.613,1.0
1626062631.963607,37.598,-12.695,-19.043,213.86700000000002,1.0
1626062631.9675136,-51.758,-34.18,-21.973000000000003,-216.797,1.0
1626062631.9714196,-91.79700000000001,-39.062,-26.855,-311.035,1.0
1626062631.975326,-13.184000000000001,-28.32,-42.48,102.539,1.0
1626062631.9792323,34.18,-39.062,-54.688,272.949,1.0
1626062631.9831386,-34.18,-33.203,-33.203,-101.56200000000001,1.0
1626062631.9870448,-51.758,-39.062,-29.785,-349.60900000000004,1.0
1626062631.990951,-84.961,-24.901999999999997,-21.973000000000003,-25.391,1.0
1626062631.9948573,-18.066,-31.25,-13.184000000000001,282.22700000000003,1.0
1626062631.9987636,29.785,-50.781000000000006,-18.066,28.809,1.0
1626062632.0026696,-31.738000000000003,-41.016000000000005,-25.391,-336.426,1.0
1626062632.006576,-88.867,-38.086,-22.949,-145.50799999999998,1.0
1626062632.0104823,-42.968999999999994,-49.316,-19.531,261.719,1.0
1626062632.0143886,8.789,-24.901999999999997,-37.109,136.719,1.0
1626062632.0182948,-19.043,-3.906,-64.941,-280.762,1.0
1626062632.022201,-76.66,-7.812,-67.383,-245.11700000000002,1.0
1626062632.0261073,-59.082,-15.137,-39.062,174.31599999999997,1.0
1626062632.0300136,25.879,-20.996,-4.395,222.168,1.0
1626062632.0339198,23.438000000000002,9.277000000000001,-30.761999999999997,258.301,1.0
1626062632.037826,1.953,-6.348,-32.227,81.055,1.0
1626062632.0417323,-103.027,-30.273000000000003,-51.27,-333.496,1.0
1626062632.0456386,-102.051,-50.293,-64.941,-249.512,1.0
1626062632.049545,-0.488,-50.781000000000006,-35.645,186.523,1.0
1626062632.053451,10.254000000000001,-33.203,-20.508000000000003,186.523,1.0
1626062632.057357,-79.102,-21.973000000000003,-25.391,-241.21099999999998,1.0
1626062632.0612638,-103.516,-23.926,-33.691,-318.848,1.0
1626062632.0651696,-16.602,-23.926,-25.879,98.633,1.0
1626062632.0690758,21.484,-40.527,-28.32,248.047,1.0
1626062632.072982,-42.48,-54.688,-32.715,-123.535,1.0
1626062632.0768883,-76.172,-53.223,-23.438000000000002,-323.73,1.0
1626062632.080795,-98.633,-33.691,-31.25,-306.64099999999996,1.0
1626062632.084701,-10.254000000000001,-29.785,-19.531,105.95700000000001,1.0
1626062632.0886073,35.645,-39.551,-34.668,277.832,1.0
1626062632.0925136,-16.113,-39.551,-38.574,-76.172,1.0
1626062632.0964196,-65.43,-25.879,-21.973000000000003,-331.055,1.0
1626062632.100326,-27.831999999999997,-24.901999999999997,-16.602,-25.879,1.0
1626062632.1042323,25.391,-14.16,-26.366999999999997,287.10900000000004,1.0
1626062632.1081383,-18.066,-12.695,-45.898,32.227,1.0
1626062632.1120448,-86.426,-24.901999999999997,-39.062,-333.98400000000004,1.0
1626062632.115951,-57.617,-36.621,-26.366999999999997,-152.344,1.0
1626062632.1198573,16.113,-37.109,-20.996,245.11700000000002,1.0
1626062632.1237636,13.672,-12.207,-12.695,153.809,1.0
1626062632.1276698,-12.695,-30.761999999999997,-42.48,64.453,1.0
1626062632.131576,-97.16799999999999,-45.41,-36.621,-323.73,1.0
1626062632.1354823,-86.914,-52.733999999999995,-30.273000000000003,-210.449,1.0
1626062632.1393886,9.766,-58.593999999999994,-16.602,216.30900000000003,1.0
1626062632.1432948,13.672,-49.805,-15.625,168.457,1.0
1626062632.147201,-87.891,-30.761999999999997,-36.133,-273.926,1.0
1626062632.1511073,-91.309,-16.113,-32.227,-278.32,1.0
1626062632.1550138,-9.277000000000001,-5.859,-25.391,142.09,1.0
1626062632.1589198,15.625,-18.555,-23.926,251.953,1.0
1626062632.162826,-48.34,-37.109,-17.09,-139.648,1.0
1626062632.1667323,-92.773,-30.761999999999997,-25.879,-339.355,1.0
1626062632.1706386,-25.391,-15.137,-25.879,17.09,1.0
1626062632.1745448,-6.836,-7.812,-23.438000000000002,108.398,1.0
1626062632.178451,34.18,-18.066,-24.901999999999997,274.902,1.0
1626062632.182357,-38.086,-45.41,-36.621,-103.516,1.0
1626062632.1862638,-109.863,-47.852,-54.199,-360.84,1.0
1626062632.1901696,-38.086,-25.879,-41.992,-24.901999999999997,1.0
1626062632.1940763,36.621,-42.48,-30.761999999999997,284.668,1.0
1626062632.197982,-14.16,-67.383,-30.761999999999997,13.672,1.0
1626062632.2018883,-97.16799999999999,-45.41,-32.227,-346.191,1.0
1626062632.205795,-61.523,-10.254000000000001,-28.809,-143.555,1.0
1626062632.209701,29.296999999999997,2.93,-32.715,261.23,1.0
1626062632.213607,15.625,-14.16,-43.457,144.043,1.0
1626062632.2175136,-77.148,-39.062,-37.109,-288.574,1.0
1626062632.2214196,-68.848,-40.039,-19.043,-253.418,1.0
1626062632.225326,-41.016000000000005,-54.199,-16.113,187.5,1.0
1626062632.2292323,13.672,-56.641000000000005,-30.761999999999997,230.46900000000002,1.0
1626062632.2331386,7.812,-43.945,-45.41,-187.5,1.0
1626062632.2370448,-54.688,-32.227,-35.156,-312.5,1.0
1626062632.240951,-75.684,-35.645,-40.039,61.035,1.0
1626062632.2448573,-4.395,-39.551,-48.34,259.76599999999996,1.0
1626062632.2487636,16.113,-42.48,-46.387,-81.543,1.0
1626062632.2526696,-57.129,-35.156,-62.5,-353.51599999999996,1.0
1626062632.256576,-86.914,-40.527,-50.293,-68.848,1.0
1626062632.2604823,-21.973000000000003,-42.968999999999994,-20.996,283.203,1.0
1626062632.2643886,34.18,-25.391,-19.531,64.941,1.0
1626062632.2682948,18.066,-29.296999999999997,-18.066,261.719,1.0
1626062632.272201,-46.387,-48.828,-20.996,-122.07,1.0
1626062632.2761073,-99.12100000000001,-54.688,-41.016000000000005,-351.56199999999995,1.0
1626062632.2800136,-25.391,-23.926,-37.109,13.672,1.0
1626062632.2839198,37.598,-1.465,-23.438000000000002,272.461,1.0
1626062632.287826,-25.879,-13.672,-52.733999999999995,-47.852,1.0
1626062632.2917323,-93.262,-31.25,-51.27,-352.539,1.0
1626062632.2956386,-64.941,-39.551,-36.133,-133.30100000000002,1.0
1626062632.299545,22.461,-24.901999999999997,-37.598,231.93400000000003,1.0
1626062632.303451,8.789,-23.438000000000002,-34.668,83.49600000000001,1.0
1626062632.307357,-74.219,-53.223,-31.25,-288.086,1.0
1626062632.3112638,-66.895,-64.941,-18.066,-220.215,1.0
1626062632.3151696,-57.617,-56.641000000000005,-33.203,-162.59799999999998,1.0
1626062632.3190758,12.207,-50.781000000000006,-35.156,239.74599999999998,1.0
1626062632.322982,-2.441,-38.574,-34.18,136.23,1.0
1626062632.3268883,-83.49600000000001,-22.949,-30.273000000000003,-286.621,1.0
1626062632.330795,-87.891,-14.16,-22.949,-268.555,1.0
1626062632.334701,0.977,-21.484,-21.484,160.645,1.0
1626062632.3386073,35.645,-44.434,-25.879,237.305,1.0
1626062632.3425136,-44.434,-51.27,-38.574,-170.898,1.0
1626062632.3464196,-86.426,-39.551,-44.434,-331.543,1.0
1626062632.350326,-23.926,-15.137,-35.156,42.968999999999994,1.0
1626062632.3542323,28.809,-7.324,-29.785,273.926,1.0
1626062632.3581383,-14.16,-20.508000000000003,-26.855,-51.758,1.0
1626062632.3620448,-33.691,-34.668,-27.831999999999997,-341.79699999999997,1.0
1626062632.365951,-85.93799999999999,-65.43,-37.598,-66.895,1.0
1626062632.3698573,-41.992,-54.199,-40.527,274.414,1.0
1626062632.3737636,15.625,-20.996,-32.715,61.035,1.0
1626062632.3776698,-25.391,-21.973000000000003,-41.992,-332.52,1.0
1626062632.381576,-94.238,-37.109,-47.852,-199.707,1.0
1626062632.3854823,-54.688,-28.32,-31.25,221.19099999999997,1.0
1626062632.3893886,8.301,-26.855,-35.645,160.645,1.0
1626062632.3932948,-21.484,-24.901999999999997,-40.527,-266.113,1.0
1626062632.397201,-91.309,-19.043,-29.785,-302.246,1.0
1626062632.4011073,-73.242,-22.461,-14.648,121.094,1.0
1626062632.4050138,6.348,-27.344,-15.625,252.44099999999997,1.0
1626062632.4089198,32.227,-25.879,-36.621,264.64799999999997,1.0
1626062632.412826,18.555,-36.621,-40.527,144.531,1.0
1626062632.4167323,-67.383,-44.434,-34.668,-269.043,1.0
1626062632.4206386,-82.52,-44.434,-37.109,-239.25799999999998,1.0
1626062632.4245448,-14.648,-39.551,-39.062,162.109,1.0
1626062632.428451,6.836,-24.901999999999997,-32.227,208.00799999999998,1.0
1626062632.432357,-69.336,-23.926,-40.527,-193.359,1.0
1626062632.4362638,-106.445,-35.156,-64.941,-333.00800000000004,1.0
1626062632.4401696,-32.227,-29.785,-42.48,61.523,1.0
1626062632.4440763,14.16,-26.855,-17.578,270.508,1.0
1626062632.447982,-50.781000000000006,-51.758,-25.391,-82.031,1.0
1626062632.4518883,-107.91,-62.5,-27.344,-359.375,1.0
1626062632.455795,-103.027,-16.113,-36.133,1.0,1.0
1626062632.459701,-41.016000000000005,-8.789,-37.109,1.0,1.0
1626062632.463607,24.901999999999997,-17.578,-25.879,1.0,1.0
1626062632.4675136,-31.738000000000003,-22.949,-25.879,1.0,1.0
1626062632.4714196,-103.516,-30.273000000000003,-30.761999999999997,1.0,1.0
1626062632.475326,-56.152,-26.855,-26.366999999999997,1.0,1.0
1626062632.4792323,27.344,-30.761999999999997,-24.414,1.0,1.0
1626062632.4831386,4.395,-41.504,-44.434,1.0,1.0
1626062632.4870448,-64.453,-42.968999999999994,-48.34,1.0,1.0
1626062632.490951,-51.27,-46.387,-23.438000000000002,1.0,1.0
1626062632.4948573,10.254000000000001,-34.18,-9.766,1.0,1.0
1626062632.4987636,8.301,-19.043,-12.695,1.0,1.0
1626062632.5026696,12.207,-29.785,-14.648,126.465,1.0
1626062632.506576,-77.148,-20.02,-23.438000000000002,-287.10900000000004,1.0
1626062632.5104823,-70.801,-12.695,-25.391,-211.91400000000002,1.0
1626062632.5143886,10.742,-18.066,-27.344,205.56599999999997,1.0
1626062632.5182948,25.879,-20.02,-28.32,217.285,1.0
1626062632.522201,-47.363,-37.109,-25.879,-200.68400000000003,1.0
1626062632.5261073,-76.66,-38.086,-21.484,-309.082,1.0
1626062632.5300136,-10.254000000000001,-24.414,-29.296999999999997,85.449,1.0
1626062632.5339198,27.344,-17.09,-31.25,265.137,1.0
1626062632.537826,-43.457,-29.785,-38.086,-106.934,1.0
1626062632.5417323,-108.398,-42.48,-41.504,-369.14099999999996,1.0
1626062632.5456386,-47.852,-31.738000000000003,-28.809,-46.875,1.0
1626062632.549545,-14.16,-22.461,-25.879,82.031,1.0
1626062632.553451,22.461,-19.531,-23.926,296.387,1.0
1626062632.557357,-38.574,-19.531,-32.715,-44.922,1.0
1626062632.5612638,-100.586,-30.761999999999997,-21.973000000000003,-343.26199999999994,1.0
1626062632.5651696,-44.922,-37.598,-12.207,-51.27,1.0
1626062632.5690758,35.156,-44.922,-5.371,307.129,1.0
1626062632.572982,-0.488,-40.039,-14.16,87.402,1.0
1626062632.5768883,-75.684,-28.809,-32.227,-310.547,1.0
1626062632.580795,-54.199,-37.109,-19.043,-178.71099999999998,1.0
1626062632.584701,24.414,-21.973000000000003,-12.207,233.887,1.0
1626062632.5886073,15.137,-20.02,-28.32,178.71099999999998,1.0
1626062632.5925136,-82.031,-38.574,-44.434,-254.88299999999998,1.0
1626062632.5964196,-99.12100000000001,-49.805,-18.066,1.0,1.0
1626062632.600326,-68.848,-29.296999999999997,-3.906,1.0,1.0
1626062632.6042323,20.996,-16.113,-11.23,1.0,1.0
1626062632.6081383,11.23,-25.391,-22.461,1.0,1.0
1626062632.6120448,-74.219,-27.344,-30.273000000000003,1.0,1.0
1626062632.615951,-95.215,-20.508000000000003,-34.668,1.0,1.0
1626062632.6198573,-21.484,-22.461,-31.738000000000003,1.0,1.0
1626062632.6237636,20.996,-29.296999999999997,-37.109,1.0,1.0
1626062632.6276698,-32.227,-23.438000000000002,-32.227,1.0,1.0
1626062632.631576,-79.59,-23.438000000000002,-15.137,1.0,1.0
1626062632.6354823,-29.296999999999997,-39.062,-15.137,1.0,1.0
1626062632.6393886,26.366999999999997,-30.273000000000003,-24.414,1.0,1.0
1626062632.6432948,43.945,-33.203,-45.41,296.387,1.0
1626062632.647201,-23.926,-28.32,-55.176,-66.406,1.0
1626062632.6511073,-98.145,-43.457,-44.922,-346.68,1.0
1626062632.6550138,-50.293,-38.574,-36.621,-56.152,1.0
1626062632.6589198,23.438000000000002,-16.602,-21.973000000000003,270.02,1.0
1626062632.662826,-8.789,-16.113,-19.043,44.434,1.0
1626062632.6667323,-80.078,-29.296999999999997,-30.761999999999997,-321.289,1.0
1626062632.6706386,-70.801,-35.645,-37.109,-171.875,1.0
1626062632.6745448,12.207,-21.973000000000003,-28.809,238.28099999999998,1.0
1626062632.678451,14.16,-30.273000000000003,-23.438000000000002,161.621,1.0
1626062632.682357,-73.242,-47.363,-40.039,-269.043,1.0
1626062632.6862638,-85.93799999999999,-36.621,-48.828,-270.02,1.0
1626062632.6901696,-74.219,-50.293,-26.855,-210.938,1.0
1626062632.6940763,6.348,-26.855,-11.23,213.37900000000002,1.0
1626062632.697982,0.977,-23.438000000000002,-23.438000000000002,171.875,1.0
1626062632.7018883,-73.242,-20.02,-28.32,-252.44099999999997,1.0
1626062632.705795,-79.102,-23.926,-18.555,-293.457,1.0
1626062632.709701,-5.371,-36.133,-32.715,124.023,1.0
1626062632.713607,30.761999999999997,-37.598,-48.828,263.672,1.0
1626062632.7175136,-45.898,-51.27,-43.457,-136.719,1.0
1626062632.7214196,-106.934,-45.41,-22.949,-350.098,1.0
1626062632.725326,-45.41,-29.785,-13.184000000000001,2.93,1.0
1626062632.7292323,18.066,-35.645,-17.09,284.668,1.0
1626062632.7331386,-32.715,-44.922,-20.02,-6.836,1.0
1626062632.7370448,-68.848,-37.598,-35.156,1.0,1.0
1626062632.740951,-119.141,-45.41,-34.668,1.0,1.0
1626062632.7448573,-47.852,-29.785,-24.414,1.0,1.0
1626062632.7487636,19.043,-25.391,-26.366999999999997,1.0,1.0
1626062632.7526696,-18.066,-32.227,-27.344,1.0,1.0
1626062632.756576,-97.656,-39.551,-31.25,1.0,1.0
1626062632.7604823,-72.266,-31.25,-29.296999999999997,1.0,1.0
1626062632.7643886,12.695,-14.16,-17.09,1.0,1.0
1626062632.7682948,7.324,-26.855,-25.879,1.0,1.0
1626062632.772201,-72.266,-46.875,-45.898,1.0,1.0
1626062632.7761073,-84.473,-35.156,-48.34,1.0,1.0
1626062632.7800136,-4.395,-30.273000000000003,-23.438000000000002,1.0,1.0
1626062632.7839198,21.973000000000003,-28.32,-19.043,235.352,1.0
1626062632.787826,26.366999999999997,-40.039,-20.02,188.477,1.0
1626062632.7917323,-56.641000000000005,-38.574,-24.901999999999997,-233.887,1.0
1626062632.7956386,-88.37899999999999,-51.27,-49.805,-271.973,1.0
1626062632.799545,-6.836,-47.852,-44.922,124.023,1.0
1626062632.803451,25.879,-34.18,-18.066,222.65599999999998,1.0
1626062632.807357,-45.898,-32.227,-21.973000000000003,-141.113,1.0
1626062632.8112638,-101.56200000000001,-24.901999999999997,-22.949,-342.773,1.0
1626062632.8151696,-37.598,-16.602,-18.555,13.184000000000001,1.0
1626062632.8190758,28.809,-10.254000000000001,-34.18,281.738,1.0
1626062632.822982,-28.32,-20.02,-58.593999999999994,-28.809,1.0
1626062632.8268883,-101.074,-39.062,-63.477,-355.957,1.0
1626062632.830795,-82.031,-14.16,-29.296999999999997,1.0,1.0
1626062632.834701,-22.461,-5.371,-41.016000000000005,1.0,1.0
1626062632.8386073,35.156,-8.301,-49.316,1.0,1.0
1626062632.8425136,-15.137,-21.973000000000003,-32.227,1.0,1.0
1626062632.8464196,-93.262,-37.109,-26.366999999999997,1.0,1.0
1626062632.850326,-59.57,-33.203,-25.391,1.0,1.0
1626062632.8542323,18.555,-32.227,-23.438000000000002,1.0,1.0
1626062632.8581383,0.488,-40.039,-29.296999999999997,1.0,1.0
1626062632.8620448,-71.777,-28.809,-31.738000000000003,1.0,1.0
1626062632.865951,-64.941,-15.625,-25.879,1.0,1.0
1626062632.8698573,20.508000000000003,-33.203,-24.414,1.0,1.0
1626062632.8737636,39.062,-47.852,-21.973000000000003,1.0,1.0
1626062632.8776698,-6.836,-7.812,-20.508000000000003,142.09,1.0
1626062632.881576,-90.33200000000001,-11.719000000000001,-31.25,-284.668,1.0
1626062632.8854823,-93.75,-25.879,-35.156,-281.738,1.0
1626062632.8893886,-11.23,-26.366999999999997,-38.574,150.879,1.0
1626062632.8932948,11.23,-23.926,-32.227,208.00799999999998,1.0
1626062632.897201,-46.387,-21.973000000000003,-20.508000000000003,-187.988,1.0
1626062632.9011073,-90.33200000000001,-22.949,-21.484,-322.26599999999996,1.0
1626062632.9050138,-42.968999999999994,-30.273000000000003,-28.32,33.203,1.0
1626062632.9089198,16.602,-26.855,-28.32,274.902,1.0
1626062632.912826,-32.227,-24.901999999999997,-25.879,-47.363,1.0
1626062632.9167323,-87.402,-36.621,-21.973000000000003,-339.844,1.0
1626062632.9206386,-39.551,-32.227,-20.508000000000003,-66.406,1.0
1626062632.9245448,-29.785,-18.555,-14.16,21.973000000000003,1.0
1626062632.928451,33.691,-18.066,-26.855,292.48,1.0
1626062632.932357,-10.742,-23.438000000000002,-31.25,-0.977,1.0
1626062632.9362638,-82.52,-28.809,-38.086,-340.82,1.0
1626062632.9401696,-62.012,-17.578,-30.761999999999997,-121.094,1.0
1626062632.9440763,22.461,-13.672,-14.648,267.578,1.0
1626062632.947982,22.949,-36.133,-7.812,130.371,1.0
1626062632.9518883,-60.547,-55.663999999999994,-14.648,-282.22700000000003,1.0
1626062632.955795,-64.941,-36.621,-26.366999999999997,-213.37900000000002,1.0
1626062632.959701,11.23,-37.109,-34.668,204.102,1.0
1626062632.963607,12.695,-37.109,-41.992,208.49599999999998,1.0
1626062632.9675136,-72.266,-10.254000000000001,-44.922,-211.426,1.0
1626062632.9714196,-74.219,-47.852,-20.996,1.0,1.0
1626062632.975326,-72.75399999999999,-27.344,-29.296999999999997,1.0,1.0
1626062632.9792323,-3.906,-23.926,-31.25,1.0,1.0
1626062632.9831386,20.02,-31.25,-29.296999999999997,1.0,1.0
1626062632.9870448,-42.968999999999994,-20.508000000000003,-30.761999999999997,1.0,1.0
1626062632.990951,-91.79700000000001,-26.366999999999997,-28.809,1.0,1.0
1626062632.9948573,-32.715,-23.438000000000002,-22.949,1.0,1.0
1626062632.9987636,18.066,-18.555,-28.32,1.0,1.0
1626062633.0026696,-41.992,-29.785,-44.434,1.0,1.0
1626062633.006576,-99.12100000000001,-41.016000000000005,-45.898,1.0,1.0
1626062633.0104823,-41.504,-49.316,-44.434,1.0,1.0
1626062633.0143886,23.926,-33.691,-38.574,1.0,1.0
1626062633.0182948,40.527,-34.18,-50.293,285.156,1.0
1626062633.022201,-16.602,-52.733999999999995,-36.133,-20.508000000000003,1.0
1626062633.0261073,-95.70299999999999,-34.668,-23.438000000000002,-345.215,1.0
1626062633.0300136,-72.75399999999999,-14.648,-29.296999999999997,-107.42200000000001,1.0
1626062633.0339198,1.465,-7.812,-27.344,245.605,1.0
1626062633.037826,-11.23,-28.809,-35.156,77.148,1.0
1626062633.0417323,-78.613,-47.363,-57.617,-300.293,1.0
1626062633.0456386,-68.359,-33.203,-54.199,-206.055,1.0
1626062633.049545,17.09,0.488,-22.461,223.145,1.0
1626062633.053451,17.578,7.812,-9.277000000000001,197.266,1.0
1626062633.057357,-64.453,-20.508000000000003,-18.066,-233.398,1.0
1626062633.0612638,-88.867,-43.945,-21.973000000000003,-300.781,1.0
1626062633.0651696,-76.172,-44.434,-49.805,-241.699,1.0
1626062633.0690758,14.16,-34.18,-49.805,195.312,1.0
1626062633.072982,33.203,-25.879,-50.781000000000006,235.84,1.0
1626062633.0768883,-48.34,-28.809,-42.48,-175.78099999999998,1.0
1626062633.080795,-85.93799999999999,-36.133,-23.926,-299.316,1.0
1626062633.084701,-10.742,-32.715,-19.043,83.984,1.0
1626062633.0886073,35.645,-13.672,-22.949,272.461,1.0
1626062633.0925136,-40.039,-17.578,-34.18,-99.12100000000001,1.0
1626062633.0964196,-104.00399999999999,-16.602,-33.691,-368.652,1.0
1626062633.100326,-44.922,-3.418,-20.02,-53.711000000000006,1.0
1626062633.1042323,34.18,-40.527,-14.16,283.691,1.0
1626062633.1081383,1.465,-79.102,-18.555,45.898,1.0
1626062633.1120448,-20.996,-48.34,-27.344,-38.574,1.0
1626062633.115951,-92.773,-33.203,-24.901999999999997,-349.121,1.0
1626062633.1198573,-42.968999999999994,-28.809,-23.438000000000002,-69.824,1.0
1626062633.1237636,33.203,-23.926,-26.855,287.10900000000004,1.0
1626062633.1276698,-4.883,-29.296999999999997,-26.366999999999997,84.473,1.0
1626062633.131576,-80.566,-45.898,-26.855,-307.617,1.0
1626062633.1354823,-61.523,-41.016000000000005,-24.901999999999997,-186.523,1.0
1626062633.1393886,20.508000000000003,-22.461,-16.602,239.25799999999998,1.0
1626062633.1432948,26.855,-19.043,-23.438000000000002,200.195,1.0
1626062633.147201,-62.012,-20.508000000000003,-32.227,-235.352,1.0
1626062633.1511073,-74.219,-23.438000000000002,-22.461,-274.902,1.0
1626062633.1550138,8.789,-13.672,-17.09,144.043,1.0
1626062633.1589198,24.901999999999997,-20.508000000000003,-27.831999999999997,191.40599999999998,1.0
1626062633.162826,27.344,-10.742,-35.645,155.762,1.0
1626062633.1667323,-58.593999999999994,-44.434,-43.457,-219.238,1.0
1626062633.1706386,-89.355,-59.082,-33.691,-319.824,1.0
1626062633.1745448,-6.836,-37.109,-29.296999999999997,80.566,1.0
1626062633.178451,24.414,-16.602,-28.32,253.418,1.0
1626062633.182357,-45.898,-7.324,-24.901999999999997,-110.84,1.0
1626062633.1862638,-96.191,-18.066,-29.296999999999997,-353.027,1.0
1626062633.1901696,-34.18,-23.926,-24.414,-21.973000000000003,1.0
1626062633.1940763,41.504,-27.831999999999997,-22.461,290.527,1.0
1626062633.197982,2.93,-34.18,-31.25,31.738000000000003,1.0
1626062633.2018883,-70.312,-24.901999999999997,-31.738000000000003,-329.102,1.0
1626062633.205795,-92.285,-61.035,-26.855,1.0,1.0
1626062633.209701,-44.434,-20.02,-37.109,1.0,1.0
1626062633.213607,8.301,-15.137,-42.968999999999994,1.0,1.0
1626062633.2175136,-28.32,-35.645,-48.34,1.0,1.0
1626062633.2214196,-97.656,-44.434,-48.34,1.0,1.0
1626062633.225326,-70.801,-39.062,-35.156,1.0,1.0
1626062633.2292323,25.391,-17.09,-26.366999999999997,1.0,1.0
1626062633.2331386,15.137,-37.598,-25.391,1.0,1.0
1626062633.2370448,-73.73,-48.34,-22.949,1.0,1.0
1626062633.240951,-82.52,-21.973000000000003,-20.02,1.0,1.0
1626062633.2448573,-0.488,-29.785,-23.926,1.0,1.0
1626062633.2487636,31.25,-55.663999999999994,-47.852,1.0,1.0
1626062633.2526696,10.742,-34.18,-34.668,195.312,1.0
1626062633.256576,-71.289,-22.949,-30.273000000000003,-227.53900000000002,1.0
1626062633.2604823,-97.656,-29.296999999999997,-24.414,-305.176,1.0
1626062633.2643886,-17.09,-38.574,-21.484,111.32799999999999,1.0
1626062633.2682948,6.348,-34.668,-18.555,201.172,1.0
1626062633.272201,-58.593999999999994,-48.34,-27.344,-208.00799999999998,1.0
1626062633.2761073,-89.844,-54.199,-33.203,-347.656,1.0
1626062633.2800136,-32.715,-36.133,-28.32,-14.648,1.0
1626062633.2839198,25.391,-21.484,-27.344,262.207,1.0
1626062633.287826,-22.949,-27.831999999999997,-41.016000000000005,-13.672,1.0
1626062633.2917323,-90.82,-32.715,-44.434,-349.121,1.0
1626062633.2956386,-51.758,-35.645,-33.203,-124.512,1.0
1626062633.299545,-41.992,-18.066,-11.23,-32.227,1.0
1626062633.303451,25.391,-32.715,-8.789,281.738,1.0
1626062633.307357,-17.578,-50.781000000000006,-24.414,33.691,1.0
1626062633.3112638,-93.262,-43.457,-31.25,-330.566,1.0
1626062633.3151696,-58.593999999999994,-26.366999999999997,-21.973000000000003,-147.94899999999998,1.0
1626062633.3190758,29.785,-5.859,-31.25,256.348,1.0
1626062633.322982,22.461,-3.418,-51.758,155.762,1.0
1626062633.3268883,-68.359,-24.414,-44.434,-272.461,1.0
1626062633.330795,-74.707,-24.414,-25.391,-258.301,1.0
1626062633.334701,8.789,-12.695,-13.672,165.52700000000002,1.0
1626062633.3386073,35.156,-21.484,-13.184000000000001,244.141,1.0
1626062633.3425136,-37.109,-37.598,-29.785,-158.203,1.0
1626062633.3464196,-71.289,-4.883,-27.831999999999997,-322.26599999999996,1.0
1626062633.350326,-83.49600000000001,-4.395,-46.875,55.176,1.0
1626062633.3542323,-7.324,-28.32,-43.457,291.504,1.0
1626062633.3581383,22.949,-37.598,-18.555,-44.434,1.0
1626062633.3620448,-34.668,-28.32,-17.09,-349.60900000000004,1.0
1626062633.365951,-73.242,-35.156,-13.184000000000001,-70.801,1.0
1626062633.3698573,-16.113,-43.945,-10.742,288.086,1.0
1626062633.3737636,29.296999999999997,-35.156,-18.555,81.055,1.0
1626062633.3776698,-18.066,-38.086,-31.738000000000003,-312.988,1.0
1626062633.381576,-68.848,-33.203,-40.039,-171.875,1.0
1626062633.3854823,-42.968999999999994,-7.324,-32.227,238.77,1.0
1626062633.3893886,20.02,-12.695,-29.296999999999997,176.27,1.0
1626062633.3932948,-89.844,-48.828,-33.691,-277.344,1.0
1626062633.397201,-2.441,-74.707,-36.621,152.344,1.0
1626062633.4011073,34.18,-54.199,-50.293,259.277,1.0
1626062633.4050138,-50.293,-12.207,-54.199,-146.97299999999998,1.0
1626062633.4089198,-104.492,1.953,-35.645,-339.355,1.0
1626062633.412826,-38.086,0.0,-22.949,31.738000000000003,1.0
1626062633.4167323,13.672,-6.348,-19.531,283.203,1.0
1626062633.4206386,-42.48,-21.973000000000003,-20.508000000000003,-43.945,1.0
1626062633.4245448,-105.469,-50.293,-24.901999999999997,-357.42199999999997,1.0
1626062633.428451,-56.641000000000005,-65.918,-24.901999999999997,-93.75,1.0
1626062633.432357,28.809,-59.082,-17.09,280.27299999999997,1.0
1626062633.4362638,10.254000000000001,-45.41,-13.672,104.00399999999999,1.0
1626062633.4401696,-17.578,-31.25,-26.366999999999997,-2.441,1.0
1626062633.4440763,-89.844,-52.246,-35.156,-346.68,1.0
1626062633.447982,-47.852,-44.922,-21.484,-124.512,1.0
1626062633.4518883,49.316,-39.062,-22.949,280.762,1.0
1626062633.455795,18.555,-29.785,-44.922,123.04700000000001,1.0
1626062633.459701,-78.613,-25.879,-41.016000000000005,-305.176,1.0
1626062633.463607,-77.148,-28.32,-30.761999999999997,-231.93400000000003,1.0
1626062633.4675136,0.977,-42.48,-28.809,185.547,1.0
1626062633.4714196,7.812,-49.316,-22.949,202.637,1.0
1626062633.475326,-73.73,-36.133,-23.438000000000002,-213.86700000000002,1.0
1626062633.4792323,-101.56200000000001,-23.438000000000002,-42.48,-320.801,1.0
1626062633.4831386,-15.625,-32.227,-51.758,81.543,1.0
1626062633.4870448,2.441,-47.852,-25.391,171.387,1.0
1626062633.490951,26.855,-50.293,-37.109,241.699,1.0
1626062633.4948573,-45.898,-25.391,-41.016000000000005,-164.551,1.0
1626062633.4987636,-80.566,-29.296999999999997,-26.855,-316.895,1.0
1626062633.5026696,-19.043,-35.645,-24.901999999999997,50.293,1.0
1626062633.506576,23.438000000000002,-41.016000000000005,-38.086,270.508,1.0
1626062633.5104823,-35.156,-42.48,-42.968999999999994,-61.035,1.0
1626062633.5143886,-88.867,-15.625,-30.273000000000003,-348.63300000000004,1.0
1626062633.5182948,-43.945,-25.879,-22.461,-77.637,1.0
1626062633.522201,18.066,-39.551,-20.02,264.16,1.0
1626062633.5261073,1.465,-12.695,-20.996,75.195,1.0
1626062633.5300136,-76.66,-11.23,-45.898,-312.5,1.0
1626062633.5339198,-76.66,-33.691,-30.273000000000003,-194.33599999999998,1.0
1626062633.537826,-33.691,-35.645,-4.395,220.703,1.0
1626062633.5417323,30.761999999999997,-33.203,-1.465,171.387,1.0
1626062633.5456386,-8.301,-52.733999999999995,-23.926,-257.812,1.0
1626062633.549545,-83.008,-55.176,-33.691,-287.10900000000004,1.0
1626062633.553451,-75.195,-37.598,-36.621,134.766,1.0
1626062633.557357,4.395,-34.18,-40.039,244.62900000000002,1.0
1626062633.5612638,16.602,-21.973000000000003,-42.968999999999994,-148.92600000000002,1.0
1626062633.5651696,-55.663999999999994,-2.93,-35.156,-350.098,1.0
1626062633.5690758,-88.867,-15.625,-28.809,5.371,1.0
1626062633.572982,-17.09,-28.32,-17.578,291.504,1.0
1626062633.5768883,24.414,-17.578,-21.973000000000003,-2.93,1.0
1626062633.580795,12.207,-44.922,-15.625,211.91400000000002,1.0
1626062633.584701,-62.988,-33.691,-40.527,-204.102,1.0
1626062633.5886073,-94.238,-12.207,-37.598,-330.566,1.0
1626062633.5925136,-12.695,-15.625,-21.484,69.336,1.0
1626062633.5964196,32.227,-32.227,-39.551,258.789,1.0
1626062633.600326,-37.109,-45.898,-43.457,-92.773,1.0
1626062633.6042323,-90.33200000000001,-33.691,-20.02,-342.285,1.0
1626062633.6081383,-43.945,-21.484,-19.531,-61.035,1.0
1626062633.6120448,20.508000000000003,-24.901999999999997,-29.785,263.672,1.0
1626062633.615951,-19.043,-35.156,-32.715,33.691,1.0
1626062633.6198573,-106.934,-43.945,-39.062,-351.56199999999995,1.0
1626062633.6237636,-81.543,-29.296999999999997,-33.691,-193.359,1.0
1626062633.6276698,-61.523,-38.574,-31.25,-106.445,1.0
1626062633.631576,14.648,-43.945,-25.879,260.254,1.0
1626062633.6354823,-15.137,-43.945,-39.551,68.359,1.0
1626062633.6393886,-99.12100000000001,-38.086,-43.457,-330.07800000000003,1.0
1626062633.6432948,-85.93799999999999,-19.531,-34.18,-207.52,1.0
1626062633.647201,4.395,-14.648,-27.831999999999997,213.37900000000002,1.0
1626062633.6511073,8.301,-23.438000000000002,-36.621,180.176,1.0
1626062633.6550138,-78.613,-54.199,-46.875,-245.605,1.0
1626062633.6589198,-86.426,-66.895,-39.551,-293.945,1.0
1626062633.662826,-8.301,-47.852,-31.738000000000003,116.699,1.0
1626062633.6667323,29.296999999999997,-21.484,-39.551,254.88299999999998,1.0
1626062633.6706386,-35.156,-25.391,-49.805,-130.371,1.0
1626062633.6745448,-64.453,-37.109,-51.758,-358.398,1.0
1626062633.678451,-96.68,-13.184000000000001,-35.156,-8.789,1.0
1626062633.682357,-12.207,-14.648,-17.578,286.621,1.0
1626062633.6862638,29.296999999999997,-22.949,-20.508000000000003,-2.441,1.0
1626062633.6901696,-31.738000000000003,-17.578,-35.156,-344.727,1.0
1626062633.6940763,-73.242,-15.137,-23.926,-98.145,1.0
1626062633.697982,-19.531,-14.648,-10.742,289.062,1.0
1626062633.7018883,36.621,-27.344,-23.438000000000002,123.04700000000001,1.0
1626062633.705795,-18.066,-45.898,-46.387,-295.89799999999997,1.0
1626062633.709701,-91.309,-37.598,-51.27,-238.28099999999998,1.0
1626062633.713607,-56.152,-25.391,-30.273000000000003,187.988,1.0
1626062633.7175136,27.831999999999997,-13.672,-15.625,208.00799999999998,1.0
1626062633.7214196,35.645,-34.18,-27.344,289.062,1.0
1626062633.725326,-5.371,-25.879,-38.086,68.359,1.0
1626062633.7292323,-87.891,-44.922,-43.457,-326.66,1.0
1626062633.7331386,-63.965,-54.199,-29.296999999999997,-185.05900000000003,1.0
1626062633.7370448,12.207,-46.875,-21.484,215.332,1.0
1626062633.740951,2.441,-39.062,-29.785,149.90200000000002,1.0
1626062633.7448573,-71.777,-31.738000000000003,-33.203,-253.90599999999998,1.0
1626062633.7487636,-88.37899999999999,-25.391,-26.366999999999997,-282.715,1.0
1626062633.7526696,-8.301,-22.461,-17.09,127.441,1.0
1626062633.756576,26.855,-5.371,-20.02,238.77,1.0
1626062633.7604823,-44.922,-6.836,-27.344,-142.09,1.0
1626062633.7643886,-86.426,-44.922,-28.809,-329.59,1.0
1626062633.7682948,-84.473,-29.785,-39.551,1.0,1.0
1626062633.772201,-1.953,-21.973000000000003,-28.32,1.0,1.0
1626062633.7761073,37.598,-22.461,-21.973000000000003,1.0,1.0
1626062633.7800136,-39.551,-25.879,-32.227,1.0,1.0
1626062633.7839198,-99.609,-32.227,-39.062,1.0,1.0
1626062633.787826,-39.551,-30.273000000000003,-36.621,1.0,1.0
1626062633.7917323,28.809,-25.879,-36.621,1.0,1.0
1626062633.7956386,-9.277000000000001,-26.855,-40.527,1.0,1.0
1626062633.799545,-79.59,-40.527,-50.781000000000006,1.0,1.0
1626062633.803451,-43.945,-56.152,-62.5,1.0,1.0
1626062633.807357,40.527,-61.035,-50.781000000000006,1.0,1.0
1626062633.8112638,17.578,-57.129,-33.691,1.0,1.0
1626062633.8151696,-14.16,-22.949,-34.668,57.129,1.0
1626062633.8190758,-106.934,-27.344,-34.18,-321.777,1.0
1626062633.822982,-85.449,-23.926,-32.715,-162.59799999999998,1.0
1626062633.8268883,6.836,-20.508000000000003,-24.901999999999997,243.65200000000002,1.0
1626062633.830795,5.371,-30.273000000000003,-26.855,137.695,1.0
1626062633.834701,-75.684,-44.922,-36.133,-288.574,1.0
1626062633.8386073,-78.613,-34.668,-27.344,-250.977,1.0
1626062633.8425136,7.324,-37.598,-20.508000000000003,169.922,1.0
1626062633.8464196,26.366999999999997,-52.733999999999995,-32.715,244.141,1.0
1626062633.850326,-53.711000000000006,-47.852,-39.062,-170.898,1.0
1626062633.8542323,-88.867,-34.668,-29.785,-327.637,1.0
1626062633.8581383,-20.996,-28.32,-25.879,47.852,1.0
1626062633.8620448,-3.906,-44.922,-34.668,116.699,1.0
1626062633.865951,36.621,-33.691,-17.09,258.789,1.0
1626062633.8698573,-27.831999999999997,-34.18,-24.414,-121.094,1.0
1626062633.8737636,-71.289,-20.02,-22.461,-323.242,1.0
1626062633.8776698,-9.277000000000001,7.812,-9.766,20.02,1.0
1626062633.881576,34.668,-11.23,-19.043,281.738,1.0
1626062633.8854823,-30.761999999999997,-37.598,-48.828,-21.973000000000003,1.0
1626062633.8893886,-98.633,-32.227,-52.733999999999995,-355.957,1.0
1626062633.8932948,-61.523,-22.949,-41.016000000000005,-125.488,1.0
1626062633.897201,10.254000000000001,-21.973000000000003,-41.504,254.395,1.0
1626062633.9011073,-11.23,-27.344,-42.968999999999994,101.56200000000001,1.0
1626062633.9050138,-97.16799999999999,-39.062,-42.968999999999994,-318.35900000000004,1.0
1626062633.9089198,-76.172,-36.621,-38.574,-343.75,1.0
1626062633.912826,-37.598,-14.648,-12.207,-133.30100000000002,1.0
1626062633.9167323,30.761999999999997,-21.973000000000003,-18.555,248.535,1.0
1626062633.9206386,5.371,-37.598,-45.41,116.211,1.0
1626062633.9245448,-76.66,-36.621,-46.875,-298.828,1.0
1626062633.928451,-80.566,-41.016000000000005,-52.246,-264.16,1.0
1626062633.932357,2.93,-30.273000000000003,-75.684,162.109,1.0
1626062633.9362638,34.668,-6.348,-49.316,229.49200000000002,1.0
1626062633.9401696,-36.621,-10.254000000000001,-22.461,-170.41,1.0
1626062633.9440763,-66.406,-41.992,-13.672,-307.129,1.0
1626062633.947982,0.977,-32.227,-12.207,71.777,1.0
1626062633.9518883,28.809,-8.789,-25.879,277.344,1.0
1626062633.955795,40.527,-44.922,-21.484,264.64799999999997,1.0
1626062633.959701,-40.527,-23.926,-17.09,-135.254,1.0
1626062633.963607,-98.145,-21.484,-25.391,-325.195,1.0
1626062633.9675136,-39.551,-31.738000000000003,-21.484,24.901999999999997,1.0
1626062633.9714196,27.831999999999997,-21.973000000000003,-25.391,287.598,1.0
1626062633.975326,-16.113,-28.32,-39.062,-18.555,1.0
1626062633.9792323,-74.219,-33.691,-44.922,-330.566,1.0
1626062633.9831386,-43.945,-35.156,-42.48,-86.914,1.0
1626062633.9870448,20.02,-29.296999999999997,-18.555,269.531,1.0
1626062633.990951,-4.395,-36.133,-11.719000000000001,94.238,1.0
1626062633.9948573,-89.844,-45.41,-23.438000000000002,-305.664,1.0
1626062633.9987636,-81.055,-39.551,-33.691,-210.938,1.0
1626062634.0026696,-60.059,-25.879,-35.645,-132.812,1.0
1626062634.006576,17.578,-19.531,-26.366999999999997,242.188,1.0
1626062634.0104823,17.578,-31.25,-24.414,137.207,1.0
1626062634.0143886,-73.73,-50.293,-41.992,-292.969,1.0
1626062634.0182948,-79.59,-44.434,-55.176,-236.328,1.0
1626062634.022201,2.93,-21.973000000000003,-41.992,196.77700000000002,1.0
1626062634.0261073,14.16,-8.789,-43.457,215.332,1.0
1626062634.0300136,-64.941,-33.691,-60.547,-201.172,1.0
1626062634.0339198,-93.75,-66.406,-36.133,-317.383,1.0
1626062634.037826,-21.484,-44.434,-13.672,85.93799999999999,1.0
1626062634.0417323,19.043,-16.602,-15.625,277.344,1.0
1626062634.0456386,-43.945,-29.296999999999997,-18.555,-83.984,1.0
1626062634.049545,-64.453,-22.461,-33.691,-348.63300000000004,1.0
1626062634.053451,-113.77,-14.16,-49.805,-29.296999999999997,1.0
1626062634.057357,-44.922,-25.879,-47.363,300.781,1.0
1626062634.0612638,15.625,-48.34,-35.156,54.688,1.0
1626062634.0651696,-41.504,-34.18,-35.156,-318.35900000000004,1.0
1626062634.0690758,-109.375,-35.645,-39.062,-147.461,1.0
1626062634.072982,-66.406,-46.387,-22.461,263.672,1.0
1626062634.0768883,3.418,-41.504,-34.18,160.156,1.0
1626062634.080795,-21.973000000000003,-38.574,-53.223,-269.531,1.0
1626062634.084701,-90.82,-30.761999999999997,-37.598,-252.44099999999997,1.0
1626062634.0886073,-71.777,-8.789,-28.32,187.988,1.0
1626062634.0925136,13.672,-24.414,-28.809,270.02,1.0
1626062634.0964196,24.414,-27.831999999999997,-21.484,260.742,1.0
1626062634.100326,6.348,-39.062,-21.973000000000003,115.723,1.0
1626062634.1042323,-70.312,-82.031,-34.668,-291.504,1.0
1626062634.1081383,-64.941,-83.49600000000001,-49.805,-208.984,1.0
1626062634.1120448,6.836,-18.555,-51.758,172.363,1.0
1626062634.115951,-0.977,0.488,-43.457,139.16,1.0
1626062634.1198573,-71.777,-19.043,-32.227,-232.422,1.0
1626062634.1237636,-82.031,-26.855,-28.32,-306.152,1.0
1626062634.1276698,-0.977,-39.551,-26.855,102.051,1.0
1626062634.131576,40.527,-42.48,-25.879,268.066,1.0
1626062634.1354823,-38.086,-28.809,-37.598,-112.305,1.0
1626062634.1393886,-94.727,-22.949,-44.922,-354.49199999999996,1.0
1626062634.1432948,-102.051,-40.527,-27.344,1.0,1.0
1626062634.147201,-32.227,-34.18,-18.066,1.0,1.0
1626062634.1511073,22.949,-33.203,-19.531,1.0,1.0
1626062634.1550138,-26.855,-55.663999999999994,-28.809,1.0,1.0
1626062634.1589198,-80.078,-54.199,-24.901999999999997,1.0,1.0
1626062634.162826,-37.109,-30.761999999999997,-27.831999999999997,1.0,1.0
1626062634.1667323,34.668,-19.043,-20.996,1.0,1.0
1626062634.1706386,7.324,-27.831999999999997,-27.344,1.0,1.0
1626062634.1745448,-83.49600000000001,-51.758,-50.293,1.0,1.0
1626062634.178451,-69.824,-46.387,-44.922,1.0,1.0
1626062634.182357,24.414,-22.949,-33.203,1.0,1.0
1626062634.1862638,10.254000000000001,-17.09,-38.574,1.0,1.0
1626062634.1901696,1.953,-23.926,-34.668,100.098,1.0
1626062634.1940763,-80.566,-20.508000000000003,-42.48,-305.176,1.0
1626062634.197982,-56.152,-27.344,-30.761999999999997,-194.33599999999998,1.0
1626062634.2018883,23.438000000000002,-31.25,-21.973000000000003,220.215,1.0
1626062634.205795,20.02,-29.785,-25.391,174.31599999999997,1.0
1626062634.209701,-53.223,-20.02,-31.25,-247.55900000000003,1.0
1626062634.213607,-69.824,-27.344,-35.156,-292.48,1.0
1626062634.2175136,-0.977,-40.039,-31.738000000000003,108.887,1.0
1626062634.2214196,33.691,-36.133,-27.831999999999997,256.836,1.0
1626062634.225326,-35.645,-33.691,-27.831999999999997,-114.258,1.0
1626062634.2292323,-85.93799999999999,-40.039,-12.695,-331.543,1.0
1626062634.2331386,-29.785,-37.109,-6.836,1.953,1.0
1626062634.2370448,-4.883,-48.34,-41.992,82.031,1.0
1626062634.240951,41.992,-33.203,-40.527,266.113,1.0
1626062634.2448573,-16.113,-16.602,-24.901999999999997,-75.684,1.0
1626062634.2487636,-83.49600000000001,-12.207,-36.621,-347.168,1.0
1626062634.2526696,-33.203,4.883,-44.434,-43.945,1.0
1626062634.256576,41.504,-0.977,-33.203,283.691,1.0
1626062634.2604823,-2.441,-41.016000000000005,-36.133,35.156,1.0
1626062634.2643886,-88.37899999999999,-64.941,-41.992,-346.191,1.0
1626062634.2682948,-59.082,-36.133,-32.227,-164.062,1.0
1626062634.272201,28.809,-7.812,-28.809,247.55900000000003,1.0
1626062634.2761073,15.625,-21.484,-43.457,150.391,1.0
1626062634.2800136,-59.082,-28.32,-35.645,-255.859,1.0
1626062634.2839198,-74.219,-24.414,-30.761999999999997,1.0,1.0
1626062634.287826,-63.477,-40.527,-31.25,1.0,1.0
1626062634.2917323,13.672,-58.593999999999994,-37.109,1.0,1.0
1626062634.2956386,15.137,-49.805,-42.968999999999994,1.0,1.0
1626062634.299545,-72.266,-42.48,-43.945,1.0,1.0
1626062634.303451,-92.285,-25.879,-41.992,1.0,1.0
1626062634.307357,-5.371,-24.414,-36.133,1.0,1.0
1626062634.3112638,29.785,-32.715,-35.645,1.0,1.0
1626062634.3151696,-61.523,-45.41,-45.898,1.0,1.0
1626062634.3190758,-124.023,-42.968999999999994,-42.968999999999994,1.0,1.0
1626062634.322982,-49.316,-29.785,-31.25,1.0,1.0
1626062634.3268883,18.555,-18.555,-29.785,1.0,1.0
1626062634.330795,34.18,-23.926,-20.996,251.465,1.0
1626062634.334701,-35.645,-32.227,-29.296999999999997,-117.18799999999999,1.0
1626062634.3386073,-92.285,-41.016000000000005,-40.527,-355.469,1.0
1626062634.3425136,-25.391,-28.809,-29.785,-28.809,1.0
1626062634.3464196,49.805,-16.602,-20.508000000000003,292.48,1.0
1626062634.350326,-11.719000000000001,-21.484,-41.504,17.578,1.0
1626062634.3542323,-106.934,-36.621,-46.875,-359.86300000000006,1.0
1626062634.3581383,-70.801,-43.457,-32.227,-161.13299999999998,1.0
1626062634.3620448,15.625,-28.809,-17.09,235.84,1.0
1626062634.365951,3.418,-36.133,-18.555,122.559,1.0
1626062634.3698573,-65.43,-46.875,-25.391,-277.832,1.0
1626062634.3737636,-75.195,-45.898,-26.855,-250.977,1.0
1626062634.3776698,-63.965,-45.41,-27.344,-180.176,1.0
1626062634.381576,26.855,-36.133,-21.484,244.141,1.0
1626062634.3854823,15.625,-28.32,-31.738000000000003,175.78099999999998,1.0
1626062634.3893886,-92.773,-44.922,-51.758,-276.855,1.0
1626062634.3932948,-107.42200000000001,-29.296999999999997,-52.246,-301.27,1.0
1626062634.397201,-15.137,-20.996,-45.898,120.117,1.0
1626062634.4011073,23.926,-17.09,-33.203,228.02700000000002,1.0
1626062634.4050138,-51.27,-34.18,-32.715,-176.75799999999998,1.0
1626062634.4089198,-106.934,-59.082,-33.203,-360.84,1.0
1626062634.412826,-43.457,-48.34,-30.761999999999997,7.812,1.0
1626062634.4167323,21.484,-29.296999999999997,-29.785,257.324,1.0
1626062634.4206386,-29.296999999999997,-15.625,-27.831999999999997,-45.41,1.0
1626062634.4245448,-50.293,-28.32,-27.831999999999997,-352.051,1.0
1626062634.428451,-94.238,-33.691,-27.344,-86.914,1.0
1626062634.432357,-17.578,-25.879,-13.184000000000001,281.738,1.0
1626062634.4362638,23.926,-30.273000000000003,-16.602,98.145,1.0
1626062634.4401696,-30.273000000000003,-36.133,-29.785,-307.129,1.0
1626062634.4440763,-94.727,-54.688,-50.781000000000006,-208.00799999999998,1.0
1626062634.447982,-64.453,-43.945,-31.25,216.30900000000003,1.0
1626062634.4518883,10.742,-12.695,-2.441,200.195,1.0
1626062634.455795,-10.742,-18.555,-12.695,-217.773,1.0
1626062634.459701,-83.008,-34.18,-17.578,-286.621,1.0
1626062634.463607,-67.383,-52.246,-9.766,123.04700000000001,1.0
1626062634.4675136,24.901999999999997,-58.105,-9.766,271.48400000000004,1.0
1626062634.4714196,26.366999999999997,-40.527,-36.133,249.023,1.0
1626062634.475326,7.812,-21.973000000000003,-38.574,149.90200000000002,1.0
1626062634.4792323,-75.195,-16.602,-42.48,-271.48400000000004,1.0
1626062634.4831386,-89.844,-43.457,-57.129,-275.879,1.0
1626062634.4870448,-8.301,-30.273000000000003,-37.598,143.066,1.0
1626062634.490951,23.926,-23.926,-19.043,229.98,1.0
1626062634.4948573,-44.922,-60.547,-22.949,-166.50400000000002,1.0
1626062634.4987636,-83.984,-56.152,-30.273000000000003,-324.219,1.0
1626062634.5026696,-19.531,-29.296999999999997,-39.551,42.48,1.0
1626062634.506576,29.296999999999997,-13.184000000000001,-40.527,270.02,1.0
1626062634.5104823,-32.715,-12.695,-34.668,-59.082,1.0
1626062634.5143886,-83.008,-14.648,-26.366999999999997,-343.75,1.0
1626062634.5182948,-86.914,-31.25,-43.945,1.0,1.0
1626062634.522201,-18.555,-48.828,-20.02,1.0,1.0
1626062634.5261073,26.366999999999997,-50.781000000000006,-21.484,1.0,1.0
1626062634.5300136,-34.668,-42.968999999999994,-36.621,1.0,1.0
1626062634.5339198,-93.75,-20.996,-52.246,1.0,1.0
1626062634.537826,-54.688,-8.301,-49.316,1.0,1.0
1626062634.5417323,17.578,-15.625,-27.344,1.0,1.0
1626062634.5456386,-10.742,-19.043,-23.926,1.0,1.0
1626062634.549545,-94.727,-24.901999999999997,-35.645,1.0,1.0
1626062634.553451,-90.33200000000001,-41.016000000000005,-34.18,1.0,1.0
1626062634.557357,-10.254000000000001,-51.758,-24.901999999999997,1.0,1.0
1626062634.5612638,8.301,-22.949,-32.227,1.0,1.0
1626062634.5651696,5.371,-56.641000000000005,-30.761999999999997,149.90200000000002,1.0
1626062634.5690758,-84.473,-31.25,-27.344,-275.879,1.0
1626062634.572982,-93.262,-13.672,-17.578,-254.88299999999998,1.0
1626062634.5768883,-19.043,-8.301,-13.672,172.363,1.0
1626062634.580795,2.93,-9.766,-25.391,190.918,1.0
1626062634.584701,-74.707,-18.555,-31.738000000000003,-241.699,1.0
1626062634.5886073,-85.449,-19.043,-15.625,-305.664,1.0
1626062634.5925136,3.906,-16.113,-17.578,92.285,1.0
1626062634.5964196,39.551,-22.461,-29.785,280.27299999999997,1.0
1626062634.600326,-32.227,-38.574,-23.438000000000002,-74.219,1.0
1626062634.6042323,-90.82,-41.504,-21.484,-345.215,1.0
1626062634.6081383,-39.551,-32.715,-18.555,-50.293,1.0
1626062634.6120448,-30.761999999999997,-56.152,-36.133,35.156,1.0
1626062634.615951,34.18,-36.621,-31.738000000000003,300.781,1.0
1626062634.6198573,-26.855,-23.926,-37.598,-27.344,1.0
1626062634.6237636,-97.16799999999999,-23.438000000000002,-27.831999999999997,-348.63300000000004,1.0
1626062634.6276698,-47.363,-22.461,-20.996,-95.70299999999999,1.0
1626062634.631576,35.645,-15.137,-24.414,275.879,1.0
1626062634.6354823,7.812,-7.324,-39.551,92.285,1.0
1626062634.6393886,-83.008,-24.414,-46.875,-319.336,1.0
1626062634.6432948,-63.477,-45.898,-31.738000000000003,-204.59,1.0
1626062634.647201,19.531,-42.968999999999994,-23.926,215.82,1.0
1626062634.6511073,12.695,-19.531,-23.926,179.688,1.0
1626062634.6550138,-70.312,-26.855,-19.531,-241.699,1.0
1626062634.6589198,-79.59,-37.109,-44.922,-297.363,1.0
1626062634.662826,-74.219,-30.761999999999997,-31.738000000000003,110.84,1.0
1626062634.6667323,-3.906,-34.668,-27.344,250.0,1.0
1626062634.6706386,2.93,-22.461,-39.062,-139.16,1.0
1626062634.6745448,-56.641000000000005,-20.996,-26.366999999999997,-352.539,1.0
1626062634.678451,-82.031,-36.621,-10.254000000000001,1.953,1.0
1626062634.682357,-5.371,-27.344,-18.066,296.875,1.0
1626062634.6862638,29.296999999999997,-36.133,-45.898,5.371,1.0
1626062634.6901696,-58.105,-48.828,-50.781000000000006,-354.004,1.0
1626062634.6940763,-105.95700000000001,-26.366999999999997,-40.527,-130.859,1.0
1626062634.697982,-37.109,-10.742,-32.227,264.16,1.0
1626062634.7018883,39.551,-6.836,-13.184000000000001,130.371,1.0
1626062634.705795,29.296999999999997,-32.227,-20.996,273.926,1.0
1626062634.709701,-27.344,-32.227,-23.438000000000002,-52.246,1.0
1626062634.713607,-92.773,-33.203,-29.785,-345.215,1.0
1626062634.7175136,-33.203,-38.574,-31.738000000000003,-59.57,1.0
1626062634.7214196,38.574,-35.156,-41.992,254.395,1.0
1626062634.725326,1.953,-30.761999999999997,-40.527,29.785,1.0
1626062634.7292323,-64.941,-20.508000000000003,-30.761999999999997,-311.035,1.0
1626062634.7331386,-50.781000000000006,-22.949,-23.438000000000002,-175.78099999999998,1.0
1626062634.7370448,29.785,-27.831999999999997,-15.625,239.74599999999998,1.0
1626062634.740951,39.551,-13.672,-16.602,197.75400000000002,1.0
1626062634.7448573,-48.34,-25.391,-29.296999999999997,-234.375,1.0
1626062634.7487636,-71.777,-42.968999999999994,-34.668,-271.973,1.0
1626062634.7526696,-67.87100000000001,-47.363,-24.414,-206.543,1.0
1626062634.756576,17.09,-10.254000000000001,-7.812,222.168,1.0
1626062634.7604823,5.859,-27.344,-29.785,204.102,1.0
1626062634.7643886,-86.914,-58.105,-61.523,-228.516,1.0
1626062634.7682948,-98.145,-41.016000000000005,-48.828,-293.457,1.0
1626062634.772201,-0.977,-19.043,-17.578,133.30100000000002,1.0
1626062634.7761073,38.086,-9.766,-16.113,297.363,1.0
1626062634.7800136,-69.336,-35.156,-46.387,-114.74600000000001,1.0
1626062634.7839198,-125.488,-52.246,-43.945,-367.18800000000005,1.0
1626062634.787826,-46.387,-44.434,-26.855,-20.02,1.0
1626062634.7917323,10.742,-41.504,-29.785,278.32,1.0
1626062634.7956386,-30.273000000000003,-35.156,-35.156,13.672,1.0
1626062634.799545,-25.879,-24.901999999999997,-41.504,1.0,1.0
1626062634.803451,-98.633,-7.324,-36.133,1.0,1.0
1626062634.807357,-65.43,-17.578,-41.992,1.0,1.0
1626062634.8112638,7.324,-44.922,-28.809,1.0,1.0
1626062634.8151696,-15.625,-52.733999999999995,-15.625,1.0,1.0
1626062634.8190758,-106.934,-51.27,-36.133,1.0,1.0
1626062634.822982,-81.543,-55.663999999999994,-39.062,1.0,1.0
1626062634.8268883,6.836,-60.059,-28.809,1.0,1.0
1626062634.830795,-5.859,-62.012,-41.016000000000005,1.0,1.0
1626062634.834701,-73.242,-43.945,-35.645,1.0,1.0
1626062634.8386073,-74.219,-10.742,-21.973000000000003,1.0,1.0
1626062634.8425136,0.977,-10.254000000000001,-22.949,1.0,1.0
1626062634.8464196,0.0,-25.879,-23.926,204.59,1.0
1626062634.850326,-1.465,-49.805,-32.227,169.922,1.0
1626062634.8542323,-82.52,-49.316,-49.316,-256.348,1.0
1626062634.8581383,-93.75,-38.574,-32.227,-293.457,1.0
1626062634.8620448,-10.254000000000001,-42.48,-10.254000000000001,114.258,1.0
1626062634.865951,20.02,-33.691,-21.973000000000003,221.19099999999997,1.0
1626062634.8698573,-49.316,-23.438000000000002,-33.203,-154.297,1.0
1626062634.8737636,-107.91,-41.504,-43.945,-367.676,1.0
1626062634.8776698,-31.738000000000003,-38.574,-29.296999999999997,-11.23,1.0
1626062634.881576,40.039,-20.996,-15.137,282.22700000000003,1.0
1626062634.8854823,-20.508000000000003,-26.855,-41.992,-8.301,1.0
1626062634.8893886,-97.16799999999999,-33.203,-57.129,-350.098,1.0
1626062634.8932948,-92.773,-24.414,-33.691,1.0,1.0
1626062634.897201,-34.668,-12.207,-27.831999999999997,1.0,1.0
1626062634.9011073,39.062,-32.715,-18.555,1.0,1.0
1626062634.9050138,-9.277000000000001,-70.312,-16.602,1.0,1.0
1626062634.9089198,-84.961,-57.617,-25.391,1.0,1.0
1626062634.912826,-55.663999999999994,-34.18,-31.738000000000003,1.0,1.0
1626062634.9167323,36.621,-15.137,-21.484,1.0,1.0
1626062634.9206386,11.23,-13.184000000000001,-38.574,1.0,1.0
1626062634.9245448,-93.262,-46.875,-53.223,1.0,1.0
1626062634.928451,-89.844,-51.27,-35.156,1.0,1.0
1626062634.932357,3.418,-8.789,-26.855,1.0,1.0
1626062634.9362638,24.414,-2.93,-45.898,1.0,1.0
1626062634.9401696,20.508000000000003,-48.828,-31.738000000000003,165.03900000000002,1.0
1626062634.9440763,-45.898,-42.48,-29.785,-235.352,1.0
1626062634.947982,-53.711000000000006,-12.207,-24.901999999999997,-245.11700000000002,1.0
1626062634.9518883,14.648,-9.277000000000001,-13.184000000000001,164.062,1.0
1626062634.955795,37.109,-9.277000000000001,-13.672,263.184,1.0
1626062634.959701,-47.852,-16.602,-38.574,-145.02,1.0
1626062634.963607,-104.492,-41.992,-35.156,-341.309,1.0
1626062634.9675136,-37.598,-37.109,-27.344,15.625,1.0
1626062634.9714196,19.531,-28.809,-36.621,270.508,1.0
1626062634.975326,-35.645,-31.25,-41.992,-41.016000000000005,1.0
1626062634.9792323,-101.074,-32.715,-46.387,-359.375,1.0
1626062634.9831386,-50.781000000000006,-46.387,-47.852,-104.00399999999999,1.0
1626062634.9870448,-28.32,-60.059,-26.855,-11.719000000000001,1.0
1626062634.990951,41.504,-22.461,-20.996,288.086,1.0
1626062634.9948573,5.859,-17.578,-25.879,23.926,1.0
1626062634.9987636,-79.59,-20.996,-36.621,-336.914,1.0
1626062635.0026696,-41.504,-18.555,-38.086,-129.395,1.0
1626062635.006576,52.733999999999995,-19.043,-40.039,266.113,1.0
1626062635.0104823,24.901999999999997,-35.156,-42.48,122.07,1.0
1626062635.0143886,-78.613,-49.316,-49.316,-309.57,1.0
1626062635.0182948,-77.148,-22.461,-44.922,-255.37099999999998,1.0
1626062635.022201,14.648,-10.742,-48.34,176.27,1.0
1626062635.0261073,28.809,-34.668,-48.34,205.078,1.0
1626062635.0300136,-43.457,-31.738000000000003,-51.758,-204.102,1.0
1626062635.0339198,-81.543,-41.016000000000005,-45.41,-311.52299999999997,1.0
1626062635.037826,-80.078,-20.996,-33.203,78.613,1.0
1626062635.0417323,-5.371,-26.366999999999997,-18.555,275.39099999999996,1.0
1626062635.0456386,4.883,-46.875,-20.02,-72.266,1.0
1626062635.049545,-61.523,-41.016000000000005,-24.901999999999997,-338.379,1.0
1626062635.053451,-88.867,-30.761999999999997,-31.738000000000003,-36.133,1.0
1626062635.057357,-26.855,-48.34,-39.551,281.738,1.0
1626062635.0612638,26.855,-52.246,-39.551,47.363,1.0
1626062635.0651696,-29.296999999999997,-32.227,-47.852,-318.848,1.0
1626062635.0690758,-104.00399999999999,-24.901999999999997,-43.945,-154.785,1.0
1626062635.072982,-64.453,-29.296999999999997,-24.414,249.023,1.0
1626062635.0768883,14.16,-28.809,-32.715,152.832,1.0
1626062635.080795,11.719000000000001,-41.504,-52.733999999999995,275.39099999999996,1.0
1626062635.084701,-33.691,-32.715,-28.32,-21.484,1.0
1626062635.0886073,-102.539,-32.227,-11.23,-352.539,1.0
1626062635.0925136,-67.87100000000001,-31.738000000000003,-23.438000000000002,-127.441,1.0
1626062635.0964196,15.137,-13.184000000000001,-25.879,252.44099999999997,1.0
1626062635.100326,-7.812,-19.043,-29.785,101.074,1.0
1626062635.1042323,-82.52,-20.996,-26.855,-299.316,1.0
1626062635.1081383,-66.895,-29.785,-30.761999999999997,-213.86700000000002,1.0
1626062635.1120448,13.672,-31.738000000000003,-53.711000000000006,199.707,1.0
1626062635.115951,20.02,-21.973000000000003,-42.48,192.38299999999998,1.0
1626062635.1198573,-62.012,-45.898,-36.621,-235.352,1.0
1626062635.1237636,-81.543,-48.34,-50.293,-321.289,1.0
1626062635.1276698,-63.477,-41.992,-28.32,1.0,1.0
1626062635.131576,13.184000000000001,-47.363,-28.809,1.0,1.0
1626062635.1354823,20.02,-56.641000000000005,-30.761999999999997,1.0,1.0
1626062635.1393886,-56.152,-83.49600000000001,-35.645,1.0,1.0
1626062635.1432948,-82.52,-77.637,-47.363,1.0,1.0
1626062635.147201,-8.789,-28.809,-39.062,1.0,1.0
1626062635.1511073,36.621,-3.418,-27.831999999999997,1.0,1.0
1626062635.1550138,-20.508000000000003,-22.461,-31.25,1.0,1.0
1626062635.1589198,-81.055,-37.598,-29.785,1.0,1.0
1626062635.162826,-38.574,-22.461,-17.09,1.0,1.0
1626062635.1667323,41.016000000000005,-3.418,-15.625,1.0,1.0
1626062635.1706386,12.695,-10.742,-21.484,1.0,1.0
1626062635.1745448,-10.742,-17.578,-29.296999999999997,-23.926,1.0
1626062635.178451,-89.844,-11.23,-40.039,-340.82,1.0
1626062635.182357,-50.781000000000006,-6.836,-47.852,-88.867,1.0
1626062635.1862638,22.949,-17.09,-47.363,277.344,1.0
1626062635.1901696,10.742,-37.109,-25.391,94.727,1.0
1626062635.1940763,-66.895,-39.551,-19.531,-315.918,1.0
1626062635.197982,-66.406,-37.109,-21.973000000000003,-206.055,1.0
1626062635.2018883,4.395,-30.273000000000003,-25.391,202.148,1.0
1626062635.205795,5.371,-23.926,-42.48,181.15200000000002,1.0
1626062635.209701,-67.87100000000001,-31.738000000000003,-46.387,-234.375,1.0
1626062635.213607,-77.148,-58.105,-38.086,-296.875,1.0
1626062635.2175136,18.555,-62.012,-30.273000000000003,127.93,1.0
1626062635.2214196,-4.395,-10.254000000000001,-25.391,164.062,1.0
1626062635.225326,1.465,-10.742,-39.551,173.34,1.0
1626062635.2292323,-67.87100000000001,-12.695,-39.062,-205.56599999999997,1.0
1626062635.2331386,-89.355,-22.461,-28.32,-312.012,1.0
1626062635.2370448,-14.16,-31.738000000000003,-42.48,83.984,1.0
1626062635.240951,44.922,-21.484,-41.016000000000005,287.598,1.0
1626062635.2448573,-20.508000000000003,-42.968999999999994,-30.273000000000003,-68.848,1.0
1626062635.2487636,-100.586,-54.199,-32.715,-351.074,1.0
1626062635.2526696,-37.109,-52.733999999999995,-14.648,-37.598,1.0
1626062635.256576,43.945,-46.387,-13.672,294.922,1.0
1626062635.2604823,-5.371,-30.273000000000003,-20.996,43.457,1.0
1626062635.2643886,-78.125,-9.766,-16.602,-323.242,1.0
1626062635.2682948,-115.723,-33.203,-26.366999999999997,1.0,1.0
1626062635.272201,-44.922,-41.504,-20.02,1.0,1.0
1626062635.2761073,34.668,-42.48,-29.785,1.0,1.0
1626062635.2800136,-10.742,-55.663999999999994,-40.039,1.0,1.0
1626062635.2839198,-83.49600000000001,-36.133,-25.879,1.0,1.0
1626062635.287826,-73.73,-3.906,-4.883,1.0,1.0
1626062635.2917323,17.09,0.488,-0.977,1.0,1.0
1626062635.2956386,18.066,-35.156,-7.812,1.0,1.0
1626062635.299545,-76.172,-69.336,-15.137,1.0,1.0
1626062635.303451,-74.707,-43.457,-16.602,1.0,1.0
1626062635.307357,1.465,-5.371,-17.578,1.0,1.0
1626062635.3112638,14.16,-5.371,-38.086,1.0,1.0
1626062635.3151696,14.648,-27.344,-21.484,196.77700000000002,1.0
1626062635.3190758,-68.848,-27.344,-17.578,-222.65599999999998,1.0
1626062635.322982,-93.75,-42.48,-18.555,-298.828,1.0
1626062635.3268883,-15.625,-52.733999999999995,-30.273000000000003,117.676,1.0
1626062635.330795,15.625,-51.27,-36.621,235.352,1.0
1626062635.334701,-57.129,-47.363,-33.203,-156.738,1.0
1626062635.3386073,-92.285,-36.133,-28.32,-337.402,1.0
1626062635.3425136,-36.133,-14.648,-28.32,-18.066,1.0
1626062635.3464196,15.625,-15.137,-32.227,271.48400000000004,1.0
1626062635.350326,-22.461,-38.574,-39.062,5.859,1.0
1626062635.3542323,-83.49600000000001,-46.387,-35.156,-340.332,1.0
1626062635.3581383,-55.663999999999994,-29.785,-27.831999999999997,-137.207,1.0
1626062635.3620448,-47.852,-24.901999999999997,-41.992,-59.57,1.0
1626062635.365951,24.901999999999997,-38.574,-27.831999999999997,282.22700000000003,1.0
1626062635.3698573,-11.23,-52.733999999999995,-27.344,56.641000000000005,1.0
1626062635.3737636,-104.00399999999999,-60.059,-57.129,-342.773,1.0
1626062635.3776698,-78.613,-36.133,-65.43,-183.59400000000002,1.0
1626062635.381576,0.977,-10.742,-46.387,229.98,1.0
1626062635.3854823,-10.254000000000001,-7.812,-38.086,141.113,1.0
1626062635.3893886,-88.37899999999999,-4.883,-34.668,-279.785,1.0
1626062635.3932948,-104.00399999999999,-17.578,-24.901999999999997,-297.85200000000003,1.0
1626062635.397201,-13.184000000000001,-25.391,-11.719000000000001,129.395,1.0
1626062635.4011073,30.761999999999997,-42.48,-6.348,244.141,1.0
1626062635.4050138,-44.922,-68.848,-21.973000000000003,-163.57399999999998,1.0
1626062635.4089198,-65.43,-15.137,-28.32,-352.051,1.0
1626062635.412826,-84.961,-18.066,-10.254000000000001,24.901999999999997,1.0
1626062635.4167323,-3.906,-29.785,-14.648,274.414,1.0
1626062635.4206386,29.785,-47.852,-34.18,-34.668,1.0
1626062635.4245448,-48.34,-45.898,-39.551,-333.00800000000004,1.0
1626062635.428451,-94.238,-60.547,-48.34,-83.49600000000001,1.0
1626062635.432357,-25.391,-59.082,-36.133,270.996,1.0
1626062635.4362638,28.32,-31.738000000000003,-61.035,77.148,1.0
1626062635.4401696,-4.395,-27.831999999999997,-60.547,-322.754,1.0
1626062635.4440763,-64.941,-30.761999999999997,-0.977,-211.91400000000002,1.0
1626062635.447982,-74.707,-24.901999999999997,-0.488,205.078,1.0
1626062635.4518883,-12.695,-12.207,-26.366999999999997,184.57,1.0
1626062635.455795,26.366999999999997,-27.831999999999997,-20.996,284.18,1.0
1626062635.459701,-11.23,-28.32,-30.761999999999997,30.761999999999997,1.0
1626062635.463607,-91.309,-40.039,-46.875,-343.26199999999994,1.0
1626062635.4675136,-54.199,-33.691,-32.227,-151.36700000000002,1.0
1626062635.4714196,42.48,-16.602,-8.301,267.09,1.0
1626062635.475326,15.137,-14.16,-29.785,143.066,1.0
1626062635.4792323,-75.684,-24.901999999999997,-49.316,-284.668,1.0
1626062635.4831386,-83.008,-36.133,-54.199,-261.719,1.0
1626062635.4870448,3.418,-32.715,-50.781000000000006,155.762,1.0
1626062635.490951,37.109,-23.926,-35.156,229.00400000000002,1.0
1626062635.4948573,-48.34,-29.296999999999997,-50.781000000000006,-190.43,1.0
1626062635.4987636,-92.285,-25.879,-67.383,-341.79699999999997,1.0
1626062635.5026696,-76.66,-46.875,-38.574,1.0,1.0
1626062635.506576,10.742,-36.621,-16.113,1.0,1.0
1626062635.5104823,34.668,-26.855,-27.831999999999997,1.0,1.0
1626062635.5143886,-56.152,-28.32,-58.593999999999994,1.0,1.0
1626062635.5182948,-100.586,-20.996,-50.781000000000006,1.0,1.0
1626062635.522201,-37.109,-17.09,-35.156,1.0,1.0
1626062635.5261073,23.438000000000002,-18.555,-39.062,1.0,1.0
1626062635.5300136,-23.438000000000002,-31.738000000000003,-51.758,1.0,1.0
1626062635.5339198,-89.355,-54.688,-51.27,1.0,1.0
1626062635.537826,-40.527,-59.57,-29.785,1.0,1.0
1626062635.5417323,41.992,-48.828,-33.203,1.0,1.0
1626062635.5456386,18.066,-41.992,-48.34,1.0,1.0
1626062635.549545,-1.953,-34.18,-27.344,38.086,1.0
1626062635.553451,-75.195,-35.645,-20.996,-323.242,1.0
1626062635.557357,-53.223,-31.25,-33.691,-134.766,1.0
1626062635.5612638,20.02,-15.625,-39.551,252.93,1.0
1626062635.5651696,18.066,2.441,-27.831999999999997,138.184,1.0
1626062635.5690758,-70.312,-33.203,-31.25,-280.27299999999997,1.0
1626062635.572982,-83.49600000000001,-44.434,-32.227,-243.16400000000002,1.0
1626062635.5768883,-12.695,-43.945,-45.898,162.109,1.0
1626062635.580795,11.23,-44.434,-42.48,208.49599999999998,1.0
1626062635.584701,-64.453,-42.968999999999994,-25.391,-199.21900000000002,1.0
1626062635.5886073,-100.098,-40.527,-17.09,-320.801,1.0
1626062635.5925136,-8.789,-25.391,-20.996,82.52,1.0
1626062635.5964196,-2.441,-24.901999999999997,-47.363,161.13299999999998,1.0
1626062635.600326,15.625,-28.809,-39.551,236.81599999999997,1.0
1626062635.6042323,-58.105,-40.527,-34.668,-167.96900000000002,1.0
1626062635.6081383,-103.027,-44.922,-40.527,-332.031,1.0
1626062635.6120448,-34.668,-46.387,-39.551,44.434,1.0
1626062635.615951,41.992,-46.875,-24.414,297.363,1.0
1626062635.6198573,-8.301,-34.18,-13.672,-21.973000000000003,1.0
1626062635.6237636,-108.887,-33.203,-32.715,-363.281,1.0
1626062635.6276698,-74.219,-26.366999999999997,-40.527,-108.887,1.0
1626062635.631576,8.301,-18.066,-32.715,262.207,1.0
1626062635.6354823,-12.695,-27.344,-33.203,75.195,1.0
1626062635.6393886,-78.613,-34.668,-44.434,-318.35900000000004,1.0
1626062635.6432948,-69.336,-29.785,-38.086,-193.359,1.0
1626062635.647201,-40.527,-28.809,-33.203,237.305,1.0
1626062635.6511073,23.438000000000002,-24.414,-24.414,194.33599999999998,1.0
1626062635.6550138,-11.719000000000001,-44.922,-32.715,-244.141,1.0
1626062635.6589198,-97.656,-52.733999999999995,-44.434,-283.691,1.0
1626062635.662826,-82.031,-37.598,-38.574,135.254,1.0
1626062635.6667323,12.207,-35.645,-19.531,250.488,1.0
1626062635.6706386,22.949,-36.621,-29.296999999999997,-135.254,1.0
1626062635.6745448,-57.617,-27.344,-49.805,-342.773,1.0
1626062635.678451,-85.93799999999999,-20.508000000000003,-37.598,5.371,1.0
1626062635.682357,-15.625,-20.02,-14.16,282.22700000000003,1.0
1626062635.6862638,14.648,-36.621,-16.602,-6.836,1.0
1626062635.6901696,10.742,-11.719000000000001,-25.879,214.355,1.0
1626062635.6940763,-61.035,-39.062,-26.366999999999997,-192.38299999999998,1.0
1626062635.697982,-95.215,-55.176,-28.32,-332.52,1.0
1626062635.7018883,-24.414,-34.668,-30.273000000000003,52.246,1.0
1626062635.705795,38.086,-9.766,-21.484,287.10900000000004,1.0
1626062635.709701,-31.25,-37.109,-45.898,-61.035,1.0
1626062635.713607,-96.191,-44.922,-61.035,-343.75,1.0
1626062635.7175136,-41.504,-13.184000000000001,-32.715,-53.711000000000006,1.0
1626062635.7214196,37.109,2.93,-7.812,282.715,1.0
1626062635.725326,8.301,-6.836,-10.742,65.918,1.0
1626062635.7292323,-82.52,-37.598,-24.901999999999997,-325.195,1.0
1626062635.7331386,-71.289,-45.898,-38.086,-181.641,1.0
1626062635.7370448,-52.733999999999995,-13.184000000000001,-22.949,-89.355,1.0
1626062635.740951,27.831999999999997,-16.602,-14.648,289.062,1.0
1626062635.7448573,-5.371,-21.484,-36.133,104.492,1.0
1626062635.7487636,-96.68,-29.296999999999997,-47.852,-315.918,1.0
1626062635.7526696,-73.73,-24.414,-35.156,-210.938,1.0
1626062635.756576,17.09,-22.461,-34.18,215.82,1.0
1626062635.7604823,31.738000000000003,-21.973000000000003,-24.414,204.102,1.0
1626062635.7643886,-53.711000000000006,-39.062,-26.855,-225.58599999999998,1.0
1626062635.7682948,-91.309,-33.691,-33.203,-302.246,1.0
1626062635.772201,-11.719000000000001,-13.184000000000001,-31.25,114.74600000000001,1.0
1626062635.7761073,30.273000000000003,-13.184000000000001,-28.32,264.64799999999997,1.0
1626062635.7800136,-37.109,-29.785,-28.32,-116.699,1.0
1626062635.7839198,-44.922,-27.344,-30.761999999999997,-347.168,1.0
1626062635.787826,-79.59,-28.32,-27.344,7.812,1.0
1626062635.7917323,-19.043,-38.574,-26.366999999999997,315.918,1.0
1626062635.7956386,26.855,-50.781000000000006,-31.25,18.066,1.0
1626062635.799545,-32.715,-57.129,-40.527,-335.93800000000005,1.0
1626062635.803451,-98.633,-56.152,-49.805,-135.254,1.0
1626062635.807357,-38.086,-33.691,-43.945,234.863,1.0
1626062635.8112638,35.156,-9.277000000000001,-34.668,93.75,1.0
1626062635.8151696,-6.836,-3.906,-23.926,-310.059,1.0
1626062635.8190758,-66.406,-18.066,-14.16,-247.55900000000003,1.0
1626062635.822982,-28.809,-33.203,-12.695,179.688,1.0
1626062635.8268883,36.621,-11.719000000000001,-29.296999999999997,220.215,1.0
1626062635.830795,44.434,-9.766,-15.625,291.504,1.0
1626062635.834701,10.254000000000001,-28.809,-12.207,88.37899999999999,1.0
1626062635.8386073,-90.82,-35.156,-19.043,-321.289,1.0
1626062635.8425136,-87.891,-29.296999999999997,-16.113,-193.84799999999998,1.0
