timestamps,TP9,AF7,AF8,TP10,Right AUX
1626062958.3776698,-40.527,-23.926,-33.203,-126.95299999999999,1.0
1626062958.381576,-4.395,-26.855,-28.809,98.145,1.0
1626062958.3854823,-8.789,-33.691,-14.648,102.051,1.0
1626062958.3893886,-40.527,-45.41,-18.066,-115.234,1.0
1626062958.3932948,-59.082,-42.48,-20.508000000000003,-184.57,1.0
1626062958.397201,-41.992,-41.504,-19.531,11.23,1.0
1626062958.4011073,-13.184000000000001,-45.41,-4.883,115.723,1.0
1626062958.4050138,-37.109,-46.875,-14.648,-78.125,1.0
1626062958.4089198,-90.33200000000001,-77.148,-52.246,-240.234,1.0
1626062958.412826,-63.965,-66.406,-41.016000000000005,-65.43,1.0
1626062958.4167323,-10.742,-27.831999999999997,-20.996,120.605,1.0
1626062958.4206386,4.883,-27.344,-31.738000000000003,15.137,1.0
1626062958.4245448,-23.926,-12.207,-41.016000000000005,-46.875,1.0
1626062958.428451,-34.18,-23.438000000000002,-55.176,-182.61700000000002,1.0
1626062958.432357,-6.836,-29.296999999999997,-43.457,-32.715,1.0
1626062958.4362638,16.602,-49.316,-20.02,138.184,1.0
1626062958.4401696,8.301,-44.922,-2.441,32.227,1.0
1626062958.4440763,-21.484,-17.09,8.789,-164.062,1.0
1626062958.447982,-33.691,-15.137,-12.695,-107.91,1.0
1626062958.4518883,-20.508000000000003,-20.02,-35.156,83.49600000000001,1.0
1626062958.455795,-20.02,-35.156,-31.738000000000003,49.805,1.0
1626062958.459701,-29.785,-36.621,-23.438000000000002,-134.766,1.0
1626062958.463607,-11.23,-19.531,-33.203,-111.816,1.0
1626062958.4675136,18.555,-19.531,-51.758,89.844,1.0
1626062958.4714196,-25.391,-67.87100000000001,-41.992,105.95700000000001,1.0
1626062958.475326,-11.23,-22.461,-18.066,-103.516,1.0
1626062958.4792323,-33.691,-19.531,-10.742,-167.48,1.0
1626062958.4831386,-49.805,-27.831999999999997,-19.043,35.156,1.0
1626062958.4870448,-33.691,-10.742,-25.391,139.16,1.0
1626062958.490951,-19.531,-12.695,-40.039,-31.738000000000003,1.0
1626062958.4948573,-31.25,-26.855,-25.391,-190.918,1.0
1626062958.4987636,-53.711000000000006,-57.129,-12.207,-58.105,1.0
1626062958.5026696,-48.34,-91.79700000000001,-31.25,129.395,1.0
1626062958.506576,-22.461,-62.012,-41.504,42.48,1.0
1626062958.5104823,-40.527,-36.621,-38.574,-159.18,1.0
1626062958.5143886,-63.965,-28.32,-15.625,-125.0,1.0
1626062958.5182948,-59.57,-14.648,-19.043,-193.84799999999998,1.0
1626062958.522201,-24.414,-6.836,3.418,-20.508000000000003,1.0
1626062958.5261073,-0.488,-24.414,-10.742,140.137,1.0
1626062958.5300136,-31.738000000000003,-40.527,-33.203,-10.742,1.0
1626062958.5339198,-47.852,-48.34,-25.391,-186.035,1.0
1626062958.537826,-33.691,-53.223,-13.672,-84.473,1.0
1626062958.5417323,-7.812,-49.316,-15.625,114.258,1.0
1626062958.5456386,-14.16,-15.625,-46.875,55.176,1.0
1626062958.549545,-51.758,-6.836,-55.176,-169.922,1.0
1626062958.553451,-57.129,-38.086,-32.715,-161.621,1.0
1626062958.557357,-36.621,-31.25,-30.761999999999997,48.34,1.0
1626062958.5612638,-32.227,-26.855,-34.668,88.37899999999999,1.0
1626062958.5651696,-14.16,-36.133,-29.785,1.0,1.0
1626062958.5690758,-50.293,-12.207,-48.34,1.0,1.0
1626062958.572982,-48.828,-26.855,-26.855,1.0,1.0
1626062958.5768883,-42.968999999999994,-46.875,-21.973000000000003,1.0,1.0
1626062958.580795,-29.785,-10.742,-38.086,1.0,1.0
1626062958.584701,-28.32,8.301,-43.945,1.0,1.0
1626062958.5886073,-50.781000000000006,-2.441,-32.227,1.0,1.0
1626062958.5925136,-39.062,-40.527,-11.23,1.0,1.0
1626062958.5964196,-7.812,-101.56200000000001,-0.977,1.0,1.0
1626062958.600326,-13.184000000000001,-69.336,-29.785,1.0,1.0
1626062958.6042323,-37.109,0.0,-41.992,1.0,1.0
1626062958.6081383,-48.34,2.93,-17.09,1.0,1.0
1626062958.6120448,-54.199,-26.855,-37.598,-39.551,1.0
1626062958.615951,-9.277000000000001,-20.508000000000003,-19.043,132.812,1.0
1626062958.6198573,-14.648,-41.504,-8.789,6.348,1.0
1626062958.6237636,-48.34,-50.293,-16.113,-176.27,1.0
1626062958.6276698,-51.27,-37.598,-17.578,-88.37899999999999,1.0
1626062958.631576,-25.391,-25.879,-27.344,107.91,1.0
1626062958.6354823,-24.901999999999997,-24.414,-48.828,51.758,1.0
1626062958.6393886,-48.828,-48.828,-34.18,-149.90200000000002,1.0
1626062958.6432948,-47.363,-51.758,-29.785,-129.395,1.0
1626062958.647201,-11.719000000000001,-25.391,-33.691,83.984,1.0
1626062958.6511073,11.23,-27.344,-7.324,117.18799999999999,1.0
1626062958.6550138,-28.809,-35.156,7.324,-95.215,1.0
1626062958.6589198,17.09,-20.02,-21.973000000000003,-108.398,1.0
1626062958.662826,-11.23,-39.551,-26.366999999999997,-132.812,1.0
1626062958.6667323,-15.137,-23.926,-30.273000000000003,55.663999999999994,1.0
1626062958.6706386,5.859,-37.109,-28.809,105.469,1.0
1626062958.6745448,-13.672,-62.012,-36.621,-96.191,1.0
1626062958.678451,-55.663999999999994,-53.711000000000006,-32.227,-194.33599999999998,1.0
1626062958.682357,-37.109,-39.551,-26.855,-19.531,1.0
1626062958.6862638,-6.348,-34.18,-47.852,108.887,1.0
1626062958.6901696,-21.484,-33.691,-76.66,-39.551,1.0
1626062958.6940763,-39.551,-9.766,-69.336,-187.988,1.0
1626062958.697982,-32.227,4.395,-42.48,-56.152,1.0
1626062958.7018883,-18.066,-7.812,-29.296999999999997,121.58200000000001,1.0
1626062958.705795,-2.441,-31.738000000000003,-23.926,1.0,1.0
1626062958.709701,-6.348,-50.781000000000006,-7.812,1.0,1.0
1626062958.713607,-39.551,-46.875,-7.324,1.0,1.0
1626062958.7175136,-47.363,-34.18,-9.766,1.0,1.0
1626062958.7214196,-1.953,-27.831999999999997,-13.184000000000001,1.0,1.0
1626062958.725326,23.438000000000002,-32.715,-8.301,1.0,1.0
1626062958.7292323,-19.043,-39.551,-11.23,1.0,1.0
1626062958.7331386,-60.059,-16.602,-25.391,1.0,1.0
1626062958.7370448,-42.48,-15.137,-39.062,1.0,1.0
1626062958.740951,-12.207,-2.441,-37.598,1.0,1.0
1626062958.7448573,-25.879,-2.441,-29.296999999999997,1.0,1.0
1626062958.7487636,-27.831999999999997,-30.761999999999997,-29.296999999999997,1.0,1.0
1626062958.7526696,-18.066,-30.273000000000003,-12.207,-129.88299999999998,1.0
1626062958.756576,0.0,-4.395,5.859,83.008,1.0
1626062958.7604823,-9.766,-33.203,-11.719000000000001,94.727,1.0
1626062958.7643886,-34.18,-66.895,-25.391,-115.723,1.0
1626062958.7682948,-28.32,-32.227,-27.831999999999997,-164.551,1.0
1626062958.772201,-10.742,3.418,-34.18,21.973000000000003,1.0
1626062958.7761073,-9.766,-19.531,-46.387,114.258,1.0
1626062958.7800136,-2.441,-32.227,-40.039,-40.527,1.0
1626062958.7839198,-9.277000000000001,-40.527,-17.09,-177.24599999999998,1.0
1626062958.787826,-14.16,-63.477,-9.766,-44.922,1.0
1626062958.7917323,-4.883,-21.973000000000003,-31.738000000000003,119.141,1.0
1626062958.7956386,-13.672,26.855,-47.852,14.648,1.0
1626062958.799545,-28.32,-41.992,-16.113,-10.254000000000001,1.0
1626062958.803451,-49.805,-22.949,-27.831999999999997,-170.41,1.0
1626062958.807357,-50.293,-31.738000000000003,-48.828,-56.152,1.0
1626062958.8112638,-15.625,-48.34,-38.574,134.27700000000002,1.0
1626062958.8151696,-20.02,-48.34,-20.996,42.968999999999994,1.0
1626062958.8190758,-48.34,-19.531,-8.301,-153.809,1.0
1626062958.822982,-47.852,-3.906,-15.137,-116.699,1.0
1626062958.8268883,-43.457,-16.113,-36.133,70.312,1.0
1626062958.830795,-45.898,-24.414,-38.086,67.87100000000001,1.0
1626062958.834701,-50.293,-20.508000000000003,-50.781000000000006,-130.371,1.0
1626062958.8386073,-57.617,-19.043,-60.547,-167.48,1.0
1626062958.8425136,-34.18,-26.366999999999997,-33.691,39.551,1.0
1626062958.8464196,-28.809,-73.73,-20.02,124.023,1.0
1626062958.850326,-29.785,-76.172,-25.879,-53.711000000000006,1.0
1626062958.8542323,-56.641000000000005,-23.926,-43.457,-173.828,1.0
1626062958.8581383,-57.129,-1.465,-41.504,-28.32,1.0
1626062958.8620448,0.977,-14.16,-17.578,119.141,1.0
1626062958.865951,0.488,-36.133,-11.23,-4.395,1.0
1626062958.8698573,-40.039,-15.625,-0.488,-183.105,1.0
1626062958.8737636,-45.898,12.695,0.0,-80.078,1.0
1626062958.8776698,-31.738000000000003,-4.395,-15.137,114.74600000000001,1.0
1626062958.881576,-39.062,-37.598,-42.48,48.828,1.0
1626062958.8854823,-62.012,-48.34,-52.246,-161.621,1.0
1626062958.8893886,-80.078,-69.824,-44.922,-132.32399999999998,1.0
1626062958.8932948,-53.223,-26.366999999999997,-39.062,-187.5,1.0
1626062958.897201,-42.48,-8.301,-50.293,-48.34,1.0
1626062958.9011073,-30.273000000000003,-18.555,-44.922,124.023,1.0
1626062958.9050138,-43.945,-34.668,-35.645,21.973000000000003,1.0
1626062958.9089198,-61.035,-30.761999999999997,-26.366999999999997,-168.945,1.0
1626062958.912826,-43.945,-46.875,-17.09,-98.633,1.0
1626062958.9167323,-15.137,-37.109,-16.113,107.91,1.0
1626062958.9206386,-6.836,-28.32,-15.137,89.355,1.0
1626062958.9245448,-23.438000000000002,-26.855,-13.672,-120.605,1.0
1626062958.928451,-45.898,-37.109,-32.715,-165.52700000000002,1.0
1626062958.932357,-35.645,-48.828,-47.852,28.809,1.0
1626062958.9362638,-19.531,-21.973000000000003,-37.109,107.91,1.0
1626062958.9401696,-8.789,-12.695,-46.387,1.0,1.0
1626062958.9440763,-55.663999999999994,-17.578,-14.648,1.0,1.0
1626062958.947982,-74.219,-22.461,-14.648,1.0,1.0
1626062958.9518883,-57.617,-19.043,-26.855,1.0,1.0
1626062958.955795,-47.363,-35.156,-31.738000000000003,1.0,1.0
1626062958.959701,-49.316,-25.391,-29.296999999999997,1.0,1.0
1626062958.963607,-64.453,-23.926,-29.785,1.0,1.0
1626062958.9675136,-49.805,-53.711000000000006,-34.18,1.0,1.0
1626062958.9714196,-10.254000000000001,-31.738000000000003,-54.688,1.0,1.0
1626062958.975326,-21.484,-20.996,-59.57,1.0,1.0
1626062958.9792323,-56.152,-44.434,-37.598,1.0,1.0
1626062958.9831386,-43.945,-21.484,-26.366999999999997,1.0,1.0
1626062958.9870448,-31.738000000000003,-41.504,-45.898,-38.574,1.0
1626062958.990951,-15.137,-52.246,-47.363,120.605,1.0
1626062958.9948573,-43.457,-44.922,-38.574,-14.16,1.0
1626062958.9987636,-87.891,-38.086,-33.203,-222.168,1.0
1626062959.0026696,-74.707,-36.621,-26.855,-152.344,1.0
1626062959.006576,-21.484,-9.277000000000001,-27.344,69.824,1.0
1626062959.0104823,2.93,-0.977,-26.855,64.453,1.0
1626062959.0143886,-20.508000000000003,-33.691,-28.809,-146.97299999999998,1.0
1626062959.0182948,-46.875,-41.504,-46.387,-171.875,1.0
1626062959.022201,-13.672,-24.901999999999997,-30.761999999999997,57.617,1.0
1626062959.0261073,-10.742,-22.949,-37.598,105.469,1.0
1626062959.0300136,-45.41,-28.809,-41.016000000000005,-105.95700000000001,1.0
1626062959.0339198,-20.508000000000003,-29.296999999999997,-41.504,51.758,1.0
1626062959.037826,-20.508000000000003,-31.25,-60.547,-168.945,1.0
1626062959.0417323,-45.41,-37.598,-44.434,-136.719,1.0
1626062959.0456386,-51.758,-73.73,-29.785,83.008,1.0
1626062959.049545,-11.719000000000001,-50.781000000000006,-11.23,99.12100000000001,1.0
1626062959.053451,2.441,-25.879,-6.836,-107.42200000000001,1.0
1626062959.057357,-32.715,-25.391,-18.555,-165.03900000000002,1.0
1626062959.0612638,-52.733999999999995,-34.18,-19.043,20.02,1.0
1626062959.0651696,-32.227,-43.457,-19.531,121.094,1.0
1626062959.0690758,-9.277000000000001,-31.25,-21.484,-29.296999999999997,1.0
1626062959.072982,-21.973000000000003,-17.09,-36.133,-160.156,1.0
1626062959.0768883,-32.227,-15.625,-41.504,-22.461,1.0
1626062959.080795,-40.527,-36.133,-23.926,-151.36700000000002,1.0
1626062959.084701,-16.602,-40.527,-50.293,60.547,1.0
1626062959.0886073,-9.277000000000001,-39.551,-29.785,120.605,1.0
1626062959.0925136,-61.523,-46.387,-28.809,-101.56200000000001,1.0
1626062959.0964196,-72.75399999999999,-19.043,-26.855,-203.125,1.0
1626062959.100326,-35.156,-5.859,-7.812,0.0,1.0
1626062959.1042323,-20.508000000000003,-29.785,-21.973000000000003,129.395,1.0
1626062959.1081383,-30.761999999999997,-33.203,-38.086,-29.296999999999997,1.0
1626062959.1120448,-49.805,-24.901999999999997,-29.296999999999997,-193.359,1.0
1626062959.115951,-35.645,-21.973000000000003,-30.761999999999997,-74.707,1.0
1626062959.1198573,-5.371,-50.781000000000006,-31.738000000000003,116.699,1.0
1626062959.1237636,-11.23,-50.781000000000006,-37.598,42.968999999999994,1.0
1626062959.1276698,-22.949,-31.738000000000003,-27.344,8.301,1.0
1626062959.131576,-46.875,-34.18,-39.062,-168.457,1.0
1626062959.1354823,-32.227,-47.363,-38.574,-62.988,1.0
1626062959.1393886,-28.809,-46.875,-47.363,105.95700000000001,1.0
1626062959.1432948,-29.785,-23.926,-24.901999999999997,45.41,1.0
1626062959.147201,-51.758,-28.32,-13.184000000000001,-155.762,1.0
1626062959.1511073,-73.73,-44.434,-33.691,-159.18,1.0
1626062959.1550138,-41.992,-52.733999999999995,-35.156,52.733999999999995,1.0
1626062959.1589198,-27.344,-42.968999999999994,-33.691,80.078,1.0
1626062959.162826,-28.809,-7.324,-21.484,-105.95700000000001,1.0
1626062959.1667323,-27.344,3.418,-13.184000000000001,-162.59799999999998,1.0
1626062959.1706386,-27.831999999999997,-12.207,-9.277000000000001,8.301,1.0
1626062959.1745448,-33.691,-45.41,-35.645,114.74600000000001,1.0
1626062959.178451,-20.996,-48.34,-35.645,-51.758,1.0
1626062959.182357,-30.761999999999997,-22.949,-29.785,-187.012,1.0
1626062959.1862638,-40.527,-27.831999999999997,-23.438000000000002,-18.555,1.0
1626062959.1901696,-27.831999999999997,-57.129,-14.16,144.043,1.0
1626062959.1940763,-14.16,-43.945,-20.996,11.23,1.0
1626062959.197982,-16.602,-24.414,-16.602,-177.734,1.0
1626062959.2018883,-38.574,-32.227,-20.996,-102.051,1.0
1626062959.205795,-40.039,-38.574,-36.621,115.723,1.0
1626062959.209701,-11.719000000000001,-29.296999999999997,-52.733999999999995,88.867,1.0
1626062959.213607,-8.301,-20.996,-63.477,-157.715,1.0
1626062959.2175136,-18.066,0.0,-25.879,-172.852,1.0
1626062959.2214196,-72.266,-20.996,-35.156,-217.773,1.0
1626062959.225326,-58.593999999999994,-14.16,-31.738000000000003,-104.492,1.0
1626062959.2292323,-26.855,-31.25,-25.391,103.027,1.0
1626062959.2331386,-28.809,-56.641000000000005,-21.484,41.992,1.0
1626062959.2370448,-46.387,-67.87100000000001,-29.296999999999997,-152.344,1.0
1626062959.240951,-34.668,-53.223,-20.02,-107.91,1.0
1626062959.2448573,-12.695,-19.531,-26.855,99.609,1.0
1626062959.2487636,-6.836,-6.836,-32.715,102.539,1.0
1626062959.2526696,-18.555,-20.02,-10.254000000000001,-98.633,1.0
1626062959.256576,-39.551,-22.461,-10.254000000000001,-154.785,1.0
1626062959.2604823,-39.551,-29.785,-24.414,27.831999999999997,1.0
1626062959.2643886,-31.738000000000003,-31.25,-28.32,109.863,1.0
1626062959.2682948,5.371,-6.836,-27.831999999999997,1.0,1.0
1626062959.272201,-26.366999999999997,-53.223,-40.039,1.0,1.0
1626062959.2761073,-54.688,-70.312,-32.227,1.0,1.0
1626062959.2800136,-41.992,-47.363,-25.391,1.0,1.0
1626062959.2839198,-6.836,-7.812,-2.441,1.0,1.0
1626062959.287826,-8.301,14.648,-8.301,1.0,1.0
1626062959.2917323,-38.086,-6.836,-30.273000000000003,1.0,1.0
1626062959.2956386,-30.761999999999997,-19.043,-35.156,1.0,1.0
1626062959.299545,-7.812,-33.691,-37.109,1.0,1.0
1626062959.303451,-22.949,-50.293,-24.414,1.0,1.0
1626062959.307357,-45.41,-30.273000000000003,-4.395,1.0,1.0
1626062959.3112638,-39.062,-17.578,-18.066,1.0,1.0
1626062959.3151696,-30.273000000000003,-40.527,-35.156,-67.87100000000001,1.0
1626062959.3190758,-5.371,-53.711000000000006,-58.105,118.652,1.0
1626062959.322982,-22.461,-41.504,-50.781000000000006,26.855,1.0
1626062959.3268883,-65.918,-46.875,-26.855,-195.801,1.0
1626062959.330795,-65.918,-34.668,-20.996,-145.50799999999998,1.0
1626062959.334701,-29.785,-17.578,-20.02,80.078,1.0
1626062959.3386073,-12.207,-25.879,-24.414,84.961,1.0
1626062959.3425136,-20.996,-26.855,-15.625,-111.816,1.0
1626062959.3464196,-33.691,-13.184000000000001,-12.207,-147.94899999999998,1.0
1626062959.350326,-11.719000000000001,-10.742,-13.184000000000001,55.176,1.0
1626062959.3542323,6.348,-18.555,-9.766,135.254,1.0
1626062959.3581383,-19.531,-21.484,-29.785,-60.059,1.0
1626062959.3620448,-26.855,-49.805,-36.621,-106.934,1.0
1626062959.365951,-42.968999999999994,-51.27,-29.296999999999997,-170.41,1.0
1626062959.3698573,-18.066,-16.602,-19.043,25.879,1.0
1626062959.3737636,-21.973000000000003,-30.273000000000003,-27.344,106.445,1.0
1626062959.3776698,-41.504,-43.457,-18.555,-63.965,1.0
1626062959.381576,-49.316,-36.621,-21.973000000000003,-188.965,1.0
1626062959.3854823,-37.109,-31.25,-29.785,-44.922,1.0
1626062959.3893886,-27.831999999999997,-21.484,-37.109,106.445,1.0
1626062959.3932948,-41.992,-35.645,-51.27,-20.996,1.0
1626062959.397201,-66.895,-35.645,-40.039,-206.055,1.0
1626062959.4011073,-71.289,-27.831999999999997,-50.781000000000006,-127.441,1.0
1626062959.4050138,-24.901999999999997,-23.926,-61.035,93.262,1.0
1626062959.4089198,-14.648,-41.992,-14.16,127.93,1.0
1626062959.412826,-30.273000000000003,-43.457,-6.836,24.414,1.0
1626062959.4167323,-64.453,-38.574,-30.761999999999997,-186.523,1.0
1626062959.4206386,-56.152,-27.831999999999997,-37.598,-125.977,1.0
1626062959.4245448,-8.789,-14.648,-17.09,99.12100000000001,1.0
1626062959.428451,-12.207,-18.555,-26.855,79.102,1.0
1626062959.432357,-51.758,-34.668,-45.41,-145.996,1.0
1626062959.4362638,-53.711000000000006,-14.16,-52.246,-173.34,1.0
1626062959.4401696,-22.949,-20.996,-56.152,39.551,1.0
1626062959.4440763,-16.602,-52.733999999999995,-48.828,96.68,1.0
1626062959.447982,-41.504,-54.688,-51.758,-110.352,1.0
1626062959.4518883,-53.711000000000006,-35.156,-50.293,-205.078,1.0
1626062959.455795,-36.133,-20.996,-16.113,-169.43400000000003,1.0
1626062959.459701,-14.648,-25.391,-17.578,34.668,1.0
1626062959.463607,-5.371,-17.09,-25.879,119.62899999999999,1.0
1626062959.4675136,-26.855,-29.785,-25.879,-61.523,1.0
1626062959.4714196,-45.41,-22.461,-28.32,-186.035,1.0
1626062959.475326,-23.926,-16.113,-32.715,-15.137,1.0
1626062959.4792323,-9.277000000000001,-52.733999999999995,-26.855,147.461,1.0
1626062959.4831386,-30.761999999999997,-53.711000000000006,-19.531,7.324,1.0
1626062959.4870448,-57.129,-27.344,-40.527,-181.15200000000002,1.0
1626062959.490951,-41.504,-10.254000000000001,-38.574,-80.566,1.0
1626062959.4948573,-25.879,-27.831999999999997,-23.926,103.516,1.0
1626062959.4987636,-34.18,-59.082,-20.02,38.574,1.0
1626062959.5026696,-10.742,-22.461,-29.785,1.0,1.0
1626062959.506576,-34.18,-42.968999999999994,-18.555,1.0,1.0
1626062959.5104823,-43.945,-32.227,-29.296999999999997,1.0,1.0
1626062959.5143886,-26.855,-13.184000000000001,-36.621,1.0,1.0
1626062959.5182948,-23.926,-6.348,-32.227,1.0,1.0
1626062959.522201,-38.574,-27.831999999999997,-36.621,1.0,1.0
1626062959.5261073,-43.945,-52.246,-28.32,1.0,1.0
1626062959.5300136,-34.18,-42.48,-25.391,1.0,1.0
1626062959.5339198,-20.508000000000003,-37.598,-34.668,1.0,1.0
1626062959.537826,-36.133,-29.785,-36.621,1.0,1.0
1626062959.5417323,-48.34,-16.602,-36.133,1.0,1.0
1626062959.5456386,-14.648,-3.418,-28.32,1.0,1.0
1626062959.549545,-32.227,-1.953,-41.504,135.254,1.0
1626062959.553451,-7.324,-15.137,-35.645,-41.992,1.0
1626062959.557357,-14.648,-22.949,-37.598,-197.75400000000002,1.0
1626062959.5612638,-32.227,-20.02,-7.812,-63.477,1.0
1626062959.5651696,-18.066,-37.109,11.23,111.816,1.0
1626062959.5690758,-12.207,-56.641000000000005,-6.348,15.625,1.0
1626062959.572982,-38.086,-53.223,-24.414,-178.22299999999998,1.0
1626062959.5768883,-77.637,-53.223,-37.598,-120.117,1.0
1626062959.580795,-85.449,-48.828,-58.593999999999994,92.285,1.0
1626062959.584701,-42.968999999999994,-38.086,-52.246,82.52,1.0
1626062959.5886073,-20.996,-9.766,-25.879,-143.555,1.0
1626062959.5925136,-39.551,-7.324,-21.973000000000003,-186.035,1.0
1626062959.5964196,-11.23,-20.996,-50.293,-152.832,1.0
1626062959.600326,-24.414,-35.645,-23.926,-90.82,1.0
1626062959.6042323,-14.16,-31.738000000000003,-15.625,104.98,1.0
1626062959.6081383,-10.742,-22.461,-16.113,63.477,1.0
1626062959.6120448,-23.438000000000002,-23.438000000000002,-3.418,-135.74200000000002,1.0
1626062959.615951,-19.043,-35.645,-1.953,-118.652,1.0
1626062959.6198573,13.672,-31.25,-13.672,103.027,1.0
1626062959.6237636,3.906,-29.785,-39.062,131.836,1.0
1626062959.6276698,-51.758,-51.758,-63.965,-108.398,1.0
1626062959.631576,-71.289,-41.504,-51.758,-200.195,1.0
1626062959.6354823,-44.922,-27.831999999999997,-16.602,0.488,1.0
1626062959.6393886,-18.555,-35.156,-2.93,136.719,1.0
1626062959.6432948,-10.254000000000001,-51.758,-36.133,1.0,1.0
1626062959.647201,-23.926,-29.785,-34.668,1.0,1.0
1626062959.6511073,-40.527,-14.16,-39.551,1.0,1.0
1626062959.6550138,-41.504,-12.207,-32.227,1.0,1.0
1626062959.6589198,-9.766,-38.574,-6.348,1.0,1.0
1626062959.662826,-2.441,-40.039,7.812,1.0,1.0
1626062959.6667323,-34.668,-19.043,4.395,1.0,1.0
1626062959.6706386,-62.012,-35.156,-17.09,1.0,1.0
1626062959.6745448,-58.105,-65.918,-36.621,1.0,1.0
1626062959.678451,-36.621,-48.828,-33.203,1.0,1.0
1626062959.682357,-44.922,-27.831999999999997,-37.109,1.0,1.0
1626062959.6862638,-47.363,-27.831999999999997,-40.039,1.0,1.0
1626062959.6901696,-42.48,9.277000000000001,-22.461,-99.12100000000001,1.0
1626062959.6940763,-23.438000000000002,-13.184000000000001,-36.621,101.074,1.0
1626062959.697982,-26.855,-16.113,-44.434,44.434,1.0
1626062959.7018883,-39.062,-10.742,-54.688,-155.273,1.0
1626062959.705795,-9.277000000000001,-11.719000000000001,-18.555,-107.91,1.0
1626062959.709701,15.625,-38.086,0.977,107.42200000000001,1.0
1626062959.713607,1.953,-32.715,-26.366999999999997,114.74600000000001,1.0
1626062959.7175136,-37.109,-26.366999999999997,-44.434,-110.84,1.0
1626062959.7214196,-66.895,-59.57,-53.711000000000006,-207.52,1.0
1626062959.725326,-41.504,-55.663999999999994,-38.086,-9.277000000000001,1.0
1626062959.7292323,-9.766,-19.531,-12.207,118.652,1.0
1626062959.7331386,-15.625,-3.906,-16.602,-44.434,1.0
1626062959.7370448,-42.968999999999994,-24.901999999999997,-23.438000000000002,-96.191,1.0
1626062959.740951,-50.781000000000006,-36.133,-13.672,-179.688,1.0
1626062959.7448573,-39.062,-51.758,-29.785,-0.977,1.0
1626062959.7487636,-20.02,-46.387,-35.645,125.488,1.0
1626062959.7526696,-30.761999999999997,-35.156,-27.831999999999997,-26.855,1.0
1626062959.756576,-60.547,-19.531,-35.156,-187.012,1.0
1626062959.7604823,-43.945,-14.16,-40.527,-62.988,1.0
1626062959.7643886,-21.973000000000003,-21.973000000000003,-17.09,110.352,1.0
1626062959.7682948,-42.48,-28.32,-13.672,7.324,1.0
1626062959.772201,-48.828,-28.809,-25.391,-181.15200000000002,1.0
1626062959.7761073,-34.18,-41.016000000000005,-28.32,-120.605,1.0
1626062959.7800136,-8.301,-64.941,-18.066,96.191,1.0
1626062959.7839198,-55.663999999999994,-22.949,-35.156,92.285,1.0
1626062959.787826,-40.039,-10.254000000000001,-21.484,-133.30100000000002,1.0
1626062959.7917323,-30.273000000000003,3.418,-22.461,-167.96900000000002,1.0
1626062959.7956386,-37.109,-5.371,-44.434,29.296999999999997,1.0
1626062959.799545,-24.414,-45.898,-38.574,95.70299999999999,1.0
1626062959.803451,-17.578,-60.059,-17.09,-84.961,1.0
1626062959.807357,-40.527,-40.039,-24.901999999999997,-194.33599999999998,1.0
1626062959.8112638,-53.223,-53.223,-41.504,-10.254000000000001,1.0
1626062959.8151696,-16.602,-34.668,-23.438000000000002,146.484,1.0
1626062959.8190758,25.879,-0.977,8.789,8.789,1.0
1626062959.822982,-2.441,-31.738000000000003,-18.555,-166.016,1.0
1626062959.8268883,-44.434,-39.062,-44.434,-82.52,1.0
1626062959.830795,-28.32,-13.672,-8.301,-145.02,1.0
1626062959.834701,-44.434,-34.18,-13.672,-177.734,1.0
1626062959.8386073,-44.922,-35.156,-20.508000000000003,35.645,1.0
1626062959.8425136,-40.039,-47.852,-46.875,105.469,1.0
1626062959.8464196,-28.32,-48.34,-64.453,-93.75,1.0
1626062959.850326,-19.531,-27.344,-50.293,-189.94099999999997,1.0
1626062959.8542323,-33.691,-46.387,-39.551,-8.789,1.0
1626062959.8581383,-34.668,-62.5,-33.691,143.555,1.0
1626062959.8620448,-11.719000000000001,-41.504,-27.344,0.977,1.0
1626062959.865951,-16.602,-0.977,-22.949,-172.852,1.0
1626062959.8698573,-44.434,4.883,-16.113,-52.246,1.0
1626062959.8737636,-29.785,-14.648,-14.648,127.93,1.0
1626062959.8776698,-25.879,-18.555,-27.831999999999997,117.18799999999999,1.0
1626062959.881576,2.93,-22.461,-19.043,-27.344,1.0
1626062959.8854823,-20.02,-37.109,-28.809,-168.945,1.0
1626062959.8893886,-46.875,-31.25,-47.852,-62.5,1.0
1626062959.8932948,-23.438000000000002,-31.25,-35.156,97.656,1.0
1626062959.897201,-7.812,-45.41,-26.855,34.18,1.0
1626062959.9011073,-25.879,-41.992,-41.992,-179.199,1.0
1626062959.9050138,-44.922,-40.527,-42.968999999999994,-159.18,1.0
1626062959.9089198,-48.828,-46.875,-41.992,84.961,1.0
1626062959.912826,-18.555,-19.043,-23.438000000000002,121.58200000000001,1.0
1626062959.9167323,5.371,-4.883,-18.555,-101.56200000000001,1.0
1626062959.9206386,-28.809,-41.016000000000005,-27.831999999999997,-187.988,1.0
1626062959.9245448,-38.574,-16.113,-55.176,-181.15200000000002,1.0
1626062959.928451,-47.852,-7.812,-49.805,-142.09,1.0
1626062959.932357,-13.672,-4.395,-15.625,89.355,1.0
1626062959.9362638,-1.465,-10.742,-6.348,92.773,1.0
1626062959.9401696,-36.133,-38.086,-21.484,-125.977,1.0
1626062959.9440763,-49.805,-44.434,-28.809,-157.715,1.0
1626062959.947982,-3.418,-37.598,-22.461,69.336,1.0
1626062959.9518883,23.926,-54.199,-24.414,160.156,1.0
1626062959.955795,-41.016000000000005,-53.711000000000006,-48.828,-77.637,1.0
1626062959.959701,-82.031,-40.527,-62.5,-221.68,1.0
1626062959.963607,-56.152,-24.901999999999997,-53.223,-36.621,1.0
1626062959.9675136,-15.625,4.883,-12.695,121.58200000000001,1.0
1626062959.9714196,-10.254000000000001,-33.691,9.277000000000001,1.0,1.0
1626062959.975326,-34.668,-33.203,-9.766,1.0,1.0
1626062959.9792323,-57.129,-52.246,-27.344,1.0,1.0
1626062959.9831386,-47.852,-60.547,-29.296999999999997,1.0,1.0
1626062959.9870448,-17.578,-18.066,-29.296999999999997,1.0,1.0
1626062959.990951,-11.719000000000001,9.277000000000001,-27.344,1.0,1.0
1626062959.9948573,-44.434,-25.879,-28.32,1.0,1.0
1626062959.9987636,-37.109,-64.941,-39.062,1.0,1.0
1626062960.0026696,-5.859,-46.387,-51.758,1.0,1.0
1626062960.006576,-17.09,-16.602,-46.875,1.0,1.0
1626062960.0104823,-62.988,-25.391,-34.668,1.0,1.0
1626062960.0143886,-68.359,-16.602,-19.043,1.0,1.0
1626062960.0182948,-41.016000000000005,-35.645,-31.25,-113.281,1.0
1626062960.022201,-20.02,-16.113,-29.785,98.145,1.0
1626062960.0261073,2.441,-21.484,-8.789,94.727,1.0
1626062960.0300136,-25.879,-30.273000000000003,-13.672,-125.977,1.0
1626062960.0339198,-40.039,-31.25,-24.901999999999997,-149.90200000000002,1.0
1626062960.037826,-4.395,-6.348,-23.438000000000002,79.102,1.0
1626062960.0417323,6.348,-2.93,-17.578,136.23,1.0
1626062960.0456386,-37.109,-41.504,-33.691,-90.82,1.0
1626062960.049545,-65.43,-44.922,-68.359,-204.102,1.0
1626062960.053451,-31.25,-31.25,-54.688,-6.348,1.0
1626062960.057357,-20.996,-46.875,-32.715,119.141,1.0
1626062960.0612638,-41.992,-39.062,-34.668,-43.945,1.0
1626062960.0651696,-25.879,-25.391,-17.578,-78.613,1.0
1626062960.0690758,-67.383,-20.02,-23.438000000000002,-215.82,1.0
1626062960.072982,-56.152,-15.137,-14.16,-50.781000000000006,1.0
1626062960.0768883,-23.926,-23.926,-19.531,112.305,1.0
1626062960.080795,-26.855,-29.296999999999997,-40.527,-11.23,1.0
1626062960.084701,-41.992,-12.207,-39.551,-173.828,1.0
1626062960.0886073,-40.527,-17.09,-35.645,-80.078,1.0
1626062960.0925136,-16.113,-45.41,-45.898,103.516,1.0
1626062960.0964196,-26.855,-53.223,-42.48,34.18,1.0
1626062960.100326,-53.223,-22.461,-21.484,-161.621,1.0
1626062960.1042323,-56.152,-3.906,-17.09,-140.625,1.0
1626062960.1081383,-45.898,-13.184000000000001,-17.578,54.199,1.0
1626062960.1120448,-41.992,-33.691,-33.691,85.93799999999999,1.0
1626062960.115951,-24.414,-23.926,-21.973000000000003,-119.62899999999999,1.0
1626062960.1198573,-55.176,-50.781000000000006,-33.203,-170.898,1.0
1626062960.1237636,-65.43,-68.848,-54.199,20.996,1.0
1626062960.1276698,-28.809,-41.016000000000005,-13.672,117.676,1.0
1626062960.131576,-13.672,-23.438000000000002,7.812,-60.547,1.0
1626062960.1354823,-49.805,-26.855,-21.973000000000003,-238.28099999999998,1.0
1626062960.1393886,-71.289,-27.831999999999997,-30.273000000000003,-107.91,1.0
1626062960.1432948,-45.898,-51.27,-41.016000000000005,64.941,1.0
1626062960.147201,-20.996,-48.34,-40.527,-27.831999999999997,1.0
1626062960.1511073,-45.41,-24.901999999999997,-28.32,-188.477,1.0
1626062960.1550138,-66.895,-18.555,-20.02,-116.699,1.0
1626062960.1589198,-36.133,-2.93,-33.203,-180.66400000000002,1.0
1626062960.162826,-16.113,-45.898,-27.344,0.0,1.0
1626062960.1667323,0.977,-58.105,-20.996,136.23,1.0
1626062960.1706386,-20.508000000000003,-60.059,-30.761999999999997,-21.973000000000003,1.0
1626062960.1745448,-49.805,-38.086,-31.25,-193.359,1.0
1626062960.178451,-41.504,-25.879,-42.968999999999994,-66.406,1.0
1626062960.182357,-17.09,-36.133,-37.598,130.371,1.0
1626062960.1862638,-22.949,-20.508000000000003,-22.949,45.41,1.0
1626062960.1901696,-44.922,-10.742,-36.133,-163.57399999999998,1.0
1626062960.1940763,-32.227,-19.531,-18.066,-116.211,1.0
1626062960.197982,-18.066,-50.781000000000006,-9.277000000000001,91.79700000000001,1.0
1626062960.2018883,-24.901999999999997,-51.758,-19.043,89.844,1.0
1626062960.205795,-19.043,-51.758,-0.488,56.641000000000005,1.0
1626062960.209701,-25.391,-38.574,-2.441,-131.836,1.0
1626062960.213607,-20.508000000000003,-14.16,-15.625,-120.117,1.0
1626062960.2175136,-12.207,-10.742,-50.293,81.055,1.0
1626062960.2214196,-9.766,-26.855,-59.57,107.42200000000001,1.0
1626062960.225326,-31.25,-32.715,-40.039,-102.539,1.0
1626062960.2292323,-50.781000000000006,-50.293,-20.996,-179.199,1.0
1626062960.2331386,-9.277000000000001,-36.133,-1.465,34.18,1.0
1626062960.2370448,7.324,-31.738000000000003,-25.391,146.484,1.0
1626062960.240951,-31.25,-69.336,-70.312,-42.968999999999994,1.0
1626062960.2448573,-60.547,-55.663999999999994,-56.152,-188.477,1.0
1626062960.2487636,-32.715,-16.113,-6.348,-41.992,1.0
1626062960.2526696,-19.531,-40.527,-26.366999999999997,12.207,1.0
1626062960.256576,17.09,-30.761999999999997,-15.137,154.297,1.0
1626062960.2604823,-2.441,-17.09,-12.207,-6.836,1.0
1626062960.2643886,-36.133,-33.203,-20.996,-179.199,1.0
1626062960.2682948,-29.785,-33.203,-53.223,-62.012,1.0
1626062960.272201,-7.812,-37.109,-48.828,113.77,1.0
1626062960.2761073,-21.973000000000003,-36.621,-2.441,30.273000000000003,1.0
1626062960.2800136,-51.27,-39.551,4.883,-177.24599999999998,1.0
1626062960.2839198,-60.059,-68.359,-13.184000000000001,-145.996,1.0
1626062960.287826,-34.668,-55.176,-16.113,72.75399999999999,1.0
1626062960.2917323,-13.672,-20.508000000000003,-18.555,90.33200000000001,1.0
1626062960.2956386,-30.273000000000003,-20.996,-28.32,-110.84,1.0
1626062960.299545,-57.129,-27.344,-56.152,-167.96900000000002,1.0
1626062960.303451,-62.5,-61.035,-60.059,-154.785,1.0
1626062960.307357,-23.926,-48.34,-28.32,76.66,1.0
1626062960.3112638,-23.926,-56.641000000000005,-18.066,87.402,1.0
1626062960.3151696,-46.387,-61.523,-9.766,-122.559,1.0
1626062960.3190758,-34.668,-26.366999999999997,-0.977,-155.273,1.0
1626062960.322982,-20.508000000000003,-23.438000000000002,-25.391,39.551,1.0
1626062960.3268883,-22.949,-33.691,-47.363,127.93,1.0
1626062960.330795,-49.805,-37.598,-58.105,-66.895,1.0
1626062960.334701,-53.223,-16.602,-45.41,-198.24200000000002,1.0
1626062960.3386073,-33.691,-18.555,-40.527,-38.574,1.0
1626062960.3425136,-21.973000000000003,-35.156,-55.176,114.74600000000001,1.0
1626062960.3464196,-8.789,-59.082,-47.852,3.418,1.0
1626062960.350326,-31.738000000000003,-42.48,-57.129,-180.176,1.0
1626062960.3542323,-45.41,-47.363,-31.25,-92.773,1.0
1626062960.3581383,-41.016000000000005,-49.805,-23.926,99.609,1.0
1626062960.3620448,-6.348,-4.883,-11.23,54.688,1.0
1626062960.365951,-4.395,7.812,-12.695,-145.50799999999998,1.0
1626062960.3698573,-21.973000000000003,-31.25,-35.645,-149.90200000000002,1.0
1626062960.3737636,-15.137,-39.551,-32.227,64.941,1.0
1626062960.3776698,4.395,-16.113,-24.901999999999997,104.492,1.0
1626062960.381576,1.953,-16.113,-39.551,-113.77,1.0
1626062960.3854823,-22.461,-35.156,-38.574,-200.195,1.0
1626062960.3893886,-30.761999999999997,-49.316,-27.831999999999997,7.812,1.0
1626062960.3932948,-50.293,-35.645,-23.438000000000002,-136.719,1.0
1626062960.397201,-10.742,-47.852,-21.484,89.355,1.0
1626062960.4011073,-3.418,-76.172,-37.109,96.68,1.0
1626062960.4050138,-27.344,-75.684,-48.34,-120.605,1.0
1626062960.4089198,-23.926,-5.371,-30.273000000000003,-159.18,1.0
1626062960.412826,6.348,24.414,-9.277000000000001,60.547,1.0
1626062960.4167323,8.789,-35.645,-24.414,141.113,1.0
1626062960.4206386,-30.273000000000003,-46.387,-48.34,-73.242,1.0
1626062960.4245448,-71.777,-23.926,-53.711000000000006,-225.58599999999998,1.0
1626062960.428451,-52.733999999999995,-26.366999999999997,-28.809,-51.27,1.0
1626062960.432357,-30.273000000000003,-46.875,-17.578,111.816,1.0
1626062960.4362638,-46.875,-44.434,-36.621,-29.785,1.0
1626062960.4401696,-9.766,0.0,-3.418,113.77,1.0
1626062960.4440763,-28.32,-8.789,-14.16,-75.684,1.0
1626062960.447982,-51.27,-31.25,-45.41,-177.24599999999998,1.0
1626062960.4518883,-32.227,-18.555,-35.156,1.465,1.0
1626062960.455795,-23.926,-17.09,-34.18,117.676,1.0
1626062960.459701,-43.945,-34.668,-41.992,-41.504,1.0
1626062960.463607,-49.805,-26.855,-30.273000000000003,-187.5,1.0
1626062960.4675136,-25.879,-35.645,-16.602,-51.27,1.0
1626062960.4714196,-3.906,-47.852,-21.973000000000003,132.32399999999998,1.0
1626062960.475326,8.301,-48.828,-41.504,54.688,1.0
1626062960.4792323,-9.277000000000001,-57.617,-30.273000000000003,-139.16,1.0
1626062960.4831386,-38.086,-42.968999999999994,-21.484,-113.281,1.0
1626062960.4870448,-33.691,-12.695,-48.34,1.0,1.0
1626062960.490951,-28.809,-2.93,-42.48,1.0,1.0
1626062960.4948573,-55.176,-18.555,-20.02,1.0,1.0
1626062960.4987636,-69.336,-37.109,-17.578,1.0,1.0
1626062960.5026696,-37.598,-41.504,-13.184000000000001,1.0,1.0
1626062960.506576,-19.043,-24.414,-19.531,1.0,1.0
1626062960.5104823,-44.434,-33.691,-44.434,1.0,1.0
1626062960.5143886,-63.965,-65.918,-41.016000000000005,1.0,1.0
1626062960.5182948,-41.504,-65.918,-30.273000000000003,1.0,1.0
1626062960.522201,3.906,-54.199,-26.366999999999997,1.0,1.0
1626062960.5261073,-7.812,-41.504,-20.996,1.0,1.0
1626062960.5300136,-51.758,-16.113,-42.968999999999994,1.0,1.0
1626062960.5339198,-51.758,-6.348,-35.156,-189.453,1.0
1626062960.537826,-41.016000000000005,-7.324,-57.617,-45.898,1.0
1626062960.5417323,-13.184000000000001,-11.719000000000001,-44.434,125.0,1.0
1626062960.5456386,-27.831999999999997,-9.277000000000001,-17.578,8.301,1.0
1626062960.549545,-45.898,-3.906,-12.207,-174.805,1.0
1626062960.553451,-41.504,-24.901999999999997,-29.785,-98.633,1.0
1626062960.557357,-17.578,-55.176,-37.109,100.098,1.0
1626062960.5612638,-10.254000000000001,-53.223,-38.086,61.035,1.0
1626062960.5651696,-56.152,-53.223,-58.593999999999994,-170.41,1.0
1626062960.5690758,-55.176,-40.039,-52.733999999999995,-157.715,1.0
1626062960.572982,2.93,-13.184000000000001,-18.066,98.145,1.0
1626062960.5768883,0.977,-12.207,-15.625,122.559,1.0
1626062960.580795,-27.831999999999997,-4.883,-33.691,1.0,1.0
1626062960.584701,-46.875,1.953,-58.593999999999994,1.0,1.0
1626062960.5886073,-56.641000000000005,-33.203,-48.34,1.0,1.0
1626062960.5925136,-47.852,-42.48,-29.296999999999997,1.0,1.0
1626062960.5964196,-34.668,-27.344,-27.831999999999997,1.0,1.0
1626062960.600326,-41.504,-25.879,-34.18,1.0,1.0
1626062960.6042323,-47.363,-38.086,-44.434,1.0,1.0
1626062960.6081383,-26.855,-28.32,-37.109,1.0,1.0
1626062960.6120448,-18.555,-21.973000000000003,-32.715,1.0,1.0
1626062960.615951,-41.504,-33.203,-28.32,1.0,1.0
1626062960.6198573,-46.875,-30.273000000000003,-3.418,1.0,1.0
1626062960.6237636,-37.598,-28.809,-14.648,1.0,1.0
1626062960.6276698,-46.387,-47.852,-41.504,-42.968999999999994,1.0
1626062960.631576,-23.926,-45.898,-23.926,117.18799999999999,1.0
1626062960.6354823,-29.785,-51.27,-23.438000000000002,-6.348,1.0
1626062960.6393886,-60.547,-28.32,-27.344,-188.965,1.0
1626062960.6432948,-63.965,0.0,-27.831999999999997,-97.656,1.0
1626062960.647201,-20.02,0.488,-12.207,122.07,1.0
1626062960.6511073,-17.578,-12.695,-10.742,65.918,1.0
1626062960.6550138,-47.363,-24.901999999999997,-38.574,-157.227,1.0
1626062960.6589198,-28.32,-31.25,-39.551,-121.58200000000001,1.0
1626062960.662826,-1.953,-39.551,-37.598,96.68,1.0
1626062960.6667323,-12.207,-48.828,-62.988,106.934,1.0
1626062960.6706386,-30.761999999999997,-54.199,-63.477,-103.516,1.0
1626062960.6745448,-20.508000000000003,-22.949,-33.691,-115.234,1.0
1626062960.678451,-44.922,-20.02,-19.531,-145.02,1.0
1626062960.682357,-18.555,-9.766,-7.812,69.336,1.0
1626062960.6862638,-25.879,-25.879,-38.086,99.12100000000001,1.0
1626062960.6901696,-64.453,-53.223,-47.852,-125.0,1.0
1626062960.6940763,-61.523,-43.945,-39.551,-203.613,1.0
1626062960.697982,-33.691,-15.625,-27.831999999999997,-12.695,1.0
1626062960.7018883,-40.039,-24.414,-25.879,94.727,1.0
1626062960.705795,-41.016000000000005,-62.012,-38.574,-49.316,1.0
1626062960.709701,-43.457,-82.031,-40.039,-187.012,1.0
1626062960.713607,-55.663999999999994,-43.457,-42.48,-79.59,1.0
1626062960.7175136,-30.761999999999997,17.09,-54.688,104.492,1.0
1626062960.7214196,-22.461,-2.93,-40.527,27.344,1.0
1626062960.725326,-35.156,-2.441,-40.039,-187.988,1.0
1626062960.7292323,-54.688,-22.461,-39.551,-131.34799999999998,1.0
1626062960.7331386,-24.901999999999997,-29.296999999999997,-11.23,98.633,1.0
1626062960.7370448,18.066,-35.156,-3.906,90.33200000000001,1.0
1626062960.740951,-8.301,-76.172,-41.504,-131.34799999999998,1.0
1626062960.7448573,-35.156,-52.246,-46.875,-169.43400000000003,1.0
1626062960.7487636,-38.086,-28.32,-28.32,58.105,1.0
1626062960.7526696,-23.926,-47.852,-37.598,129.395,1.0
1626062960.756576,-22.949,-36.621,-57.129,-82.52,1.0
1626062960.7604823,-55.663999999999994,-26.855,-56.641000000000005,-188.965,1.0
1626062960.7643886,-63.477,-22.461,-36.133,-22.461,1.0
1626062960.7682948,-54.688,-28.32,-31.25,-153.32,1.0
1626062960.772201,-28.809,-45.898,-37.109,56.641000000000005,1.0
1626062960.7761073,-28.809,-52.246,-32.715,79.59,1.0
1626062960.7800136,-33.203,-52.733999999999995,-28.32,-106.445,1.0
1626062960.7839198,-38.574,-19.531,-34.668,-179.688,1.0
1626062960.787826,-14.16,-12.207,-27.344,15.625,1.0
1626062960.7917323,3.418,-26.855,-16.113,128.418,1.0
1626062960.7956386,-39.551,-44.434,-31.738000000000003,-58.593999999999994,1.0
1626062960.799545,-67.87100000000001,-24.414,-44.434,-211.426,1.0
1626062960.803451,-54.199,-4.395,-52.733999999999995,-82.031,1.0
1626062960.807357,-41.016000000000005,-37.598,-52.733999999999995,90.33200000000001,1.0
1626062960.8112638,-49.316,-60.059,-34.668,1.465,1.0
1626062960.8151696,-16.113,-12.207,-38.574,-5.859,1.0
1626062960.8190758,-35.156,9.766,-23.926,-167.96900000000002,1.0
1626062960.822982,-41.992,-30.273000000000003,-19.531,-61.523,1.0
1626062960.8268883,-20.996,-77.637,-20.996,126.465,1.0
1626062960.830795,-10.254000000000001,-56.152,-9.277000000000001,58.105,1.0
1626062960.834701,-40.039,-19.531,-21.484,-151.36700000000002,1.0
1626062960.8386073,-58.593999999999994,-12.695,-34.18,-132.32399999999998,1.0
1626062960.8425136,-31.25,-41.992,-28.809,80.566,1.0
1626062960.8464196,-19.043,-51.758,-30.761999999999997,89.844,1.0
1626062960.850326,-33.203,-14.16,-22.461,-116.699,1.0
1626062960.8542323,-28.32,-2.93,-16.602,-150.391,1.0
1626062960.8581383,-5.371,-20.508000000000003,-16.602,55.663999999999994,1.0
1626062960.8620448,-25.391,-0.488,-39.551,140.625,1.0
1626062960.865951,-16.113,-28.32,-26.366999999999997,-59.57,1.0
1626062960.8698573,-44.434,-33.691,-20.996,-184.57,1.0
1626062960.8737636,-61.035,-29.296999999999997,-30.761999999999997,-22.949,1.0
1626062960.8776698,-41.992,-53.711000000000006,-40.039,136.719,1.0
1626062960.881576,-14.16,-45.41,-32.715,8.301,1.0
1626062960.8854823,-13.184000000000001,-27.344,-29.785,-185.547,1.0
1626062960.8893886,-35.156,-32.227,-39.062,-102.051,1.0
1626062960.8932948,-27.831999999999997,-30.761999999999997,-35.156,97.16799999999999,1.0
1626062960.897201,5.371,-10.742,-34.18,51.27,1.0
1626062960.9011073,17.578,-8.789,-12.695,-143.066,1.0
1626062960.9050138,-16.113,-17.09,-15.625,-135.254,1.0
1626062960.9089198,-46.387,-63.477,-36.133,-187.5,1.0
1626062960.912826,-55.663999999999994,-55.663999999999994,-42.48,-76.172,1.0
1626062960.9167323,-20.508000000000003,-20.508000000000003,-35.156,126.95299999999999,1.0
1626062960.9206386,-35.156,-21.973000000000003,-51.27,21.973000000000003,1.0
1626062960.9245448,-62.5,-31.738000000000003,-52.246,-186.035,1.0
1626062960.928451,-52.246,-39.551,-44.922,-120.117,1.0
1626062960.932357,-13.184000000000001,-24.414,-30.761999999999997,104.492,1.0
1626062960.9362638,-2.93,-20.996,-6.836,104.00399999999999,1.0
1626062960.9401696,-39.551,-48.828,-8.789,-124.023,1.0
1626062960.9440763,-46.387,-43.457,-20.996,-158.691,1.0
1626062960.947982,-15.137,-42.968999999999994,-35.645,57.617,1.0
1626062960.9518883,3.906,-33.203,-30.761999999999997,140.625,1.0
1626062960.955795,-6.836,-36.133,-40.039,1.0,1.0
1626062960.959701,-32.715,-57.129,-36.621,1.0,1.0
1626062960.963607,-9.277000000000001,-62.5,-0.488,1.0,1.0
1626062960.9675136,17.09,-42.968999999999994,7.324,1.0,1.0
1626062960.9714196,-22.949,-41.016000000000005,-36.133,1.0,1.0
1626062960.975326,-67.87100000000001,-40.039,-62.5,1.0,1.0
1626062960.9792323,-82.52,-41.016000000000005,-51.758,1.0,1.0
1626062960.9831386,-66.895,-38.086,-47.363,1.0,1.0
1626062960.9870448,-42.968999999999994,-37.109,-40.039,1.0,1.0
1626062960.990951,-45.41,-38.574,-32.715,1.0,1.0
1626062960.9948573,-61.035,-38.574,-27.344,1.0,1.0
1626062960.9987636,-26.366999999999997,-42.48,-24.901999999999997,1.0,1.0
1626062961.0026696,-7.324,-17.09,-42.968999999999994,-22.949,1.0
1626062961.006576,6.348,-41.992,-6.836,145.50799999999998,1.0
1626062961.0104823,14.648,-31.25,13.672,61.035,1.0
1626062961.0143886,-25.391,-38.574,-9.277000000000001,-150.879,1.0
1626062961.0182948,-60.547,-37.598,-35.645,-128.418,1.0
1626062961.022201,-51.27,-17.09,-38.574,69.824,1.0
1626062961.0261073,-39.551,-20.508000000000003,-37.109,57.617,1.0
1626062961.0300136,-39.062,-41.992,-43.457,-139.648,1.0
1626062961.0339198,-50.293,-35.645,-50.293,-159.18,1.0
1626062961.037826,-21.484,-2.441,-24.414,51.758,1.0
1626062961.0417323,-2.441,-6.348,-6.348,114.258,1.0
1626062961.0456386,-26.855,-15.137,-12.207,-82.52,1.0
1626062961.049545,-9.766,-34.18,-33.691,68.848,1.0
1626062961.053451,-37.598,-12.207,-40.039,-145.996,1.0
1626062961.057357,-20.508000000000003,-8.301,-27.831999999999997,-106.934,1.0
1626062961.0612638,7.812,-6.348,-23.438000000000002,101.56200000000001,1.0
1626062961.0651696,4.883,-18.555,-35.645,116.699,1.0
1626062961.0690758,-18.555,-17.09,-37.109,-84.961,1.0
1626062961.072982,-28.32,0.0,-33.691,-153.32,1.0
1626062961.0768883,-12.695,-4.883,-29.296999999999997,36.133,1.0
1626062961.080795,-21.484,-23.926,-33.203,116.211,1.0
1626062961.084701,-34.668,-31.738000000000003,-25.879,-59.57,1.0
1626062961.0886073,-53.223,-67.383,-38.574,-197.266,1.0
1626062961.0925136,-49.316,-66.895,-50.293,-48.34,1.0
1626062961.0964196,-0.977,-34.18,-28.32,1.0,1.0
1626062961.100326,-3.418,-29.296999999999997,-7.324,1.0,1.0
1626062961.1042323,-41.504,-35.645,-15.625,1.0,1.0
1626062961.1081383,-52.246,-32.227,-37.109,1.0,1.0
1626062961.1120448,-29.785,-6.348,-28.809,1.0,1.0
1626062961.115951,-27.344,-21.484,-29.296999999999997,1.0,1.0
1626062961.1198573,-36.133,-42.968999999999994,-23.926,1.0,1.0
1626062961.1237636,-42.48,-48.34,-23.926,1.0,1.0
1626062961.1276698,-41.016000000000005,-55.176,-44.922,1.0,1.0
1626062961.131576,-21.973000000000003,-34.668,-35.156,1.0,1.0
1626062961.1354823,-51.27,-35.156,-39.062,1.0,1.0
1626062961.1393886,-84.961,-36.621,-40.527,1.0,1.0
1626062961.1432948,-62.012,-18.555,-25.879,-179.688,1.0
1626062961.147201,-24.414,-27.831999999999997,-15.137,40.039,1.0
1626062961.1511073,8.301,-32.227,-19.531,127.93,1.0
1626062961.1550138,-15.137,-45.898,-39.062,-65.918,1.0
1626062961.1589198,-40.527,-43.945,-61.523,-185.05900000000003,1.0
1626062961.162826,-14.648,-20.508000000000003,-52.246,1.953,1.0
1626062961.1667323,-20.996,-36.621,-32.715,120.117,1.0
1626062961.1706386,-58.105,-32.715,-39.551,-51.758,1.0
1626062961.1745448,-85.93799999999999,-27.344,-52.246,-223.63299999999998,1.0
1626062961.178451,-69.824,-23.438000000000002,-40.527,-104.00399999999999,1.0
1626062961.182357,-42.48,-30.273000000000003,-38.086,93.262,1.0
1626062961.1862638,-38.086,-33.203,-35.645,25.879,1.0
1626062961.1901696,-11.719000000000001,0.0,-17.09,1.0,1.0
1626062961.1940763,-32.227,-40.039,-13.672,1.0,1.0
1626062961.197982,-29.296999999999997,-46.387,-26.855,1.0,1.0
1626062961.2018883,-9.277000000000001,-25.879,-65.918,1.0,1.0
1626062961.205795,-15.137,-18.066,-64.941,1.0,1.0
1626062961.209701,-57.617,-21.973000000000003,-36.621,1.0,1.0
1626062961.213607,-73.242,-29.785,-23.438000000000002,1.0,1.0
1626062961.2175136,-42.968999999999994,-41.016000000000005,-26.855,1.0,1.0
1626062961.2214196,-36.621,-38.574,-38.574,1.0,1.0
1626062961.225326,-42.48,-11.719000000000001,-26.855,1.0,1.0
1626062961.2292323,-30.273000000000003,-0.977,-1.953,1.0,1.0
1626062961.2331386,-9.766,-5.371,4.883,1.0,1.0
1626062961.2370448,-21.484,-31.25,-22.461,125.488,1.0
1626062961.240951,-1.465,-20.02,-11.23,-48.828,1.0
1626062961.2448573,-32.227,-20.02,-44.922,-168.457,1.0
1626062961.2487636,-69.824,-30.273000000000003,-53.711000000000006,-18.555,1.0
1626062961.2526696,-50.293,-41.992,-36.133,123.04700000000001,1.0
1626062961.256576,-5.859,-41.016000000000005,-19.043,-12.207,1.0
1626062961.2604823,3.906,-43.945,-7.812,-207.03099999999998,1.0
1626062961.2643886,-35.156,-48.828,-27.831999999999997,-123.535,1.0
1626062961.2682948,-64.941,-55.176,-60.059,98.145,1.0
1626062961.272201,-28.32,-26.366999999999997,-44.922,72.266,1.0
1626062961.2761073,-17.578,-6.348,-24.901999999999997,-158.691,1.0
1626062961.2800136,-35.645,-26.855,-7.812,-172.363,1.0
1626062961.2839198,-41.992,-22.949,-50.293,-183.59400000000002,1.0
1626062961.287826,-51.758,-19.531,-61.035,-98.633,1.0
1626062961.2917323,-28.32,-19.531,-58.105,91.309,1.0
1626062961.2956386,-25.391,-48.828,-46.875,34.18,1.0
1626062961.299545,-47.363,-40.527,-38.086,-165.03900000000002,1.0
1626062961.303451,-64.941,-28.32,-36.621,-154.785,1.0
1626062961.307357,-37.109,-26.366999999999997,-34.18,62.012,1.0
1626062961.3112638,-5.859,-24.414,-28.32,105.95700000000001,1.0
1626062961.3151696,-37.598,-69.824,-34.668,-110.84,1.0
1626062961.3190758,-63.477,-84.961,-41.016000000000005,-192.87099999999998,1.0
1626062961.322982,-33.203,-24.414,-28.809,19.043,1.0
1626062961.3268883,6.836,24.414,-23.926,140.625,1.0
1626062961.330795,-9.766,-30.273000000000003,-15.625,1.0,1.0
1626062961.334701,-47.852,-52.733999999999995,-29.296999999999997,1.0,1.0
1626062961.3386073,-65.918,-49.316,-28.809,1.0,1.0
1626062961.3425136,-29.296999999999997,-55.176,-22.949,1.0,1.0
1626062961.3464196,-13.672,-55.176,-33.691,1.0,1.0
1626062961.350326,-35.156,-43.457,-34.18,1.0,1.0
1626062961.3542323,-48.34,-29.785,-22.949,1.0,1.0
1626062961.3581383,-40.039,-21.973000000000003,-18.066,1.0,1.0
1626062961.3620448,-21.484,-22.949,-19.043,1.0,1.0
1626062961.365951,-13.184000000000001,-25.879,-21.484,1.0,1.0
1626062961.3698573,-44.434,-27.344,-33.691,1.0,1.0
1626062961.3737636,-35.645,-25.391,-32.715,1.0,1.0
1626062961.3776698,-36.133,-21.973000000000003,-42.48,-76.66,1.0
1626062961.381576,-24.901999999999997,-50.293,-56.641000000000005,103.516,1.0
1626062961.3854823,-32.715,-62.012,-67.383,27.344,1.0
1626062961.3893886,-46.875,-47.852,-54.199,-168.945,1.0
1626062961.3932948,-52.246,-19.531,-37.598,-142.09,1.0
1626062961.397201,-41.504,-15.137,-21.484,58.593999999999994,1.0
1626062961.4011073,-35.156,-40.527,-17.09,72.75399999999999,1.0
1626062961.4050138,-49.316,-57.129,-15.137,-127.441,1.0
1626062961.4089198,-70.312,-54.688,-29.296999999999997,-187.5,1.0
1626062961.412826,-21.973000000000003,-18.555,-10.742,33.691,1.0
1626062961.4167323,11.23,-9.277000000000001,4.883,144.531,1.0
1626062961.4206386,-29.296999999999997,-13.672,-35.156,-59.082,1.0
1626062961.4245448,-31.25,-11.719000000000001,-28.32,56.641000000000005,1.0
1626062961.428451,-60.059,-30.273000000000003,-34.18,-161.13299999999998,1.0
1626062961.432357,-60.547,-31.738000000000003,-27.344,-166.50400000000002,1.0
1626062961.4362638,-36.133,-36.621,-37.598,48.34,1.0
1626062961.4401696,-17.09,-39.062,-40.527,120.117,1.0
1626062961.4440763,-24.901999999999997,-31.738000000000003,-35.156,-69.336,1.0
1626062961.447982,-42.968999999999994,-15.137,-32.227,-175.293,1.0
1626062961.4518883,-40.039,-28.809,-22.949,-6.836,1.0
1626062961.455795,-19.043,-59.57,-10.254000000000001,127.93,1.0
1626062961.459701,-26.855,-53.223,-11.719000000000001,-19.531,1.0
1626062961.463607,-59.082,-39.551,-30.273000000000003,-186.523,1.0
1626062961.4675136,-58.105,-33.203,-37.109,-74.219,1.0
1626062961.4714196,-20.996,-33.203,-31.25,120.117,1.0
1626062961.475326,-5.859,-28.809,-27.831999999999997,57.129,1.0
1626062961.4792323,-31.738000000000003,-39.551,-20.02,-139.16,1.0
1626062961.4831386,-28.32,-28.32,-13.184000000000001,-92.285,1.0
1626062961.4870448,-0.488,-7.324,-20.508000000000003,121.094,1.0
1626062961.490951,-0.488,-20.02,-19.043,111.816,1.0
1626062961.4948573,-49.316,-46.875,-23.926,-139.16,1.0
1626062961.4987636,-79.102,-65.43,-26.855,-196.77700000000002,1.0
1626062961.5026696,-47.363,-55.176,-26.366999999999997,25.391,1.0
1626062961.506576,-17.578,-21.484,-38.574,117.676,1.0
1626062961.5104823,-37.598,-40.527,-51.27,-76.66,1.0
1626062961.5143886,-46.875,-60.059,-32.715,-186.523,1.0
1626062961.5182948,-76.66,-15.625,-35.645,-208.00799999999998,1.0
1626062961.522201,-35.645,-23.926,-25.391,13.672,1.0
1626062961.5261073,-10.254000000000001,-25.879,-40.039,123.535,1.0
1626062961.5300136,-32.715,-24.901999999999997,-38.574,-56.152,1.0
1626062961.5339198,-55.176,-40.039,-35.156,-189.94099999999997,1.0
1626062961.537826,-24.414,-53.711000000000006,-29.785,-9.277000000000001,1.0
1626062961.5417323,-4.883,-46.875,-27.831999999999997,139.16,1.0
1626062961.5456386,-27.831999999999997,-20.996,-41.016000000000005,-12.207,1.0
1626062961.549545,-67.87100000000001,-10.254000000000001,-63.477,-215.82,1.0
1626062961.553451,-65.918,-20.508000000000003,-55.176,-133.30100000000002,1.0
1626062961.557357,-23.926,-18.066,-27.344,92.773,1.0
1626062961.5612638,-6.836,-21.484,-18.066,61.523,1.0
1626062961.5651696,12.695,-29.296999999999997,-34.668,1.0,1.0
1626062961.5690758,-35.156,-32.227,-45.898,1.0,1.0
1626062961.572982,-30.273000000000003,-26.366999999999997,-18.555,1.0,1.0
1626062961.5768883,-16.113,-30.761999999999997,-23.438000000000002,1.0,1.0
1626062961.580795,-30.273000000000003,-20.02,-40.527,1.0,1.0
1626062961.584701,-49.316,-20.996,-29.785,1.0,1.0
1626062961.5886073,-49.316,-33.691,-16.113,1.0,1.0
1626062961.5925136,-18.555,-35.156,-29.296999999999997,1.0,1.0
1626062961.5964196,4.883,-25.879,-39.062,1.0,1.0
1626062961.600326,-4.883,-22.461,-19.531,1.0,1.0
1626062961.6042323,-28.809,-13.184000000000001,-17.09,1.0,1.0
1626062961.6081383,-27.344,-9.766,-30.761999999999997,1.0,1.0
1626062961.6120448,-13.672,-38.574,-14.16,45.41,1.0
1626062961.615951,-17.09,-42.968999999999994,-36.133,111.32799999999999,1.0
1626062961.6198573,-33.691,-23.926,-42.968999999999994,-74.707,1.0
1626062961.6237636,-60.547,-22.461,-52.246,-206.055,1.0
1626062961.6276698,-61.035,-53.711000000000006,-51.27,-63.477,1.0
1626062961.631576,-42.48,-42.48,-41.504,92.773,1.0
1626062961.6354823,-42.48,-21.484,-34.668,-29.785,1.0
1626062961.6393886,-56.152,-41.504,-36.621,-200.68400000000003,1.0
1626062961.6432948,-41.016000000000005,-42.968999999999994,-30.273000000000003,-88.867,1.0
1626062961.647201,6.836,-30.761999999999997,-15.137,135.74200000000002,1.0
1626062961.6511073,7.324,-19.043,-20.508000000000003,74.707,1.0
1626062961.6550138,-27.831999999999997,4.883,-11.23,-151.855,1.0
1626062961.6589198,-44.434,-25.391,-37.109,-182.12900000000002,1.0
1626062961.662826,-35.156,-30.273000000000003,-20.02,-90.82,1.0
1626062961.6667323,-30.761999999999997,-27.344,-25.391,101.56200000000001,1.0
1626062961.6706386,-40.039,-45.898,-37.598,55.663999999999994,1.0
1626062961.6745448,-52.246,-39.062,-23.926,-144.043,1.0
1626062961.678451,-39.062,-52.246,-9.277000000000001,-127.441,1.0
1626062961.682357,-12.207,-65.43,-5.859,89.844,1.0
1626062961.6862638,-14.648,-51.27,-24.901999999999997,121.094,1.0
1626062961.6901696,-36.133,-53.711000000000006,-36.133,-86.914,1.0
1626062961.6940763,-42.968999999999994,-48.34,-20.02,-169.922,1.0
1626062961.697982,-55.176,-55.663999999999994,-41.016000000000005,-15.625,1.0
1626062961.7018883,-31.25,-25.879,-45.41,120.605,1.0
1626062961.705795,2.441,-17.578,-32.227,-12.695,1.0
1626062961.709701,-7.812,-15.625,-24.901999999999997,-200.68400000000003,1.0
1626062961.713607,-43.945,-14.648,-37.109,-81.055,1.0
1626062961.7175136,-25.879,-16.113,-20.996,133.30100000000002,1.0
1626062961.7214196,8.789,-31.25,12.695,66.406,1.0
1626062961.725326,-15.625,-47.363,2.441,-163.086,1.0
1626062961.7292323,-61.523,-64.453,-23.926,-151.36700000000002,1.0
1626062961.7331386,-61.523,-67.383,-33.203,70.801,1.0
1626062961.7370448,-47.852,-40.527,-45.898,67.383,1.0
1626062961.740951,-43.457,-13.672,-46.387,-136.719,1.0
1626062961.7448573,-49.316,-23.438000000000002,-42.968999999999994,-170.898,1.0
1626062961.7487636,-34.18,-20.996,-32.227,27.344,1.0
1626062961.7526696,-30.761999999999997,-53.223,-18.066,-89.355,1.0
1626062961.756576,-12.695,-13.672,-2.441,114.74600000000001,1.0
1626062961.7604823,-43.945,-21.973000000000003,-42.968999999999994,42.968999999999994,1.0
1626062961.7643886,-77.148,-60.547,-41.504,-173.828,1.0
1626062961.7682948,-67.87100000000001,-41.504,-26.366999999999997,-165.52700000000002,1.0
1626062961.772201,-36.133,-12.207,-31.25,55.176,1.0
1626062961.7761073,-12.695,-8.789,-30.761999999999997,107.42200000000001,1.0
1626062961.7800136,-33.203,-15.625,-33.691,-101.56200000000001,1.0
1626062961.7839198,-60.059,-45.41,-37.109,-191.895,1.0
1626062961.787826,-26.366999999999997,-55.663999999999994,-36.133,7.324,1.0
1626062961.7917323,8.301,-31.25,-27.344,136.719,1.0
1626062961.7956386,-11.23,-25.879,-18.066,-28.32,1.0
1626062961.799545,-27.831999999999997,-14.648,-10.254000000000001,-65.918,1.0
1626062961.803451,-45.41,-32.715,0.488,-172.852,1.0
1626062961.807357,-38.574,-56.641000000000005,-3.418,-2.93,1.0
1626062961.8112638,-33.203,-50.293,-29.296999999999997,111.816,1.0
1626062961.8151696,-38.086,-28.32,-28.32,-34.18,1.0
1626062961.8190758,-63.477,-38.086,-24.901999999999997,-193.84799999999998,1.0
1626062961.822982,-57.129,-32.715,-41.992,-83.49600000000001,1.0
1626062961.8268883,-6.348,-9.277000000000001,-21.484,129.88299999999998,1.0
1626062961.830795,-6.348,-26.855,-18.066,62.988,1.0
1626062961.834701,-49.805,-40.527,-34.18,-160.156,1.0
1626062961.8386073,-64.941,-44.922,-23.926,-136.23,1.0
1626062961.8425136,-47.852,-54.199,-24.414,69.824,1.0
1626062961.8464196,-35.645,-44.922,-36.621,77.637,1.0
1626062961.850326,-22.949,-21.973000000000003,-22.461,-124.512,1.0
1626062961.8542323,-46.387,-34.668,-27.831999999999997,-170.41,1.0
1626062961.8581383,-37.598,-46.387,-32.227,25.391,1.0
1626062961.8620448,-10.742,-42.968999999999994,-16.602,128.418,1.0
1626062961.865951,-8.301,-19.531,-18.066,-31.738000000000003,1.0
1626062961.8698573,-30.273000000000003,-18.066,-41.016000000000005,-182.12900000000002,1.0
1626062961.8737636,-48.828,-16.602,-29.785,-38.574,1.0
1626062961.8776698,-32.227,-18.555,-24.901999999999997,112.79299999999999,1.0
1626062961.881576,-15.625,-40.527,-53.223,-21.973000000000003,1.0
1626062961.8854823,-30.761999999999997,-40.039,-66.895,-198.24200000000002,1.0
1626062961.8893886,-29.785,-35.645,-31.738000000000003,-113.77,1.0
1626062961.8932948,-7.812,-33.691,-13.184000000000001,-148.438,1.0
1626062961.897201,-34.18,-38.574,-18.066,-195.801,1.0
1626062961.9011073,-58.593999999999994,-22.949,-26.855,26.366999999999997,1.0
1626062961.9050138,-40.039,-14.648,-43.945,103.516,1.0
1626062961.9089198,2.441,-27.831999999999997,-41.016000000000005,-84.473,1.0
1626062961.912826,-6.348,-52.733999999999995,-18.555,-182.12900000000002,1.0
1626062961.9167323,-41.504,-49.316,-21.973000000000003,-4.395,1.0
1626062961.9206386,-32.715,-17.578,-23.926,142.09,1.0
1626062961.9245448,-10.742,-6.836,-24.901999999999997,-3.418,1.0
1626062961.928451,-14.648,-25.391,-22.461,-178.22299999999998,1.0
1626062961.932357,-35.645,-50.293,-35.645,-66.406,1.0
1626062961.9362638,-29.296999999999997,-36.621,-36.621,130.859,1.0
1626062961.9401696,-48.34,-66.406,-48.34,-0.488,1.0
1626062961.9440763,-38.574,-52.246,-62.012,101.56200000000001,1.0
1626062961.947982,-31.738000000000003,-22.949,-62.012,-43.457,1.0
1626062961.9518883,-45.898,-8.789,-30.273000000000003,-172.852,1.0
1626062961.955795,-45.41,-26.366999999999997,0.488,-45.41,1.0
1626062961.959701,-21.973000000000003,-27.344,9.766,123.04700000000001,1.0
1626062961.963607,-36.621,-10.254000000000001,-13.184000000000001,11.23,1.0
1626062961.9675136,-67.87100000000001,-23.438000000000002,-37.598,-186.035,1.0
1626062961.9714196,-41.504,-56.152,-32.227,-97.16799999999999,1.0
1626062961.975326,-11.23,-62.5,-23.438000000000002,98.145,1.0
1626062961.9792323,-33.691,-37.109,-53.711000000000006,39.551,1.0
1626062961.9831386,-47.363,-4.395,-67.383,-164.062,1.0
1626062961.9870448,-61.523,-38.086,-41.992,-186.523,1.0
1626062961.990951,-43.457,-30.761999999999997,-36.621,-133.789,1.0
1626062961.9948573,0.0,-34.18,-17.578,95.215,1.0
1626062961.9987636,7.812,-31.738000000000003,-8.301,103.516,1.0
1626062962.0026696,-8.301,-29.785,-14.648,-104.00399999999999,1.0
1626062962.006576,-21.973000000000003,-62.5,-38.574,-151.36700000000002,1.0
1626062962.0104823,-4.395,-58.105,-44.434,47.363,1.0
1626062962.0143886,-1.953,-13.672,-28.809,123.04700000000001,1.0
1626062962.0182948,-39.062,-9.277000000000001,-30.273000000000003,-75.684,1.0
1626062962.022201,-56.641000000000005,-36.621,-43.457,-200.195,1.0
1626062962.0261073,-32.227,-44.922,-41.992,-35.156,1.0
1626062962.0300136,-12.695,-32.227,-19.043,115.234,1.0
1626062962.0339198,-29.785,-46.875,-8.789,-2.441,1.0
1626062962.037826,-25.391,-33.691,-5.371,-184.57,1.0
1626062962.0417323,-51.27,-30.273000000000003,-40.527,-83.008,1.0
1626062962.0456386,-56.152,-33.691,-62.988,124.023,1.0
1626062962.049545,-37.598,-33.691,-42.968999999999994,46.387,1.0
1626062962.053451,-45.898,-42.48,-42.48,-159.18,1.0
1626062962.057357,-53.223,-43.457,-31.738000000000003,-140.625,1.0
1626062962.0612638,-46.875,-23.438000000000002,-21.973000000000003,54.688,1.0
1626062962.0651696,-20.02,-12.695,-28.809,89.844,1.0
1626062962.0690758,-17.578,-13.184000000000001,-37.109,-114.258,1.0
1626062962.072982,-37.598,-19.043,-37.109,-190.918,1.0
1626062962.0768883,-20.02,-27.831999999999997,-17.578,2.441,1.0
1626062962.080795,-29.296999999999997,-45.41,-27.831999999999997,-94.727,1.0
1626062962.084701,3.418,-25.391,-48.828,117.676,1.0
1626062962.0886073,-1.953,-18.555,-45.898,89.355,1.0
1626062962.0925136,-47.363,-2.441,-30.761999999999997,-149.414,1.0
1626062962.0964196,-60.547,-20.02,-37.598,-187.5,1.0
1626062962.100326,-32.227,-40.527,-36.621,31.25,1.0
1626062962.1042323,-19.531,-34.668,-31.738000000000003,106.445,1.0
1626062962.1081383,-15.137,-17.578,-17.578,-68.359,1.0
1626062962.1120448,-21.484,-20.508000000000003,-15.625,-175.293,1.0
1626062962.115951,-2.441,-13.672,-12.207,-2.441,1.0
1626062962.1198573,20.508000000000003,-16.113,-18.555,151.36700000000002,1.0
1626062962.1237636,11.23,-42.968999999999994,-39.551,13.184000000000001,1.0
1626062962.1276698,-24.901999999999997,-14.648,-17.578,-59.082,1.0
1626062962.131576,-61.523,-14.16,-60.059,-200.68400000000003,1.0
1626062962.1354823,-41.504,-33.691,-38.574,-38.086,1.0
1626062962.1393886,-14.16,-50.781000000000006,-15.625,121.58200000000001,1.0
1626062962.1432948,-15.625,-35.156,-24.901999999999997,4.395,1.0
1626062962.147201,-47.363,-37.109,-37.109,-181.641,1.0
1626062962.1511073,-57.129,-52.246,-40.039,-108.398,1.0
1626062962.1550138,4.395,-30.273000000000003,-9.766,127.93,1.0
1626062962.1589198,21.973000000000003,-27.344,9.277000000000001,104.98,1.0
1626062962.162826,-35.645,-28.32,-14.16,-139.16,1.0
1626062962.1667323,-53.223,-6.836,-26.366999999999997,-145.996,1.0
1626062962.1706386,-12.695,-1.953,-22.461,80.566,1.0
1626062962.1745448,-34.668,-52.246,-27.831999999999997,118.652,1.0
1626062962.178451,-15.625,-40.039,-7.812,-85.449,1.0
1626062962.182357,-36.621,-43.457,2.441,-158.691,1.0
1626062962.1862638,-82.52,-65.918,-3.418,8.789,1.0
1626062962.1901696,-59.082,-42.48,-12.695,99.12100000000001,1.0
1626062962.1940763,-8.301,-0.977,-5.859,-55.663999999999994,1.0
1626062962.197982,-32.715,-23.438000000000002,-16.113,-186.523,1.0
1626062962.2018883,-62.012,-47.363,-27.344,-55.176,1.0
1626062962.205795,-46.387,-34.668,-14.648,119.141,1.0
1626062962.209701,-33.203,-51.27,-38.574,31.738000000000003,1.0
1626062962.213607,-42.48,-81.055,-70.312,-159.668,1.0
1626062962.2175136,-50.293,-70.801,-48.34,-102.539,1.0
1626062962.2214196,-51.758,9.277000000000001,-18.066,-189.453,1.0
1626062962.225326,-32.715,-23.926,-12.695,-25.391,1.0
1626062962.2292323,-0.488,-35.645,-17.09,138.184,1.0
1626062962.2331386,-2.441,-14.648,-32.715,11.23,1.0
1626062962.2370448,-44.434,-32.227,-26.855,-183.105,1.0
1626062962.240951,-52.733999999999995,-44.922,-19.043,-93.75,1.0
1626062962.2448573,-25.391,-22.949,-33.691,104.00399999999999,1.0
1626062962.2487636,-31.738000000000003,-17.09,-41.992,32.715,1.0
1626062962.2526696,-58.105,-24.414,-28.809,-178.22299999999998,1.0
1626062962.256576,-60.547,-25.879,-27.831999999999997,-146.484,1.0
1626062962.2604823,-35.645,-26.855,-34.668,62.988,1.0
1626062962.2643886,8.301,-30.761999999999997,-31.25,115.234,1.0
1626062962.2682948,13.184000000000001,-10.742,-13.184000000000001,87.402,1.0
1626062962.272201,-19.531,-25.391,-28.32,-131.836,1.0
1626062962.2761073,-33.203,-37.598,-30.761999999999997,-146.97299999999998,1.0
1626062962.2800136,-25.391,-31.25,-33.203,43.457,1.0
1626062962.2839198,-25.391,-38.086,-38.574,82.031,1.0
1626062962.287826,-30.761999999999997,-24.414,-26.855,-99.609,1.0
1626062962.2917323,-32.227,-1.465,-16.602,-174.31599999999997,1.0
1626062962.2956386,-22.949,-22.461,-28.809,4.395,1.0
1626062962.299545,-16.113,-35.156,-24.414,122.559,1.0
1626062962.303451,-24.414,-31.25,-15.137,-29.785,1.0
1626062962.307357,-40.039,-43.457,-25.391,-180.66400000000002,1.0
1626062962.3112638,-22.949,-63.965,-31.25,-47.363,1.0
1626062962.3151696,-28.32,-42.968999999999994,-29.785,-8.789,1.0
1626062962.3190758,10.742,1.465,-11.719000000000001,153.32,1.0
1626062962.322982,5.859,6.348,2.93,22.949,1.0
1626062962.3268883,-60.547,-29.785,-31.25,-190.918,1.0
1626062962.330795,-71.289,-37.109,-52.246,-107.91,1.0
1626062962.334701,-22.461,-26.366999999999997,-35.645,109.375,1.0
1626062962.3386073,-23.438000000000002,-45.41,-37.598,39.062,1.0
1626062962.3425136,-57.617,-41.016000000000005,-37.109,-176.27,1.0
1626062962.3464196,-58.105,-32.227,-30.273000000000003,-147.461,1.0
1626062962.350326,-20.996,-51.27,-28.32,77.637,1.0
1626062962.3542323,3.906,-24.414,-17.09,108.398,1.0
1626062962.3581383,-22.949,-7.812,-33.203,-107.42200000000001,1.0
1626062962.3620448,-41.504,-21.973000000000003,-13.184000000000001,-153.32,1.0
1626062962.365951,-43.945,-19.043,-34.668,-139.648,1.0
1626062962.3698573,7.324,1.465,-23.438000000000002,102.539,1.0
1626062962.3737636,8.789,-4.395,-20.02,122.07,1.0
1626062962.3776698,-31.738000000000003,-39.551,-28.32,-103.027,1.0
1626062962.381576,-52.733999999999995,-46.387,-24.414,-182.12900000000002,1.0
1626062962.3854823,-19.531,-23.926,-22.461,21.973000000000003,1.0
1626062962.3893886,29.296999999999997,-32.715,-58.105,158.203,1.0
1626062962.3932948,-3.418,-68.848,-79.102,-33.691,1.0
1626062962.397201,-42.968999999999994,-33.691,-18.555,-198.73,1.0
1626062962.4011073,-31.25,-4.395,4.395,-54.199,1.0
1626062962.4050138,-20.02,-24.901999999999997,-22.949,110.352,1.0
1626062962.4089198,-21.484,-15.137,-9.277000000000001,17.09,1.0
1626062962.412826,-34.668,-35.156,-39.551,-164.062,1.0
1626062962.4167323,-59.57,-38.086,-42.968999999999994,-99.12100000000001,1.0
1626062962.4206386,-45.898,-45.898,-26.855,100.098,1.0
1626062962.4245448,-18.555,-58.593999999999994,-19.531,71.777,1.0
1626062962.428451,-15.137,-34.668,-9.277000000000001,-134.27700000000002,1.0
1626062962.432357,-53.711000000000006,-26.855,-16.113,-142.578,1.0
1626062962.4362638,-71.777,-31.738000000000003,-32.227,72.75399999999999,1.0
1626062962.4401696,-37.109,-48.34,-35.156,120.117,1.0
1626062962.4440763,-16.113,-27.831999999999997,-33.203,-102.051,1.0
1626062962.447982,-37.109,-14.648,-30.761999999999997,-199.707,1.0
1626062962.4518883,-46.387,-17.578,-24.414,-10.742,1.0
1626062962.455795,-52.246,-34.668,-50.293,-145.02,1.0
1626062962.459701,-12.207,-11.719000000000001,-32.227,88.37899999999999,1.0
1626062962.463607,19.043,-5.859,-16.602,127.441,1.0
1626062962.4675136,-31.738000000000003,-75.195,-29.296999999999997,-108.887,1.0
1626062962.4714196,-52.246,-72.266,-17.09,-171.875,1.0
1626062962.475326,-25.879,-17.09,-17.578,36.133,1.0
1626062962.4792323,-19.531,-14.16,-31.25,119.62899999999999,1.0
1626062962.4831386,-38.574,-26.366999999999997,-24.414,-67.383,1.0
1626062962.4870448,-62.988,-38.574,-32.715,-202.637,1.0
1626062962.490951,-35.645,-23.438000000000002,-32.227,-41.504,1.0
1626062962.4948573,-12.207,-19.531,-32.715,121.094,1.0
1626062962.4987636,-24.414,-20.02,-50.293,3.418,1.0
1626062962.5026696,-4.883,-40.527,-19.531,1.0,1.0
1626062962.506576,-35.156,-40.527,-23.438000000000002,1.0,1.0
1626062962.5104823,-50.293,-30.761999999999997,-35.156,1.0,1.0
1626062962.5143886,-26.855,-17.578,-32.715,1.0,1.0
1626062962.5182948,-9.766,-25.879,-13.184000000000001,1.0,1.0
1626062962.522201,-30.761999999999997,-44.434,-15.625,1.0,1.0
1626062962.5261073,-57.617,-52.246,-54.688,1.0,1.0
1626062962.5300136,-38.086,-55.663999999999994,-36.621,1.0,1.0
1626062962.5339198,-26.855,-49.805,-16.602,1.0,1.0
1626062962.537826,-47.852,-45.898,-44.434,1.0,1.0
1626062962.5417323,-41.992,-44.922,-42.968999999999994,1.0,1.0
1626062962.5456386,-31.738000000000003,-33.203,-38.086,1.0,1.0
1626062962.549545,-34.18,-18.555,-41.992,91.79700000000001,1.0
1626062962.553451,-20.02,-33.203,-25.391,-104.98,1.0
1626062962.557357,-27.344,-29.785,-8.789,-198.24200000000002,1.0
1626062962.5612638,-42.48,-27.831999999999997,-18.555,-7.324,1.0
1626062962.5651696,-26.855,-11.719000000000001,-25.879,134.27700000000002,1.0
1626062962.5690758,2.93,-10.742,-20.508000000000003,-18.555,1.0
1626062962.572982,-3.906,-44.434,-17.09,-180.66400000000002,1.0
1626062962.5768883,-35.645,-41.016000000000005,-26.855,-55.176,1.0
1626062962.580795,-34.18,-17.09,-43.945,121.58200000000001,1.0
1626062962.584701,-4.883,-13.184000000000001,-25.391,35.156,1.0
1626062962.5886073,-20.02,-32.227,-14.16,-172.363,1.0
1626062962.5925136,-56.641000000000005,-22.461,-20.508000000000003,-156.738,1.0
1626062962.5964196,-44.434,-71.777,-9.277000000000001,-169.43400000000003,1.0
1626062962.600326,-42.968999999999994,-69.824,-25.391,-48.34,1.0
1626062962.6042323,-22.461,-53.711000000000006,-26.366999999999997,120.605,1.0
1626062962.6081383,-41.016000000000005,-39.062,-30.761999999999997,11.719000000000001,1.0
1626062962.6120448,-61.523,-42.968999999999994,-38.086,-182.12900000000002,1.0
1626062962.615951,-49.316,-54.688,-38.086,-108.887,1.0
1626062962.6198573,-26.366999999999997,-55.176,-42.968999999999994,96.68,1.0
1626062962.6237636,-30.761999999999997,-63.965,-40.527,64.941,1.0
1626062962.6276698,-49.805,-48.828,-28.32,-144.531,1.0
1626062962.631576,-49.316,-27.344,-28.809,-149.90200000000002,1.0
1626062962.6354823,-23.926,-36.133,-38.574,62.5,1.0
1626062962.6393886,-10.254000000000001,-33.691,-34.668,111.32799999999999,1.0
1626062962.6432948,-3.906,-51.758,-26.855,1.0,1.0
1626062962.647201,-24.901999999999997,-57.617,-15.625,1.0,1.0
1626062962.6511073,-28.32,-23.926,-5.859,1.0,1.0
1626062962.6550138,-30.273000000000003,0.488,-24.414,1.0,1.0
1626062962.6589198,-43.945,-15.137,-47.363,1.0,1.0
1626062962.662826,-49.316,-13.184000000000001,-29.785,1.0,1.0
1626062962.6667323,-56.152,-15.625,-32.715,1.0,1.0
1626062962.6706386,-50.293,-35.156,-57.129,1.0,1.0
1626062962.6745448,-41.016000000000005,-59.57,-55.176,1.0,1.0
1626062962.678451,-24.901999999999997,-49.316,-31.738000000000003,1.0,1.0
1626062962.682357,-34.668,-41.016000000000005,-25.391,1.0,1.0
1626062962.6862638,-32.227,-61.035,-28.809,1.0,1.0
1626062962.6901696,-35.645,-25.879,-57.129,-33.691,1.0
1626062962.6940763,-17.578,-16.602,-29.785,126.95299999999999,1.0
1626062962.697982,-27.344,-9.766,-17.578,7.324,1.0
1626062962.7018883,-57.617,-24.901999999999997,-34.668,-187.988,1.0
1626062962.705795,-60.059,-28.809,-39.551,-109.375,1.0
1626062962.709701,-13.672,-26.855,-14.16,118.652,1.0
1626062962.713607,-3.906,-58.105,-7.324,87.891,1.0
1626062962.7175136,-25.391,-54.688,-15.625,-121.58200000000001,1.0
1626062962.7214196,-46.387,-34.18,-40.527,-138.184,1.0
1626062962.725326,-11.719000000000001,-26.366999999999997,-26.366999999999997,85.93799999999999,1.0
1626062962.7292323,6.348,-21.484,-0.488,137.695,1.0
1626062962.7331386,-42.968999999999994,-34.668,-21.973000000000003,-98.145,1.0
1626062962.7370448,-32.715,-9.277000000000001,-22.461,-125.488,1.0
1626062962.740951,-42.968999999999994,-3.418,-22.949,-149.90200000000002,1.0
1626062962.7448573,-41.016000000000005,-18.066,-26.366999999999997,44.922,1.0
1626062962.7487636,-16.113,-37.109,-29.785,113.77,1.0
1626062962.7526696,-22.461,-45.41,-35.156,-74.707,1.0
1626062962.756576,-41.504,-35.645,-29.296999999999997,-169.43400000000003,1.0
1626062962.7604823,-31.25,-19.531,-8.301,5.859,1.0
1626062962.7643886,-19.043,-4.395,-9.277000000000001,118.652,1.0
1626062962.7682948,-55.663999999999994,-35.156,-29.785,-52.733999999999995,1.0
1626062962.772201,-73.73,-35.156,-16.113,-201.66,1.0
1626062962.7761073,-56.152,-4.883,-23.438000000000002,-77.148,1.0
1626062962.7800136,-18.555,-9.277000000000001,-39.062,121.094,1.0
1626062962.7839198,-13.184000000000001,-48.34,-27.344,49.805,1.0
1626062962.787826,-27.831999999999997,-42.48,-24.414,-173.34,1.0
1626062962.7917323,-38.574,-30.761999999999997,-13.672,-137.207,1.0
1626062962.7956386,-25.391,-37.598,-37.598,92.773,1.0
1626062962.799545,-12.695,-31.738000000000003,-42.48,101.56200000000001,1.0
1626062962.803451,7.324,-6.836,-14.648,-126.95299999999999,1.0
1626062962.807357,-8.301,-9.277000000000001,4.395,-188.477,1.0
1626062962.8112638,-37.598,-20.996,4.395,11.23,1.0
1626062962.8151696,-38.086,-51.27,-29.785,108.887,1.0
1626062962.8190758,-23.438000000000002,-44.434,-36.621,-44.434,1.0
1626062962.822982,-41.992,-23.438000000000002,-31.25,-171.387,1.0
1626062962.8268883,-56.152,-30.273000000000003,-45.898,-30.761999999999997,1.0
1626062962.830795,-52.246,-16.602,-23.926,-173.828,1.0
1626062962.834701,-33.691,-12.695,-28.32,41.504,1.0
1626062962.8386073,-15.625,-37.109,-31.25,102.051,1.0
1626062962.8425136,-36.621,-37.598,-35.156,-100.586,1.0
1626062962.8464196,-57.129,-26.855,-43.945,-196.77700000000002,1.0
1626062962.850326,-29.785,-11.23,-40.039,-5.371,1.0
1626062962.8542323,-0.977,-18.066,-47.363,129.88299999999998,1.0
1626062962.8581383,-36.621,-59.57,-53.711000000000006,-44.922,1.0
1626062962.8620448,-85.93799999999999,-75.684,-53.223,-224.609,1.0
1626062962.865951,-55.663999999999994,-32.715,-30.273000000000003,-78.613,1.0
1626062962.8698573,-16.113,0.977,-16.602,124.512,1.0
1626062962.8737636,-23.926,-12.207,-16.113,16.113,1.0
1626062962.8776698,-40.527,-9.277000000000001,-27.344,1.0,1.0
1626062962.881576,-55.176,-4.883,-25.391,1.0,1.0
1626062962.8854823,-36.621,-12.207,-31.738000000000003,1.0,1.0
1626062962.8893886,-7.324,-23.926,-24.414,1.0,1.0
1626062962.8932948,-0.488,-22.461,-8.301,1.0,1.0
1626062962.897201,-19.043,-23.926,6.836,1.0,1.0
1626062962.9011073,-35.645,-18.066,-2.93,1.0,1.0
1626062962.9050138,-18.555,-10.742,-18.066,1.0,1.0
1626062962.9089198,-7.324,-58.593999999999994,-26.855,1.0,1.0
1626062962.912826,-23.926,-67.87100000000001,-38.086,1.0,1.0
1626062962.9167323,-59.57,-28.32,-44.922,1.0,1.0
1626062962.9206386,-43.945,-5.371,-34.668,1.0,1.0
1626062962.9245448,-22.949,-13.672,-35.156,66.895,1.0
1626062962.928451,-17.578,-5.859,-22.461,103.516,1.0
1626062962.932357,-23.438000000000002,-2.441,-18.555,-85.93799999999999,1.0
1626062962.9362638,-55.663999999999994,-56.641000000000005,-40.527,-187.988,1.0
1626062962.9401696,-61.035,-85.93799999999999,-49.316,-20.508000000000003,1.0
1626062962.9440763,-29.296999999999997,-33.691,-42.968999999999994,111.32799999999999,1.0
1626062962.947982,-31.738000000000003,12.695,-26.855,-38.086,1.0
1626062962.9518883,-58.593999999999994,-13.184000000000001,-21.484,-195.312,1.0
1626062962.955795,-63.477,-58.593999999999994,-31.25,-73.242,1.0
1626062962.959701,-23.438000000000002,-18.066,-15.625,124.512,1.0
1626062962.963607,-1.953,18.066,-14.16,40.039,1.0
1626062962.9675136,-33.203,-12.695,-40.527,-171.875,1.0
1626062962.9714196,-29.296999999999997,-10.254000000000001,-20.02,-56.152,1.0
1626062962.975326,-60.547,-15.137,-30.761999999999997,-192.87099999999998,1.0
1626062962.9792323,-48.34,-27.344,-47.363,-38.086,1.0
1626062962.9831386,-25.391,-31.738000000000003,-26.366999999999997,116.211,1.0
1626062962.9870448,-28.32,-27.831999999999997,-10.254000000000001,-3.906,1.0
1626062962.990951,-50.293,-36.133,-37.109,-177.24599999999998,1.0
1626062962.9948573,-55.663999999999994,-61.035,-56.641000000000005,-101.56200000000001,1.0
1626062962.9987636,-26.366999999999997,-56.152,-28.809,95.70299999999999,1.0
1626062963.0026696,-20.508000000000003,-44.434,-16.113,46.387,1.0
1626062963.006576,-39.551,-34.18,-30.761999999999997,-158.691,1.0
1626062963.0104823,-38.086,-10.742,-28.32,-128.906,1.0
1626062963.0143886,-38.086,-29.296999999999997,-34.18,62.988,1.0
1626062963.0182948,-34.668,-35.156,-36.621,1.0,1.0
1626062963.022201,-40.527,-26.855,-29.785,1.0,1.0
1626062963.0261073,-39.062,-32.227,-14.16,1.0,1.0
1626062963.0300136,-20.996,-47.852,-18.555,1.0,1.0
1626062963.0339198,-18.066,-48.34,-22.461,1.0,1.0
1626062963.037826,-34.18,-9.277000000000001,-31.25,1.0,1.0
1626062963.0417323,-50.781000000000006,2.441,-50.293,1.0,1.0
1626062963.0456386,-25.879,-7.812,-48.828,1.0,1.0
1626062963.049545,-16.113,-20.508000000000003,-34.18,1.0,1.0
1626062963.053451,-27.344,-22.949,-13.184000000000001,1.0,1.0
1626062963.057357,-30.761999999999997,-17.578,-15.137,1.0,1.0
1626062963.0612638,-22.949,-18.555,-32.227,1.0,1.0
1626062963.0651696,-30.761999999999997,-41.992,-32.227,-53.711000000000006,1.0
1626062963.0690758,-3.906,-48.34,-18.555,137.695,1.0
1626062963.072982,-32.227,-39.062,-31.738000000000003,23.438000000000002,1.0
1626062963.0768883,-66.406,-40.039,-48.34,-192.38299999999998,1.0
1626062963.080795,-42.968999999999994,-40.527,-28.32,-120.117,1.0
1626062963.084701,-6.836,-19.531,-24.901999999999997,107.42200000000001,1.0
1626062963.0886073,-21.484,-20.996,-40.527,85.449,1.0
1626062963.0925136,-60.059,-18.555,-40.527,-147.461,1.0
1626062963.0964196,-86.914,-41.992,-51.758,-205.078,1.0
1626062963.100326,-41.992,-46.875,-46.875,28.809,1.0
1626062963.1042323,-8.789,-31.25,-29.296999999999997,123.535,1.0
1626062963.1081383,-35.645,-38.574,-14.648,-83.008,1.0
1626062963.1120448,-9.277000000000001,-31.738000000000003,-19.531,67.383,1.0
1626062963.115951,-45.898,-36.133,-34.668,-153.32,1.0
1626062963.1198573,-39.551,-33.691,-36.133,-137.207,1.0
1626062963.1237636,6.348,-4.883,-25.879,96.68,1.0
1626062963.1276698,23.926,-3.418,-20.02,146.484,1.0
1626062963.131576,-29.785,-63.477,-48.34,-91.309,1.0
1626062963.1354823,-75.195,-83.008,-51.758,-206.055,1.0
1626062963.1393886,-48.34,-54.199,-30.761999999999997,-2.441,1.0
1626062963.1432948,-27.831999999999997,-32.715,-25.391,114.74600000000001,1.0
1626062963.147201,-35.156,-21.484,-35.645,-44.922,1.0
1626062963.1511073,-43.457,-18.555,-47.852,-179.199,1.0
1626062963.1550138,-42.968999999999994,-30.273000000000003,-45.41,-54.199,1.0
1626062963.1589198,-24.414,-32.227,-33.691,1.0,1.0
1626062963.162826,-0.977,-5.859,-21.973000000000003,1.0,1.0
1626062963.1667323,-2.441,-8.789,-11.719000000000001,1.0,1.0
1626062963.1706386,-16.113,-19.043,-12.695,1.0,1.0
1626062963.1745448,-9.766,-43.945,-23.438000000000002,1.0,1.0
1626062963.178451,-13.184000000000001,-48.828,-31.25,1.0,1.0
1626062963.182357,-38.574,-23.926,-36.621,1.0,1.0
1626062963.1862638,-48.34,-33.203,-41.992,1.0,1.0
1626062963.1901696,-36.133,-70.312,-35.645,1.0,1.0
1626062963.1940763,-5.371,-46.875,-26.855,1.0,1.0
1626062963.197982,-12.695,-8.789,-31.25,1.0,1.0
1626062963.2018883,-50.781000000000006,-20.996,-39.551,1.0,1.0
1626062963.205795,-26.366999999999997,-38.086,-9.277000000000001,-144.531,1.0
1626062963.209701,-8.789,-46.387,-21.484,63.965,1.0
1626062963.213607,-17.09,-22.949,-28.32,126.465,1.0
1626062963.2175136,-54.199,5.371,-33.691,-79.59,1.0
1626062963.2214196,-75.195,-13.184000000000001,-40.039,-205.078,1.0
1626062963.225326,-52.246,-30.273000000000003,-27.344,-30.273000000000003,1.0
1626062963.2292323,-20.996,-35.645,-39.062,128.418,1.0
1626062963.2331386,-21.484,-46.875,-43.945,-2.93,1.0
1626062963.2370448,-55.176,-82.031,-30.761999999999997,-191.40599999999998,1.0
1626062963.240951,-41.992,-68.359,-21.973000000000003,-88.37899999999999,1.0
1626062963.2448573,-11.23,-8.789,-31.25,117.18799999999999,1.0
1626062963.2487636,-21.484,0.977,-26.366999999999997,56.152,1.0
1626062963.2526696,-20.996,-27.831999999999997,-13.672,1.0,1.0
1626062963.256576,-47.363,-23.438000000000002,-17.578,1.0,1.0
1626062963.2604823,-43.457,-23.438000000000002,-28.32,1.0,1.0
1626062963.2643886,-19.043,-10.254000000000001,-50.781000000000006,1.0,1.0
1626062963.2682948,-12.207,-9.277000000000001,-40.039,1.0,1.0
1626062963.272201,-41.016000000000005,-21.973000000000003,-16.602,1.0,1.0
1626062963.2761073,-44.922,-38.574,-14.16,1.0,1.0
1626062963.2800136,-14.648,-41.504,-29.296999999999997,1.0,1.0
1626062963.2839198,-15.137,-33.203,-42.48,1.0,1.0
1626062963.287826,-25.879,-29.296999999999997,-27.831999999999997,1.0,1.0
1626062963.2917323,-31.738000000000003,-32.715,-10.742,1.0,1.0
1626062963.2956386,-19.531,-13.184000000000001,-16.602,1.0,1.0
1626062963.299545,-35.645,-34.18,-18.066,35.645,1.0
1626062963.303451,-6.836,-30.273000000000003,-10.254000000000001,126.465,1.0
1626062963.307357,-26.855,-27.831999999999997,-16.602,-65.918,1.0
1626062963.3112638,-63.965,-51.27,-39.062,-193.359,1.0
1626062963.3151696,-51.27,-53.711000000000006,-35.645,-30.273000000000003,1.0
1626062963.3190758,0.488,-15.625,-7.812,135.74200000000002,1.0
1626062963.322982,-3.418,-2.441,-3.418,4.395,1.0
1626062963.3268883,-44.922,-12.207,-28.32,-182.12900000000002,1.0
1626062963.330795,-38.086,-17.09,-40.527,-84.473,1.0
1626062963.334701,-20.02,-25.391,-33.203,104.492,1.0
1626062963.3386073,-43.457,-54.688,-49.316,20.02,1.0
1626062963.3425136,-57.129,-59.082,-39.062,-186.523,1.0
1626062963.3464196,-43.945,-59.082,-36.133,-183.59400000000002,1.0
1626062963.350326,-26.855,-18.555,-42.968999999999994,-85.449,1.0
1626062963.3542323,0.977,-35.645,-22.949,120.605,1.0
1626062963.3581383,-5.371,-58.593999999999994,-16.602,77.148,1.0
1626062963.3620448,-39.062,-35.645,-31.25,-142.09,1.0
1626062963.365951,-64.941,-17.578,-42.968999999999994,-157.715,1.0
1626062963.3698573,-52.246,-16.113,-44.922,47.363,1.0
1626062963.3737636,-22.461,-18.066,-27.831999999999997,101.074,1.0
1626062963.3776698,-37.109,-45.898,-34.18,-96.68,1.0
1626062963.381576,-60.059,-41.504,-35.645,-173.34,1.0
1626062963.3854823,-32.715,-23.926,-22.461,24.414,1.0
1626062963.3893886,-17.09,-45.41,-22.949,124.512,1.0
1626062963.3932948,-13.184000000000001,-25.879,-37.598,-46.387,1.0
1626062963.397201,-41.016000000000005,-39.551,-22.461,-185.547,1.0
1626062963.4011073,-53.711000000000006,-26.366999999999997,-29.785,-35.645,1.0
1626062963.4050138,-45.41,-23.438000000000002,-41.504,122.07,1.0
1626062963.4089198,-34.668,-25.391,-59.082,11.23,1.0
1626062963.412826,-43.457,-24.414,-56.641000000000005,-171.387,1.0
1626062963.4167323,-45.898,-32.227,-8.301,-110.352,1.0
1626062963.4206386,0.488,-34.18,17.578,113.281,1.0
1626062963.4245448,4.395,-37.109,-9.766,75.195,1.0
1626062963.428451,-36.133,-38.086,-32.227,-157.227,1.0
1626062963.432357,-62.012,-36.621,-35.156,-153.809,1.0
1626062963.4362638,-38.574,-21.484,-39.062,65.43,1.0
1626062963.4401696,-27.344,-30.761999999999997,-28.32,-96.191,1.0
1626062963.4440763,-51.27,-26.855,-30.273000000000003,-184.082,1.0
1626062963.447982,-29.785,-40.527,-35.156,13.184000000000001,1.0
1626062963.4518883,-1.953,-49.805,-25.879,134.27700000000002,1.0
1626062963.455795,-29.785,-41.016000000000005,-10.742,-45.898,1.0
1626062963.459701,-47.363,-10.254000000000001,-9.766,-188.477,1.0
1626062963.463607,-19.043,5.859,-9.766,-40.039,1.0
1626062963.4675136,-10.742,-25.879,-39.062,114.258,1.0
1626062963.4714196,-38.086,-45.898,-69.824,-7.812,1.0
1626062963.475326,-62.012,-32.715,-44.434,-195.312,1.0
1626062963.4792323,-55.663999999999994,-26.855,-20.996,-125.488,1.0
1626062963.4831386,-26.366999999999997,-22.461,-21.484,91.309,1.0
1626062963.4870448,15.137,5.859,-20.996,141.113,1.0
1626062963.490951,2.93,-38.574,-29.296999999999997,59.082,1.0
1626062963.4948573,-40.527,-42.968999999999994,-33.203,-158.691,1.0
1626062963.4987636,-56.152,-35.156,-40.527,-136.23,1.0
1626062963.5026696,-30.273000000000003,-38.574,-38.086,76.66,1.0
1626062963.506576,-17.578,-49.805,-27.344,57.617,1.0
1626062963.5104823,-25.879,-64.453,-17.578,-118.652,1.0
1626062963.5143886,-28.809,-25.879,-15.625,-139.16,1.0
1626062963.5182948,-28.32,-11.719000000000001,-32.227,31.738000000000003,1.0
1626062963.522201,-9.277000000000001,3.418,-27.831999999999997,133.789,1.0
1626062963.5261073,-22.461,7.324,-48.828,-50.293,1.0
1626062963.5300136,-43.945,-23.926,-55.663999999999994,-181.641,1.0
1626062963.5339198,-51.27,-34.668,-38.574,-199.21900000000002,1.0
1626062963.537826,-29.785,-29.296999999999997,-20.996,3.906,1.0
1626062963.5417323,-2.93,-25.391,-5.859,134.27700000000002,1.0
1626062963.5456386,-12.207,-33.691,-22.461,-28.809,1.0
1626062963.549545,-36.133,-46.387,-52.733999999999995,-180.176,1.0
1626062963.553451,-21.484,-47.363,-41.992,-19.043,1.0
1626062963.557357,1.465,-23.438000000000002,-30.273000000000003,147.94899999999998,1.0
1626062963.5612638,-10.742,-7.324,-16.602,23.438000000000002,1.0
1626062963.5651696,-45.41,-10.742,-15.137,-173.34,1.0
1626062963.5690758,-41.992,-10.742,-13.184000000000001,-102.539,1.0
1626062963.572982,-12.695,-28.809,-10.742,105.469,1.0
1626062963.5768883,8.301,-40.039,-15.137,97.656,1.0
1626062963.580795,-20.02,-54.688,-43.945,1.0,1.0
1626062963.584701,-42.48,-56.152,-32.715,1.0,1.0
1626062963.5886073,-37.598,-39.062,-20.02,1.0,1.0
1626062963.5925136,-20.508000000000003,-57.129,-17.578,1.0,1.0
1626062963.5964196,-41.016000000000005,-72.75399999999999,-44.434,1.0,1.0
1626062963.600326,-67.87100000000001,-34.668,-45.898,1.0,1.0
1626062963.6042323,-64.941,-1.953,-32.227,1.0,1.0
1626062963.6081383,-50.781000000000006,-8.301,-24.414,1.0,1.0
1626062963.6120448,-37.598,-25.879,-18.066,1.0,1.0
1626062963.615951,-25.879,-38.086,-18.555,1.0,1.0
1626062963.6198573,-37.109,-31.738000000000003,-25.391,1.0,1.0
1626062963.6237636,-41.992,-23.926,-40.039,1.0,1.0
1626062963.6276698,-23.438000000000002,-39.062,-28.809,22.949,1.0
1626062963.631576,-18.555,-40.039,-35.645,107.42200000000001,1.0
1626062963.6354823,-21.484,-42.48,-23.438000000000002,-53.711000000000006,1.0
1626062963.6393886,-47.852,-46.387,-29.785,-182.61700000000002,1.0
1626062963.6432948,-50.781000000000006,-32.227,-39.551,-44.434,1.0
1626062963.647201,-33.203,-21.973000000000003,-28.32,111.32799999999999,1.0
1626062963.6511073,-26.366999999999997,-18.555,-5.859,10.742,1.0
1626062963.6550138,-42.968999999999994,-23.926,-7.812,-168.457,1.0
1626062963.6589198,-51.758,-29.296999999999997,-33.691,-109.863,1.0
1626062963.662826,-16.113,-24.901999999999997,-34.18,97.656,1.0
1626062963.6667323,0.0,-31.25,-33.203,66.406,1.0
1626062963.6706386,-37.598,-42.48,-27.831999999999997,-156.25,1.0
1626062963.6745448,-14.16,-25.391,-16.113,-25.391,1.0
1626062963.678451,-30.761999999999997,-37.598,-30.273000000000003,-171.387,1.0
1626062963.682357,-57.129,-39.062,-43.457,-56.641000000000005,1.0
1626062963.6862638,-46.875,-53.711000000000006,-52.246,114.74600000000001,1.0
1626062963.6901696,-9.277000000000001,-47.363,-37.109,34.18,1.0
1626062963.6940763,-1.465,-13.672,-31.738000000000003,-156.738,1.0
1626062963.697982,-39.062,-37.109,-39.062,-121.094,1.0
1626062963.7018883,-47.852,-62.5,-42.48,90.82,1.0
1626062963.705795,-22.461,-33.691,-34.18,98.633,1.0
1626062963.709701,-16.602,-9.277000000000001,-29.296999999999997,-126.95299999999999,1.0
1626062963.713607,-33.691,-35.645,-27.344,-182.61700000000002,1.0
1626062963.7175136,-42.968999999999994,-60.059,-23.438000000000002,24.901999999999997,1.0
1626062963.7214196,-24.414,-50.293,-19.043,-97.656,1.0
1626062963.725326,0.977,-47.363,-10.742,120.605,1.0
1626062963.7292323,4.883,-34.668,-16.602,98.145,1.0
1626062963.7331386,-29.296999999999997,-46.875,-37.598,-123.535,1.0
1626062963.7370448,-54.688,-58.593999999999994,-50.781000000000006,-151.855,1.0
1626062963.740951,-28.809,-26.366999999999997,-35.156,60.547,1.0
1626062963.7448573,-10.742,-2.441,-25.391,121.094,1.0
1626062963.7487636,-20.996,-6.348,-25.879,-73.242,1.0
1626062963.7526696,-59.082,-40.039,-38.574,-194.33599999999998,1.0
1626062963.756576,-52.246,-47.363,-42.968999999999994,-17.09,1.0
1626062963.7604823,-17.578,-38.086,-43.457,126.465,1.0
1626062963.7643886,-18.555,-31.25,-35.645,-26.366999999999997,1.0
1626062963.7682948,-24.414,-53.223,-25.879,1.0,1.0
1626062963.772201,-53.711000000000006,-45.41,-27.344,1.0,1.0
1626062963.7761073,-37.598,-37.109,-30.273000000000003,1.0,1.0
1626062963.7800136,-10.742,-6.836,-41.016000000000005,1.0,1.0
1626062963.7839198,-17.578,11.719000000000001,-43.457,1.0,1.0
1626062963.787826,-38.086,-12.207,-25.879,1.0,1.0
1626062963.7917323,-32.715,-40.039,-7.812,1.0,1.0
1626062963.7956386,-8.789,-24.901999999999997,-11.23,1.0,1.0
1626062963.799545,-31.738000000000003,-35.156,-37.109,1.0,1.0
1626062963.803451,-64.941,-55.663999999999994,-54.199,1.0,1.0
1626062963.807357,-51.758,-46.875,-56.152,1.0,1.0
1626062963.8112638,-5.859,-18.066,-38.574,1.0,1.0
1626062963.8151696,-27.831999999999997,-25.391,-46.875,111.816,1.0
1626062963.8190758,-20.508000000000003,-14.16,-31.738000000000003,-113.77,1.0
1626062963.822982,-48.828,-33.203,-29.785,-180.176,1.0
1626062963.8268883,-57.617,-44.922,-28.809,13.672,1.0
1626062963.830795,-31.738000000000003,-32.227,-20.508000000000003,122.07,1.0
1626062963.834701,-11.719000000000001,-21.484,-9.277000000000001,-32.227,1.0
1626062963.8386073,-16.113,-24.414,-10.742,-164.062,1.0
1626062963.8425136,-13.184000000000001,-30.761999999999997,-23.926,-29.296999999999997,1.0
1626062963.8464196,-8.301,-41.504,-29.296999999999997,123.04700000000001,1.0
1626062963.850326,-1.465,-20.02,-22.949,7.812,1.0
1626062963.8542323,-2.441,-19.043,-27.344,-179.688,1.0
1626062963.8581383,-29.296999999999997,-30.761999999999997,-35.645,-111.32799999999999,1.0
1626062963.8620448,-25.391,-19.043,-18.555,-109.375,1.0
1626062963.865951,-49.805,-27.831999999999997,-38.574,-176.27,1.0
1626062963.8698573,-63.965,-41.992,-53.711000000000006,19.043,1.0
1626062963.8737636,-26.855,-26.366999999999997,-38.086,113.281,1.0
1626062963.8776698,0.0,-12.207,-21.973000000000003,-49.316,1.0
1626062963.881576,-27.831999999999997,-26.366999999999997,-26.366999999999997,-166.99200000000002,1.0
1626062963.8854823,-48.34,-35.156,-36.133,-32.227,1.0
1626062963.8893886,-15.137,-25.391,-20.996,109.863,1.0
1626062963.8932948,0.0,-43.457,-12.207,-13.672,1.0
1626062963.897201,-22.949,-40.527,-23.926,-194.824,1.0
1626062963.9011073,-53.223,-22.461,-43.457,-103.027,1.0
1626062963.9050138,-35.156,-25.879,-47.852,97.16799999999999,1.0
1626062963.9089198,-41.504,-14.648,-47.852,-165.03900000000002,1.0
1626062963.912826,-40.039,-29.296999999999997,-39.062,-132.32399999999998,1.0
1626062963.9167323,-16.602,-29.785,1.465,88.37899999999999,1.0
1626062963.9206386,-5.371,-32.715,-15.625,104.98,1.0
1626062963.9245448,-42.48,-40.527,-58.105,-122.559,1.0
1626062963.928451,-68.359,-31.738000000000003,-60.059,-167.96900000000002,1.0
1626062963.932357,-24.414,-13.672,-38.574,43.457,1.0
1626062963.9362638,14.648,-13.672,-10.742,144.043,1.0
1626062963.9401696,-20.996,-34.18,-14.648,-52.246,1.0
1626062963.9440763,-56.641000000000005,-67.87100000000001,-25.391,-200.68400000000003,1.0
1626062963.947982,-37.109,-78.125,-29.785,-47.852,1.0
1626062963.9518883,-18.555,-45.898,-43.945,109.375,1.0
1626062963.955795,2.441,-17.09,-31.25,-7.324,1.0
1626062963.959701,-15.625,-20.996,-19.043,-184.082,1.0
1626062963.963607,-37.109,-12.207,-18.066,-87.891,1.0
1626062963.9675136,-27.344,-15.625,-32.227,113.281,1.0
1626062963.9714196,-6.836,-30.273000000000003,-31.738000000000003,54.199,1.0
1626062963.975326,-15.137,-29.785,-45.41,-152.344,1.0
1626062963.9792323,-31.738000000000003,-16.602,-55.663999999999994,-154.785,1.0
1626062963.9831386,-34.18,-26.855,-32.227,67.383,1.0
1626062963.9870448,-18.555,-61.035,-16.602,113.281,1.0
1626062963.990951,0.977,-68.848,-11.23,-107.91,1.0
1626062963.9948573,-24.414,-51.758,-24.901999999999997,-187.5,1.0
1626062963.9987636,-48.828,-13.672,-31.738000000000003,17.09,1.0
1626062964.0026696,-43.457,-11.719000000000001,-36.133,-129.395,1.0
1626062964.006576,-13.184000000000001,-5.859,-28.32,93.75,1.0
1626062964.0104823,-13.184000000000001,-12.207,-31.25,96.68,1.0
1626062964.0143886,-45.41,-21.973000000000003,-32.227,-128.418,1.0
1626062964.0182948,-59.57,-27.344,-32.715,-175.78099999999998,1.0
1626062964.022201,-23.438000000000002,-19.043,-8.789,43.945,1.0
1626062964.0261073,-1.953,-19.043,-4.395,135.74200000000002,1.0
1626062964.0300136,-30.761999999999997,-57.129,-34.668,-64.941,1.0
1626062964.0339198,-50.293,-64.941,-35.156,-189.94099999999997,1.0
1626062964.037826,-23.438000000000002,-46.875,-23.926,-3.418,1.0
1626062964.0417323,-7.812,-41.992,-29.296999999999997,142.578,1.0
1626062964.0456386,-26.855,-35.645,-36.621,-6.836,1.0
1626062964.049545,-33.691,-18.555,-50.293,1.0,1.0
1626062964.053451,-58.593999999999994,-32.227,-30.273000000000003,1.0,1.0
1626062964.057357,-40.039,-42.48,-16.602,1.0,1.0
1626062964.0612638,-2.441,-32.227,-5.371,1.0,1.0
1626062964.0651696,-8.789,-39.551,-10.742,1.0,1.0
1626062964.0690758,-35.645,-37.598,-34.668,1.0,1.0
1626062964.072982,-32.227,-25.879,-44.434,1.0,1.0
1626062964.0768883,-26.366999999999997,-26.366999999999997,-33.691,1.0,1.0
1626062964.080795,-24.414,-31.738000000000003,-20.996,1.0,1.0
1626062964.084701,-30.273000000000003,-28.809,-22.949,1.0,1.0
1626062964.0886073,-35.156,-30.761999999999997,-45.898,1.0,1.0
1626062964.0925136,-25.879,-34.668,-64.453,1.0,1.0
1626062964.0964196,-21.973000000000003,-45.41,-44.434,110.352,1.0
1626062964.100326,-17.578,-21.973000000000003,-63.477,-87.891,1.0
1626062964.1042323,-26.366999999999997,-12.695,-56.152,-185.547,1.0
1626062964.1081383,-42.48,-26.855,-41.016000000000005,-2.441,1.0
1626062964.1120448,-25.879,-47.852,-16.602,125.488,1.0
1626062964.115951,-7.324,-59.57,-8.301,-29.785,1.0
1626062964.1198573,-39.551,-62.988,-35.156,-172.363,1.0
1626062964.1237636,-57.617,-25.391,-38.574,-41.504,1.0
1626062964.1276698,-29.785,3.418,-19.043,129.88299999999998,1.0
1626062964.131576,-6.348,-1.465,-17.09,29.785,1.0
1626062964.1354823,-3.906,-12.207,-12.207,-166.50400000000002,1.0
1626062964.1393886,-36.621,-21.973000000000003,-25.879,-114.74600000000001,1.0
1626062964.1432948,-17.578,-16.113,-24.901999999999997,67.87100000000001,1.0
1626062964.147201,-41.992,-31.25,-36.133,-147.94899999999998,1.0
1626062964.1511073,-47.363,-47.852,-47.363,-165.03900000000002,1.0
1626062964.1550138,-31.738000000000003,-17.578,-21.973000000000003,46.387,1.0
1626062964.1589198,-38.574,-17.09,-10.742,87.402,1.0
1626062964.162826,-65.918,-29.785,-29.296999999999997,-116.699,1.0
1626062964.1667323,-84.473,-20.996,-38.574,-210.938,1.0
1626062964.1706386,-50.293,-36.133,-25.391,-21.973000000000003,1.0
1626062964.1745448,-21.973000000000003,-68.848,-31.738000000000003,117.676,1.0
1626062964.178451,-10.254000000000001,-40.527,-33.691,-4.883,1.0
1626062964.182357,-23.438000000000002,-9.277000000000001,-31.738000000000003,-164.062,1.0
1626062964.1862638,-34.668,-23.438000000000002,-46.387,-76.172,1.0
1626062964.1901696,-26.366999999999997,-15.625,-46.387,-26.366999999999997,1.0
1626062964.1940763,-17.09,-10.254000000000001,-53.223,114.74600000000001,1.0
1626062964.197982,-14.16,-4.395,-48.828,-15.625,1.0
1626062964.2018883,-20.996,-16.602,-28.32,-172.363,1.0
1626062964.205795,-21.973000000000003,-38.086,-42.968999999999994,-75.195,1.0
1626062964.209701,-4.395,-31.738000000000003,-54.199,111.32799999999999,1.0
1626062964.213607,-7.324,-27.831999999999997,-35.156,55.176,1.0
1626062964.2175136,-39.062,-21.484,-26.366999999999997,-154.785,1.0
1626062964.2214196,-41.016000000000005,-8.789,-13.184000000000001,-134.27700000000002,1.0
1626062964.225326,4.883,-25.879,9.766,98.633,1.0
1626062964.2292323,6.836,-32.715,-13.672,114.74600000000001,1.0
1626062964.2331386,-29.785,-0.488,-51.758,-120.117,1.0
1626062964.2370448,-9.277000000000001,-11.23,-40.527,35.156,1.0
1626062964.240951,-44.922,-33.203,-21.973000000000003,-164.062,1.0
1626062964.2448573,-45.898,-34.668,-8.301,-102.051,1.0
1626062964.2487636,-9.277000000000001,-15.625,-14.648,109.375,1.0
1626062964.2526696,-0.977,-30.761999999999997,-35.645,96.191,1.0
1626062964.256576,-35.645,-49.805,-45.41,-119.62899999999999,1.0
1626062964.2604823,-55.663999999999994,-56.152,-37.109,-161.13299999999998,1.0
1626062964.2643886,-22.949,-55.663999999999994,-23.438000000000002,51.27,1.0
1626062964.2682948,-13.672,-43.457,-20.508000000000003,124.512,1.0
1626062964.272201,-34.18,-24.901999999999997,-42.48,-73.73,1.0
1626062964.2761073,-43.457,-27.344,-67.383,-176.27,1.0
1626062964.2800136,-24.414,-33.691,-21.973000000000003,-0.977,1.0
1626062964.2839198,-7.324,-32.227,7.812,1.0,1.0
1626062964.287826,-15.625,-8.789,-20.508000000000003,1.0,1.0
1626062964.2917323,-33.203,-11.719000000000001,-20.508000000000003,1.0,1.0
1626062964.2956386,-41.992,-43.457,-21.484,1.0,1.0
1626062964.299545,-40.039,-50.781000000000006,-43.457,1.0,1.0
1626062964.303451,-42.48,-45.898,-40.527,1.0,1.0
1626062964.307357,-46.875,-45.41,-37.598,1.0,1.0
1626062964.3112638,-41.504,-52.733999999999995,-43.945,1.0,1.0
1626062964.3151696,-15.137,-71.777,-31.25,1.0,1.0
1626062964.3190758,-3.418,-67.383,-25.879,1.0,1.0
1626062964.322982,-35.156,-43.945,-32.715,1.0,1.0
1626062964.3268883,-52.733999999999995,-37.109,-28.809,1.0,1.0
1626062964.330795,-0.977,-40.527,1.465,-115.234,1.0
1626062964.334701,4.395,-15.625,-18.555,91.79700000000001,1.0
1626062964.3386073,-13.184000000000001,-24.901999999999997,-39.551,98.145,1.0
1626062964.3425136,-38.086,-37.598,-36.133,-118.652,1.0
1626062964.3464196,-39.062,-27.831999999999997,-10.254000000000001,-173.34,1.0
1626062964.350326,1.465,-26.366999999999997,-20.02,44.434,1.0
1626062964.3542323,-4.395,-70.801,-42.48,136.23,1.0
1626062964.3581383,-34.18,-60.059,-31.25,-44.922,1.0
1626062964.3620448,-48.34,-26.855,-17.09,-173.34,1.0
1626062964.365951,-39.551,-28.809,-4.883,-33.691,1.0
1626062964.3698573,-10.254000000000001,-15.137,-0.977,137.695,1.0
1626062964.3737636,-28.32,-19.531,-8.789,23.438000000000002,1.0
1626062964.3776698,-35.156,-29.296999999999997,-39.062,1.0,1.0
1626062964.381576,-43.457,-6.836,-36.133,1.0,1.0
1626062964.3854823,-16.113,-5.371,-23.438000000000002,1.0,1.0
1626062964.3893886,-11.23,-35.156,-34.668,1.0,1.0
1626062964.3932948,-27.831999999999997,-45.41,-40.527,1.0,1.0
1626062964.397201,-41.016000000000005,-36.133,-41.504,1.0,1.0
1626062964.4011073,-38.086,-48.828,-42.968999999999994,1.0,1.0
1626062964.4050138,-1.465,-50.781000000000006,-8.301,1.0,1.0
1626062964.4089198,6.348,-37.109,-7.812,1.0,1.0
1626062964.412826,-29.785,-6.836,-42.48,1.0,1.0
1626062964.4167323,-47.852,-7.812,-31.738000000000003,1.0,1.0
1626062964.4206386,-21.973000000000003,-29.785,-12.207,1.0,1.0
1626062964.4245448,-36.621,-19.043,-59.57,-101.074,1.0
1626062964.428451,-55.663999999999994,-29.785,-33.691,-198.24200000000002,1.0
1626062964.432357,-25.391,-35.645,-18.555,-2.441,1.0
1626062964.4362638,-8.789,-33.203,-26.855,133.30100000000002,1.0
1626062964.4401696,-41.016000000000005,-26.855,-23.926,-24.901999999999997,1.0
1626062964.4440763,-64.941,-17.09,-19.043,-184.082,1.0
1626062964.447982,-60.059,-35.156,-22.461,-69.824,1.0
1626062964.4518883,-30.273000000000003,-47.363,-30.761999999999997,125.488,1.0
1626062964.455795,-29.296999999999997,-33.691,-39.551,54.199,1.0
1626062964.459701,-62.988,-42.48,-35.645,-154.785,1.0
1626062964.463607,-77.148,-45.41,-45.898,-139.648,1.0
1626062964.4675136,-52.246,-36.133,-37.598,68.848,1.0
1626062964.4714196,-42.968999999999994,-27.831999999999997,-25.391,1.0,1.0
1626062964.475326,-45.898,-35.645,-27.344,1.0,1.0
1626062964.4792323,-44.434,-46.387,-12.207,1.0,1.0
1626062964.4831386,-46.387,-29.296999999999997,-12.207,1.0,1.0
1626062964.4870448,-34.668,-18.066,-31.738000000000003,1.0,1.0
1626062964.490951,-30.273000000000003,-30.273000000000003,-43.945,1.0,1.0
1626062964.4948573,-40.039,-55.663999999999994,-33.203,1.0,1.0
1626062964.4987636,-30.761999999999997,-42.48,-28.32,1.0,1.0
1626062964.5026696,-41.016000000000005,-32.227,-59.57,1.0,1.0
1626062964.506576,-64.453,-41.992,-65.43,1.0,1.0
1626062964.5104823,-61.523,-14.16,-28.809,1.0,1.0
1626062964.5143886,-44.922,-15.625,-12.695,1.0,1.0
1626062964.5182948,-59.082,-37.109,-40.039,-156.25,1.0
1626062964.522201,-59.082,-30.761999999999997,-35.156,-185.547,1.0
1626062964.5261073,-10.254000000000001,-24.414,-23.438000000000002,46.387,1.0
1626062964.5300136,-1.953,-32.715,-43.945,115.723,1.0
1626062964.5339198,-28.32,-38.574,-39.062,-85.93799999999999,1.0
1626062964.537826,-36.621,-19.043,-20.508000000000003,-187.012,1.0
1626062964.5417323,-15.625,-19.043,-34.668,-16.113,1.0
1626062964.5456386,3.418,-26.366999999999997,-29.296999999999997,121.58200000000001,1.0
1626062964.549545,-1.465,-13.184000000000001,-29.296999999999997,-8.301,1.0
1626062964.553451,-23.926,-26.366999999999997,-32.227,-171.387,1.0
1626062964.557357,-41.992,-46.387,-25.391,-86.914,1.0
1626062964.5612638,-38.574,-34.18,-46.875,84.961,1.0
1626062964.5651696,-35.156,-38.574,-48.828,22.461,1.0
1626062964.5690758,-36.621,-75.684,-41.016000000000005,-172.363,1.0
1626062964.572982,-45.898,-68.359,-33.203,-135.254,1.0
1626062964.5768883,-37.109,-17.578,-18.555,96.191,1.0
1626062964.580795,-11.23,-5.859,-14.16,121.58200000000001,1.0
1626062964.584701,0.977,-12.695,-15.137,-110.84,1.0
1626062964.5886073,-32.715,-10.254000000000001,-24.901999999999997,-197.266,1.0
1626062964.5925136,-33.691,1.953,-26.855,-6.348,1.0
1626062964.5964196,-21.973000000000003,-24.414,-50.293,91.309,1.0
1626062964.600326,-32.227,-44.922,-64.453,-77.637,1.0
1626062964.6042323,-47.363,-42.968999999999994,-55.663999999999994,-204.59,1.0
1626062964.6081383,-52.733999999999995,-37.598,-42.968999999999994,-67.87100000000001,1.0
1626062964.6120448,-6.836,-37.109,-13.184000000000001,-171.875,1.0
1626062964.615951,-35.156,-24.414,-22.949,-126.465,1.0
1626062964.6198573,-47.852,-32.227,-31.738000000000003,84.961,1.0
1626062964.6237636,-23.438000000000002,-27.344,-34.668,90.82,1.0
1626062964.6276698,-13.672,-33.691,-41.016000000000005,-121.58200000000001,1.0
1626062964.631576,-44.922,-41.504,-45.898,-189.94099999999997,1.0
1626062964.6354823,-52.246,-21.973000000000003,-43.457,6.836,1.0
1626062964.6393886,-23.926,-4.883,-36.133,89.355,1.0
1626062964.6432948,-21.484,-27.831999999999997,-30.273000000000003,-99.609,1.0
1626062964.647201,-40.527,-39.062,-20.508000000000003,-198.73,1.0
1626062964.6511073,-41.504,-44.922,-23.438000000000002,-14.16,1.0
1626062964.6550138,-2.93,-31.25,-9.277000000000001,135.74200000000002,1.0
1626062964.6589198,-24.414,-49.316,-41.992,-59.57,1.0
1626062964.662826,-37.598,-32.227,-23.438000000000002,-187.5,1.0
1626062964.6667323,-29.785,-9.766,-18.555,-32.715,1.0
1626062964.6706386,-4.395,-1.465,-25.391,132.812,1.0
1626062964.6745448,-12.207,-16.602,-32.227,5.371,1.0
1626062964.678451,-49.805,-25.879,-35.156,-183.105,1.0
1626062964.682357,-55.663999999999994,-31.25,-34.18,-99.12100000000001,1.0
1626062964.6862638,-26.366999999999997,-20.508000000000003,-35.156,104.492,1.0
1626062964.6901696,-21.973000000000003,-38.086,-34.18,55.663999999999994,1.0
1626062964.6940763,-34.18,-70.801,-13.184000000000001,-134.27700000000002,1.0
1626062964.697982,-37.598,-76.172,-30.761999999999997,-129.395,1.0
1626062964.7018883,-32.227,-51.27,-48.828,48.828,1.0
1626062964.705795,-33.203,-10.254000000000001,-34.668,1.0,1.0
1626062964.709701,-53.223,-6.348,-44.922,1.0,1.0
1626062964.713607,-63.477,-10.254000000000001,-47.852,1.0,1.0
1626062964.7175136,-41.016000000000005,-15.137,-29.785,1.0,1.0
1626062964.7214196,-16.113,-56.641000000000005,-23.926,1.0,1.0
1626062964.725326,-25.879,-62.988,-48.34,1.0,1.0
1626062964.7292323,-33.691,-19.531,-32.227,1.0,1.0
1626062964.7331386,-20.508000000000003,-33.203,-15.625,1.0,1.0
1626062964.7370448,-15.137,-71.289,-26.366999999999997,1.0,1.0
1626062964.740951,-33.203,-40.039,-16.602,1.0,1.0
1626062964.7448573,-62.5,-13.184000000000001,-20.996,1.0,1.0
1626062964.7487636,-56.152,-14.648,-38.574,1.0,1.0
1626062964.7526696,-48.828,-47.363,-30.761999999999997,-111.32799999999999,1.0
1626062964.756576,-61.523,-41.504,-34.18,-180.66400000000002,1.0
1626062964.7604823,-35.645,-35.645,-25.391,18.066,1.0
1626062964.7643886,-10.254000000000001,-18.066,-15.137,124.023,1.0
1626062964.7682948,-31.25,-48.34,-23.926,-49.805,1.0
1626062964.772201,-55.176,-72.75399999999999,-32.715,-191.40599999999998,1.0
1626062964.7761073,-26.855,-14.648,-9.766,-29.296999999999997,1.0
1626062964.7800136,7.324,4.883,-10.742,152.344,1.0
1626062964.7839198,-24.901999999999997,-28.32,-47.363,13.672,1.0
1626062964.787826,-60.059,-10.254000000000001,-59.082,-190.918,1.0
1626062964.7917323,-46.875,1.953,-42.968999999999994,-105.95700000000001,1.0
1626062964.7956386,-5.859,-26.855,-13.672,112.305,1.0
1626062964.799545,-27.344,-44.922,-61.035,75.195,1.0
1626062964.803451,-22.949,-12.695,-34.18,-148.438,1.0
1626062964.807357,-47.852,0.0,-34.668,-154.785,1.0
1626062964.8112638,-50.293,-11.23,-38.574,59.57,1.0
1626062964.8151696,-16.113,-38.574,-26.855,105.95700000000001,1.0
1626062964.8190758,-27.344,-54.199,-33.691,-105.469,1.0
1626062964.822982,-59.082,-39.062,-40.039,-201.66,1.0
1626062964.8268883,-49.805,-33.691,-39.551,-10.254000000000001,1.0
1626062964.830795,-18.555,-42.48,-27.831999999999997,118.164,1.0
1626062964.834701,-11.23,-42.968999999999994,-21.484,-28.809,1.0
1626062964.8386073,-24.414,-33.203,-17.578,-196.77700000000002,1.0
1626062964.8425136,-49.316,-24.901999999999997,-39.062,-81.543,1.0
1626062964.8464196,-12.695,-13.672,-27.344,-159.668,1.0
1626062964.850326,-53.711000000000006,-10.742,-13.184000000000001,36.133,1.0
1626062964.8542323,-62.5,-28.809,-16.602,107.91,1.0
1626062964.8581383,-33.691,-27.344,-26.366999999999997,-86.426,1.0
1626062964.8620448,-14.16,-14.16,-33.203,-191.40599999999998,1.0
1626062964.865951,-22.461,-36.621,-24.901999999999997,-7.812,1.0
1626062964.8698573,-23.926,-36.621,-8.301,143.555,1.0
1626062964.8737636,-6.348,-16.602,-4.395,17.09,1.0
1626062964.8776698,-4.883,-50.781000000000006,-28.809,-153.32,1.0
1626062964.881576,-31.738000000000003,-61.523,-28.809,-70.312,1.0
1626062964.8854823,-57.129,-42.968999999999994,-12.695,110.352,1.0
1626062964.8893886,-40.527,-41.504,-22.949,54.199,1.0
1626062964.8932948,-19.043,-55.176,-20.996,-34.18,1.0
1626062964.897201,-48.34,-44.922,-35.645,-199.707,1.0
1626062964.9011073,-42.48,-50.293,-57.129,-79.59,1.0
1626062964.9050138,-19.043,-46.875,-48.34,112.79299999999999,1.0
1626062964.9089198,-18.555,-25.879,-40.527,28.32,1.0
1626062964.912826,-53.711000000000006,-22.461,-54.199,-176.75799999999998,1.0
1626062964.9167323,-57.617,-37.109,-52.733999999999995,-125.0,1.0
1626062964.9206386,-0.488,-15.625,-50.293,104.492,1.0
1626062964.9245448,-0.977,-17.578,-34.668,85.449,1.0
1626062964.928451,-47.363,-42.968999999999994,-3.906,-147.94899999999998,1.0
1626062964.932357,-60.059,-31.738000000000003,-10.254000000000001,-177.24599999999998,1.0
1626062964.9362638,-40.527,-24.901999999999997,-25.391,20.996,1.0
1626062964.9401696,-20.508000000000003,-18.066,-20.508000000000003,1.0,1.0
1626062964.9440763,-29.785,-38.574,-32.227,1.0,1.0
1626062964.947982,-35.156,-63.477,-37.598,1.0,1.0
1626062964.9518883,-13.672,-42.48,-48.828,1.0,1.0
1626062964.955795,9.766,-22.949,-69.336,1.0,1.0
1626062964.959701,5.371,-32.715,-59.082,1.0,1.0
1626062964.963607,-22.461,-17.578,-24.414,1.0,1.0
1626062964.9675136,-20.508000000000003,-5.859,0.0,1.0,1.0
1626062964.9714196,-18.066,-42.968999999999994,-15.137,1.0,1.0
1626062964.975326,-37.598,-37.598,-27.831999999999997,1.0,1.0
1626062964.9792323,-52.733999999999995,-3.418,-32.715,1.0,1.0
1626062964.9831386,-25.879,-0.977,-38.086,1.0,1.0
1626062964.9870448,-69.824,-44.434,-33.691,-206.543,1.0
1626062964.990951,-76.66,-35.156,-66.895,-43.457,1.0
1626062964.9948573,-50.293,-33.691,-52.246,136.23,1.0
1626062964.9987636,-13.184000000000001,-44.434,-8.789,13.672,1.0
1626062965.0026696,-14.648,-70.801,-3.418,-177.734,1.0
1626062965.006576,-56.152,-75.195,-12.695,-87.891,1.0
1626062965.0104823,-61.035,-62.5,-4.395,115.723,1.0
1626062965.0143886,-26.855,-57.129,-20.02,67.383,1.0
1626062965.0182948,-31.738000000000003,-59.57,-41.016000000000005,-147.94899999999998,1.0
1626062965.022201,-62.012,-48.34,-37.109,-143.555,1.0
1626062965.0261073,-48.828,-24.414,-29.785,53.711000000000006,1.0
1626062965.0300136,-18.066,4.395,-13.672,78.613,1.0
1626062965.0339198,-22.461,-20.996,-48.34,99.609,1.0
1626062965.037826,-15.625,-27.344,-64.941,50.781000000000006,1.0
1626062965.0417323,-26.855,-32.715,-62.988,-148.438,1.0
1626062965.0456386,-24.414,-42.48,-23.438000000000002,-119.62899999999999,1.0
1626062965.049545,-8.301,-46.875,-4.395,79.59,1.0
1626062965.053451,-10.742,-27.831999999999997,-9.766,65.43,1.0
1626062965.057357,-40.527,-27.831999999999997,-20.02,-136.23,1.0
1626062965.0612638,-66.895,-45.898,-49.805,-199.21900000000002,1.0
1626062965.0651696,-38.574,-37.109,-45.41,2.93,1.0
1626062965.0690758,-9.766,-17.578,-20.02,118.164,1.0
1626062965.072982,-21.484,-17.09,-22.949,-58.593999999999994,1.0
1626062965.0768883,-49.316,-52.246,-41.016000000000005,-197.266,1.0
1626062965.080795,-90.33200000000001,-47.852,-34.668,-207.52,1.0
1626062965.084701,-60.547,-38.574,-30.273000000000003,-16.113,1.0
1626062965.0886073,-21.973000000000003,-29.296999999999997,-23.926,121.58200000000001,1.0
1626062965.0925136,-34.668,-37.598,-25.879,-42.968999999999994,1.0
1626062965.0964196,-51.27,-41.016000000000005,-27.344,-191.895,1.0
1626062965.100326,-20.996,-34.18,-30.273000000000003,-37.598,1.0
1626062965.1042323,13.184000000000001,-15.625,-21.973000000000003,155.762,1.0
1626062965.1081383,0.0,-20.508000000000003,-6.836,50.781000000000006,1.0
1626062965.1120448,-21.973000000000003,-36.621,-10.742,-150.391,1.0
1626062965.115951,-43.945,-42.968999999999994,-54.688,-120.605,1.0
1626062965.1198573,-58.105,-37.109,-82.52,58.593999999999994,1.0
1626062965.1237636,-32.227,-30.761999999999997,-47.852,61.035,1.0
1626062965.1276698,-21.973000000000003,-21.973000000000003,-49.805,1.0,1.0
1626062965.131576,-52.733999999999995,-26.366999999999997,-48.34,1.0,1.0
1626062965.1354823,-60.059,-53.711000000000006,-35.156,1.0,1.0
1626062965.1393886,-29.296999999999997,-33.691,-29.296999999999997,1.0,1.0
1626062965.1432948,-18.555,-18.555,-26.855,1.0,1.0
1626062965.147201,-23.438000000000002,-26.366999999999997,-16.113,1.0,1.0
1626062965.1511073,-25.879,-17.09,-11.719000000000001,1.0,1.0
1626062965.1550138,-6.836,-16.602,-32.227,1.0,1.0
1626062965.1589198,-2.441,-42.48,-52.246,1.0,1.0
1626062965.162826,-35.156,-60.059,-61.523,1.0,1.0
1626062965.1667323,-62.988,-31.25,-47.363,1.0,1.0
1626062965.1706386,-26.855,0.0,-24.901999999999997,1.0,1.0
1626062965.1745448,-10.254000000000001,-38.574,-17.09,-28.32,1.0
1626062965.178451,-38.086,-56.641000000000005,-41.016000000000005,-203.125,1.0
1626062965.182357,-60.547,-59.57,-53.223,-82.031,1.0
1626062965.1862638,-40.527,-46.387,-29.785,107.91,1.0
1626062965.1901696,-27.344,-45.41,-23.926,40.527,1.0
1626062965.1940763,-16.602,-14.648,-20.996,-145.996,1.0
1626062965.197982,-17.09,12.695,-14.16,-129.395,1.0
1626062965.2018883,-11.719000000000001,-17.578,-37.598,83.49600000000001,1.0
1626062965.205795,-5.371,-56.152,-44.434,122.07,1.0
1626062965.209701,-28.809,-50.293,-31.25,-96.68,1.0
1626062965.213607,-70.312,-46.387,-41.992,-179.688,1.0
1626062965.2175136,-50.293,-38.574,-34.18,15.625,1.0
1626062965.2214196,-19.531,-35.645,-29.296999999999997,10.742,1.0
1626062965.225326,-15.625,-35.645,-39.551,121.58200000000001,1.0
1626062965.2292323,-28.32,-31.738000000000003,-46.387,-31.738000000000003,1.0
1626062965.2331386,-59.082,-40.039,-48.34,-202.637,1.0
1626062965.2370448,-50.293,-26.366999999999997,-55.663999999999994,-86.426,1.0
1626062965.240951,-12.695,-9.277000000000001,-59.57,109.375,1.0
1626062965.2448573,-6.348,2.93,-47.852,35.645,1.0
1626062965.2487636,-21.973000000000003,-0.488,-30.761999999999997,-155.273,1.0
1626062965.2526696,-36.133,-24.901999999999997,-38.574,-116.211,1.0
1626062965.256576,0.0,-25.391,-30.273000000000003,104.00399999999999,1.0
1626062965.2604823,19.043,-31.25,-7.324,108.398,1.0
1626062965.2643886,-31.25,-50.781000000000006,-13.184000000000001,-123.535,1.0
1626062965.2682948,-37.598,-61.523,-30.761999999999997,1.0,1.0
1626062965.272201,-50.293,-48.828,-15.137,1.0,1.0
1626062965.2761073,-13.184000000000001,-10.742,-6.836,1.0,1.0
1626062965.2800136,-16.113,-19.043,-33.203,1.0,1.0
1626062965.2839198,-39.062,-18.555,-43.457,1.0,1.0
1626062965.287826,-42.48,-2.93,-34.668,1.0,1.0
1626062965.2917323,-35.156,-26.366999999999997,-32.227,1.0,1.0
1626062965.2956386,-20.508000000000003,-39.062,-28.32,1.0,1.0
1626062965.299545,-26.366999999999997,-40.527,-35.645,1.0,1.0
1626062965.303451,-36.133,-39.062,-38.086,1.0,1.0
1626062965.307357,-32.227,-34.668,-32.227,1.0,1.0
1626062965.3112638,-16.113,-31.738000000000003,-20.508000000000003,1.0,1.0
1626062965.3151696,6.348,-35.645,-4.883,145.50799999999998,1.0
1626062965.3190758,-14.648,-49.805,-17.09,-23.438000000000002,1.0
1626062965.322982,-33.691,-33.691,-28.32,-167.96900000000002,1.0
1626062965.3268883,-23.438000000000002,-9.766,-40.527,-31.738000000000003,1.0
1626062965.330795,-7.324,-12.207,-36.621,141.602,1.0
1626062965.334701,-5.859,-39.062,-5.859,52.246,1.0
1626062965.3386073,-32.227,-40.527,-7.324,-153.809,1.0
1626062965.3425136,-41.016000000000005,-24.414,-28.809,-104.98,1.0
1626062965.3464196,-12.695,-12.207,-25.879,106.934,1.0
1626062965.350326,-6.836,-5.371,-10.254000000000001,91.79700000000001,1.0
1626062965.3542323,-48.828,-36.621,-31.738000000000003,-133.30100000000002,1.0
1626062965.3581383,-55.663999999999994,-49.805,-35.645,-154.297,1.0
1626062965.3620448,-43.457,-41.504,-31.738000000000003,-122.559,1.0
1626062965.365951,-25.879,-57.617,-21.484,82.52,1.0
1626062965.3698573,-37.109,-25.879,-48.34,66.406,1.0
1626062965.3737636,-58.593999999999994,-5.859,-57.129,-147.461,1.0
1626062965.3776698,-61.523,-20.508000000000003,-39.062,-180.176,1.0
1626062965.381576,-32.715,-30.761999999999997,-21.973000000000003,41.504,1.0
1626062965.3854823,-19.043,-40.039,-31.738000000000003,122.07,1.0
1626062965.3893886,-27.831999999999997,-43.457,-24.901999999999997,-60.547,1.0
1626062965.3932948,-60.059,-34.668,-11.719000000000001,-190.43,1.0
1626062965.397201,-55.176,-28.32,-14.648,-36.621,1.0
1626062965.4011073,-24.414,-40.527,-15.625,124.023,1.0
1626062965.4050138,-36.133,-42.48,-26.366999999999997,-7.812,1.0
1626062965.4089198,-45.41,-35.645,-26.366999999999997,1.0,1.0
1626062965.412826,-52.733999999999995,-30.761999999999997,-13.672,1.0,1.0
1626062965.4167323,-41.992,-20.02,-14.16,1.0,1.0
1626062965.4206386,-17.578,-22.461,-23.438000000000002,1.0,1.0
1626062965.4245448,-5.859,-19.531,-9.766,1.0,1.0
1626062965.428451,-29.785,-5.371,-12.207,1.0,1.0
1626062965.432357,-31.738000000000003,2.93,-22.949,1.0,1.0
1626062965.4362638,-7.812,-16.113,-16.602,1.0,1.0
1626062965.4401696,-5.371,-49.316,-31.25,1.0,1.0
1626062965.4440763,-26.855,-49.316,-48.34,1.0,1.0
1626062965.447982,-49.805,-55.176,-45.41,1.0,1.0
1626062965.4518883,-28.809,-34.18,-18.066,1.0,1.0
1626062965.455795,-23.926,-51.27,-46.387,88.37899999999999,1.0
1626062965.459701,-20.508000000000003,-48.828,-52.246,72.266,1.0
1626062965.463607,-44.434,-33.203,-33.203,-136.23,1.0
1626062965.4675136,-59.57,-20.996,-28.809,-168.457,1.0
1626062965.4714196,-40.039,-22.949,-26.855,36.621,1.0
1626062965.475326,-16.113,-19.043,-22.461,118.652,1.0
1626062965.4792323,-27.831999999999997,-19.043,-32.227,-73.242,1.0
1626062965.4831386,-40.527,-21.484,-24.414,-176.27,1.0
1626062965.4870448,-22.461,-39.551,-14.16,-0.488,1.0
1626062965.490951,-13.672,-43.457,-17.578,125.977,1.0
1626062965.4948573,-26.366999999999997,-27.831999999999997,-34.668,-17.09,1.0
1626062965.4987636,-34.668,-29.785,-35.156,-172.363,1.0
1626062965.5026696,-56.641000000000005,-46.387,-42.968999999999994,-199.707,1.0
1626062965.506576,-26.366999999999997,-33.691,-28.32,-27.344,1.0
1626062965.5104823,6.836,-21.973000000000003,-14.16,138.184,1.0
1626062965.5143886,-17.578,-18.555,-43.945,-2.93,1.0
1626062965.5182948,-57.617,-34.668,-47.363,-200.68400000000003,1.0
1626062965.522201,-41.504,-19.531,-27.344,-102.539,1.0
1626062965.5261073,-14.16,-23.438000000000002,-29.296999999999997,99.609,1.0
1626062965.5300136,-22.461,-34.18,-35.156,44.434,1.0
1626062965.5339198,-51.758,-33.691,-34.668,-166.99200000000002,1.0
1626062965.537826,-56.152,-46.875,-38.574,-155.273,1.0
1626062965.5417323,-43.945,-53.223,-42.968999999999994,42.48,1.0
1626062965.5456386,-23.438000000000002,-41.504,-38.086,81.543,1.0
1626062965.549545,-11.719000000000001,-24.414,-45.41,-109.375,1.0
1626062965.553451,-38.086,-6.836,-36.133,-190.43,1.0
1626062965.557357,-35.156,-0.488,-5.371,22.461,1.0
1626062965.5612638,-22.461,-40.039,-9.277000000000001,161.13299999999998,1.0
1626062965.5651696,1.465,-62.5,-19.043,-20.02,1.0
1626062965.5690758,3.906,-25.391,-11.719000000000001,-200.195,1.0
1626062965.572982,-34.18,-16.602,-20.02,-70.312,1.0
1626062965.5768883,-55.176,-52.733999999999995,-40.527,110.352,1.0
1626062965.580795,-50.293,-57.617,-47.363,15.137,1.0
1626062965.584701,-55.663999999999994,-36.133,-45.41,-170.41,1.0
1626062965.5886073,-52.733999999999995,-34.668,-41.504,-126.95299999999999,1.0
1626062965.5925136,-15.625,-28.809,-35.645,81.055,1.0
1626062965.5964196,-7.812,-2.441,-28.32,-1.953,1.0
1626062965.600326,-25.391,-19.043,-57.617,105.95700000000001,1.0
1626062965.6042323,-23.926,-14.648,-45.41,-11.719000000000001,1.0
1626062965.6081383,-38.086,-5.859,-22.949,-172.852,1.0
1626062965.6120448,-55.176,-18.555,-22.949,-90.82,1.0
1626062965.615951,-39.551,-37.598,-41.504,91.79700000000001,1.0
1626062965.6198573,-42.48,-57.129,-55.176,19.531,1.0
1626062965.6237636,-60.547,-63.965,-51.27,-182.61700000000002,1.0
1626062965.6276698,-51.758,-35.156,-45.41,-147.94899999999998,1.0
1626062965.631576,-13.184000000000001,-11.719000000000001,-39.551,80.566,1.0
1626062965.6354823,10.742,-25.879,-21.484,125.977,1.0
1626062965.6393886,2.93,-6.348,-11.719000000000001,-69.336,1.0
1626062965.6432948,-23.926,-17.09,-31.738000000000003,1.0,1.0
1626062965.647201,-16.602,-11.719000000000001,-46.387,1.0,1.0
1626062965.6511073,-2.441,-2.93,-60.059,1.0,1.0
1626062965.6550138,-18.066,-22.461,-59.082,1.0,1.0
1626062965.6589198,-49.805,-20.508000000000003,-59.57,1.0,1.0
1626062965.662826,-58.593999999999994,-26.366999999999997,-61.035,1.0,1.0
1626062965.6667323,-22.949,-19.043,-49.805,1.0,1.0
1626062965.6706386,6.836,-11.23,-42.48,1.0,1.0
1626062965.6745448,-7.812,-57.617,-27.831999999999997,1.0,1.0
1626062965.678451,-34.18,-60.059,-7.324,1.0,1.0
1626062965.682357,-27.831999999999997,-20.02,-2.441,1.0,1.0
1626062965.6862638,-4.395,-2.441,-15.137,1.0,1.0
1626062965.6901696,-1.465,-16.113,-28.809,124.023,1.0
1626062965.6940763,-18.066,-24.901999999999997,-30.761999999999997,-20.996,1.0
1626062965.697982,-38.574,-29.296999999999997,-24.414,-187.012,1.0
1626062965.7018883,-31.738000000000003,-41.016000000000005,-31.738000000000003,-72.266,1.0
1626062965.705795,-3.418,-46.387,-41.016000000000005,124.512,1.0
1626062965.709701,0.0,-34.18,-31.25,55.663999999999994,1.0
1626062965.713607,-34.18,-22.949,-20.508000000000003,-150.879,1.0
1626062965.7175136,-38.574,-33.691,-25.879,-114.74600000000001,1.0
1626062965.7214196,-23.438000000000002,-55.176,-37.109,78.613,1.0
1626062965.725326,-29.296999999999997,-44.922,-28.809,71.777,1.0
1626062965.7292323,-41.992,-32.715,-28.809,-134.27700000000002,1.0
1626062965.7331386,-32.227,-26.366999999999997,-34.668,-160.156,1.0
1626062965.7370448,-40.527,-44.922,-25.879,-133.789,1.0
1626062965.740951,-18.555,-44.922,-21.484,73.242,1.0
1626062965.7448573,-0.488,-40.527,-11.719000000000001,118.652,1.0
1626062965.7487636,-27.344,-50.293,-18.555,-88.37899999999999,1.0
1626062965.7526696,-51.27,-48.34,-23.926,-171.875,1.0
1626062965.756576,-21.484,-30.761999999999997,0.0,31.25,1.0
1626062965.7604823,-0.977,-30.761999999999997,-4.883,142.578,1.0
1626062965.7643886,-15.137,-32.715,-27.344,-29.296999999999997,1.0
1626062965.7682948,-30.273000000000003,-44.434,-30.273000000000003,-173.34,1.0
1626062965.772201,-21.973000000000003,-36.133,-27.831999999999997,-38.086,1.0
1626062965.7761073,-19.043,-46.387,-8.789,118.652,1.0
1626062965.7800136,-31.25,-53.711000000000006,-6.348,9.277000000000001,1.0
1626062965.7839198,-29.785,-25.879,-29.785,-25.391,1.0
1626062965.787826,-38.086,-29.296999999999997,-3.906,-166.016,1.0
1626062965.7917323,-32.227,-22.949,-20.508000000000003,-41.992,1.0
1626062965.7956386,-16.602,-11.719000000000001,-36.621,139.648,1.0
1626062965.799545,-26.855,-31.738000000000003,-22.949,52.733999999999995,1.0
1626062965.803451,-62.5,-57.617,-15.625,-160.645,1.0
1626062965.807357,-56.641000000000005,-60.547,-20.996,-114.74600000000001,1.0
1626062965.8112638,-26.855,-42.48,-38.086,98.145,1.0
1626062965.8151696,-23.438000000000002,-27.344,-36.621,89.355,1.0
1626062965.8190758,-40.527,-5.371,-23.926,-111.32799999999999,1.0
1626062965.822982,-75.195,-16.113,-31.738000000000003,-171.875,1.0
1626062965.8268883,-50.293,-31.25,-11.719000000000001,28.32,1.0
1626062965.830795,-22.461,-25.391,-26.366999999999997,52.733999999999995,1.0
1626062965.834701,2.93,0.0,-14.16,87.402,1.0
1626062965.8386073,-6.836,8.789,-20.996,-109.375,1.0
1626062965.8425136,-41.992,-25.391,-51.758,-186.523,1.0
1626062965.8464196,-19.531,-41.992,-52.246,11.719000000000001,1.0
1626062965.850326,1.465,-43.945,-43.457,122.07,1.0
1626062965.8542323,-19.043,-39.551,-39.062,-57.129,1.0
1626062965.8581383,-54.688,-41.016000000000005,-47.363,-213.37900000000002,1.0
