timestamps,TP9,AF7,AF8,TP10,Right AUX
1622759923707975.750,-18.555,-19.531,-26.855,-9.277,1.000
1622759923711882.000,-38.574,-25.879,-29.297,-66.895,1.000
1622759923715788.250,-41.016,-30.762,-28.320,-53.223,1.000
1622759923719694.500,-22.461,-28.320,-29.785,7.324,1.000
1622759923723600.750,-23.438,-27.832,-35.156,-2.930,1.000
1622759923727507.000,-41.992,-30.762,-40.039,-66.895,1.000
1622759923731413.250,-43.945,-31.738,-40.039,-69.336,1.000
1622759923735319.500,-25.879,-28.809,-35.645,-5.371,1.000
1622759923739225.750,-11.230,-26.855,-28.320,17.578,1.000
1622759923743132.000,-26.855,-34.180,-30.273,-42.480,1.000
1622759923747038.250,-41.992,-42.969,-33.203,-70.801,1.000
1622759923750944.500,-26.855,-32.715,-24.414,-8.789,1.000
1622759923754850.750,-10.254,-18.066,-19.531,1.000,1.000
1622759923758757.000,-25.391,-29.785,-29.297,1.000,1.000
1622759923762663.250,-50.293,-42.969,-36.133,1.000,1.000
1622759923766569.500,-40.039,-33.203,-30.762,1.000,1.000
1622759923770475.750,-19.043,-22.949,-26.367,1.000,1.000
1622759923774382.000,-20.996,-24.414,-29.785,1.000,1.000
1622759923778288.250,-37.598,-35.645,-37.109,1.000,1.000
1622759923782194.500,-36.621,-36.621,-32.715,1.000,1.000
1622759923786100.750,-16.113,-26.855,-21.973,1.000,1.000
1622759923790007.000,-11.719,-22.949,-21.484,1.000,1.000
1622759923793913.250,-29.785,-34.180,-25.391,1.000,1.000
1622759923797819.500,-38.086,-40.039,-31.738,1.000,1.000
1622759923801725.750,-16.602,-25.391,-28.809,-8.789,1.000
1622759923805632.000,-5.371,-22.949,-30.762,13.672,1.000
1622759923809538.250,-33.691,-35.645,-43.457,-49.805,1.000
1622759923813444.500,-44.922,-39.062,-37.109,-80.078,1.000
1622759923817350.750,-20.020,-31.250,-28.809,-15.137,1.000
1622759923821257.000,-1.465,-19.531,-26.367,30.762,1.000
1622759923825163.250,-10.742,-20.508,-30.762,-13.672,1.000
1622759923829069.500,-34.668,-38.086,-37.109,-67.871,1.000
1622759923832975.750,-29.785,-35.645,-27.344,-35.645,1.000
1622759923836882.000,-7.812,-23.926,-23.438,19.043,1.000
1622759923840788.250,-13.672,-32.715,-30.273,-7.812,1.000
1622759923844694.500,-36.621,-44.434,-29.297,-69.824,1.000
1622759923848600.750,-40.527,-40.039,-30.273,1.000,1.000
1622759923852507.000,-20.996,-24.902,-28.809,1.000,1.000
1622759923856413.250,-13.184,-28.809,-25.391,1.000,1.000
1622759923860319.500,-25.879,-36.621,-31.738,1.000,1.000
1622759923864225.750,-32.715,-36.621,-35.156,1.000,1.000
1622759923868132.000,-13.672,-22.461,-23.926,1.000,1.000
1622759923872038.250,-1.953,-11.719,-19.043,1.000,1.000
1622759923875944.500,-22.461,-20.508,-25.879,1.000,1.000
1622759923879850.750,-33.203,-29.297,-27.832,1.000,1.000
1622759923883757.000,-20.508,-25.879,-26.855,1.000,1.000
1622759923887663.250,-5.859,-12.695,-21.484,1.000,1.000
1622759923891569.500,-13.672,-17.090,-22.949,1.000,1.000
1622759923895475.750,-33.691,-30.762,-29.297,-65.918,1.000
1622759923899382.000,-36.621,-31.250,-28.809,-40.527,1.000
1622759923903288.250,-19.531,-22.461,-20.508,21.484,1.000
1622759923907194.500,-18.555,-21.973,-21.973,5.371,1.000
1622759923911100.750,-40.039,-33.203,-26.367,-60.059,1.000
1622759923915007.000,-41.504,-28.809,-25.879,-56.641,1.000
1622759923918913.250,-21.973,-23.438,-27.832,3.906,1.000
1622759923922819.500,-18.555,-26.855,-25.879,19.043,1.000
1622759923926725.750,-37.598,-32.227,-32.715,-48.340,1.000
1622759923930632.000,-43.457,-33.691,-33.203,-72.754,1.000
1622759923934538.250,-23.438,-25.391,-24.414,-8.789,1.000
1622759923938444.500,-15.137,-21.973,-24.414,23.926,1.000
1622759923942350.750,-3.418,-21.973,-22.461,25.879,1.000
1622759923946257.000,-21.484,-30.273,-32.227,-43.457,1.000
1622759923950163.250,-35.156,-39.062,-36.621,-76.172,1.000
1622759923954069.500,-18.555,-28.320,-29.785,-19.531,1.000
1622759923957975.750,-10.254,-24.414,-31.250,10.742,1.000
1622759923961882.000,-24.414,-24.414,-30.273,-29.297,1.000
1622759923965788.250,-44.922,-39.551,-35.156,-80.078,1.000
1622759923969694.500,-35.156,-41.016,-33.691,-45.898,1.000
1622759923973600.750,-12.207,-26.855,-20.996,19.043,1.000
1622759923977507.000,-12.207,-28.809,-19.043,0.000,1.000
1622759923981413.250,-28.809,-33.203,-22.461,-54.688,1.000
1622759923985319.500,-30.273,-33.203,-25.879,-43.457,1.000
1622759923989225.750,-13.184,-22.949,-23.438,1.000,1.000
1622759923993132.000,-13.672,-18.066,-24.414,1.000,1.000
1622759923997038.250,-31.250,-26.855,-32.227,1.000,1.000
1622759924000944.500,-36.133,-35.156,-33.691,1.000,1.000
1622759924004850.750,-16.602,-32.227,-31.250,1.000,1.000
1622759924008757.000,-5.859,-21.973,-21.973,1.000,1.000
1622759924012663.250,-14.160,-22.461,-22.461,1.000,1.000
1622759924016569.500,-28.320,-35.156,-25.879,1.000,1.000
1622759924020475.750,-28.320,-37.109,-24.902,1.000,1.000
1622759924024382.000,-13.672,-26.855,-28.320,1.000,1.000
1622759924028288.250,-24.902,-31.250,-32.227,1.000,1.000
1622759924032194.500,-41.504,-35.645,-31.738,1.000,1.000
1622759924036100.750,-34.180,-27.344,-27.344,-46.387,1.000
1622759924040007.000,-22.949,-20.996,-27.832,5.859,1.000
1622759924043913.250,-25.391,-23.438,-31.738,-16.602,1.000
1622759924047819.500,-41.504,-38.086,-37.109,-82.520,1.000
1622759924051725.750,-40.527,-39.551,-36.133,-75.195,1.000
1622759924055632.000,-17.578,-26.855,-26.855,-7.324,1.000
1622759924059538.250,-9.277,-25.391,-27.832,0.000,1.000
1622759924063444.500,-26.367,-43.457,-32.227,-60.059,1.000
1622759924067350.750,-41.992,-43.945,-31.250,-72.754,1.000
1622759924071257.000,-23.438,-32.227,-26.367,-1.953,1.000
1622759924075163.250,-10.742,-29.297,-24.414,26.855,1.000
1622759924079069.500,-36.133,-38.574,-29.785,-33.203,1.000
1622759924082975.750,-38.574,-29.297,-29.297,-49.805,1.000
1622759924086882.000,-45.898,-34.668,-29.297,-70.801,1.000
1622759924090788.250,-27.344,-27.344,-26.367,-12.695,1.000
1622759924094694.500,-4.883,-23.438,-24.414,25.879,1.000
1622759924098600.750,-25.879,-34.668,-32.227,-31.250,1.000
1622759924102507.000,-39.551,-33.691,-33.691,-79.102,1.000
1622759924106413.250,-21.973,-25.879,-30.762,-36.621,1.000
1622759924110319.500,-10.742,-27.832,-29.297,15.625,1.000
1622759924114225.750,-18.555,-33.203,-34.180,-14.648,1.000
1622759924118132.000,-39.551,-41.992,-38.574,-76.660,1.000
1622759924122038.250,-36.133,-39.062,-36.133,-55.664,1.000
1622759924125944.500,-19.531,-32.715,-28.320,12.207,1.000
1622759924129850.750,-13.672,-30.762,-27.832,7.324,1.000
1622759924133757.000,-20.020,-31.250,-29.785,-51.270,1.000
1622759924137663.250,-38.574,-44.922,-30.762,-57.617,1.000
1622759924141569.500,-41.992,-41.016,-26.855,0.977,1.000
1622759924145475.750,-19.531,-27.344,-14.648,17.090,1.000
1622759924149382.000,-17.090,-18.066,-12.207,-30.273,1.000
1622759924153288.250,-39.062,-26.855,-23.438,-56.641,1.000
1622759924157194.500,-39.062,-38.086,-24.414,-4.883,1.000
1622759924161100.750,-19.043,-32.227,-19.531,36.621,1.000
1622759924165007.000,-15.137,-29.297,-23.926,-17.090,1.000
1622759924168913.250,-31.738,-31.250,-26.367,-74.219,1.000
1622759924172819.500,-42.969,-35.645,-29.297,-35.156,1.000
1622759924176725.750,-20.996,-29.785,-30.762,1.000,1.000
1622759924180632.000,1.465,-17.578,-21.484,1.000,1.000
1622759924184538.250,-14.160,-21.973,-23.926,1.000,1.000
1622759924188444.500,-30.762,-35.645,-33.203,1.000,1.000
1622759924192350.750,-30.273,-32.227,-34.180,1.000,1.000
1622759924196257.000,-10.254,-18.066,-26.855,1.000,1.000
1622759924200163.250,0.488,-14.160,-20.996,1.000,1.000
1622759924204069.500,-23.438,-24.902,-28.320,1.000,1.000
1622759924207975.750,-31.250,-32.227,-32.227,1.000,1.000
1622759924211882.000,-10.742,-29.297,-26.367,1.000,1.000
1622759924215788.250,-6.836,-24.902,-20.996,1.000,1.000
1622759924219694.500,-23.926,-33.691,-24.414,1.000,1.000
1622759924223600.750,-32.227,-39.551,-27.832,-65.918,1.000
1622759924227507.000,-16.113,-25.391,-19.043,-4.395,1.000
1622759924231413.250,-9.766,-23.438,-16.602,29.785,1.000
1622759924235319.500,-25.391,-35.156,-26.367,-20.996,1.000
1622759924239225.750,-36.133,-39.551,-30.762,-58.105,1.000
1622759924243132.000,-23.926,-29.297,-22.461,-14.160,1.000
1622759924247038.250,-14.648,-19.531,-22.949,25.879,1.000
1622759924250944.500,-14.160,-28.320,-28.320,-11.719,1.000
1622759924254850.750,-25.879,-33.203,-28.809,-62.988,1.000
1622759924258757.000,-30.762,-26.855,-29.785,-36.621,1.000
1622759924262663.250,-13.184,-16.113,-28.809,26.367,1.000
1622759924266569.500,-19.531,-25.391,-32.227,2.930,1.000
1622759924270475.750,-17.578,-26.367,-24.902,2.441,1.000
1622759924274382.000,-36.133,-35.156,-27.344,-57.129,1.000
1622759924278288.250,-41.992,-42.480,-32.227,-43.945,1.000
1622759924282194.500,-11.230,-30.762,-25.879,25.879,1.000
1622759924286100.750,-13.672,-31.738,-29.297,18.555,1.000
1622759924290007.000,-34.180,-37.109,-35.156,-46.875,1.000
1622759924293913.250,-33.691,-35.645,-33.203,-53.223,1.000
1622759924297819.500,-16.113,-34.180,-30.762,10.742,1.000
1622759924301725.750,-15.137,-30.273,-29.297,23.926,1.000
1622759924305632.000,-35.156,-37.109,-29.785,-41.504,1.000
1622759924309538.250,-44.922,-40.039,-28.809,-69.336,1.000
1622759924313444.500,-31.250,-29.785,-22.949,-18.555,1.000
1622759924317350.750,-14.160,-23.926,-18.555,1.000,1.000
1622759924321257.000,-33.203,-31.250,-27.344,1.000,1.000
1622759924325163.250,-61.523,-47.852,-36.133,1.000,1.000
1622759924329069.500,-47.852,-41.504,-30.273,1.000,1.000
1622759924332975.750,-23.926,-23.438,-23.438,1.000,1.000
1622759924336882.000,-27.832,-27.832,-29.785,1.000,1.000
1622759924340788.250,-47.363,-35.156,-32.715,1.000,1.000
1622759924344694.500,-42.480,-35.156,-27.832,1.000,1.000
1622759924348600.750,-18.066,-31.738,-23.926,1.000,1.000
1622759924352507.000,-27.344,-32.715,-28.809,1.000,1.000
1622759924356413.250,-51.270,-42.480,-33.203,1.000,1.000
1622759924360319.500,-54.199,-48.828,-38.574,1.000,1.000
1622759924364225.750,-35.645,-34.668,-39.551,-24.902,1.000
1622759924368132.000,-19.531,-26.855,-34.180,5.371,1.000
1622759924372038.250,-31.250,-35.156,-37.109,-51.270,1.000
1622759924375944.500,-49.316,-41.504,-39.062,-83.008,1.000
1622759924379850.750,-36.133,-31.250,-32.227,-31.738,1.000
1622759924383757.000,-11.719,-15.625,-27.832,19.043,1.000
1622759924387663.250,-22.461,-26.855,-30.273,-26.367,1.000
1622759924391569.500,-43.945,-45.410,-31.738,-90.332,1.000
1622759924395475.750,-33.203,-39.551,-28.320,-52.246,1.000
1622759924399382.000,-14.160,-28.320,-28.320,12.695,1.000
1622759924403288.250,-13.672,-28.809,-33.203,-5.859,1.000
1622759924407194.500,-37.109,-34.668,-37.598,-69.336,1.000
1622759924411100.750,-33.203,-37.109,-30.762,-57.617,1.000
1622759924415007.000,-24.902,-40.039,-29.785,-36.133,1.000
1622759924418913.250,-14.648,-43.945,-35.156,18.066,1.000
1622759924422819.500,-20.996,-38.574,-33.691,8.789,1.000
1622759924426725.750,-36.133,-42.480,-34.668,-55.176,1.000
1622759924430632.000,-43.457,-39.062,-38.574,-62.012,1.000
1622759924434538.250,-32.715,-29.297,-38.574,-2.930,1.000
1622759924438444.500,-25.391,-31.738,-38.574,6.836,1.000
1622759924442350.750,-40.039,-39.062,-40.039,-54.688,1.000
1622759924446257.000,-60.547,-47.363,-39.551,-82.031,1.000
1622759924450163.250,-47.852,-36.621,-32.227,-29.297,1.000
1622759924454069.500,-24.902,-25.879,-26.855,9.766,1.000
1622759924457975.750,-10.254,-24.902,-25.391,-38.574,1.000
1622759924461882.000,-27.832,-36.133,-32.715,-84.473,1.000
1622759924465788.250,-36.621,-45.898,-41.992,-39.062,1.000
1622759924469694.500,-21.484,-30.762,-31.738,16.602,1.000
1622759924473600.750,-8.301,-22.461,-27.832,-9.277,1.000
1622759924477507.000,-20.996,-29.297,-33.203,-69.824,1.000
1622759924481413.250,-39.551,-36.133,-36.621,-54.688,1.000
1622759924485319.500,-39.062,-41.016,-40.039,11.719,1.000
1622759924489225.750,-16.113,-34.668,-30.762,10.254,1.000
1622759924493132.000,-21.484,-32.715,-33.691,-53.711,1.000
1622759924497038.250,-38.086,-41.992,-39.551,-61.523,1.000
1622759924500944.500,-25.879,-36.621,-27.832,10.742,1.000
1622759924504850.750,-13.184,-22.461,-21.973,1.000,1.000
1622759924508757.000,-21.973,-20.996,-27.832,1.000,1.000
1622759924512663.250,-41.992,-30.762,-33.691,1.000,1.000
1622759924516569.500,-47.852,-40.039,-32.715,1.000,1.000
1622759924520475.750,-32.715,-39.062,-33.691,1.000,1.000
1622759924524382.000,-9.766,-24.902,-28.320,1.000,1.000
1622759924528288.250,-20.508,-26.367,-31.250,1.000,1.000
1622759924532194.500,-37.598,-33.691,-36.133,1.000,1.000
1622759924536100.750,-21.484,-29.785,-23.926,1.000,1.000
1622759924540007.000,-12.207,-32.227,-23.438,1.000,1.000
1622759924543913.250,-21.973,-40.527,-28.320,1.000,1.000
1622759924547819.500,-39.551,-48.828,-30.273,1.000,1.000
1622759924551725.750,-35.156,-40.039,-28.320,-42.480,1.000
1622759924555632.000,-12.207,-23.926,-22.949,23.438,1.000
1622759924559538.250,-14.160,-25.391,-24.902,7.324,1.000
1622759924563444.500,-38.574,-34.668,-28.809,-55.176,1.000
1622759924567350.750,-44.434,-34.180,-27.344,-57.129,1.000
1622759924571257.000,-23.926,-24.414,-21.484,3.418,1.000
1622759924575163.250,-10.254,-20.020,-21.973,11.230,1.000
1622759924579069.500,-35.645,-29.785,-29.785,-54.688,1.000
1622759924582975.750,-50.293,-37.598,-29.785,-75.195,1.000
1622759924586882.000,-24.414,-27.344,-25.391,-11.230,1.000
1622759924590788.250,-12.207,-25.391,-22.949,17.578,1.000
1622759924594694.500,-25.391,-38.086,-26.367,-36.133,1.000
1622759924598600.750,-14.160,-32.227,-32.227,-37.109,1.000
1622759924602507.000,-40.527,-39.551,-36.133,-65.918,1.000
1622759924606413.250,-33.203,-33.203,-33.203,-16.113,1.000
1622759924610319.500,-12.695,-28.320,-24.414,24.902,1.000
1622759924614225.750,-27.344,-36.621,-28.809,-29.785,1.000
1622759924618132.000,-43.457,-37.109,-30.762,-82.520,1.000
1622759924622038.250,-29.297,-31.250,-26.367,-39.062,1.000
1622759924625944.500,-13.184,-27.832,-27.344,15.137,1.000
1622759924629850.750,-22.949,-29.785,-32.227,-14.160,1.000
1622759924633757.000,-41.992,-39.551,-36.621,-72.754,1.000
1622759924637663.250,-31.250,-29.785,-32.227,-54.688,1.000
1622759924641569.500,-7.324,-21.484,-25.879,9.277,1.000
1622759924645475.750,-7.812,-25.391,-26.367,1.000,1.000
1622759924649382.000,-25.879,-31.250,-30.273,1.000,1.000
1622759924653288.250,-25.879,-36.621,-28.809,1.000,1.000
1622759924657194.500,-11.719,-26.367,-23.926,1.000,1.000
1622759924661100.750,-8.789,-20.996,-24.902,1.000,1.000
1622759924665007.000,-21.484,-24.902,-32.715,1.000,1.000
1622759924668913.250,-42.969,-33.203,-42.969,1.000,1.000
1622759924672819.500,-31.738,-30.762,-40.039,1.000,1.000
1622759924676725.750,-4.883,-23.926,-31.250,1.000,1.000
1622759924680632.000,-14.648,-29.785,-36.133,1.000,1.000
1622759924684538.250,-42.969,-35.645,-42.480,1.000,1.000
1622759924688444.500,-39.062,-36.621,-33.691,1.000,1.000
1622759924692350.750,-14.648,-23.926,-24.414,1.000,1.000
1622759924696257.000,-20.508,-28.320,-37.598,1.000,1.000
1622759924700163.250,-42.480,-45.410,-44.434,1.000,1.000
1622759924704069.500,-32.715,-37.598,-33.691,1.000,1.000
1622759924707975.750,-14.160,-25.391,-26.855,1.000,1.000
1622759924711882.000,-12.695,-18.555,-26.367,1.000,1.000
1622759924715788.250,-38.086,-28.320,-32.715,1.000,1.000
1622759924719694.500,-53.711,-46.875,-33.691,1.000,1.000
1622759924723600.750,-28.320,-33.691,-27.344,1.000,1.000
1622759924727507.000,-8.789,-21.973,-24.414,1.000,1.000
1622759924731413.250,-24.414,-32.227,-30.762,1.000,1.000
1622759924735319.500,-42.480,-41.016,-33.203,1.000,1.000
1622759924739225.750,-29.785,-35.156,-26.855,1.000,1.000
1622759924743132.000,-4.883,-26.367,-28.320,1.000,1.000
1622759924747038.250,-14.648,-35.645,-34.668,1.000,1.000
1622759924750944.500,-35.645,-41.992,-36.621,1.000,1.000
1622759924754850.750,-28.809,-39.551,-36.621,1.000,1.000
1622759924758757.000,-14.648,-28.320,-36.133,1.000,1.000
1622759924762663.250,-17.578,-25.879,-34.180,1.000,1.000
1622759924766569.500,-29.297,-36.621,-34.180,1.000,1.000
1622759924770475.750,-32.227,-41.016,-36.133,1.000,1.000
1622759924774382.000,-9.766,-31.738,-30.273,1.000,1.000
1622759924778288.250,0.488,-20.020,-25.879,1.000,1.000
1622759924782194.500,-27.344,-22.949,-34.180,1.000,1.000
1622759924786100.750,-37.109,-32.715,-37.598,-74.707,1.000
1622759924790007.000,-12.207,-27.344,-33.691,-16.602,1.000
1622759924793913.250,-1.953,-19.531,-28.320,24.902,1.000
1622759924797819.500,-17.090,-24.414,-29.297,-20.996,1.000
1622759924801725.750,-37.109,-34.180,-34.180,-66.406,1.000
1622759924805632.000,-32.227,-29.297,-31.250,-27.344,1.000
1622759924809538.250,-8.789,-20.020,-26.855,30.762,1.000
1622759924813444.500,-21.484,-33.691,-37.598,-0.977,1.000
1622759924817350.750,-45.898,-39.062,-41.504,-62.500,1.000
1622759924821257.000,-41.504,-30.273,-34.180,-42.480,1.000
1622759924825163.250,-17.090,-19.043,-23.438,29.785,1.000
1622759924829069.500,-12.695,-16.602,-25.879,17.578,1.000
1622759924832975.750,-25.879,-27.344,-30.762,-10.254,1.000
1622759924836882.000,-40.527,-33.203,-34.180,-67.383,1.000
1622759924840788.250,-37.109,-29.785,-34.180,-51.270,1.000
1622759924844694.500,-21.973,-19.043,-29.297,10.742,1.000
1622759924848600.750,-17.090,-21.973,-25.879,13.672,1.000
1622759924852507.000,-39.062,-32.715,-30.762,-46.387,1.000
1622759924856413.250,-55.664,-33.203,-33.691,-64.941,1.000
1622759924860319.500,-34.180,-36.621,-30.762,-7.812,1.000
1622759924864225.750,-20.020,-38.086,-33.691,16.602,1.000
1622759924868132.000,-35.645,-41.504,-37.109,-42.969,1.000
1622759924872038.250,-46.875,-42.969,-33.203,-74.707,1.000
1622759924875944.500,-31.738,-32.227,-26.367,-20.996,1.000
1622759924879850.750,-12.695,-26.855,-24.902,26.367,1.000
1622759924883757.000,-29.785,-36.621,-34.180,-17.090,1.000
1622759924887663.250,-44.434,-44.434,-38.086,-70.801,1.000
1622759924891569.500,-29.297,-36.133,-32.715,-35.156,1.000
1622759924895475.750,-15.137,-22.949,-31.250,19.043,1.000
1622759924899382.000,-21.973,-25.879,-36.621,-8.789,1.000
1622759924903288.250,-38.574,-38.574,-39.551,-67.871,1.000
1622759924907194.500,-35.645,-36.133,-36.133,-62.500,1.000
1622759924911100.750,-17.578,-28.320,-34.668,-4.395,1.000
1622759924915007.000,-23.438,-27.832,-34.668,0.977,1.000
1622759924918913.250,-36.621,-31.250,-35.645,-62.012,1.000
1622759924922819.500,-41.504,-36.133,-38.086,-79.102,1.000
1622759924926725.750,-32.227,-30.273,-34.668,-19.043,1.000
1622759924930632.000,-21.484,-27.344,-34.180,5.859,1.000
1622759924934538.250,-46.387,-42.480,-41.016,-47.852,1.000
1622759924938444.500,-61.523,-45.410,-36.621,-78.125,1.000
1622759924942350.750,-38.574,-29.297,-24.902,-32.227,1.000
1622759924946257.000,-15.625,-14.160,-16.602,21.973,1.000
1622759924950163.250,-27.832,-32.227,-24.414,-15.625,1.000
1622759924954069.500,-49.316,-47.363,-31.250,-76.660,1.000
1622759924957975.750,-36.621,-39.062,-27.344,-46.387,1.000
1622759924961882.000,-21.484,-30.273,-24.414,8.301,1.000
1622759924965788.250,-24.902,-30.762,-23.926,-3.906,1.000
1622759924969694.500,-45.410,-38.574,-30.762,-67.383,1.000
1622759924973600.750,-31.738,-40.039,-24.902,-66.895,1.000
1622759924977507.000,-28.320,-36.133,-28.809,-48.828,1.000
1622759924981413.250,-19.043,-29.785,-28.320,11.230,1.000
1622759924985319.500,-15.625,-24.902,-22.461,13.184,1.000
1622759924989225.750,-35.156,-29.297,-29.785,-51.270,1.000
1622759924993132.000,-47.852,-31.738,-27.344,-62.012,1.000
1622759924997038.250,-22.461,-22.461,-16.113,10.254,1.000
1622759925000944.500,-11.230,-23.926,-18.066,25.879,1.000
1622759925004850.750,-26.367,-38.086,-29.785,-40.527,1.000
1622759925008757.000,-41.016,-40.527,-35.645,-71.777,1.000
1622759925012663.250,-31.738,-35.156,-31.250,-18.555,1.000
1622759925016569.500,-17.578,-33.203,-32.227,26.367,1.000
1622759925020475.750,-22.949,-33.691,-33.203,9.277,1.000
1622759925024382.000,-42.969,-40.527,-38.086,-46.387,1.000
1622759925028288.250,-57.129,-48.340,-41.016,-81.543,1.000
1622759925032194.500,-40.527,-36.133,-35.156,-30.273,1.000
1622759925036100.750,-18.555,-25.391,-26.367,18.555,1.000
1622759925040007.000,-23.926,-29.785,-29.785,-16.602,1.000
1622759925043913.250,-38.574,-41.016,-36.621,-71.777,1.000
1622759925047819.500,-38.574,-41.504,-31.250,-41.016,1.000
1622759925051725.750,-10.254,-26.855,-23.438,25.391,1.000
1622759925055632.000,-5.371,-31.250,-29.297,0.977,1.000
1622759925059538.250,-30.273,-41.016,-31.250,-60.547,1.000
1622759925063444.500,-26.367,-37.109,-26.367,-41.992,1.000
1622759925067350.750,-2.441,-28.809,-28.320,1.000,1.000
1622759925071257.000,0.000,-28.809,-30.273,1.000,1.000
1622759925075163.250,-21.484,-38.086,-33.691,1.000,1.000
1622759925079069.500,-33.203,-40.039,-33.203,1.000,1.000
1622759925082975.750,-13.184,-27.832,-26.367,1.000,1.000
1622759925086882.000,-2.441,-18.555,-25.879,1.000,1.000
1622759925090788.250,-18.555,-23.926,-27.832,1.000,1.000
1622759925094694.500,-34.180,-33.691,-28.809,1.000,1.000
1622759925098600.750,-24.902,-31.738,-27.832,1.000,1.000
1622759925102507.000,-5.371,-29.785,-22.949,1.000,1.000
1622759925106413.250,-12.207,-37.598,-27.344,1.000,1.000
1622759925110319.500,-37.598,-48.340,-34.180,1.000,1.000
1622759925114225.750,-33.691,-38.574,-33.691,-46.875,1.000
1622759925118132.000,-6.836,-21.973,-24.902,20.020,1.000
1622759925122038.250,-4.395,-22.461,-27.832,8.301,1.000
1622759925125944.500,-25.391,-27.832,-31.738,-58.105,1.000
1622759925129850.750,-33.691,-28.809,-29.297,-59.082,1.000
1622759925133757.000,-20.996,-20.996,-26.855,9.277,1.000
1622759925137663.250,-14.648,-25.879,-29.297,23.438,1.000
1622759925141569.500,-32.715,-48.828,-36.133,-42.480,1.000
1622759925145475.750,-40.527,-49.316,-35.645,-73.730,1.000
1622759925149382.000,-25.391,-29.785,-30.273,-20.996,1.000
1622759925153288.250,-12.207,-23.926,-29.785,16.602,1.000
1622759925157194.500,-24.902,-33.691,-30.762,-28.320,1.000
1622759925161100.750,-37.109,-31.250,-23.926,-34.180,1.000
1622759925165007.000,-52.246,-39.551,-27.344,-69.336,1.000
1622759925168913.250,-33.203,-33.203,-24.902,-15.625,1.000
1622759925172819.500,-18.555,-23.926,-20.020,29.785,1.000
1622759925176725.750,-23.926,-25.879,-25.391,-17.578,1.000
1622759925180632.000,-46.387,-26.855,-28.320,-75.684,1.000
1622759925184538.250,-40.527,-25.879,-23.438,-41.016,1.000
1622759925188444.500,-19.043,-30.762,-25.879,12.695,1.000
1622759925192350.750,-29.785,-34.180,-30.762,-15.137,1.000
1622759925196257.000,-43.945,-34.668,-31.250,-75.684,1.000
1622759925200163.250,-40.527,-33.691,-27.832,-64.941,1.000
1622759925204069.500,-26.855,-29.297,-25.391,-2.441,1.000
1622759925207975.750,-22.949,-27.832,-31.250,1.000,1.000
1622759925211882.000,-37.598,-37.598,-37.109,1.000,1.000
1622759925215788.250,-42.969,-39.062,-36.621,1.000,1.000
1622759925219694.500,-22.461,-21.973,-27.344,1.000,1.000
1622759925223600.750,-11.719,-15.625,-25.391,1.000,1.000
1622759925227507.000,-23.438,-20.508,-34.180,1.000,1.000
1622759925231413.250,-43.457,-32.715,-35.645,1.000,1.000
1622759925235319.500,-32.715,-35.156,-32.715,1.000,1.000
1622759925239225.750,-10.742,-24.902,-25.879,1.000,1.000
1622759925243132.000,-29.785,-27.832,-33.203,1.000,1.000
1622759925247038.250,-51.270,-38.086,-41.504,1.000,1.000
1622759925250944.500,-45.898,-31.250,-36.621,1.000,1.000
1622759925254850.750,-23.926,-17.090,-31.738,1.000,1.000
1622759925258757.000,-25.879,-21.973,-39.551,1.000,1.000
1622759925262663.250,-44.922,-35.645,-46.875,1.000,1.000
1622759925266569.500,-43.457,-31.250,-37.109,1.000,1.000
1622759925270475.750,-20.508,-21.973,-27.832,1.000,1.000
1622759925274382.000,-15.137,-23.438,-29.297,1.000,1.000
1622759925278288.250,-32.715,-27.344,-32.715,1.000,1.000
1622759925282194.500,-38.574,-39.062,-30.273,1.000,1.000
1622759925286100.750,-23.438,-35.645,-23.926,1.000,1.000
1622759925290007.000,-15.137,-29.785,-22.461,1.000,1.000
1622759925293913.250,-35.645,-43.457,-31.250,1.000,1.000
1622759925297819.500,-46.387,-49.316,-34.180,1.000,1.000
1622759925301725.750,-32.715,-37.109,-29.785,1.000,1.000
1622759925305632.000,-11.230,-22.949,-22.949,1.000,1.000
1622759925309538.250,-15.137,-29.785,-24.414,1.000,1.000
1622759925313444.500,-43.945,-45.898,-35.156,1.000,1.000
1622759925317350.750,-45.898,-39.551,-33.691,1.000,1.000
1622759925321257.000,-24.414,-24.414,-26.367,1.000,1.000
1622759925325163.250,-19.531,-24.902,-25.391,1.000,1.000
1622759925329069.500,-42.480,-32.715,-37.109,1.000,1.000
1622759925332975.750,-51.270,-37.109,-37.598,1.000,1.000
1622759925336882.000,-32.227,-29.785,-28.320,1.000,1.000
1622759925340788.250,-28.809,-26.367,-28.809,1.000,1.000
1622759925344694.500,-44.434,-33.691,-30.273,1.000,1.000
1622759925348600.750,-52.734,-45.410,-35.156,-82.520,1.000
1622759925352507.000,-34.180,-41.016,-35.645,-30.762,1.000
1622759925356413.250,-21.484,-32.227,-31.250,7.812,1.000
1622759925360319.500,-31.250,-34.668,-32.715,-40.039,1.000
1622759925364225.750,-41.992,-41.504,-33.203,-78.613,1.000
1622759925368132.000,-25.879,-34.668,-28.809,-30.273,1.000
1622759925372038.250,-7.812,-23.926,-27.832,22.461,1.000
1622759925375944.500,-15.137,-35.156,-30.273,-0.977,1.000
1622759925379850.750,-28.809,-44.922,-30.762,-54.688,1.000
1622759925383757.000,-28.320,-35.156,-30.762,-39.062,1.000
1622759925387663.250,-5.371,-23.438,-25.879,29.297,1.000
1622759925391569.500,1.953,-20.996,-21.973,30.762,1.000
1622759925395475.750,-11.719,-27.344,-24.902,6.348,1.000
1622759925399382.000,-33.203,-44.922,-33.691,-57.129,1.000
1622759925403288.250,-34.668,-42.480,-38.574,-47.852,1.000
1622759925407194.500,-12.695,-28.809,-32.715,25.391,1.000
1622759925411100.750,-12.695,-32.715,-36.133,27.832,1.000
1622759925415007.000,-27.832,-40.527,-43.457,-41.992,1.000
1622759925418913.250,-28.320,-43.945,-42.969,-52.734,1.000
1622759925422819.500,-19.531,-42.969,-40.039,10.742,1.000
1622759925426725.750,-6.836,-39.062,-36.621,31.738,1.000
1622759925430632.000,-14.648,-43.945,-35.645,-24.902,1.000
1622759925434538.250,-31.738,-36.621,-33.691,-56.641,1.000
1622759925438444.500,-26.855,-33.691,-29.785,-16.113,1.000
1622759925442350.750,-12.207,-31.250,-25.879,1.000,1.000
1622759925446257.000,-17.090,-26.367,-25.391,1.000,1.000
1622759925450163.250,-47.363,-36.133,-33.691,1.000,1.000
1622759925454069.500,-57.129,-38.086,-32.227,1.000,1.000
1622759925457975.750,-53.711,-34.180,-32.715,1.000,1.000
1622759925461882.000,-52.246,-21.973,-29.785,1.000,1.000
1622759925465788.250,-72.754,-27.344,-25.391,1.000,1.000
1622759925469694.500,-80.566,-31.738,-33.691,1.000,1.000
1622759925473600.750,-65.918,-23.926,-34.668,1.000,1.000
1622759925477507.000,-89.844,-38.086,-39.062,1.000,1.000
1622759925481413.250,-124.023,-55.176,-47.363,1.000,1.000
1622759925485319.500,-136.230,-60.059,-50.293,1.000,1.000
1622759925489225.750,-130.371,-52.246,-49.316,-131.348,1.000
1622759925493132.000,-125.488,-46.387,-44.434,-106.934,1.000
1622759925497038.250,-142.090,-47.852,-46.387,-166.016,1.000
1622759925500944.500,-158.691,-60.059,-54.199,-213.379,1.000
1622759925504850.750,-142.090,-56.641,-50.781,-163.086,1.000
1622759925508757.000,-121.094,-40.039,-46.875,-98.633,1.000
1622759925512663.250,-131.836,-44.434,-58.594,-130.859,1.000
1622759925516569.500,-145.508,-59.570,-61.035,-189.941,1.000
1622759925520475.750,-130.371,-52.246,-55.176,-151.855,1.000
1622759925524382.000,-103.027,-41.992,-54.199,-76.660,1.000
1622759925528288.250,-85.449,-40.527,-45.898,-70.312,1.000
1622759925532194.500,-101.562,-47.363,-48.828,-129.395,1.000
1622759925536100.750,-2.441,-30.273,-33.203,-25.879,1.000
1622759925540007.000,-9.277,-31.250,-32.227,-11.230,1.000
1622759925543913.250,7.324,-20.508,-33.203,52.246,1.000
1622759925547819.500,19.043,-19.531,-34.180,54.199,1.000
1622759925551725.750,0.000,-26.855,-39.062,-10.254,1.000
1622759925555632.000,-7.812,-28.809,-40.527,-21.973,1.000
1622759925559538.250,13.672,-23.926,-32.227,41.016,1.000
1622759925563444.500,28.320,-19.531,-34.180,66.406,1.000
1622759925567350.750,19.043,-25.391,-36.133,11.230,1.000
1622759925571257.000,3.906,-36.621,-36.621,-34.180,1.000
1622759925575163.250,17.090,-29.785,-39.551,10.742,1.000
1622759925579069.500,39.551,-15.137,-33.203,59.570,1.000
1622759925582975.750,24.414,-24.414,-18.555,20.508,1.000
1622759925586882.000,4.395,-29.297,-25.391,-31.250,1.000
1622759925590788.250,-8.301,-38.086,-28.320,0.977,1.000
1622759925594694.500,-0.977,-31.738,-25.391,60.059,1.000
1622759925598600.750,11.719,-17.090,-20.020,33.203,1.000
1622759925602507.000,5.859,-20.020,-26.367,-37.598,1.000
1622759925606413.250,-14.648,-38.574,-38.574,-20.996,1.000
1622759925610319.500,-17.578,-39.062,-38.574,44.434,1.000
1622759925614225.750,3.906,-26.367,-30.273,45.898,1.000
1622759925618132.000,0.000,-28.809,-27.344,-18.066,1.000
1622759925622038.250,-29.785,-39.062,-38.086,-36.621,1.000
1622759925625944.500,-35.156,-40.039,-38.574,26.367,1.000
1622759925629850.750,-14.160,-32.227,-31.738,1.000,1.000
1622759925633757.000,-12.695,-28.809,-31.738,1.000,1.000
1622759925637663.250,-32.715,-34.180,-38.086,1.000,1.000
1622759925641569.500,-38.086,-41.016,-35.645,1.000,1.000
1622759925645475.750,-25.391,-36.133,-30.273,1.000,1.000
1622759925649382.000,-15.137,-20.508,-27.832,1.000,1.000
1622759925653288.250,-25.879,-28.809,-26.367,1.000,1.000
1622759925657194.500,-42.480,-42.969,-30.273,1.000,1.000
1622759925661100.750,-32.227,-39.062,-30.762,1.000,1.000
1622759925665007.000,-15.137,-32.227,-27.832,1.000,1.000
1622759925668913.250,-26.855,-40.039,-31.738,1.000,1.000
1622759925672819.500,-46.387,-47.852,-39.062,1.000,1.000
1622759925676725.750,-39.551,-34.180,-35.645,-38.086,1.000
1622759925680632.000,-20.996,-21.973,-27.344,23.926,1.000
1622759925684538.250,-16.602,-28.320,-26.367,20.996,1.000
1622759925688444.500,-29.785,-35.645,-28.809,-43.457,1.000
1622759925692350.750,-29.297,-36.133,-27.832,-46.875,1.000
1622759925696257.000,-5.859,-22.461,-21.484,16.113,1.000
1622759925700163.250,0.000,-15.137,-20.020,27.344,1.000
1622759925704069.500,-23.926,-31.250,-25.391,-34.180,1.000
1622759925707975.750,-37.109,-36.133,-26.855,-61.523,1.000
1622759925711882.000,-28.320,-24.902,-23.438,-12.207,1.000
1622759925715788.250,-1.465,-16.602,-19.531,26.855,1.000
1622759925719694.500,-12.207,-32.227,-22.949,-13.184,1.000
1622759925723600.750,-44.922,-40.527,-23.926,-38.086,1.000
1622759925727507.000,-53.711,-47.852,-30.273,-73.730,1.000
1622759925731413.250,-21.484,-29.297,-29.297,-12.207,1.000
1622759925735319.500,-11.230,-24.902,-27.832,29.297,1.000
1622759925739225.750,-20.508,-34.180,-29.297,-15.137,1.000
1622759925743132.000,-32.227,-34.180,-32.227,-67.871,1.000
1622759925747038.250,-28.320,-31.738,-30.762,-39.551,1.000
1622759925750944.500,-14.648,-32.227,-33.203,12.695,1.000
1622759925754850.750,-19.531,-33.203,-34.180,-6.348,1.000
1622759925758757.000,-32.715,-37.598,-38.574,-72.266,1.000
1622759925762663.250,-34.668,-41.504,-35.156,-73.730,1.000
1622759925766569.500,-19.531,-31.250,-27.344,-0.488,1.000
1622759925770475.750,-12.695,-25.879,-28.809,1.000,1.000
1622759925774382.000,-34.668,-37.109,-33.203,1.000,1.000
1622759925778288.250,-58.105,-50.781,-38.574,1.000,1.000
1622759925782194.500,-40.039,-37.109,-35.645,1.000,1.000
1622759925786100.750,-20.508,-25.391,-34.668,1.000,1.000
1622759925790007.000,-29.297,-35.645,-42.480,1.000,1.000
1622759925793913.250,-44.922,-41.016,-41.016,1.000,1.000
1622759925797819.500,-37.109,-35.156,-31.738,1.000,1.000
1622759925801725.750,-9.766,-28.809,-29.297,1.000,1.000
1622759925805632.000,-15.625,-30.273,-30.762,1.000,1.000
1622759925809538.250,-30.762,-36.621,-26.367,1.000,1.000
1622759925813444.500,-37.598,-36.621,-26.367,1.000,1.000
1622759925817350.750,-24.414,-26.855,-23.438,12.695,1.000
1622759925821257.000,-20.508,-31.738,-26.367,1.953,1.000
1622759925825163.250,-33.691,-51.758,-31.738,-65.918,1.000
1622759925829069.500,-35.156,-47.852,-33.691,-71.289,1.000
1622759925832975.750,-26.855,-34.668,-30.762,-9.766,1.000
1622759925836882.000,-23.438,-31.250,-32.227,1.465,1.000
1622759925840788.250,-35.156,-35.156,-36.621,-62.012,1.000
1622759925844694.500,-44.434,-42.480,-40.527,-83.008,1.000
1622759925848600.750,-30.273,-39.551,-37.109,-19.531,1.000
1622759925852507.000,-13.184,-25.879,-29.785,15.625,1.000
1622759925856413.250,-15.625,-29.297,-32.715,-29.785,1.000
1622759925860319.500,-31.738,-44.922,-37.109,-75.684,1.000
1622759925864225.750,-24.902,-37.109,-35.645,1.000,1.000
1622759925868132.000,0.000,-16.113,-32.227,1.000,1.000
1622759925872038.250,-6.836,-20.508,-38.086,1.000,1.000
1622759925875944.500,-44.922,-41.016,-45.410,1.000,1.000
1622759925879850.750,-40.527,-36.621,-45.410,1.000,1.000
1622759925883757.000,-16.113,-20.996,-38.086,1.000,1.000
1622759925887663.250,-19.531,-26.367,-30.762,1.000,1.000
1622759925891569.500,-30.762,-39.551,-33.203,1.000,1.000
1622759925895475.750,-32.227,-41.992,-38.086,1.000,1.000
1622759925899382.000,-20.996,-33.691,-38.086,1.000,1.000
1622759925903288.250,-17.090,-28.320,-35.156,1.000,1.000
1622759925907194.500,-38.086,-36.621,-38.086,1.000,1.000
1622759925911100.750,-56.641,-42.969,-40.039,-100.098,1.000
1622759925915007.000,-35.645,-41.016,-41.992,-44.434,1.000
1622759925918913.250,-7.324,-33.691,-39.551,2.441,1.000
1622759925922819.500,-17.090,-30.273,-31.738,-34.668,1.000
1622759925926725.750,-47.852,-41.504,-37.109,-87.402,1.000
1622759925930632.000,-48.828,-39.551,-37.598,-64.941,1.000
1622759925934538.250,-26.367,-30.273,-27.832,-8.301,1.000
1622759925938444.500,-30.762,-39.062,-30.273,-26.855,1.000
1622759925942350.750,-52.734,-47.363,-33.691,-87.891,1.000
1622759925946257.000,-54.199,-43.945,-32.227,-76.172,1.000
1622759925950163.250,-26.855,-37.109,-24.902,-2.441,1.000
1622759925954069.500,-20.020,-32.715,-23.438,0.000,1.000
1622759925957975.750,-36.621,-31.738,-37.109,-78.613,1.000
1622759925961882.000,-46.875,-40.039,-37.109,-87.891,1.000
1622759925965788.250,-48.340,-43.945,-42.480,-14.160,1.000
1622759925969694.500,-32.227,-31.738,-34.668,18.555,1.000
1622759925973600.750,-27.832,-23.926,-34.668,-37.109,1.000
1622759925977507.000,-40.039,-29.297,-42.480,-68.359,1.000
1622759925981413.250,-54.199,-40.039,-41.992,-24.414,1.000
1622759925985319.500,-44.922,-37.598,-38.086,19.531,1.000
1622759925989225.750,-27.832,-28.809,-29.785,-12.695,1.000
1622759925993132.000,-41.016,-33.203,-37.109,-75.195,1.000
1622759925997038.250,-60.059,-40.527,-46.875,-45.410,1.000
1622759926000944.500,-41.992,-27.344,-36.621,6.836,1.000
1622759926004850.750,-17.090,-17.090,-28.320,1.000,1.000
1622759926008757.000,-20.996,-26.367,-32.715,1.000,1.000
1622759926012663.250,-43.945,-39.551,-36.133,1.000,1.000
1622759926016569.500,-45.898,-35.645,-31.250,1.000,1.000
1622759926020475.750,-33.203,-25.391,-24.902,1.000,1.000
1622759926024382.000,-27.832,-26.855,-22.949,1.000,1.000
1622759926028288.250,-38.086,-36.133,-27.832,1.000,1.000
1622759926032194.500,-60.547,-47.363,-31.738,1.000,1.000
1622759926036100.750,-59.570,-39.062,-34.668,1.000,1.000
1622759926040007.000,-49.805,-35.645,-46.387,1.000,1.000
1622759926043913.250,-58.594,-41.504,-37.598,1.000,1.000
1622759926047819.500,-56.152,-39.551,-25.879,1.000,1.000
1622759926051725.750,-46.387,-33.203,-25.879,-29.785,1.000
1622759926055632.000,-39.062,-34.668,-31.250,-4.883,1.000
1622759926059538.250,-38.086,-40.039,-35.645,-49.316,1.000
1622759926063444.500,-49.316,-40.039,-29.297,-83.008,1.000
1622759926067350.750,-53.711,-36.621,-30.273,-52.246,1.000
1622759926071257.000,-41.504,-25.879,-29.297,0.488,1.000
1622759926075163.250,-52.246,-31.738,-31.250,-33.691,1.000
1622759926079069.500,-66.895,-47.852,-42.969,-91.309,1.000
1622759926082975.750,-55.176,-42.969,-36.133,-62.988,1.000
1622759926086882.000,-40.039,-33.203,-28.320,-6.348,1.000
1622759926090788.250,-33.203,-38.574,-32.227,-16.602,1.000
1622759926094694.500,-53.711,-46.387,-41.504,-75.684,1.000
1622759926098600.750,-35.645,-34.668,-37.598,-69.824,1.000
1622759926102507.000,-39.551,-37.109,-36.621,-63.965,1.000
1622759926106413.250,-36.133,-31.250,-40.527,-7.324,1.000
1622759926110319.500,-20.508,-30.273,-34.668,7.812,1.000
1622759926114225.750,-36.133,-37.109,-34.180,-56.641,1.000
1622759926118132.000,-52.734,-36.133,-40.039,-80.078,1.000
1622759926122038.250,-25.391,-25.879,-37.598,-18.066,1.000
1622759926125944.500,-13.672,-30.273,-34.668,12.695,1.000
1622759926129850.750,-35.156,-41.992,-39.551,-48.340,1.000
1622759926133757.000,-47.363,-46.387,-43.457,-83.496,1.000
1622759926137663.250,-31.250,-43.945,-35.645,-29.297,1.000
1622759926141569.500,-18.066,-33.203,-30.762,14.648,1.000
1622759926145475.750,-13.672,-23.926,-23.438,-17.090,1.000
1622759926149382.000,-19.043,-29.785,-36.133,-68.359,1.000
1622759926153288.250,-42.480,-44.434,-46.387,-49.316,1.000
1622759926157194.500,-22.461,-28.320,-33.203,3.906,1.000
1622759926161100.750,0.000,-17.578,-23.438,-7.812,1.000
1622759926165007.000,-12.695,-21.484,-31.250,-68.359,1.000
1622759926168913.250,-31.738,-29.297,-41.016,-69.824,1.000
1622759926172819.500,-28.809,-40.039,-38.574,5.371,1.000
1622759926176725.750,0.000,-28.320,-27.832,26.367,1.000
1622759926180632.000,-2.930,-24.414,-30.762,-40.527,1.000
1622759926184538.250,-15.137,-28.320,-39.062,-62.500,1.000
1622759926188444.500,-4.395,-23.438,-28.809,-16.602,1.000
1622759926192350.750,-15.137,-29.297,-20.020,1.000,1.000
1622759926196257.000,-16.113,-33.691,-26.367,1.000,1.000
1622759926200163.250,-15.625,-33.691,-28.320,1.000,1.000
1622759926204069.500,-36.133,-38.574,-30.762,1.000,1.000
1622759926207975.750,-30.273,-37.109,-25.879,1.000,1.000
1622759926211882.000,-21.973,-30.273,-25.391,1.000,1.000
1622759926215788.250,-33.203,-35.645,-33.691,1.000,1.000
1622759926219694.500,-35.645,-40.527,-32.227,1.000,1.000
1622759926223600.750,-20.020,-28.809,-24.414,1.000,1.000
1622759926227507.000,-10.254,-26.367,-19.043,1.000,1.000
1622759926231413.250,-10.742,-32.227,-23.438,1.000,1.000
1622759926235319.500,-25.879,-39.551,-29.785,1.000,1.000
1622759926239225.750,-30.273,-33.691,-21.973,-37.109,1.000
1622759926243132.000,-8.301,-18.066,-22.461,12.695,1.000
1622759926247038.250,-5.859,-23.926,-39.551,4.395,1.000
1622759926250944.500,-27.832,-37.109,-42.969,-32.227,1.000
1622759926254850.750,-40.527,-41.992,-37.109,-37.598,1.000
1622759926258757.000,-26.367,-25.391,-33.203,-10.742,1.000
1622759926262663.250,-18.555,-22.949,-33.691,15.625,1.000
1622759926266569.500,-44.434,-49.316,-38.574,-15.137,1.000
1622759926270475.750,-64.453,-59.570,-34.180,-107.910,1.000
1622759926274382.000,-40.039,-46.387,-33.203,-52.734,1.000
1622759926278288.250,-13.672,-30.762,-32.715,40.039,1.000
1622759926282194.500,-29.297,-46.875,-30.762,-22.461,1.000
1622759926286100.750,-39.062,-43.457,-30.762,-81.055,1.000
1622759926290007.000,-46.387,-44.922,-29.297,-70.312,1.000
1622759926293913.250,-30.762,-35.645,-25.391,-23.438,1.000
1622759926297819.500,-15.625,-20.996,-19.531,15.137,1.000
1622759926301725.750,-29.297,-28.809,-23.926,-24.414,1.000
1622759926305632.000,-44.434,-37.109,-32.227,-84.961,1.000
1622759926309538.250,-55.664,-34.668,-41.016,-71.289,1.000
1622759926313444.500,-41.504,-41.504,-41.504,-10.254,1.000
1622759926317350.750,-24.414,-35.645,-35.645,-19.043,1.000
1622759926321257.000,-39.062,-42.480,-37.598,-75.684,1.000
1622759926325163.250,-45.898,-50.781,-35.645,-83.008,1.000
1622759926329069.500,-18.555,-32.227,-25.879,-27.832,1.000
1622759926332975.750,-17.578,-28.809,-28.320,1.000,1.000
1622759926336882.000,-43.945,-40.527,-36.133,1.000,1.000
1622759926340788.250,-52.246,-46.875,-35.645,1.000,1.000
1622759926344694.500,-46.875,-33.203,-28.320,1.000,1.000
1622759926348600.750,-37.109,-29.785,-28.809,1.000,1.000
1622759926352507.000,-40.527,-44.434,-41.016,1.000,1.000
1622759926356413.250,-57.129,-51.758,-41.016,1.000,1.000
1622759926360319.500,-60.547,-43.457,-35.156,1.000,1.000
1622759926364225.750,-41.992,-37.109,-27.832,1.000,1.000
1622759926368132.000,-57.617,-50.781,-33.203,1.000,1.000
1622759926372038.250,-72.754,-57.617,-36.621,1.000,1.000
1622759926375944.500,-60.059,-53.711,-33.203,1.000,1.000
1622759926379850.750,-41.504,-45.410,-30.762,1.000,1.000
1622759926383757.000,-31.250,-40.527,-26.855,1.000,1.000
1622759926387663.250,-41.992,-44.434,-34.180,1.000,1.000
1622759926391569.500,-52.734,-43.945,-33.203,1.000,1.000
1622759926395475.750,-42.969,-42.480,-30.273,1.000,1.000
1622759926399382.000,-30.273,-34.180,-31.250,1.000,1.000
1622759926403288.250,-39.551,-41.504,-38.574,1.000,1.000
1622759926407194.500,-52.246,-53.223,-42.480,1.000,1.000
1622759926411100.750,-39.551,-41.016,-27.832,1.000,1.000
1622759926415007.000,-24.902,-34.668,-23.438,1.000,1.000
1622759926418913.250,-42.480,-43.457,-33.203,1.000,1.000
1622759926422819.500,-60.547,-51.270,-37.109,1.000,1.000
1622759926426725.750,-58.105,-48.828,-33.203,-20.020,1.000
1622759926430632.000,-26.855,-42.480,-24.902,-3.418,1.000
1622759926434538.250,-28.809,-45.410,-28.809,-29.785,1.000
1622759926438444.500,-53.223,-46.875,-39.062,-89.844,1.000
1622759926442350.750,-41.504,-47.852,-37.109,-79.102,1.000
1622759926446257.000,-30.762,-40.527,-27.344,-4.883,1.000
1622759926450163.250,-29.785,-36.133,-32.227,-17.090,1.000
1622759926454069.500,-39.062,-46.875,-35.156,-71.289,1.000
1622759926457975.750,-50.293,-52.734,-35.156,-77.637,1.000
1622759926461882.000,-39.551,-39.062,-38.086,-28.320,1.000
1622759926465788.250,-21.484,-31.738,-35.156,3.418,1.000
1622759926469694.500,-29.785,-42.480,-41.016,-47.363,1.000
1622759926473600.750,-51.758,-49.805,-41.504,-91.309,1.000
1622759926477507.000,-37.598,-42.480,-33.203,-35.156,1.000
1622759926481413.250,-19.043,-31.738,-27.344,-3.418,1.000
1622759926485319.500,-29.297,-30.762,-32.227,-39.551,1.000
1622759926489225.750,-38.574,-38.574,-28.809,-82.520,1.000
1622759926493132.000,-28.320,-30.273,-20.020,-49.316,1.000
1622759926497038.250,-24.414,-25.879,-18.066,23.438,1.000
1622759926500944.500,-26.855,-33.203,-20.508,-0.488,1.000
1622759926504850.750,-35.645,-41.992,-27.344,-71.777,1.000
1622759926508757.000,-44.922,-42.969,-29.297,-59.570,1.000
1622759926512663.250,-13.184,-23.926,-21.973,20.996,1.000
1622759926516569.500,1.465,-23.438,-22.461,16.602,1.000
1622759926520475.750,-9.277,-25.391,-32.715,-54.688,1.000
1622759926524382.000,-31.250,-37.109,-39.551,-67.871,1.000
1622759926528288.250,-39.062,-36.621,-35.156,-12.207,1.000
1622759926532194.500,-29.297,-21.973,-29.297,2.930,1.000
1622759926536100.750,-23.926,-24.414,-30.273,-62.012,1.000
1622759926540007.000,-29.785,-27.832,-28.320,-66.895,1.000
1622759926543913.250,-44.922,-34.668,-25.391,-7.324,1.000
1622759926547819.500,-34.180,-41.504,-27.344,19.531,1.000
1622759926551725.750,-10.742,-31.738,-25.879,-21.973,1.000
1622759926555632.000,-12.695,-33.203,-27.344,-65.430,1.000
1622759926559538.250,-35.156,-41.992,-33.691,-38.574,1.000
1622759926563444.500,-28.809,-39.062,-33.203,12.695,1.000
1622759926567350.750,-1.465,-26.855,-32.227,1.000,1.000
1622759926571257.000,-22.949,-34.180,-34.180,1.000,1.000
1622759926575163.250,-37.598,-44.434,-36.133,1.000,1.000
1622759926579069.500,-18.555,-37.598,-37.109,1.000,1.000
1622759926582975.750,-5.371,-31.738,-38.086,1.000,1.000
1622759926586882.000,-9.277,-28.809,-36.621,1.000,1.000
1622759926590788.250,-31.738,-33.691,-38.086,1.000,1.000
1622759926594694.500,-33.691,-34.668,-35.156,1.000,1.000
1622759926598600.750,-15.625,-31.738,-30.762,1.000,1.000
1622759926602507.000,-17.578,-35.156,-32.227,1.000,1.000
1622759926606413.250,-33.203,-40.039,-33.203,1.000,1.000
1622759926610319.500,-44.434,-46.387,-34.180,1.000,1.000
1622759926614225.750,-34.180,-41.992,-32.715,-24.902,1.000
1622759926618132.000,-7.324,-31.738,-24.902,22.949,1.000
1622759926622038.250,-26.367,-39.551,-28.320,-20.996,1.000
1622759926625944.500,-55.664,-51.758,-33.691,-78.613,1.000
1622759926629850.750,-45.410,-44.922,-28.809,-42.480,1.000
1622759926633757.000,-29.785,-30.273,-24.902,16.602,1.000
1622759926637663.250,-30.762,-30.762,-29.785,-2.441,1.000
1622759926641569.500,-43.457,-44.922,-38.574,-67.383,1.000
1622759926645475.750,-47.852,-36.621,-38.574,-58.594,1.000
1622759926649382.000,-31.250,-25.391,-32.227,8.301,1.000
1622759926653288.250,-30.762,-31.738,-34.668,1.465,1.000
1622759926657194.500,-51.758,-40.527,-44.434,-68.359,1.000
1622759926661100.750,-55.176,-43.945,-38.086,-64.941,1.000
1622759926665007.000,-65.430,-51.270,-38.086,-66.406,1.000
1622759926668913.250,-58.105,-41.016,-34.180,-16.602,1.000
1622759926672819.500,-34.668,-38.086,-28.320,8.301,1.000
1622759926676725.750,-41.992,-43.945,-30.762,-44.434,1.000
1622759926680632.000,-50.781,-43.457,-33.203,-75.684,1.000
1622759926684538.250,-26.367,-32.227,-31.250,-11.230,1.000
1622759926688444.500,-15.137,-22.461,-31.250,16.113,1.000
1622759926692350.750,-52.246,-29.297,-29.297,-44.922,1.000
1622759926696257.000,-70.801,-40.527,-29.785,-81.055,1.000
1622759926700163.250,-42.480,-31.250,-29.785,-33.203,1.000
1622759926704069.500,-31.738,-30.273,-25.391,3.418,1.000
1622759926707975.750,-53.711,-30.273,-37.109,1.000,1.000
1622759926711882.000,-61.523,-29.785,-45.898,1.000,1.000
1622759926715788.250,-44.922,-36.621,-40.039,1.000,1.000
1622759926719694.500,-33.203,-25.879,-38.086,1.000,1.000
1622759926723600.750,-28.809,-25.879,-36.133,1.000,1.000
1622759926727507.000,-49.805,-31.250,-41.504,1.000,1.000
1622759926731413.250,-53.223,-31.250,-35.156,1.000,1.000
1622759926735319.500,-25.391,-20.996,-28.809,1.000,1.000
1622759926739225.750,-16.602,-17.090,-32.227,1.000,1.000
1622759926743132.000,-33.691,-27.832,-40.527,1.000,1.000
1622759926747038.250,-44.434,-38.086,-37.109,1.000,1.000
1622759926750944.500,-27.344,-39.551,-24.414,1.000,1.000
1622759926754850.750,-20.508,-31.738,-23.926,1.000,1.000
1622759926758757.000,-43.457,-30.762,-22.461,1.000,1.000
1622759926762663.250,-52.246,-41.992,-28.809,1.000,1.000
1622759926766569.500,-32.715,-35.645,-26.367,1.000,1.000
1622759926770475.750,-20.996,-27.832,-18.555,1.000,1.000
1622759926774382.000,-19.043,-30.273,-19.531,1.000,1.000
1622759926778288.250,-29.785,-33.203,-20.996,1.000,1.000
1622759926782194.500,-30.273,-38.574,-19.043,1.000,1.000
1622759926786100.750,-2.930,-27.344,-14.160,1.000,1.000
1622759926790007.000,1.465,-26.367,-18.555,1.000,1.000
1622759926793913.250,-22.949,-32.715,-23.926,1.000,1.000
1622759926797819.500,-20.508,-34.668,-16.113,1.000,1.000
1622759926801725.750,-1.465,-29.785,-9.277,41.992,1.000
1622759926805632.000,6.348,-16.113,-14.160,53.223,1.000
1622759926809538.250,-2.441,-27.344,-15.625,-0.977,1.000
1622759926813444.500,-18.066,-34.668,-14.160,-33.203,1.000
1622759926817350.750,-13.672,-23.438,-20.020,3.906,1.000
1622759926821257.000,-9.277,-17.578,-16.602,30.273,1.000
1622759926825163.250,-42.969,-27.344,-23.438,-28.809,1.000
1622759926829069.500,-61.035,-31.738,-31.250,-86.914,1.000
1622759926832975.750,-74.707,-32.227,-27.344,-78.125,1.000
1622759926836882.000,-93.262,-41.016,-34.180,-54.199,1.000
1622759926840788.250,-81.543,-38.086,-36.133,-79.590,1.000
1622759926844694.500,-118.652,-52.246,-41.504,-152.832,1.000
1622759926848600.750,-152.344,-66.406,-45.410,-166.016,1.000
1622759926852507.000,-134.766,-58.105,-37.598,-119.141,1.000
1622759926856413.250,-142.090,-62.012,-40.527,-130.371,1.000
1622759926860319.500,-180.176,-75.684,-44.922,-200.195,1.000
1622759926864225.750,-208.984,-87.891,-51.758,-231.445,1.000
1622759926868132.000,-190.430,-81.055,-49.316,-175.781,1.000
1622759926872038.250,-170.898,-77.637,-47.363,-144.531,1.000
1622759926875944.500,-198.730,-101.562,-55.176,-204.102,1.000
1622759926879850.750,-219.727,-104.980,-56.641,-242.676,1.000
1622759926883757.000,-198.730,-96.191,-54.199,-192.871,1.000
1622759926887663.250,-169.434,-98.633,-41.992,-135.254,1.000
1622759926891569.500,-165.039,-102.051,-43.945,-162.598,1.000
1622759926895475.750,-3.906,-40.527,-44.922,-21.484,1.000
1622759926899382.000,-3.418,-46.387,-45.898,-51.270,1.000
1622759926903288.250,7.812,-30.762,-44.434,6.836,1.000
1622759926907194.500,32.227,-13.672,-35.156,59.570,1.000
1622759926911100.750,30.273,-15.625,-31.250,33.203,1.000
1622759926915007.000,17.578,-12.207,-34.668,-6.836,1.000
1622759926918913.250,34.180,-11.230,-30.273,28.320,1.000
1622759926922819.500,55.664,-8.789,-23.926,87.891,1.000
1622759926926725.750,58.594,0.977,-24.414,75.195,1.000
1622759926930632.000,53.223,-6.348,-30.762,14.648,1.000
1622759926934538.250,49.805,-6.836,-29.297,17.090,1.000
1622759926938444.500,65.918,5.859,-21.973,78.613,1.000
1622759926942350.750,66.406,13.184,-28.809,1.000,1.000
1622759926946257.000,56.641,2.930,-33.203,1.000,1.000
1622759926950163.250,43.457,-7.812,-34.180,1.000,1.000
1622759926954069.500,45.898,1.465,-33.203,1.000,1.000
1622759926957975.750,62.500,8.789,-28.320,1.000,1.000
1622759926961882.000,52.246,-0.488,-30.273,1.000,1.000
1622759926965788.250,25.879,-8.789,-39.551,1.000,1.000
1622759926969694.500,41.016,-11.230,-32.227,1.000,1.000
1622759926973600.750,62.988,-2.930,-24.414,1.000,1.000
1622759926977507.000,49.805,-1.953,-34.180,1.000,1.000
1622759926981413.250,14.160,-9.766,-40.527,1.000,1.000
1622759926985319.500,13.184,-15.625,-33.203,1.000,1.000
1622759926989225.750,41.504,-9.277,-22.949,81.543,1.000
1622759926993132.000,36.621,-8.789,-30.273,68.359,1.000
1622759926997038.250,21.973,-14.648,-29.785,-3.418,1.000
1622759927000944.500,11.719,-10.254,-26.855,-2.930,1.000
1622759927004850.750,30.273,-1.953,-20.508,63.477,1.000
1622759927008757.000,37.598,1.953,-14.648,80.078,1.000
1622759927012663.250,21.484,-5.859,-21.484,22.949,1.000
1622759927016569.500,12.207,-13.672,-28.320,-7.812,1.000
1622759927020475.750,13.184,-12.207,-26.367,37.109,1.000
1622759927024382.000,24.414,0.000,-20.508,72.266,1.000
1622759927028288.250,13.184,4.883,-23.438,23.438,1.000
1622759927032194.500,-13.184,-13.184,-29.785,-24.414,1.000
1622759927036100.750,-4.883,-24.902,-19.043,-39.062,1.000
1622759927040007.000,0.000,-17.578,-21.484,2.930,1.000
1622759927043913.250,13.184,-9.766,-21.973,51.758,1.000
1622759927047819.500,6.836,-17.090,-26.367,16.602,1.000
1622759927051725.750,-22.949,-21.484,-32.715,-39.062,1.000
1622759927055632.000,-13.672,-6.836,-29.297,-13.184,1.000
1622759927059538.250,10.254,-10.742,-20.508,43.457,1.000
1622759927063444.500,-1.953,-21.973,-22.461,31.250,1.000
1622759927067350.750,-11.230,-28.809,-26.855,-14.160,1.000
1622759927071257.000,-20.020,-25.879,-32.227,-17.090,1.000
1622759927075163.250,-13.672,-0.977,-26.855,25.879,1.000
1622759927079069.500,7.812,-4.883,-20.996,41.016,1.000
1622759927082975.750,-9.277,-25.879,-32.227,6.836,1.000
1622759927086882.000,-14.648,-33.203,-36.621,-56.641,1.000
1622759927090788.250,-24.414,-31.738,-39.062,-65.430,1.000
1622759927094694.500,-10.254,-21.484,-33.691,-2.930,1.000
1622759927098600.750,-0.977,-17.090,-34.668,10.742,1.000
1622759927102507.000,-25.391,-23.438,-41.016,-51.758,1.000
1622759927106413.250,-31.250,-31.250,-38.086,-68.359,1.000
1622759927110319.500,-17.090,-23.438,-28.809,-8.789,1.000
1622759927114225.750,-8.301,-17.578,-23.926,28.809,1.000
1622759927118132.000,-13.184,-22.461,-25.391,-12.207,1.000
1622759927122038.250,-33.203,-30.273,-28.809,-64.453,1.000
1622759927125944.500,-32.715,-31.250,-25.879,-36.621,1.000
1622759927129850.750,-15.137,-25.879,-23.926,1.000,1.000
1622759927133757.000,-20.996,-24.902,-28.320,1.000,1.000
1622759927137663.250,-38.574,-32.227,-31.738,1.000,1.000
1622759927141569.500,-30.762,-32.715,-30.273,1.000,1.000
1622759927145475.750,-15.625,-24.414,-28.809,1.000,1.000
1622759927149382.000,-20.020,-27.344,-31.738,1.000,1.000
1622759927153288.250,-39.062,-38.086,-31.250,1.000,1.000
1622759927157194.500,-43.945,-39.551,-28.809,1.000,1.000
1622759927161100.750,-19.043,-27.832,-26.367,1.000,1.000
1622759927165007.000,-20.020,-30.762,-24.414,1.000,1.000
1622759927168913.250,-39.062,-46.387,-30.273,1.000,1.000
1622759927172819.500,-52.246,-50.293,-31.738,1.000,1.000
1622759927176725.750,-57.129,-38.086,-30.273,-32.715,1.000
1622759927180632.000,-37.109,-29.297,-26.855,5.859,1.000
1622759927184538.250,-36.621,-41.504,-28.320,-29.785,1.000
1622759927188444.500,-54.199,-44.434,-34.668,-78.613,1.000
1622759927192350.750,-49.805,-32.227,-34.668,-50.781,1.000
1622759927196257.000,-25.391,-28.320,-27.344,7.324,1.000
1622759927200163.250,-17.090,-36.621,-25.879,-3.906,1.000
1622759927204069.500,-42.969,-46.875,-35.645,-61.035,1.000
1622759927207975.750,-46.875,-42.480,-34.180,-51.758,1.000
1622759927211882.000,-24.902,-29.297,-28.809,-0.488,1.000
1622759927215788.250,-30.273,-36.133,-30.273,2.930,1.000
1622759927219694.500,-51.758,-44.922,-36.133,-55.664,1.000
1622759927223600.750,-43.945,-41.504,-37.109,-70.312,1.000
1622759927227507.000,-51.758,-44.434,-41.016,-70.801,1.000
1622759927231413.250,-28.809,-41.016,-36.621,0.488,1.000
1622759927235319.500,-24.902,-31.250,-33.203,4.395,1.000
1622759927239225.750,-31.738,-36.133,-30.273,-51.270,1.000
1622759927243132.000,-42.480,-36.133,-29.297,-68.848,1.000
1622759927247038.250,-31.738,-27.832,-27.832,-16.113,1.000
1622759927250944.500,-7.324,-22.949,-26.855,22.461,1.000
1622759927254850.750,-20.996,-25.879,-27.344,-26.855,1.000
1622759927258757.000,-32.227,-35.645,-29.785,-74.707,1.000
1622759927262663.250,-21.484,-31.250,-30.273,-33.203,1.000
1622759927266569.500,-11.230,-17.090,-20.508,27.344,1.000
1622759927270475.750,-7.324,-20.996,-21.973,1.000,1.000
1622759927274382.000,-19.531,-33.203,-27.344,1.000,1.000
1622759927278288.250,-36.133,-35.645,-29.785,1.000,1.000
1622759927282194.500,-35.645,-20.996,-27.344,1.000,1.000
1622759927286100.750,-26.367,-20.020,-29.297,1.000,1.000
1622759927290007.000,-30.762,-22.949,-36.133,1.000,1.000
1622759927293913.250,-45.898,-19.531,-33.203,1.000,1.000
1622759927297819.500,-26.367,-16.113,-27.832,1.000,1.000
1622759927301725.750,-2.930,-17.578,-26.855,1.000,1.000
1622759927305632.000,-25.879,-26.367,-34.668,1.000,1.000
1622759927309538.250,-41.016,-31.250,-37.109,1.000,1.000
1622759927313444.500,-27.832,-26.855,-28.809,1.000,1.000
1622759927317350.750,-20.508,-21.484,-28.809,1.000,1.000
1622759927321257.000,-22.461,-29.297,-32.715,1.000,1.000
1622759927325163.250,-46.387,-38.574,-40.039,1.000,1.000
1622759927329069.500,-39.062,-31.250,-34.668,1.000,1.000
1622759927332975.750,-4.883,-16.113,-27.832,1.000,1.000
1622759927336882.000,-24.902,-20.508,-33.203,1.000,1.000
1622759927340788.250,-54.688,-34.180,-42.480,1.000,1.000
1622759927344694.500,-42.969,-30.762,-44.922,1.000,1.000
1622759927348600.750,-16.113,-23.926,-35.645,1.000,1.000
1622759927352507.000,-18.555,-30.762,-39.551,1.000,1.000
1622759927356413.250,-39.551,-38.574,-43.945,1.000,1.000
1622759927360319.500,-39.551,-42.480,-38.086,1.000,1.000
1622759927364225.750,-41.992,-41.016,-29.785,-62.500,1.000
1622759927368132.000,-22.949,-29.297,-21.484,5.859,1.000
1622759927372038.250,-22.949,-27.832,-28.320,5.859,1.000
1622759927375944.500,-35.156,-35.645,-31.738,-50.781,1.000
1622759927379850.750,-41.992,-42.480,-27.832,-58.594,1.000
1622759927383757.000,-28.320,-25.391,-23.438,-0.488,1.000
1622759927387663.250,-11.230,-20.996,-18.555,30.762,1.000
1622759927391569.500,-28.320,-34.180,-22.949,-20.508,1.000
1622759927395475.750,-41.504,-35.156,-26.855,-63.477,1.000
1622759927399382.000,-28.320,-29.785,-20.996,-15.137,1.000
1622759927403288.250,-11.230,-21.973,-20.996,31.250,1.000
1622759927407194.500,-25.879,-22.461,-34.180,-18.555,1.000
1622759927411100.750,-25.391,-32.227,-35.645,-25.391,1.000
1622759927415007.000,-46.875,-41.016,-39.551,-67.383,1.000
1622759927418913.250,-33.691,-34.180,-39.062,-26.367,1.000
1622759927422819.500,-13.672,-24.902,-31.250,29.785,1.000
1622759927426725.750,-23.438,-31.250,-30.273,3.906,1.000
1622759927430632.000,-43.457,-32.227,-30.273,-55.664,1.000
1622759927434538.250,-33.203,-26.367,-31.250,-36.133,1.000
1622759927438444.500,-12.695,-29.785,-26.367,23.438,1.000
1622759927442350.750,-9.277,-29.297,-22.949,22.949,1.000
1622759927446257.000,-28.320,-32.227,-30.762,-42.969,1.000
1622759927450163.250,-34.180,-35.156,-33.691,-56.152,1.000
1622759927454069.500,-13.184,-25.391,-27.832,9.766,1.000
1622759927457975.750,-11.719,-20.996,-28.320,1.000,1.000
1622759927461882.000,-28.809,-30.273,-34.668,1.000,1.000
1622759927465788.250,-45.898,-40.039,-39.062,1.000,1.000
1622759927469694.500,-32.715,-34.180,-37.109,1.000,1.000
1622759927473600.750,-11.230,-25.391,-34.180,1.000,1.000
1622759927477507.000,-27.832,-27.832,-35.645,1.000,1.000
1622759927481413.250,-44.922,-32.715,-34.668,1.000,1.000
1622759927485319.500,-23.926,-27.344,-28.809,1.000,1.000
1622759927489225.750,-14.160,-25.391,-26.855,1.000,1.000
1622759927493132.000,-21.484,-30.273,-28.809,1.000,1.000
1622759927497038.250,-42.480,-37.109,-31.250,1.000,1.000
1622759927500944.500,-43.457,-42.969,-35.156,1.000,1.000
1622759927504850.750,-12.207,-32.227,-31.738,7.812,1.000
1622759927508757.000,-6.836,-23.926,-27.832,9.766,1.000
1622759927512663.250,-24.414,-39.551,-36.621,-56.152,1.000
1622759927516569.500,-28.809,-38.574,-35.645,-58.105,1.000
1622759927520475.750,-17.578,-25.879,-27.344,2.441,1.000
1622759927524382.000,-7.324,-19.531,-24.414,19.043,1.000
1622759927528288.250,-22.949,-25.391,-30.273,-32.227,1.000
1622759927532194.500,-44.434,-38.086,-34.180,-68.848,1.000
1622759927536100.750,-20.996,-29.785,-27.344,-21.973,1.000
1622759927540007.000,0.977,-21.973,-24.414,29.785,1.000
1622759927543913.250,-16.602,-27.832,-30.762,-14.648,1.000
1622759927547819.500,-32.715,-34.180,-36.621,-71.289,1.000
1622759927551725.750,-49.805,-41.992,-41.504,-81.055,1.000
1622759927555632.000,-36.133,-33.203,-37.598,-34.180,1.000
1622759927559538.250,-20.020,-29.785,-32.715,22.461,1.000
1622759927563444.500,-24.414,-37.109,-35.645,-13.672,1.000
1622759927567350.750,-43.945,-45.410,-41.504,-70.312,1.000
1622759927571257.000,-45.410,-35.645,-35.645,-44.922,1.000
1622759927575163.250,-23.926,-30.762,-23.926,12.207,1.000
1622759927579069.500,-23.926,-41.016,-27.832,5.859,1.000
1622759927582975.750,-44.434,-44.922,-32.715,-52.246,1.000
1622759927586882.000,-45.410,-37.598,-27.832,-51.758,1.000
1622759927590788.250,-25.879,-24.902,-20.508,11.719,1.000
1622759927594694.500,-14.648,-27.344,-19.043,20.020,1.000
1622759927598600.750,-4.883,-24.902,-27.832,-45.410,1.000
1622759927602507.000,-25.879,-36.621,-37.109,-74.707,1.000
1622759927606413.250,-40.527,-43.945,-42.480,-19.531,1.000
1622759927610319.500,-19.043,-30.762,-32.227,17.578,1.000
1622759927614225.750,-7.324,-21.484,-24.414,-27.344,1.000
1622759927618132.000,-26.367,-27.832,-28.320,-74.219,1.000
1622759927622038.250,-42.969,-38.086,-31.738,-35.156,1.000
1622759927625944.500,-37.109,-36.621,-32.227,20.996,1.000
1622759927629850.750,-22.949,-27.832,-31.250,-2.930,1.000
1622759927633757.000,-33.203,-31.738,-34.180,-62.988,1.000
1622759927637663.250,-45.898,-45.410,-34.668,-59.082,1.000
1622759927641569.500,-34.668,-39.062,-31.738,8.301,1.000
1622759927645475.750,-25.879,-23.438,-33.203,1.000,1.000
1622759927649382.000,-27.344,-30.762,-33.691,1.000,1.000
1622759927653288.250,-38.086,-43.457,-32.227,1.000,1.000
1622759927657194.500,-41.016,-32.227,-29.297,1.000,1.000
1622759927661100.750,-20.508,-24.414,-26.367,1.000,1.000
1622759927665007.000,-14.648,-27.832,-28.320,1.000,1.000
1622759927668913.250,-33.691,-35.645,-31.250,1.000,1.000
1622759927672819.500,-40.039,-39.062,-33.203,1.000,1.000
1622759927676725.750,-23.438,-28.809,-33.691,1.000,1.000
1622759927680632.000,-4.883,-21.973,-24.414,1.000,1.000
1622759927684538.250,-11.230,-30.762,-26.855,1.000,1.000
1622759927688444.500,-26.367,-42.480,-30.273,1.000,1.000
1622759927692350.750,-21.484,-34.668,-24.902,-22.949,1.000
1622759927696257.000,-7.812,-27.832,-22.949,17.578,1.000
1622759927700163.250,-21.484,-37.598,-28.809,-17.578,1.000
1622759927704069.500,-40.527,-44.434,-35.156,-67.383,1.000
1622759927707975.750,-30.762,-35.645,-29.785,-36.133,1.000
1622759927711882.000,-9.277,-26.367,-23.438,29.785,1.000
1622759927715788.250,-10.742,-31.738,-25.879,11.230,1.000
1622759927719694.500,-37.598,-51.270,-37.109,-63.477,1.000
1622759927723600.750,-48.340,-50.293,-37.598,-57.617,1.000
1622759927727507.000,-25.391,-38.086,-27.344,10.742,1.000
1622759927731413.250,-16.602,-31.738,-29.297,19.531,1.000
1622759927735319.500,-33.691,-39.551,-33.203,-40.039,1.000
1622759927739225.750,-34.180,-40.039,-33.203,-56.152,1.000
1622759927743132.000,-33.691,-43.457,-32.715,-60.059,1.000
1622759927747038.250,-23.438,-36.133,-29.785,0.488,1.000
1622759927750944.500,-11.230,-24.902,-27.344,18.555,1.000
1622759927754850.750,-33.203,-33.691,-33.691,-47.852,1.000
1622759927758757.000,-49.316,-40.527,-33.691,-69.824,1.000
1622759927762663.250,-33.203,-31.250,-28.320,-8.301,1.000
1622759927766569.500,-28.320,-33.203,-28.809,13.672,1.000
1622759927770475.750,-41.016,-42.969,-30.273,-36.621,1.000
1622759927774382.000,-48.340,-44.434,-32.715,-71.289,1.000
1622759927778288.250,-37.109,-35.645,-29.297,-35.645,1.000
1622759927782194.500,-20.020,-29.785,-26.367,13.184,1.000
1622759927786100.750,-19.531,-29.297,-32.227,1.000,1.000
1622759927790007.000,-36.133,-37.109,-37.109,1.000,1.000
1622759927793913.250,-37.109,-38.574,-33.203,1.000,1.000
1622759927797819.500,-20.020,-21.973,-29.297,1.000,1.000
1622759927801725.750,-22.949,-20.996,-32.227,1.000,1.000
1622759927805632.000,-36.621,-31.738,-38.086,1.000,1.000
1622759927809538.250,-32.715,-35.156,-40.039,1.000,1.000
1622759927813444.500,-15.625,-27.344,-37.109,1.000,1.000
1622759927817350.750,4.395,-21.484,-39.062,1.000,1.000
1622759927821257.000,-9.277,-34.668,-48.340,1.000,1.000
1622759927825163.250,-35.645,-50.293,-52.734,1.000,1.000
1622759927829069.500,-22.461,-40.039,-42.969,1.000,1.000
1622759927832975.750,-4.395,-20.508,-33.691,1.000,1.000
1622759927836882.000,-17.578,-31.250,-39.551,1.000,1.000
1622759927840788.250,-34.668,-46.875,-43.457,1.000,1.000
1622759927844694.500,-24.902,-33.203,-39.551,1.000,1.000
1622759927848600.750,-8.789,-18.066,-35.645,1.000,1.000
1622759927852507.000,-18.066,-25.391,-34.180,1.000,1.000
1622759927856413.250,-43.945,-36.621,-38.574,1.000,1.000
1622759927860319.500,-46.387,-39.551,-35.645,1.000,1.000
1622759927864225.750,-28.809,-33.691,-30.762,1.000,1.000
1622759927868132.000,-29.785,-39.062,-34.180,1.000,1.000
1622759927872038.250,-53.711,-49.316,-40.039,1.000,1.000
1622759927875944.500,-60.059,-45.898,-37.109,1.000,1.000
1622759927879850.750,-44.434,-32.715,-30.762,1.000,1.000
1622759927883757.000,-31.738,-25.391,-28.809,1.000,1.000
1622759927887663.250,-41.016,-41.016,-34.180,1.000,1.000
1622759927891569.500,-47.852,-48.828,-33.691,1.000,1.000
1622759927895475.750,-36.621,-36.133,-29.297,1.000,1.000
1622759927899382.000,-14.160,-22.461,-27.344,1.000,1.000
1622759927903288.250,-16.602,-23.926,-30.273,1.000,1.000
1622759927907194.500,-46.387,-34.180,-32.715,1.000,1.000
1622759927911100.750,-42.480,-29.785,-27.832,1.000,1.000
1622759927915007.000,-16.602,-20.508,-26.367,1.000,1.000
1622759927918913.250,-9.766,-30.762,-25.391,1.000,1.000
1622759927922819.500,-37.109,-40.527,-31.250,1.000,1.000
1622759927926725.750,-42.969,-40.527,-33.203,-62.012,1.000
1622759927930632.000,-22.949,-31.250,-27.832,1.465,1.000
1622759927934538.250,-16.602,-26.367,-29.785,9.277,1.000
1622759927938444.500,-36.621,-41.016,-35.156,-52.246,1.000
1622759927942350.750,-47.852,-41.016,-39.551,-74.707,1.000
1622759927946257.000,-24.902,-28.320,-31.250,-15.137,1.000
1622759927950163.250,-11.230,-25.391,-23.926,24.414,1.000
1622759927954069.500,-26.367,-37.598,-31.250,-28.320,1.000
1622759927957975.750,-40.039,-45.898,-36.621,-76.172,1.000
1622759927961882.000,-31.250,-39.062,-27.832,-29.297,1.000
1622759927965788.250,-18.555,-30.762,-23.926,15.625,1.000
1622759927969694.500,-24.902,-26.367,-29.297,-13.672,1.000
1622759927973600.750,-25.879,-29.785,-27.344,-66.895,1.000
1622759927977507.000,-44.434,-36.621,-34.180,-46.387,1.000
1622759927981413.250,-32.227,-36.621,-32.715,20.508,1.000
1622759927985319.500,-10.254,-23.926,-23.926,10.254,1.000
1622759927989225.750,-20.020,-21.973,-22.461,-57.129,1.000
1622759927993132.000,-44.434,-30.762,-27.344,-64.453,1.000
1622759927997038.250,-40.527,-34.180,-27.832,-3.906,1.000
1622759928000944.500,-26.367,-33.691,-27.832,20.508,1.000
1622759928004850.750,-24.902,-30.273,-26.855,-35.156,1.000
1622759928008757.000,-30.273,-34.668,-28.320,-67.871,1.000
1622759928012663.250,-37.598,-34.180,-28.320,-16.113,1.000
1622759928016569.500,-20.020,-23.926,-23.438,23.438,1.000
1622759928020475.750,-18.555,-27.832,-30.762,6.836,1.000
1622759928024382.000,-15.137,-22.461,-30.762,7.324,1.000
1622759928028288.250,-25.391,-27.344,-34.668,-48.340,1.000
1622759928032194.500,-29.297,-33.203,-39.551,-70.312,1.000
1622759928036100.750,-18.555,-28.320,-37.109,-14.160,1.000
1622759928040007.000,-4.883,-15.137,-32.227,16.602,1.000
1622759928043913.250,-19.531,-27.344,-38.086,-38.574,1.000
1622759928047819.500,-42.969,-45.898,-38.086,-80.566,1.000
1622759928051725.750,-28.809,-37.109,-32.227,-36.133,1.000
1622759928055632.000,-16.113,-25.879,-32.715,11.719,1.000
1622759928059538.250,-32.715,-25.879,-35.156,-23.438,1.000
1622759928063444.500,-47.852,-43.457,-35.645,-79.102,1.000
1622759928067350.750,-45.410,-42.969,-35.645,-72.266,1.000
1622759928071257.000,-32.227,-38.574,-29.785,-42.480,1.000
1622759928075163.250,-19.043,-26.855,-22.949,7.324,1.000
1622759928079069.500,-17.090,-26.855,-20.020,-3.906,1.000
1622759928082975.750,-38.086,-36.621,-26.855,-62.988,1.000
1622759928086882.000,-47.363,-32.715,-22.461,-45.410,1.000
1622759928090788.250,-19.531,-17.578,-15.625,18.555,1.000
1622759928094694.500,-18.555,-24.414,-27.344,6.836,1.000
1622759928098600.750,-38.086,-37.598,-34.668,-60.547,1.000
1622759928102507.000,-37.598,-43.457,-32.715,-70.312,1.000
1622759928106413.250,-8.789,-28.320,-23.438,2.441,1.000
1622759928110319.500,-7.812,-20.508,-18.555,23.438,1.000
1622759928114225.750,-26.855,-37.109,-36.621,-7.812,1.000
1622759928118132.000,-45.898,-40.527,-41.504,-74.219,1.000
1622759928122038.250,-49.316,-45.410,-38.574,-79.102,1.000
1622759928125944.500,-31.738,-37.598,-27.832,-10.254,1.000
1622759928129850.750,-30.762,-32.227,-26.855,12.207,1.000
1622759928133757.000,-44.434,-30.762,-33.691,-42.969,1.000
1622759928137663.250,-51.758,-39.062,-34.668,-76.172,1.000
1622759928141569.500,-37.598,-35.156,-34.180,-30.273,1.000
1622759928145475.750,-20.508,-28.320,-32.227,14.648,1.000
1622759928149382.000,-29.785,-36.621,-33.691,-24.902,1.000
1622759928153288.250,-46.387,-43.457,-37.598,-81.055,1.000
1622759928157194.500,-41.504,-41.016,-34.180,-50.781,1.000
1622759928161100.750,-25.391,-31.250,-31.250,1.000,1.000
1622759928165007.000,-20.020,-29.297,-33.203,1.000,1.000
1622759928168913.250,-40.039,-37.598,-35.645,1.000,1.000
1622759928172819.500,-42.480,-40.527,-33.203,1.000,1.000
1622759928176725.750,-23.926,-27.832,-27.832,1.000,1.000
1622759928180632.000,-20.508,-19.043,-27.832,1.000,1.000
1622759928184538.250,-31.250,-27.832,-32.227,1.000,1.000
1622759928188444.500,-48.828,-39.551,-33.203,1.000,1.000
1622759928192350.750,-32.227,-34.668,-30.762,1.000,1.000
1622759928196257.000,-15.137,-29.297,-28.320,1.000,1.000
1622759928200163.250,-28.320,-36.621,-29.297,1.000,1.000
1622759928204069.500,-45.410,-43.945,-30.762,1.000,1.000
1622759928207975.750,-29.785,-38.574,-30.762,-30.273,1.000
1622759928211882.000,0.488,-28.320,-25.879,21.973,1.000
1622759928215788.250,-15.625,-32.227,-29.785,-10.254,1.000
1622759928219694.500,-47.852,-44.922,-35.156,-68.848,1.000
1622759928223600.750,-38.086,-42.480,-28.809,-48.340,1.000
1622759928227507.000,-21.484,-27.832,-22.949,15.625,1.000
1622759928231413.250,-15.137,-30.762,-26.855,6.348,1.000
1622759928235319.500,-31.250,-40.039,-33.691,-56.152,1.000
1622759928239225.750,-39.551,-38.574,-29.785,-57.617,1.000
1622759928243132.000,-23.926,-33.203,-27.344,-4.883,1.000
1622759928247038.250,-13.672,-28.320,-29.785,10.254,1.000
1622759928250944.500,-22.461,-38.574,-33.203,-45.898,1.000
1622759928254850.750,-33.691,-35.156,-33.691,-58.594,1.000
1622759928258757.000,-39.551,-30.273,-29.785,-74.219,1.000
1622759928262663.250,-22.461,-23.926,-24.902,-7.812,1.000
1622759928266569.500,-12.207,-25.879,-23.926,15.625,1.000
1622759928270475.750,-28.320,-40.527,-27.832,-48.828,1.000
1622759928274382.000,-46.875,-44.922,-30.762,-80.566,1.000
1622759928278288.250,-38.574,-29.297,-27.344,-28.809,1.000
1622759928282194.500,-18.066,-24.902,-27.344,13.184,1.000
1622759928286100.750,-22.461,-37.598,-28.809,-28.809,1.000
1622759928290007.000,-48.828,-43.945,-32.715,-83.008,1.000
1622759928293913.250,-34.180,-31.738,-30.273,-39.062,1.000
1622759928297819.500,-9.277,-20.020,-27.832,13.672,1.000
1622759928301725.750,-11.719,-19.531,-33.203,1.000,1.000
1622759928305632.000,-35.156,-28.809,-36.133,1.000,1.000
1622759928309538.250,-43.945,-37.109,-34.180,1.000,1.000
1622759928313444.500,-22.461,-27.344,-26.367,1.000,1.000
1622759928317350.750,-15.625,-23.438,-24.414,1.000,1.000
1622759928321257.000,-38.574,-39.062,-31.738,1.000,1.000
1622759928325163.250,-52.734,-45.898,-37.598,1.000,1.000
1622759928329069.500,-26.855,-35.645,-30.273,1.000,1.000
1622759928332975.750,-8.789,-30.762,-26.855,1.000,1.000
1622759928336882.000,-32.715,-43.457,-36.621,1.000,1.000
1622759928340788.250,-54.688,-45.410,-41.992,1.000,1.000
1622759928344694.500,-41.504,-34.668,-33.691,1.000,1.000
1622759928348600.750,-18.066,-31.738,-31.738,1.000,1.000
1622759928352507.000,-31.738,-38.086,-36.133,1.000,1.000
1622759928356413.250,-42.969,-45.898,-36.133,1.000,1.000
1622759928360319.500,-37.109,-41.016,-33.203,1.000,1.000
1622759928364225.750,-22.949,-27.344,-28.320,1.000,1.000
1622759928368132.000,-25.391,-28.320,-30.273,1.000,1.000
1622759928372038.250,-42.969,-41.016,-38.086,1.000,1.000
1622759928375944.500,-43.945,-43.457,-38.574,1.000,1.000
1622759928379850.750,-26.855,-27.832,-32.227,1.000,1.000
1622759928383757.000,-20.020,-24.902,-30.273,1.000,1.000
1622759928387663.250,-27.832,-35.645,-33.203,1.000,1.000
1622759928391569.500,-34.180,-38.574,-36.621,1.000,1.000
1622759928395475.750,-20.508,-29.297,-30.762,-6.348,1.000
1622759928399382.000,-10.254,-13.672,-24.414,27.344,1.000
1622759928403288.250,-40.039,-28.320,-37.598,-35.156,1.000
1622759928407194.500,-40.039,-47.363,-42.969,-76.172,1.000
1622759928411100.750,-25.391,-37.109,-32.227,-29.785,1.000
1622759928415007.000,-19.043,-20.508,-30.762,24.414,1.000
1622759928418913.250,-22.461,-23.926,-38.574,-2.441,1.000
1622759928422819.500,-41.992,-36.621,-39.551,-63.477,1.000
1622759928426725.750,-42.969,-34.180,-35.645,-45.898,1.000
1622759928430632.000,-26.367,-28.809,-37.109,15.137,1.000
1622759928434538.250,-23.438,-40.039,-36.133,4.395,1.000
1622759928438444.500,-44.434,-47.363,-39.062,-62.012,1.000
1622759928442350.750,-49.316,-47.363,-37.109,-62.988,1.000
1622759928446257.000,-15.625,-33.203,-26.367,1.465,1.000
1622759928450163.250,-13.672,-22.949,-25.879,10.254,1.000
1622759928454069.500,-33.691,-32.227,-30.273,-47.363,1.000
1622759928457975.750,-34.668,-38.574,-33.691,-65.430,1.000
1622759928461882.000,-28.809,-19.531,-31.250,-10.742,1.000
1622759928465788.250,-21.484,-12.207,-26.367,22.949,1.000
1622759928469694.500,-24.902,-33.203,-26.367,-23.926,1.000
1622759928473600.750,-35.645,-36.133,-25.879,-65.918,1.000
1622759928477507.000,-26.855,-30.762,-25.391,-33.203,1.000
1622759928481413.250,-4.395,-24.902,-20.508,22.461,1.000
1622759928485319.500,-13.184,-24.414,-29.785,-5.859,1.000
1622759928489225.750,-28.320,-31.738,-31.250,-72.754,1.000
1622759928493132.000,-39.551,-40.039,-34.668,-52.246,1.000
1622759928497038.250,-39.062,-39.062,-37.109,14.648,1.000
1622759928500944.500,-18.555,-25.879,-26.367,12.207,1.000
1622759928504850.750,-15.625,-26.855,-23.926,-54.199,1.000
1622759928508757.000,-41.504,-32.715,-30.273,-55.664,1.000
1622759928512663.250,-55.176,-37.109,-29.785,3.418,1.000
1622759928516569.500,-31.250,-32.227,-26.367,24.414,1.000
1622759928520475.750,-14.648,-27.344,-21.973,-23.926,1.000
1622759928524382.000,-45.898,-38.574,-36.621,-64.453,1.000
1622759928528288.250,-55.664,-41.016,-41.016,-14.648,1.000
1622759928532194.500,-22.461,-28.320,-29.785,19.531,1.000
1622759928536100.750,-17.578,-25.879,-28.320,1.000,1.000
1622759928540007.000,-33.691,-37.109,-29.297,1.000,1.000
1622759928543913.250,-40.039,-41.016,-26.367,1.000,1.000
1622759928547819.500,-36.621,-30.273,-26.855,1.000,1.000
1622759928551725.750,-23.926,-20.996,-26.855,1.000,1.000
1622759928555632.000,-31.250,-30.762,-28.809,1.000,1.000
1622759928559538.250,-53.711,-40.039,-35.645,1.000,1.000
1622759928563444.500,-36.133,-35.156,-31.250,1.000,1.000
1622759928567350.750,-15.137,-28.809,-19.043,1.000,1.000
1622759928571257.000,-24.902,-30.273,-20.508,1.000,1.000
1622759928575163.250,-38.086,-40.039,-28.320,1.000,1.000
1622759928579069.500,-41.504,-35.645,-31.738,1.000,1.000
1622759928582975.750,-21.973,-24.902,-29.297,-1.953,1.000
1622759928586882.000,-18.066,-28.320,-30.762,12.695,1.000
1622759928590788.250,-41.992,-45.898,-42.480,-53.223,1.000
1622759928594694.500,-55.176,-46.875,-41.504,-79.590,1.000
1622759928598600.750,-39.551,-31.250,-33.203,-12.207,1.000
1622759928602507.000,-17.578,-25.391,-29.785,27.344,1.000
1622759928606413.250,-30.762,-36.621,-36.133,-25.879,1.000
1622759928610319.500,-49.805,-56.152,-39.551,-66.895,1.000
1622759928614225.750,-35.645,-48.340,-30.762,-26.367,1.000
1622759928618132.000,-7.812,-31.250,-27.832,25.391,1.000
1622759928622038.250,-21.484,-36.621,-28.320,-7.812,1.000
1622759928625944.500,-46.875,-47.363,-35.645,-67.871,1.000
1622759928629850.750,-47.363,-39.062,-31.250,-72.266,1.000
1622759928633757.000,-40.039,-38.574,-33.691,-44.434,1.000
1622759928637663.250,-16.113,-30.273,-31.250,12.207,1.000
1622759928641569.500,-20.020,-29.297,-29.297,-6.348,1.000
1622759928645475.750,-48.340,-36.621,-33.691,-71.289,1.000
1622759928649382.000,-47.363,-34.180,-33.691,-60.547,1.000
1622759928653288.250,-11.719,-28.809,-25.391,17.578,1.000
1622759928657194.500,-14.648,-31.250,-30.273,19.043,1.000
1622759928661100.750,-41.992,-40.527,-39.062,-59.570,1.000
1622759928665007.000,-52.246,-42.969,-39.062,-76.660,1.000
1622759928668913.250,-28.320,-36.133,-33.203,-4.395,1.000
1622759928672819.500,-15.625,-36.133,-34.668,14.648,1.000
1622759928676725.750,-40.039,-47.363,-43.945,1.000,1.000
1622759928680632.000,-36.621,-41.016,-40.527,1.000,1.000
1622759928684538.250,-14.648,-22.461,-30.273,1.000,1.000
1622759928688444.500,-10.742,-20.020,-27.832,1.000,1.000
1622759928692350.750,-16.113,-32.715,-30.273,1.000,1.000
1622759928696257.000,-29.785,-35.645,-37.109,1.000,1.000
1622759928700163.250,-24.902,-27.344,-38.086,1.000,1.000
1622759928704069.500,-11.719,-22.949,-33.691,1.000,1.000
1622759928707975.750,-12.207,-31.250,-36.133,1.000,1.000
1622759928711882.000,-34.668,-42.969,-42.969,1.000,1.000
1622759928715788.250,-36.133,-34.668,-41.992,1.000,1.000
1622759928719694.500,-11.719,-28.809,-32.715,1.000,1.000
1622759928723600.750,-22.461,-35.156,-37.598,1.000,1.000
1622759928727507.000,-35.156,-40.527,-43.945,1.000,1.000
1622759928731413.250,-44.434,-39.551,-41.992,1.000,1.000
1622759928735319.500,-32.227,-35.156,-33.691,1.000,1.000
1622759928739225.750,-14.648,-25.391,-25.391,1.000,1.000
1622759928743132.000,-27.832,-24.902,-30.273,1.000,1.000
1622759928747038.250,-44.434,-28.320,-35.645,1.000,1.000
1622759928750944.500,-27.832,-28.809,-29.785,1.000,1.000
1622759928754850.750,-1.953,-24.902,-22.461,1.000,1.000
1622759928758757.000,-17.090,-31.250,-25.879,1.000,1.000
1622759928762663.250,-39.551,-41.504,-31.250,1.000,1.000
1622759928766569.500,-25.391,-38.574,-33.203,1.000,1.000
1622759928770475.750,-13.672,-27.344,-32.227,1.000,1.000
1622759928774382.000,-29.785,-30.762,-35.645,1.000,1.000
1622759928778288.250,-36.621,-44.922,-43.945,1.000,1.000
1622759928782194.500,-38.574,-37.598,-38.086,1.000,1.000
1622759928786100.750,-20.996,-25.391,-28.320,1.000,1.000
1622759928790007.000,0.000,-21.484,-23.438,1.000,1.000
1622759928793913.250,-21.484,-33.203,-29.297,1.000,1.000
1622759928797819.500,-36.133,-40.527,-36.133,1.000,1.000
1622759928801725.750,-25.391,-23.926,-30.762,1.000,1.000
1622759928805632.000,-20.996,-20.020,-32.715,1.000,1.000
1622759928809538.250,-28.809,-32.715,-37.109,1.000,1.000
1622759928813444.500,-41.016,-43.945,-33.691,1.000,1.000
1622759928817350.750,-38.086,-35.156,-31.250,-45.410,1.000
1622759928821257.000,-14.160,-25.879,-25.391,12.695,1.000
1622759928825163.250,-22.949,-34.180,-28.809,-13.672,1.000
1622759928829069.500,-45.898,-41.504,-35.645,-81.055,1.000
1622759928832975.750,-38.574,-39.062,-36.621,-65.430,1.000
1622759928836882.000,-23.926,-25.391,-32.227,-2.930,1.000
1622759928840788.250,-23.438,-25.391,-31.250,-9.766,1.000
1622759928844694.500,-41.992,-39.551,-36.133,-70.312,1.000
1622759928848600.750,-41.992,-40.527,-33.203,-71.777,1.000
1622759928852507.000,-14.160,-32.227,-23.438,-4.395,1.000
1622759928856413.250,-17.090,-30.762,-23.438,11.230,1.000
1622759928860319.500,-50.293,-41.016,-33.691,-54.199,1.000
1622759928864225.750,-38.086,-40.039,-37.109,-57.129,1.000
1622759928868132.000,-52.246,-43.945,-34.180,-75.684,1.000
1622759928872038.250,-23.438,-37.598,-23.926,-7.324,1.000
1622759928875944.500,-10.254,-33.203,-24.902,20.020,1.000
1622759928879850.750,-22.461,-38.574,-32.715,-34.668,1.000
1622759928883757.000,-40.527,-40.039,-35.645,-70.801,1.000
1622759928887663.250,-50.781,-39.062,-33.691,-37.598,1.000
1622759928891569.500,-35.645,-47.363,-30.273,9.277,1.000
1622759928895475.750,-42.480,-53.223,-32.227,-29.785,1.000
1622759928899382.000,-62.012,-63.477,-40.039,-86.426,1.000
1622759928903288.250,-51.270,-60.059,-39.551,-51.758,1.000
1622759928907194.500,-30.273,-39.062,-28.320,11.230,1.000
1622759928911100.750,-26.855,-38.086,-21.484,1.000,1.000
1622759928915007.000,-44.434,-45.898,-31.250,1.000,1.000
1622759928918913.250,-53.223,-40.527,-37.109,1.000,1.000
1622759928922819.500,-23.438,-34.180,-28.320,1.000,1.000
1622759928926725.750,-5.371,-32.715,-23.926,1.000,1.000
1622759928930632.000,-22.949,-34.668,-28.320,1.000,1.000
1622759928934538.250,-38.086,-39.551,-30.273,1.000,1.000
1622759928938444.500,-23.926,-32.715,-25.879,1.000,1.000
1622759928942350.750,-8.301,-25.879,-23.926,1.000,1.000
1622759928946257.000,-29.785,-37.109,-28.809,1.000,1.000
1622759928950163.250,-51.270,-48.340,-34.180,1.000,1.000
1622759928954069.500,-40.527,-44.922,-29.785,1.000,1.000
1622759928957975.750,-17.090,-24.414,-22.949,24.902,1.000
1622759928961882.000,-22.461,-24.902,-26.367,-8.789,1.000
1622759928965788.250,-47.363,-46.387,-29.785,-69.336,1.000
1622759928969694.500,-30.762,-42.480,-29.785,-42.480,1.000
1622759928973600.750,-9.766,-29.785,-27.832,19.043,1.000
1622759928977507.000,-20.508,-27.344,-27.344,9.277,1.000
1622759928981413.250,-33.691,-36.133,-32.715,-48.828,1.000
1622759928985319.500,-39.551,-42.480,-40.039,-57.129,1.000
1622759928989225.750,-13.184,-32.715,-34.180,9.766,1.000
1622759928993132.000,-1.953,-31.250,-31.250,22.949,1.000
1622759928997038.250,-26.367,-44.434,-33.691,-35.156,1.000
1622759929000944.500,-39.062,-44.922,-32.227,-69.336,1.000
1622759929004850.750,-29.785,-37.598,-36.133,-22.461,1.000
1622759929008757.000,-19.531,-30.762,-35.645,31.250,1.000
1622759929012663.250,-20.996,-27.832,-39.062,-12.695,1.000
1622759929016569.500,-34.180,-39.551,-42.480,-65.430,1.000
1622759929020475.750,-28.320,-40.039,-34.668,-29.785,1.000
1622759929024382.000,-6.836,-24.414,-28.320,21.973,1.000
1622759929028288.250,-21.484,-30.762,-29.785,-6.836,1.000
1622759929032194.500,-49.316,-41.504,-35.645,-64.941,1.000
1622759929036100.750,-39.062,-39.551,-39.062,-46.387,1.000
1622759929040007.000,-21.973,-33.203,-35.645,11.719,1.000
1622759929043913.250,-28.809,-30.762,-32.227,10.742,1.000
1622759929047819.500,-45.898,-42.969,-36.133,-47.852,1.000
1622759929051725.750,-51.758,-49.805,-36.133,-60.059,1.000
1622759929055632.000,-32.715,-39.551,-25.879,7.812,1.000
1622759929059538.250,-21.973,-37.598,-23.438,29.785,1.000
1622759929063444.500,-38.086,-41.504,-32.227,-36.133,1.000
1622759929067350.750,-41.504,-41.992,-30.762,-67.383,1.000
1622759929071257.000,-22.949,-27.832,-24.902,-13.672,1.000
1622759929075163.250,-3.906,-17.578,-27.344,33.203,1.000
1622759929079069.500,-15.137,-35.645,-34.668,-11.719,1.000
1622759929082975.750,-29.297,-39.062,-34.180,-63.965,1.000
1622759929086882.000,-13.672,-28.320,-28.320,-33.203,1.000
1622759929090788.250,3.906,-12.207,-24.902,29.297,1.000
1622759929094694.500,-5.859,-17.578,-26.855,14.648,1.000
1622759929098600.750,-18.066,-20.996,-20.508,-50.781,1.000
1622759929102507.000,-31.738,-28.809,-28.809,-47.363,1.000
1622759929106413.250,-28.809,-23.926,-29.785,9.766,1.000
1622759929110319.500,-8.789,-19.531,-19.531,13.184,1.000
1622759929114225.750,-15.137,-21.484,-21.973,-42.480,1.000
1622759929118132.000,-39.062,-26.855,-31.250,-55.176,1.000
1622759929122038.250,-48.828,-32.227,-35.645,6.836,1.000
1622759929125944.500,-24.902,-32.227,-28.320,30.273,1.000
1622759929129850.750,-9.277,-28.809,-26.367,-25.391,1.000
1622759929133757.000,-35.645,-39.062,-28.809,-62.500,1.000
1622759929137663.250,-44.922,-44.922,-24.414,-20.020,1.000
1622759929141569.500,-28.809,-35.645,-25.391,23.438,1.000
1622759929145475.750,-28.809,-29.297,-28.320,1.000,1.000
1622759929149382.000,-45.410,-37.598,-31.738,1.000,1.000
1622759929153288.250,-55.176,-50.293,-35.645,1.000,1.000
1622759929157194.500,-38.086,-39.062,-33.691,1.000,1.000
1622759929161100.750,-18.555,-25.879,-31.738,1.000,1.000
1622759929165007.000,-36.133,-32.715,-34.180,1.000,1.000
1622759929168913.250,-54.199,-39.551,-37.598,1.000,1.000
1622759929172819.500,-43.945,-32.227,-37.109,1.000,1.000
1622759929176725.750,-23.926,-23.438,-33.691,1.000,1.000
1622759929180632.000,-22.949,-32.715,-36.133,1.000,1.000
1622759929184538.250,-39.551,-46.875,-38.574,1.000,1.000
1622759929188444.500,-39.551,-42.480,-32.227,1.000,1.000
1622759929192350.750,-18.555,-23.926,-26.855,2.930,1.000
1622759929196257.000,-9.277,-21.973,-24.902,19.531,1.000
1622759929200163.250,-39.551,-30.762,-30.762,-51.270,1.000
1622759929204069.500,-46.387,-34.668,-34.668,-82.520,1.000
1622759929207975.750,-26.367,-28.809,-34.180,-29.785,1.000
1622759929211882.000,-24.414,-17.578,-36.133,1.953,1.000
1622759929215788.250,-36.621,-25.391,-36.621,-41.992,1.000
1622759929219694.500,-51.758,-44.922,-41.016,-88.379,1.000
1622759929223600.750,-44.434,-38.574,-38.574,-47.363,1.000
1622759929227507.000,-29.297,-22.461,-29.785,5.371,1.000
1622759929231413.250,-34.668,-36.133,-31.250,-22.949,1.000
1622759929235319.500,-48.340,-52.246,-28.320,-77.148,1.000
1622759929239225.750,-50.293,-38.086,-29.785,-70.312,1.000
1622759929243132.000,-52.246,-30.273,-26.855,-51.270,1.000
1622759929247038.250,-23.926,-31.250,-20.508,14.160,1.000
1622759929250944.500,-23.438,-33.203,-23.926,-2.441,1.000
1622759929254850.750,-37.598,-36.621,-31.250,-66.406,1.000
1622759929258757.000,-36.621,-33.203,-35.645,-57.129,1.000
1622759929262663.250,-26.367,-26.367,-30.273,4.883,1.000
1622759929266569.500,-16.113,-31.250,-26.855,10.254,1.000
1622759929270475.750,-31.738,-40.039,-30.273,-49.316,1.000
1622759929274382.000,-49.316,-41.016,-29.785,-74.219,1.000
1622759929278288.250,-19.531,-28.809,-24.414,-9.766,1.000
1622759929282194.500,-18.555,-20.508,-27.832,14.648,1.000
1622759929286100.750,-38.574,-29.785,-33.691,-41.016,1.000
1622759929290007.000,-46.875,-43.945,-31.250,-70.801,1.000
1622759929293913.250,-42.480,-38.086,-30.273,-27.832,1.000
1622759929297819.500,-20.020,-23.926,-24.902,24.902,1.000
1622759929301725.750,-25.879,-24.414,-25.879,-6.836,1.000
1622759929305632.000,-47.852,-28.809,-34.668,-71.289,1.000
1622759929309538.250,-44.922,-29.297,-32.227,-43.945,1.000
1622759929313444.500,-24.414,-29.297,-32.715,17.090,1.000
1622759929317350.750,-20.996,-25.391,-34.180,0.488,1.000
1622759929321257.000,-48.828,-35.645,-38.086,-62.500,1.000
1622759929325163.250,-52.734,-43.945,-37.598,-63.477,1.000
1622759929329069.500,-29.297,-32.227,-34.180,-4.883,1.000
1622759929332975.750,-24.902,-26.367,-29.297,1.000,1.000
1622759929336882.000,-32.715,-37.598,-30.273,1.000,1.000
1622759929340788.250,-39.062,-43.945,-30.762,1.000,1.000
1622759929344694.500,-30.273,-28.320,-27.832,1.000,1.000
1622759929348600.750,-7.812,-20.996,-26.367,1.000,1.000
1622759929352507.000,-24.414,-28.320,-37.598,1.000,1.000
1622759929356413.250,-52.246,-34.180,-41.992,1.000,1.000
1622759929360319.500,-37.109,-29.297,-36.133,1.000,1.000
1622759929364225.750,-8.789,-17.090,-29.785,1.000,1.000
1622759929368132.000,-20.020,-26.367,-33.203,1.000,1.000
1622759929372038.250,-44.922,-43.945,-41.504,1.000,1.000
1622759929375944.500,-50.293,-44.434,-41.992,1.000,1.000
1622759929379850.750,-29.785,-34.180,-34.668,1.000,1.000
1622759929383757.000,-24.902,-27.344,-34.668,1.000,1.000
1622759929387663.250,-47.852,-42.969,-46.387,1.000,1.000
1622759929391569.500,-49.316,-44.434,-49.316,1.000,1.000
1622759929395475.750,-23.926,-34.668,-36.621,1.000,1.000
1622759929399382.000,-11.230,-28.320,-30.762,1.000,1.000
1622759929403288.250,-30.273,-30.762,-35.156,1.000,1.000
1622759929407194.500,-39.551,-42.480,-37.598,1.000,1.000
1622759929411100.750,-11.719,-34.180,-35.156,1.000,1.000
1622759929415007.000,0.488,-26.855,-33.691,1.000,1.000
1622759929418913.250,-16.113,-39.062,-39.062,1.000,1.000
1622759929422819.500,-38.574,-49.805,-42.480,1.000,1.000
1622759929426725.750,-33.691,-45.898,-34.668,-48.340,1.000
1622759929430632.000,-6.836,-29.785,-24.902,13.672,1.000
1622759929434538.250,-17.578,-26.367,-30.273,-10.742,1.000
1622759929438444.500,-39.062,-43.945,-36.133,-71.777,1.000
1622759929442350.750,-39.062,-50.293,-39.551,-64.453,1.000
1622759929446257.000,-20.508,-30.273,-33.203,-2.441,1.000
1622759929450163.250,-10.742,-26.855,-31.250,5.371,1.000
1622759929454069.500,-38.086,-44.922,-39.062,-65.918,1.000
1622759929457975.750,-57.617,-43.457,-40.527,-86.914,1.000
1622759929461882.000,-35.156,-37.109,-37.109,-22.461,1.000
1622759929465788.250,-12.207,-30.273,-31.250,2.441,1.000
1622759929469694.500,-26.367,-31.738,-31.738,-49.316,1.000
1622759929473600.750,-38.086,-32.715,-35.645,-47.852,1.000
1622759929477507.000,-47.852,-36.621,-35.645,-61.035,1.000
1622759929481413.250,-30.762,-27.344,-34.180,-5.371,1.000
1622759929485319.500,-10.254,-23.926,-23.926,30.762,1.000
1622759929489225.750,-27.832,-33.691,-24.902,-19.531,1.000
1622759929493132.000,-53.711,-41.016,-32.715,-62.500,1.000
1622759929497038.250,-42.480,-29.785,-26.855,-20.508,1.000
1622759929500944.500,-25.879,-22.949,-23.926,23.438,1.000
1622759929504850.750,-32.715,-34.668,-29.785,-16.113,1.000
1622759929508757.000,-48.828,-45.410,-37.598,-72.754,1.000
1622759929512663.250,-35.156,-40.039,-33.691,-48.340,1.000
1622759929516569.500,-12.207,-26.855,-24.902,14.648,1.000
1622759929520475.750,-23.438,-26.367,-27.832,1.000,1.000
1622759929524382.000,-51.270,-39.062,-40.039,1.000,1.000
1622759929528288.250,-52.246,-42.480,-39.062,1.000,1.000
1622759929532194.500,-20.020,-29.297,-27.344,1.000,1.000
1622759929536100.750,-10.742,-21.973,-23.926,1.000,1.000
1622759929540007.000,-34.668,-30.762,-29.785,1.000,1.000
1622759929543913.250,-41.016,-42.969,-31.738,1.000,1.000
1622759929547819.500,-29.297,-34.180,-24.902,1.000,1.000
1622759929551725.750,-30.762,-26.367,-22.461,1.000,1.000
1622759929555632.000,-31.738,-32.715,-27.832,1.000,1.000
1622759929559538.250,-37.598,-40.527,-29.297,1.000,1.000
1622759929563444.500,-39.062,-37.109,-22.949,1.000,1.000
1622759929567350.750,-26.855,-29.297,-24.902,12.207,1.000
1622759929571257.000,-30.273,-31.738,-32.227,-10.254,1.000
1622759929575163.250,-49.316,-47.852,-37.109,-66.406,1.000
1622759929579069.500,-40.039,-38.574,-31.738,-46.875,1.000
1622759929582975.750,-12.695,-26.855,-24.902,17.090,1.000
1622759929586882.000,-15.625,-30.762,-27.832,9.277,1.000
1622759929590788.250,-44.434,-39.551,-36.621,-60.547,1.000
1622759929594694.500,-52.246,-42.480,-39.062,-73.730,1.000
1622759929598600.750,-15.625,-30.762,-28.809,-2.930,1.000
1622759929602507.000,-7.324,-31.738,-26.855,22.949,1.000
1622759929606413.250,-30.273,-36.621,-30.762,-41.504,1.000
1622759929610319.500,-39.062,-44.922,-32.715,-74.219,1.000
1622759929614225.750,-43.945,-44.922,-38.086,-72.266,1.000
1622759929618132.000,-28.320,-29.297,-35.156,-22.461,1.000
1622759929622038.250,-13.184,-30.762,-41.016,-1.465,1.000
1622759929625944.500,-23.926,-38.086,-41.992,-52.246,1.000
1622759929629850.750,-46.875,-44.922,-39.062,-84.961,1.000
1622759929633757.000,-27.832,-36.133,-29.297,-33.691,1.000
1622759929637663.250,-15.625,-25.391,-29.785,7.812,1.000
1622759929641569.500,-26.367,-34.668,-38.086,-25.879,1.000
1622759929645475.750,-41.016,-43.945,-33.203,-72.754,1.000
1622759929649382.000,-34.180,-38.086,-31.738,-43.945,1.000
1622759929653288.250,-4.883,-23.438,-25.391,22.949,1.000
1622759929657194.500,-18.066,-20.996,-28.809,7.324,1.000
1622759929661100.750,-27.832,-31.738,-31.738,-55.664,1.000
1622759929665007.000,-47.852,-39.551,-33.691,-54.199,1.000
1622759929668913.250,-43.457,-35.156,-36.621,5.859,1.000
1622759929672819.500,-18.555,-22.461,-28.809,17.578,1.000
1622759929676725.750,-20.020,-24.414,-31.250,-44.922,1.000
1622759929680632.000,-37.598,-26.367,-38.086,-63.477,1.000
1622759929684538.250,-42.969,-38.574,-39.062,0.000,1.000
1622759929688444.500,-28.320,-41.992,-34.668,29.785,1.000
1622759929692350.750,-15.625,-28.320,-33.691,-24.902,1.000
1622759929696257.000,-35.156,-37.598,-42.480,-74.707,1.000
1622759929700163.250,-51.758,-49.316,-42.969,-30.762,1.000
1622759929704069.500,-31.250,-45.898,-36.133,22.461,1.000
1622759929707975.750,-20.020,-37.109,-32.715,1.000,1.000
1622759929711882.000,-33.203,-39.062,-36.621,1.000,1.000
1622759929715788.250,-48.340,-46.875,-34.668,1.000,1.000
1622759929719694.500,-45.898,-42.480,-31.250,1.000,1.000
1622759929723600.750,-25.879,-30.762,-26.367,1.000,1.000
1622759929727507.000,-20.996,-30.762,-26.855,1.000,1.000
1622759929731413.250,-32.227,-35.156,-34.180,1.000,1.000
1622759929735319.500,-32.227,-29.297,-34.180,1.000,1.000
1622759929739225.750,-34.180,-25.391,-33.203,1.000,1.000
1622759929743132.000,-28.320,-32.715,-33.691,1.000,1.000
1622759929747038.250,-37.109,-37.109,-32.715,1.000,1.000
1622759929750944.500,-36.621,-34.668,-31.250,1.000,1.000
1622759929754850.750,-20.996,-26.855,-23.438,-11.230,1.000
1622759929758757.000,-16.602,-18.555,-16.113,10.254,1.000
1622759929762663.250,-21.973,-25.391,-20.020,-40.527,1.000
1622759929766569.500,-39.062,-38.086,-26.855,-74.707,1.000
1622759929770475.750,-38.574,-34.668,-31.250,-33.691,1.000
1622759929774382.000,-21.484,-20.996,-27.344,11.230,1.000
1622759929778288.250,-25.879,-27.344,-33.691,-25.391,1.000
1622759929782194.500,-50.293,-48.340,-43.457,-86.914,1.000
1622759929786100.750,-50.781,-46.387,-38.574,-52.734,1.000
1622759929790007.000,-22.949,-28.320,-30.762,22.949,1.000
1622759929793913.250,-20.020,-20.020,-29.785,-2.441,1.000
1622759929797819.500,-41.992,-34.668,-31.738,-61.035,1.000
1622759929801725.750,-44.434,-35.156,-37.109,-74.707,1.000
1622759929805632.000,-36.133,-33.203,-35.156,-43.945,1.000
1622759929809538.250,-17.578,-34.180,-28.320,19.531,1.000
1622759929813444.500,-17.090,-30.762,-28.320,9.766,1.000
1622759929817350.750,-36.133,-40.527,-34.180,-58.105,1.000
1622759929821257.000,-43.945,-42.480,-38.574,-59.082,1.000
1622759929825163.250,-32.227,-28.809,-33.691,2.441,1.000
1622759929829069.500,-27.344,-38.574,-32.715,8.301,1.000
1622759929832975.750,-36.133,-44.434,-33.691,-45.898,1.000
1622759929836882.000,-44.434,-44.922,-39.062,-68.359,1.000
1622759929840788.250,-30.762,-39.062,-38.574,-13.672,1.000
1622759929844694.500,-11.719,-29.297,-34.668,14.648,1.000
1622759929848600.750,-16.113,-33.691,-38.574,1.000,1.000
1622759929852507.000,-42.480,-42.480,-39.062,1.000,1.000
1622759929856413.250,-40.039,-39.551,-38.086,1.000,1.000
1622759929860319.500,-17.090,-27.344,-36.133,1.000,1.000
1622759929864225.750,-29.297,-28.320,-34.180,1.000,1.000
1622759929868132.000,-55.176,-39.062,-39.062,1.000,1.000
1622759929872038.250,-45.410,-39.062,-40.039,1.000,1.000
1622759929875944.500,-25.391,-29.785,-34.180,1.000,1.000
1622759929879850.750,-27.832,-32.715,-31.738,1.000,1.000
1622759929883757.000,-38.574,-43.945,-34.180,1.000,1.000
1622759929887663.250,-46.387,-45.898,-36.133,1.000,1.000
1622759929891569.500,-25.879,-28.809,-31.250,1.000,1.000
1622759929895475.750,-13.672,-24.414,-32.227,1.000,1.000
1622759929899382.000,-37.109,-36.621,-46.875,1.000,1.000
1622759929903288.250,-55.176,-40.039,-49.316,1.000,1.000
1622759929907194.500,-36.621,-36.621,-40.527,1.000,1.000
1622759929911100.750,-19.043,-24.414,-35.156,1.000,1.000
1622759929915007.000,-32.227,-24.902,-37.109,1.000,1.000
1622759929918913.250,-46.387,-40.527,-41.992,1.000,1.000
1622759929922819.500,-42.969,-39.551,-41.992,1.000,1.000
1622759929926725.750,-26.367,-35.156,-42.969,1.000,1.000
1622759929930632.000,-28.809,-36.133,-44.434,1.000,1.000
1622759929934538.250,-42.480,-40.039,-41.504,1.000,1.000
1622759929938444.500,-44.434,-38.086,-38.086,1.000,1.000
1622759929942350.750,-30.762,-32.715,-36.621,-2.441,1.000
1622759929946257.000,-15.625,-25.879,-31.738,3.906,1.000
1622759929950163.250,-29.785,-32.715,-30.762,-58.594,1.000
1622759929954069.500,-42.480,-41.016,-33.203,-71.777,1.000
1622759929957975.750,-24.414,-33.203,-29.785,-13.672,1.000
1622759929961882.000,-8.301,-18.555,-18.066,14.648,1.000
1622759929965788.250,-27.832,-28.809,-24.414,-33.691,1.000
1622759929969694.500,-49.316,-42.969,-37.598,-72.266,1.000
1622759929973600.750,-38.574,-30.273,-31.250,-27.832,1.000
1622759929977507.000,-24.414,-23.438,-26.367,17.578,1.000
1622759929981413.250,-31.738,-31.738,-31.738,-24.414,1.000
1622759929985319.500,-47.852,-40.527,-32.715,-82.031,1.000
1622759929989225.750,-39.551,-32.227,-23.926,-51.270,1.000
1622759929993132.000,-16.602,-26.855,-25.879,0.000,1.000
1622759929997038.250,-14.648,-29.785,-34.180,-16.113,1.000
1622759930000944.500,-44.434,-37.109,-41.016,-73.730,1.000
1622759930004850.750,-40.039,-38.086,-37.109,-67.871,1.000
1622759930008757.000,-10.742,-22.949,-28.809,-0.488,1.000
1622759930012663.250,-14.648,-23.926,-29.785,4.395,1.000
1622759930016569.500,-40.527,-46.875,-35.645,-62.012,1.000
1622759930020475.750,-50.293,-48.340,-35.645,-84.961,1.000
1622759930024382.000,-28.320,-32.227,-30.273,-20.996,1.000
1622759930028288.250,-6.836,-26.367,-27.344,16.113,1.000
1622759930032194.500,-32.227,-33.203,-31.738,-36.621,1.000
1622759930036100.750,-30.273,-46.875,-36.133,-80.078,1.000
1622759930040007.000,-28.809,-44.922,-28.320,-31.250,1.000
1622759930043913.250,-34.180,-30.273,-29.785,24.414,1.000
1622759930047819.500,-11.719,-25.391,-30.273,-11.230,1.000
1622759930051725.750,-20.996,-25.879,-32.227,-70.312,1.000
1622759930055632.000,-44.922,-24.902,-40.039,-49.316,1.000
1622759930059538.250,-36.133,-22.461,-35.645,19.531,1.000
1622759930063444.500,-21.484,-23.926,-34.180,12.207,1.000
1622759930067350.750,-14.160,-25.879,-36.133,-62.012,1.000
1622759930071257.000,-33.203,-34.668,-36.621,-62.988,1.000
1622759930075163.250,-40.039,-32.227,-39.551,6.836,1.000
1622759930079069.500,-17.578,-26.367,-34.180,17.578,1.000
1622759930082975.750,-16.113,-30.762,-34.180,1.000,1.000
1622759930086882.000,-40.039,-38.086,-39.062,1.000,1.000
1622759930090788.250,-47.363,-41.504,-41.016,1.000,1.000
1622759930094694.500,-27.344,-30.273,-37.109,1.000,1.000
1622759930098600.750,-9.277,-17.578,-27.832,1.000,1.000
1622759930102507.000,-23.926,-19.531,-29.297,1.000,1.000
1622759930106413.250,-37.109,-26.855,-34.180,1.000,1.000
1622759930110319.500,-19.531,-19.531,-29.785,1.000,1.000
1622759930114225.750,-15.625,-20.020,-28.809,1.000,1.000
1622759930118132.000,-37.109,-30.273,-34.180,1.000,1.000
1622759930122038.250,-44.922,-42.480,-36.133,1.000,1.000
1622759930125944.500,-29.785,-35.645,-30.762,1.000,1.000
1622759930129850.750,-18.555,-22.949,-24.902,27.344,1.000
1622759930133757.000,-27.832,-32.715,-25.879,9.277,1.000
1622759930137663.250,-43.945,-44.434,-31.250,-46.875,1.000
1622759930141569.500,-35.645,-39.551,-28.809,-37.598,1.000
1622759930145475.750,-12.695,-23.926,-17.578,26.855,1.000
1622759930149382.000,-8.789,-17.090,-20.996,29.297,1.000
1622759930153288.250,-25.879,-28.809,-34.180,-43.945,1.000
1622759930157194.500,-37.109,-43.945,-36.133,-62.500,1.000
1622759930161100.750,-18.555,-29.785,-27.344,5.859,1.000
1622759930165007.000,-1.953,-19.531,-23.926,31.250,1.000
1622759930168913.250,-34.180,-33.691,-32.227,-41.016,1.000
1622759930172819.500,-49.805,-47.363,-35.156,-75.684,1.000
1622759930176725.750,-37.598,-42.480,-41.992,-71.777,1.000
1622759930180632.000,-24.414,-29.785,-33.691,-15.625,1.000
1622759930184538.250,-18.066,-20.996,-33.203,10.742,1.000
1622759930188444.500,-17.090,-34.180,-29.785,-31.250,1.000
1622759930192350.750,-29.785,-42.969,-30.273,-66.895,1.000
1622759930196257.000,-24.902,-30.273,-33.203,-27.832,1.000
1622759930200163.250,-10.254,-23.926,-34.180,19.531,1.000
1622759930204069.500,-21.973,-42.480,-38.574,-16.113,1.000
1622759930207975.750,-37.598,-48.340,-39.062,-73.730,1.000
1622759930211882.000,-38.086,-43.945,-38.086,-59.570,1.000
1622759930215788.250,-18.555,-36.133,-33.691,4.883,1.000
1622759930219694.500,-14.160,-35.645,-33.691,0.977,1.000
1622759930223600.750,-16.602,-26.855,-31.738,-1.465,1.000
1622759930227507.000,-36.133,-37.109,-39.062,-70.312,1.000
1622759930231413.250,-38.574,-36.621,-38.086,-62.988,1.000
1622759930235319.500,-13.184,-20.020,-29.785,8.789,1.000
1622759930239225.750,-4.395,-14.160,-25.879,10.254,1.000
1622759930243132.000,-32.715,-21.973,-31.250,-53.223,1.000
1622759930247038.250,-44.434,-35.645,-37.598,-68.848,1.000
1622759930250944.500,-28.809,-40.039,-37.109,-10.742,1.000
1622759930254850.750,-18.555,-27.344,-28.809,17.578,1.000
1622759930258757.000,-31.738,-28.809,-29.785,-36.133,1.000
1622759930262663.250,-49.316,-41.992,-36.621,-72.754,1.000
1622759930266569.500,-38.086,-34.668,-32.227,-15.625,1.000
1622759930270475.750,-13.672,-24.902,-26.855,1.000,1.000
1622759930274382.000,-20.996,-36.133,-31.250,1.000,1.000
1622759930278288.250,-53.223,-49.316,-31.250,1.000,1.000
1622759930282194.500,-43.945,-38.574,-28.320,1.000,1.000
1622759930286100.750,-11.719,-24.414,-26.855,1.000,1.000
1622759930290007.000,-17.090,-23.438,-31.738,1.000,1.000
1622759930293913.250,-44.434,-34.668,-34.668,1.000,1.000
1622759930297819.500,-41.504,-40.527,-33.691,1.000,1.000
1622759930301725.750,-12.207,-29.785,-30.762,1.000,1.000
1622759930305632.000,-17.090,-31.738,-35.645,1.000,1.000
1622759930309538.250,-46.875,-45.410,-41.504,1.000,1.000
1622759930313444.500,-55.176,-45.410,-41.016,1.000,1.000
1622759930317350.750,-37.109,-32.227,-41.992,-19.531,1.000
1622759930321257.000,-20.508,-27.832,-38.574,11.230,1.000
1622759930325163.250,-37.109,-39.551,-41.992,-39.551,1.000
1622759930329069.500,-53.711,-42.969,-40.039,-76.172,1.000
1622759930332975.750,-40.039,-30.273,-32.715,-34.668,1.000
1622759930336882.000,-19.043,-19.531,-30.273,11.719,1.000
1622759930340788.250,-28.809,-28.320,-43.457,-26.855,1.000
1622759930344694.500,-50.293,-44.922,-54.199,-83.984,1.000
1622759930348600.750,-48.340,-41.016,-43.457,-56.152,1.000
1622759930352507.000,-24.414,-30.273,-34.180,11.719,1.000
1622759930356413.250,-11.230,-28.320,-34.668,5.859,1.000
1622759930360319.500,-47.363,-42.969,-39.551,-69.824,1.000
1622759930364225.750,-43.945,-48.828,-33.203,-77.637,1.000
1622759930368132.000,-47.852,-41.504,-33.203,-58.105,1.000
1622759930372038.250,-32.715,-40.039,-34.668,-1.953,1.000
1622759930375944.500,-25.879,-39.551,-37.109,-5.371,1.000
1622759930379850.750,-43.945,-41.992,-33.691,-61.523,1.000
1622759930383757.000,-48.828,-43.945,-29.785,-67.383,1.000
1622759930387663.250,-27.832,-38.574,-26.367,-5.859,1.000
1622759930391569.500,-22.461,-35.645,-24.902,13.184,1.000
1622759930395475.750,-41.016,-38.086,-25.879,-47.852,1.000
1622759930399382.000,-51.270,-45.898,-23.926,-73.242,1.000
1622759930403288.250,-39.062,-41.992,-23.438,-15.137,1.000
1622759930407194.500,-31.738,-32.227,-29.297,15.625,1.000
1622759930411100.750,-40.527,-40.039,-33.691,1.000,1.000
1622759930415007.000,-50.781,-46.875,-32.227,1.000,1.000
1622759930418913.250,-40.527,-37.598,-29.297,1.000,1.000
1622759930422819.500,-21.484,-25.879,-22.949,1.000,1.000
1622759930426725.750,-22.949,-26.855,-19.043,1.000,1.000
1622759930430632.000,-44.434,-33.691,-26.855,1.000,1.000
1622759930434538.250,-43.945,-39.551,-31.738,1.000,1.000
1622759930438444.500,-26.855,-36.133,-31.738,1.000,1.000
1622759930442350.750,-24.414,-31.250,-30.762,1.000,1.000
1622759930446257.000,-44.434,-42.480,-33.691,1.000,1.000
1622759930450163.250,-52.734,-47.852,-36.621,1.000,1.000
1622759930454069.500,-40.039,-39.062,-27.344,1.000,1.000
1622759930457975.750,-32.715,-30.762,-22.949,1.000,1.000
1622759930461882.000,-49.316,-34.668,-30.762,1.000,1.000
1622759930465788.250,-58.105,-47.852,-34.180,1.000,1.000
1622759930469694.500,-39.062,-37.598,-27.832,1.000,1.000
1622759930473600.750,-17.090,-28.320,-22.949,1.000,1.000
1622759930477507.000,-17.578,-24.902,-24.414,1.000,1.000
1622759930481413.250,-50.293,-27.832,-40.527,1.000,1.000
1622759930485319.500,-32.227,-36.133,-36.133,1.000,1.000
1622759930489225.750,4.883,-24.902,-21.484,1.000,1.000
1622759930493132.000,-13.672,-28.809,-30.762,1.000,1.000
1622759930497038.250,-36.133,-41.504,-36.133,1.000,1.000
1622759930500944.500,-45.898,-37.109,-32.715,1.000,1.000
1622759930504850.750,-29.785,-26.367,-33.203,1.000,1.000
1622759930508757.000,-14.160,-20.020,-29.297,1.000,1.000
1622759930512663.250,-30.762,-34.180,-32.227,1.000,1.000
1622759930516569.500,-48.340,-38.574,-33.203,1.000,1.000
1622759930520475.750,-30.762,-18.066,-24.902,1.000,1.000
1622759930524382.000,-13.672,-15.625,-20.508,1.000,1.000
1622759930528288.250,-35.645,-30.273,-29.297,1.000,1.000
1622759930532194.500,-62.988,-40.527,-40.039,1.000,1.000
1622759930536100.750,-49.805,-38.086,-37.109,1.000,1.000
1622759930540007.000,-27.344,-25.391,-32.715,1.000,1.000
1622759930543913.250,-31.250,-32.715,-30.273,1.000,1.000
1622759930547819.500,-31.250,-40.527,-30.762,1.000,1.000
1622759930551725.750,-27.832,-39.062,-39.551,-47.363,1.000
1622759930555632.000,-17.578,-28.809,-39.551,10.254,1.000
1622759930559538.250,-19.531,-36.621,-38.574,-4.395,1.000
1622759930563444.500,-36.133,-47.363,-38.086,-66.895,1.000
1622759930567350.750,-43.457,-42.969,-34.180,-62.988,1.000
1622759930571257.000,-26.367,-34.668,-26.367,3.906,1.000
1622759930575163.250,-18.555,-27.832,-27.344,13.672,1.000
1622759930579069.500,-44.434,-49.805,-42.480,-58.105,1.000
1622759930582975.750,-56.641,-58.105,-44.922,-83.984,1.000
1622759930586882.000,-22.949,-32.227,-33.203,-24.414,1.000
1622759930590788.250,-10.254,-31.250,-28.809,10.254,1.000
1622759930594694.500,-27.832,-44.434,-34.180,-35.645,1.000
1622759930598600.750,-41.504,-35.156,-31.738,-90.332,1.000
1622759930602507.000,-51.758,-44.922,-34.180,-60.059,1.000
1622759930606413.250,-37.109,-37.109,-32.227,-9.766,1.000
1622759930610319.500,-26.367,-16.602,-26.367,-39.062,1.000
1622759930614225.750,-39.062,-24.414,-30.273,-97.168,1.000
1622759930618132.000,-51.270,-41.016,-38.086,-73.242,1.000
1622759930622038.250,-38.086,-42.480,-30.273,-10.742,1.000
1622759930625944.500,-15.625,-33.691,-21.484,-17.578,1.000
1622759930629850.750,-15.625,-26.855,-25.391,-73.242,1.000
1622759930633757.000,-45.410,-35.156,-33.691,-79.590,1.000
1622759930637663.250,-44.434,-39.062,-34.668,-12.695,1.000
1622759930641569.500,-16.113,-31.738,-30.762,5.859,1.000
1622759930645475.750,-12.695,-28.809,-30.762,1.000,1.000
1622759930649382.000,-21.973,-34.180,-33.203,1.000,1.000
1622759930653288.250,-30.273,-34.668,-33.691,1.000,1.000
1622759930657194.500,-17.090,-26.367,-28.320,1.000,1.000
1622759930661100.750,-5.859,-25.879,-31.250,1.000,1.000
1622759930665007.000,-24.902,-32.227,-41.016,1.000,1.000
1622759930668913.250,-30.273,-32.715,-40.039,1.000,1.000
1622759930672819.500,-19.531,-22.461,-37.109,1.000,1.000
1622759930676725.750,-9.766,-25.879,-34.668,1.000,1.000
1622759930680632.000,-19.043,-34.668,-35.156,1.000,1.000
1622759930684538.250,-38.574,-47.363,-41.504,1.000,1.000
1622759930688444.500,-37.598,-47.852,-37.598,1.000,1.000
1622759930692350.750,-17.578,-28.809,-29.785,13.672,1.000
1622759930696257.000,-19.531,-33.203,-31.250,2.930,1.000
1622759930700163.250,-47.363,-51.758,-39.551,-57.617,1.000
1622759930704069.500,-47.852,-42.480,-37.109,-55.664,1.000
1622759930707975.750,-17.578,-22.949,-26.367,17.090,1.000
1622759930711882.000,-16.113,-22.949,-25.879,23.438,1.000
1622759930715788.250,-41.016,-35.156,-30.273,-46.387,1.000
1622759930719694.500,-51.758,-43.945,-34.668,-69.824,1.000
1622759930723600.750,-26.855,-29.297,-29.297,-6.836,1.000
1622759930727507.000,-6.348,-15.625,-23.926,32.227,1.000
1622759930731413.250,-21.484,-26.367,-30.273,-24.902,1.000
1622759930735319.500,-38.574,-36.621,-36.133,-76.660,1.000
1622759930739225.750,-41.992,-34.180,-34.668,-74.707,1.000
1622759930743132.000,-31.738,-29.297,-33.691,-26.855,1.000
1622759930747038.250,-21.484,-24.414,-30.762,15.625,1.000
1622759930750944.500,-29.297,-37.109,-36.621,-24.414,1.000
1622759930754850.750,-48.340,-43.945,-41.016,-78.613,1.000
1622759930758757.000,-31.738,-26.367,-34.180,-31.738,1.000
1622759930762663.250,-4.883,-18.066,-22.949,28.809,1.000
1622759930766569.500,-16.602,-29.785,-26.367,-7.812,1.000
1622759930770475.750,-39.551,-34.180,-32.715,-69.336,1.000
1622759930774382.000,-33.203,-40.039,-29.297,-52.246,1.000
1622759930778288.250,0.000,-27.344,-23.438,17.578,1.000
1622759930782194.500,3.418,-21.484,-21.484,14.160,1.000
1622759930786100.750,-26.367,-37.109,-40.039,-62.988,1.000
1622759930790007.000,-46.875,-49.805,-41.016,-71.289,1.000
1622759930793913.250,-47.852,-50.781,-42.969,-7.812,1.000
1622759930797819.500,-20.020,-29.297,-35.645,12.695,1.000
1622759930801725.750,-14.160,-27.832,-28.320,-54.199,1.000
1622759930805632.000,-31.738,-39.551,-28.809,-88.867,1.000
1622759930809538.250,-32.715,-39.551,-29.297,-30.762,1.000
1622759930813444.500,-26.855,-39.551,-29.785,5.859,1.000
1622759930817350.750,-20.508,-32.715,-30.273,-39.062,1.000
1622759930821257.000,-32.715,-41.504,-37.109,-82.031,1.000
1622759930825163.250,-51.270,-52.246,-38.086,-46.875,1.000
1622759930829069.500,-33.691,-38.574,-30.762,4.883,1.000
1622759930832975.750,-15.625,-28.809,-26.855,1.000,1.000
1622759930836882.000,-31.250,-33.203,-37.598,1.000,1.000
1622759930840788.250,-42.480,-41.992,-42.480,1.000,1.000
1622759930844694.500,-26.367,-35.645,-31.738,1.000,1.000
1622759930848600.750,-11.230,-25.879,-30.273,1.000,1.000
1622759930852507.000,-10.742,-23.438,-30.273,1.000,1.000
1622759930856413.250,-31.738,-32.715,-31.738,1.000,1.000
1622759930860319.500,-41.016,-31.738,-35.156,1.000,1.000
1622759930864225.750,-19.531,-22.461,-29.297,1.000,1.000
1622759930868132.000,-17.090,-29.297,-27.832,1.000,1.000
1622759930872038.250,-39.062,-39.062,-36.621,1.000,1.000
1622759930875944.500,-54.199,-44.434,-41.016,1.000,1.000
1622759930879850.750,-33.691,-36.133,-40.527,-19.531,1.000
1622759930883757.000,-16.113,-30.273,-33.691,12.695,1.000
1622759930887663.250,-35.156,-36.621,-35.156,-37.109,1.000
1622759930891569.500,-48.828,-43.945,-40.039,-75.684,1.000
1622759930895475.750,-31.738,-39.551,-33.203,-30.273,1.000
1622759930899382.000,-17.578,-25.879,-27.344,18.555,1.000
1622759930903288.250,-27.344,-35.645,-34.180,-20.508,1.000
1622759930907194.500,-47.852,-48.828,-39.062,-74.707,1.000
1622759930911100.750,-45.898,-35.645,-36.621,-53.223,1.000
1622759930915007.000,-20.508,-27.344,-29.297,8.301,1.000
1622759930918913.250,-12.695,-26.367,-25.391,4.395,1.000
1622759930922819.500,-31.738,-30.273,-27.832,-55.176,1.000
1622759930926725.750,-46.875,-38.574,-36.621,-70.312,1.000
1622759930930632.000,-47.363,-37.109,-33.203,-58.105,1.000
1622759930934538.250,-23.926,-27.344,-24.414,13.184,1.000
1622759930938444.500,-12.207,-19.043,-17.578,17.090,1.000
1622759930942350.750,-35.156,-23.926,-20.996,-53.223,1.000
1622759930946257.000,-38.574,-24.414,-20.020,-62.012,1.000
1622759930950163.250,-12.695,-11.230,-15.625,0.977,1.000
1622759930954069.500,-18.066,-15.137,-23.438,16.602,1.000
1622759930957975.750,-39.062,-31.250,-32.715,-42.480,1.000
1622759930961882.000,-49.316,-42.969,-38.086,-78.613,1.000
1622759930965788.250,-31.250,-30.762,-30.273,-25.391,1.000
1622759930969694.500,-10.254,-17.090,-24.414,21.484,1.000
1622759930973600.750,-24.414,-28.809,-30.273,1.000,1.000
1622759930977507.000,-41.504,-42.480,-36.133,1.000,1.000
1622759930981413.250,-33.691,-33.203,-34.668,1.000,1.000
1622759930985319.500,-3.906,-20.508,-29.785,1.000,1.000
1622759930989225.750,-15.625,-21.973,-33.691,1.000,1.000
1622759930993132.000,-39.551,-28.809,-38.574,1.000,1.000
1622759930997038.250,-20.996,-26.367,-29.297,1.000,1.000
1622759931000944.500,-9.277,-20.020,-24.414,1.000,1.000
1622759931004850.750,-18.066,-22.949,-30.762,1.000,1.000
1622759931008757.000,-40.039,-29.297,-38.574,1.000,1.000
1622759931012663.250,-50.781,-36.133,-35.156,1.000,1.000
1622759931016569.500,-30.273,-29.785,-24.902,1.000,1.000
1622759931020475.750,-22.949,-25.879,-25.391,1.000,1.000
1622759931024382.000,-44.922,-41.992,-31.250,1.000,1.000
1622759931028288.250,-59.082,-51.758,-35.645,1.000,1.000
1622759931032194.500,-53.223,-40.039,-35.645,1.000,1.000
1622759931036100.750,-31.738,-30.273,-26.367,1.000,1.000
1622759931040007.000,-22.949,-29.297,-27.832,1.000,1.000
1622759931043913.250,-41.016,-33.691,-34.668,1.000,1.000
1622759931047819.500,-38.086,-34.668,-31.250,1.000,1.000
1622759931051725.750,-14.160,-29.297,-22.949,1.000,1.000
1622759931055632.000,-10.742,-29.297,-22.949,1.000,1.000
1622759931059538.250,-27.344,-42.969,-30.762,1.000,1.000
1622759931063444.500,-31.738,-44.434,-31.250,1.000,1.000
1622759931067350.750,-19.043,-32.227,-27.832,1.465,1.000
1622759931071257.000,-17.090,-29.785,-28.320,15.137,1.000
1622759931075163.250,-34.180,-37.109,-35.156,-45.410,1.000
1622759931079069.500,-43.457,-39.062,-38.574,-67.871,1.000
1622759931082975.750,-34.180,-30.762,-36.133,-4.395,1.000
1622759931086882.000,-22.949,-22.461,-34.180,29.297,1.000
1622759931090788.250,-25.391,-25.391,-35.156,-20.996,1.000
1622759931094694.500,-38.086,-31.738,-33.691,-63.965,1.000
1622759931098600.750,-30.273,-35.156,-25.391,-21.973,1.000
1622759931102507.000,-13.184,-26.855,-20.020,29.785,1.000
1622759931106413.250,-20.020,-30.273,-23.438,-1.465,1.000
1622759931110319.500,-38.574,-44.434,-29.785,-61.523,1.000
1622759931114225.750,-32.715,-32.227,-22.949,-44.434,1.000
1622759931118132.000,-8.789,-23.438,-13.672,11.230,1.000
1622759931122038.250,-16.113,-27.832,-22.949,0.000,1.000
1622759931125944.500,-39.551,-33.691,-30.273,-54.199,1.000
1622759931129850.750,-42.969,-34.668,-29.785,-62.012,1.000
1622759931133757.000,-18.066,-21.973,-28.320,-2.441,1.000
1622759931137663.250,-2.441,-13.672,-25.391,18.066,1.000
1622759931141569.500,-21.973,-27.344,-31.250,-44.434,1.000
1622759931145475.750,-39.062,-33.203,-35.645,-74.707,1.000
1622759931149382.000,-35.156,-26.855,-30.273,-23.438,1.000
1622759931153288.250,-17.090,-25.879,-26.855,16.113,1.000
1622759931157194.500,-21.484,-33.203,-30.762,-25.879,1.000
1622759931161100.750,-22.461,-30.762,-26.367,-67.871,1.000
1622759931165007.000,-39.062,-42.969,-31.738,-34.180,1.000
1622759931168913.250,-33.203,-41.504,-27.344,14.648,1.000
1622759931172819.500,-17.090,-25.391,-23.926,-3.906,1.000
1622759931176725.750,-29.785,-28.809,-28.809,-69.824,1.000
1622759931180632.000,-55.176,-38.574,-32.715,-61.523,1.000
1622759931184538.250,-36.133,-33.203,-28.320,7.812,1.000
1622759931188444.500,-18.555,-33.691,-31.738,11.230,1.000
1622759931192350.750,-30.273,-36.621,-35.645,-52.246,1.000
1622759931196257.000,-44.434,-41.992,-35.645,-64.941,1.000
1622759931200163.250,-42.969,-34.668,-32.227,-9.277,1.000
1622759931204069.500,-17.578,-26.367,-30.273,16.602,1.000
1622759931207975.750,-14.160,-31.250,-29.297,6.836,1.000
1622759931211882.000,-35.156,-34.180,-29.785,-50.293,1.000
1622759931215788.250,-40.527,-37.109,-28.809,-67.871,1.000
1622759931219694.500,-28.809,-30.273,-23.438,-8.301,1.000
1622759931223600.750,-20.508,-21.973,-25.879,17.578,1.000
1622759931227507.000,-33.203,-30.762,-30.762,-33.203,1.000
1622759931231413.250,-46.387,-38.086,-32.227,-76.172,1.000
1622759931235319.500,-21.973,-26.855,-26.855,-28.809,1.000
1622759931239225.750,-2.930,-17.090,-23.438,21.973,1.000
1622759931243132.000,-27.832,-21.973,-29.785,-26.855,1.000
1622759931247038.250,-46.875,-40.527,-30.762,-73.242,1.000
1622759931250944.500,-40.527,-41.992,-34.668,-44.922,1.000
1622759931254850.750,-25.879,-33.203,-31.250,12.207,1.000
1622759931258757.000,-21.973,-32.227,-30.273,4.395,1.000
1622759931262663.250,-46.875,-46.875,-41.992,-66.406,1.000
1622759931266569.500,-50.293,-46.387,-40.527,-65.430,1.000
1622759931270475.750,-22.949,-23.438,-27.344,4.395,1.000
1622759931274382.000,-18.066,-14.160,-27.832,11.719,1.000
1622759931278288.250,-30.273,-30.762,-41.504,-47.363,1.000
1622759931282194.500,-47.363,-53.223,-42.969,-72.754,1.000
1622759931286100.750,-37.109,-37.598,-35.156,-25.879,1.000
1622759931290007.000,-12.207,-21.973,-29.297,12.207,1.000
1622759931293913.250,-27.832,-37.598,-33.691,-31.738,1.000
1622759931297819.500,-52.246,-45.898,-41.016,-81.543,1.000
1622759931301725.750,-55.176,-39.062,-34.668,-76.660,1.000
1622759931305632.000,-30.273,-33.691,-28.320,-16.113,1.000
1622759931309538.250,-12.695,-32.227,-25.879,28.809,1.000
1622759931313444.500,-26.855,-42.969,-33.203,-21.973,1.000
1622759931317350.750,-44.922,-47.852,-35.156,-72.266,1.000
1622759931321257.000,-41.504,-39.062,-32.227,-39.062,1.000
1622759931325163.250,-23.438,-32.715,-32.227,11.230,1.000
1622759931329069.500,-26.855,-38.574,-34.180,-8.301,1.000
1622759931332975.750,-43.457,-41.992,-33.691,-65.430,1.000
1622759931336882.000,-49.316,-35.645,-28.320,-48.828,1.000
1622759931340788.250,-29.785,-26.855,-23.438,12.695,1.000
1622759931344694.500,-25.391,-29.785,-28.809,3.418,1.000
1622759931348600.750,-46.387,-41.504,-35.645,1.000,1.000
1622759931352507.000,-44.922,-43.457,-33.203,1.000,1.000
1622759931356413.250,-22.461,-28.809,-25.391,1.000,1.000
1622759931360319.500,-9.766,-20.020,-20.020,1.000,1.000
1622759931364225.750,-33.203,-34.668,-31.250,1.000,1.000
1622759931368132.000,-46.387,-43.457,-37.598,1.000,1.000
1622759931372038.250,-24.902,-30.762,-26.367,1.000,1.000
1622759931375944.500,-10.742,-23.438,-21.484,1.000,1.000
1622759931379850.750,-18.066,-28.809,-26.367,1.000,1.000
1622759931383757.000,-44.922,-37.598,-33.691,1.000,1.000
1622759931387663.250,-42.969,-41.992,-33.691,1.000,1.000
1622759931391569.500,-20.508,-35.156,-31.738,1.000,1.000
1622759931395475.750,-22.949,-31.738,-36.621,-0.977,1.000
1622759931399382.000,-44.434,-39.062,-38.574,-64.941,1.000
1622759931403288.250,-49.316,-40.039,-35.645,-59.570,1.000
1622759931407194.500,-25.879,-25.879,-28.809,10.254,1.000
1622759931411100.750,-22.949,-24.414,-27.832,16.113,1.000
1622759931415007.000,-38.574,-31.250,-33.691,-46.387,1.000
1622759931418913.250,-42.969,-38.086,-38.574,-63.477,1.000
1622759931422819.500,-27.344,-40.527,-32.227,-7.812,1.000
1622759931426725.750,-14.160,-27.832,-24.902,21.973,1.000
1622759931430632.000,-37.109,-31.738,-31.250,-37.109,1.000
1622759931434538.250,-57.129,-44.434,-36.621,-83.984,1.000
1622759931438444.500,-36.133,-41.992,-34.180,-39.551,1.000
1622759931442350.750,-20.996,-34.180,-30.273,1.000,1.000
1622759931446257.000,-28.320,-33.203,-28.809,1.000,1.000
1622759931450163.250,-43.945,-37.109,-29.785,1.000,1.000
1622759931454069.500,-41.992,-31.250,-27.832,1.000,1.000
1622759931457975.750,-21.973,-21.484,-27.832,1.000,1.000
1622759931461882.000,-12.207,-21.973,-30.273,1.000,1.000
1622759931465788.250,-34.180,-31.738,-34.180,1.000,1.000
1622759931469694.500,-34.180,-31.738,-29.297,1.000,1.000
1622759931473600.750,-18.555,-24.414,-26.367,1.000,1.000
1622759931477507.000,-33.691,-30.273,-35.156,1.000,1.000
1622759931481413.250,-47.363,-41.504,-37.109,1.000,1.000
1622759931485319.500,-41.016,-39.062,-37.109,1.000,1.000
1622759931489225.750,-23.926,-25.391,-30.762,-0.488,1.000
1622759931493132.000,-19.531,-29.297,-28.320,-2.441,1.000
1622759931497038.250,-29.297,-42.480,-36.133,-66.895,1.000
1622759931500944.500,-31.250,-36.621,-35.645,-73.242,1.000
1622759931504850.750,-20.020,-24.902,-29.297,-8.789,1.000
1622759931508757.000,-8.789,-19.043,-28.809,8.301,1.000
1622759931512663.250,-29.297,-30.762,-37.598,-48.340,1.000
1622759931516569.500,-44.434,-42.969,-41.504,-78.613,1.000
1622759931520475.750,-23.926,-32.227,-31.250,-17.578,1.000
1622759931524382.000,-3.906,-20.020,-22.461,36.133,1.000
1622759931528288.250,-5.859,-20.020,-23.438,-5.371,1.000
1622759931532194.500,-29.785,-27.832,-30.273,-63.477,1.000
1622759931536100.750,-33.203,-38.574,-29.297,-62.500,1.000
1622759931540007.000,-16.602,-28.809,-26.855,-15.625,1.000
1622759931543913.250,-3.418,-23.438,-22.461,26.855,1.000
1622759931547819.500,-14.648,-25.879,-23.438,-9.766,1.000
1622759931551725.750,-25.391,-33.691,-25.879,-61.035,1.000
1622759931555632.000,-25.391,-25.879,-25.879,-34.668,1.000
1622759931559538.250,-7.324,-17.578,-22.949,28.809,1.000
1622759931563444.500,-12.695,-24.902,-26.367,8.301,1.000
1622759931567350.750,-32.227,-33.691,-28.809,-56.641,1.000
1622759931571257.000,-36.621,-32.715,-26.855,-53.223,1.000
1622759931575163.250,-23.926,-33.203,-24.414,7.812,1.000
1622759931579069.500,-12.207,-32.715,-23.926,14.160,1.000
1622759931582975.750,-36.133,-36.133,-35.156,1.000,1.000
1622759931586882.000,-46.387,-39.062,-36.621,1.000,1.000
1622759931590788.250,-19.043,-22.949,-24.902,1.000,1.000
1622759931594694.500,-7.324,-14.648,-21.484,1.000,1.000
1622759931598600.750,-38.086,-26.367,-31.250,1.000,1.000
1622759931602507.000,-50.781,-41.016,-38.086,1.000,1.000
1622759931606413.250,-32.715,-38.086,-31.250,1.000,1.000
1622759931610319.500,-15.137,-25.391,-23.926,1.000,1.000
1622759931614225.750,-17.578,-27.344,-23.926,1.000,1.000
1622759931618132.000,-43.457,-37.598,-30.762,1.000,1.000
1622759931622038.250,-40.039,-38.086,-29.297,1.000,1.000
1622759931625944.500,-16.113,-27.832,-21.484,1.000,1.000
1622759931629850.750,-19.531,-28.809,-25.391,3.906,1.000
1622759931633757.000,-45.898,-46.387,-33.691,-62.988,1.000
1622759931637663.250,-54.199,-51.758,-29.297,-61.523,1.000
1622759931641569.500,-26.367,-29.785,-19.531,7.324,1.000
1622759931645475.750,-16.113,-21.973,-19.043,14.648,1.000
1622759931649382.000,-35.645,-36.133,-24.414,-47.852,1.000
1622759931653288.250,-42.480,-42.480,-29.297,-75.195,1.000
1622759931657194.500,-26.855,-34.668,-25.391,-24.902,1.000
1622759931661100.750,-19.531,-29.297,-20.508,16.113,1.000
1622759931665007.000,-35.156,-35.645,-28.809,-28.809,1.000
1622759931668913.250,-41.504,-38.086,-32.715,-73.242,1.000
1622759931672819.500,-32.715,-29.785,-28.809,-40.039,1.000
1622759931676725.750,-32.715,-37.598,-31.250,-28.809,1.000
1622759931680632.000,-8.789,-29.785,-28.320,19.531,1.000
1622759931684538.250,-20.508,-37.109,-27.344,-13.184,1.000
1622759931688444.500,-37.109,-39.551,-25.879,-66.406,1.000
1622759931692350.750,-28.320,-31.738,-25.391,-29.785,1.000
1622759931696257.000,-9.766,-18.555,-24.902,30.762,1.000
1622759931700163.250,-16.113,-23.926,-27.344,5.371,1.000
1622759931704069.500,-33.203,-36.133,-32.715,-49.805,1.000
1622759931707975.750,-25.879,-36.621,-28.320,-41.504,1.000
1622759931711882.000,-7.324,-22.949,-24.902,16.602,1.000
1622759931715788.250,-9.277,-18.555,-26.367,16.602,1.000
1622759931719694.500,-35.645,-33.691,-31.250,-49.805,1.000
1622759931723600.750,-28.320,-32.227,-31.250,-64.941,1.000
1622759931727507.000,-30.762,-38.086,-29.297,-5.859,1.000
1622759931731413.250,-13.672,-29.785,-27.344,12.695,1.000
1622759931735319.500,-2.930,-20.996,-31.250,-38.574,1.000
1622759931739225.750,-32.227,-34.180,-38.086,-70.312,1.000
1622759931743132.000,-41.504,-37.598,-35.645,-24.902,1.000
1622759931747038.250,-16.113,-32.227,-30.762,26.367,1.000
1622759931750944.500,-9.277,-27.832,-31.738,-10.254,1.000
1622759931754850.750,-32.227,-33.203,-39.062,-64.453,1.000
1622759931758757.000,-43.945,-43.945,-38.574,-39.551,1.000
1622759931762663.250,-29.297,-38.086,-36.133,18.066,1.000
1622759931766569.500,-14.160,-31.738,-35.645,4.395,1.000
1622759931770475.750,-25.391,-38.574,-36.621,1.000,1.000
1622759931774382.000,-44.434,-40.039,-37.109,1.000,1.000
1622759931778288.250,-37.598,-34.668,-35.156,1.000,1.000
1622759931782194.500,-16.602,-25.879,-31.738,1.000,1.000
1622759931786100.750,-11.230,-26.855,-30.273,1.000,1.000
1622759931790007.000,-33.203,-33.691,-35.645,1.000,1.000
1622759931793913.250,-47.852,-30.762,-36.133,1.000,1.000
1622759931797819.500,-22.461,-19.043,-24.902,1.000,1.000
