timestamps,TP9,AF7,AF8,TP10,Right AUX
1626295255670729.250,-85.938,10.254,-35.156,-134.766,1.000
1626295255674635.500,-46.875,-84.961,-21.484,-21.973,1.000
1626295255678541.750,29.785,-104.980,-6.348,90.820,1.000
1626295255682448.000,12.207,-4.883,-19.043,9.766,1.000
1626295255686354.250,-79.102,7.812,-34.668,-135.742,1.000
1626295255690260.500,-74.707,13.672,-34.180,-77.148,1.000
1626295255694166.750,-15.625,-93.262,-66.895,49.316,1.000
1626295255698073.000,1.953,-43.457,-50.293,23.438,1.000
1626295255701979.250,-60.059,5.371,-29.785,-116.211,1.000
1626295255705885.500,-86.426,-34.668,-27.344,-119.629,1.000
1626295255709791.750,-5.859,-46.875,-3.906,30.762,1.000
1626295255713698.000,11.719,-123.535,-22.949,38.574,1.000
1626295255717604.250,-45.898,-30.762,-48.340,1.000,1.000
1626295255721510.500,-64.941,17.090,-37.598,1.000,1.000
1626295255725416.750,16.602,14.160,-11.719,1.000,1.000
1626295255729323.000,55.176,-1.953,-28.809,1.000,1.000
1626295255733229.250,-46.387,-92.773,-54.688,1.000,1.000
1626295255737135.500,-110.840,-29.785,-33.691,1.000,1.000
1626295255741041.750,-46.875,13.672,-14.160,1.000,1.000
1626295255744948.000,26.855,-0.488,-18.555,1.000,1.000
1626295255748854.250,-17.090,-31.738,-47.363,1.000,1.000
1626295255752760.500,-82.520,-46.875,-48.340,1.000,1.000
1626295255756666.750,-44.434,-9.277,-26.367,1.000,1.000
1626295255760573.000,16.113,7.324,-34.180,1.000,1.000
1626295255764479.250,17.578,20.996,-23.438,43.945,1.000
1626295255768385.500,-50.781,-71.777,-11.230,-103.516,1.000
1626295255772291.750,-75.684,-99.609,-29.297,-113.281,1.000
1626295255776198.000,-17.090,-9.766,-30.273,30.762,1.000
1626295255780104.250,9.766,14.648,-26.855,51.758,1.000
1626295255784010.500,-51.270,-11.230,-33.691,-94.727,1.000
1626295255787916.750,-104.004,-137.695,-59.570,-156.738,1.000
1626295255791823.000,-34.668,-75.684,-47.363,-8.301,1.000
1626295255795729.250,24.902,-3.418,-5.371,83.496,1.000
1626295255799635.500,-20.020,1.953,-1.465,-34.668,1.000
1626295255803541.750,-63.965,6.836,-19.531,-125.000,1.000
1626295255807448.000,-46.387,-96.680,-65.430,-39.551,1.000
1626295255811354.250,7.812,-26.855,-55.176,1.000,1.000
1626295255815260.500,-5.859,4.395,-22.949,1.000,1.000
1626295255819166.750,-63.965,2.441,-20.020,1.000,1.000
1626295255823073.000,-50.293,-15.137,-11.230,1.000,1.000
1626295255826979.250,5.859,-121.094,-3.906,1.000,1.000
1626295255830885.500,6.348,-52.734,-9.277,1.000,1.000
1626295255834791.750,-54.199,-9.277,-20.020,1.000,1.000
1626295255838698.000,-73.242,-9.277,-17.578,1.000,1.000
1626295255842604.250,-14.160,-49.805,-23.438,1.000,1.000
1626295255846510.500,18.555,-94.238,-45.410,1.000,1.000
1626295255850416.750,-51.758,-20.996,-55.664,1.000,1.000
1626295255854323.000,-112.793,7.324,-49.316,1.000,1.000
1626295255858229.250,-41.992,46.387,-47.363,-11.719,1.000
1626295255862135.500,18.066,-42.969,-37.109,83.984,1.000
1626295255866041.750,-42.969,-109.863,-35.156,-51.758,1.000
1626295255869948.000,-105.957,-66.895,-27.344,-165.039,1.000
1626295255873854.250,-64.453,-35.645,-14.160,-52.246,1.000
1626295255877760.500,11.719,15.137,-7.324,79.102,1.000
1626295255881666.750,-8.789,-104.980,-29.297,2.930,1.000
1626295255885573.000,-66.406,-75.195,-40.527,-125.977,1.000
1626295255889479.250,-46.387,-1.465,-20.996,-68.359,1.000
1626295255893385.500,17.090,10.742,-8.301,68.848,1.000
1626295255897291.750,9.277,3.418,-14.160,37.109,1.000
1626295255901198.000,-64.941,-117.188,-27.832,-109.863,1.000
1626295255905104.250,-54.688,11.719,-41.016,-117.676,1.000
1626295255909010.500,-44.922,-65.430,-40.039,-81.055,1.000
1626295255912916.750,25.391,-83.984,-7.324,68.848,1.000
1626295255916823.000,20.996,-27.344,-8.301,53.711,1.000
1626295255920729.250,-42.480,4.395,-13.184,-89.355,1.000
1626295255924635.500,-52.734,29.297,-5.371,-106.445,1.000
1626295255928541.750,-25.391,-125.977,-42.969,-2.441,1.000
1626295255932448.000,1.953,-67.383,-65.430,46.875,1.000
1626295255936354.250,-40.039,17.578,-61.523,-74.219,1.000
1626295255940260.500,-84.473,0.000,-42.480,-147.949,1.000
1626295255944166.750,-30.273,-14.648,-23.926,-22.949,1.000
1626295255948073.000,14.160,-140.137,-32.227,71.289,1.000
1626295255951979.250,-15.625,-48.828,-24.414,1.000,1.000
1626295255955885.500,-70.801,11.230,-25.879,1.000,1.000
1626295255959791.750,-44.434,18.066,-24.902,1.000,1.000
1626295255963698.000,31.738,-5.371,-10.254,1.000,1.000
1626295255967604.250,26.855,-95.703,-15.625,1.000,1.000
1626295255971510.500,-35.645,-5.859,-34.668,1.000,1.000
1626295255975416.750,-44.922,17.090,-26.367,1.000,1.000
1626295255979323.000,5.371,14.160,-15.137,1.000,1.000
1626295255983229.250,6.348,-11.719,-29.297,1.000,1.000
1626295255987135.500,-68.848,-94.727,-36.621,1.000,1.000
1626295255991041.750,-102.539,-33.203,-46.387,1.000,1.000
1626295255994948.000,-34.668,13.184,-42.969,1.000,1.000
1626295255998854.250,30.273,31.250,-28.809,77.148,1.000
1626295256002760.500,-19.043,-65.918,-40.527,-38.574,1.000
1626295256006666.750,-82.031,-90.332,-31.250,-145.508,1.000
1626295256010573.000,-41.016,5.859,7.812,-41.016,1.000
1626295256014479.250,25.879,26.367,-1.953,80.078,1.000
1626295256018385.500,1.465,7.812,-33.203,-1.953,1.000
1626295256022291.750,-78.125,-114.746,-44.434,-144.531,1.000
1626295256026198.000,-72.266,-63.965,-43.945,-102.539,1.000
1626295256030104.250,-7.812,8.789,-37.598,36.621,1.000
1626295256034010.500,4.395,16.602,-41.504,20.508,1.000
1626295256037916.750,-37.598,-14.160,-41.504,-103.027,1.000
1626295256041823.000,-49.316,-160.156,-24.902,-99.609,1.000
1626295256045729.250,-70.801,-20.508,-41.504,-102.051,1.000
1626295256049635.500,-0.488,-80.078,-37.109,46.875,1.000
1626295256053541.750,9.766,-69.824,-23.926,40.527,1.000
1626295256057448.000,-47.852,2.930,-16.113,-96.191,1.000
1626295256061354.250,-76.660,-11.719,-22.949,-118.652,1.000
1626295256065260.500,-29.785,-9.766,-42.480,10.254,1.000
1626295256069166.750,-3.906,-127.441,-62.500,51.270,1.000
1626295256073073.000,-54.199,-74.707,-52.734,-78.125,1.000
1626295256076979.250,-83.496,10.742,-22.461,-136.230,1.000
1626295256080885.500,-22.949,22.949,-1.953,4.395,1.000
1626295256084791.750,34.668,-20.508,-14.160,95.703,1.000
1626295256088698.000,-13.672,-187.012,-44.434,-21.484,1.000
1626295256092604.250,-42.969,1.953,-36.133,-141.602,1.000
1626295256096510.500,-92.285,-83.496,-49.805,-64.453,1.000
1626295256100416.750,-35.645,-74.219,-20.996,68.848,1.000
1626295256104323.000,28.320,19.043,1.465,30.273,1.000
1626295256108229.250,5.371,21.973,-22.949,-111.328,1.000
1626295256112135.500,-59.570,4.395,-59.570,-96.191,1.000
1626295256116041.750,-57.617,-153.809,-55.176,26.855,1.000
1626295256119948.000,5.371,-114.258,-28.320,19.531,1.000
1626295256123854.250,3.418,-8.301,-9.766,-98.633,1.000
1626295256127760.500,-57.129,2.930,-7.812,-118.652,1.000
1626295256131666.750,-62.500,-1.465,-17.090,19.531,1.000
1626295256135573.000,-9.277,-121.582,-21.973,73.730,1.000
1626295256139479.250,18.555,-51.758,-20.508,1.000,1.000
1626295256143385.500,-23.438,14.648,-21.484,1.000,1.000
1626295256147291.750,-54.199,14.648,-36.621,1.000,1.000
1626295256151198.000,-19.043,-31.738,-43.945,1.000,1.000
1626295256155104.250,12.695,-120.605,-24.902,1.000,1.000
1626295256159010.500,-29.785,-40.039,-25.391,1.000,1.000
1626295256162916.750,-87.891,5.859,-28.320,1.000,1.000
1626295256166823.000,-54.688,34.180,-21.973,1.000,1.000
1626295256170729.250,4.883,-8.301,-22.949,1.000,1.000
1626295256174635.500,-28.320,-87.891,-27.832,1.000,1.000
1626295256178541.750,-108.887,-30.762,-53.223,1.000,1.000
1626295256182448.000,-90.820,-15.625,-48.340,1.000,1.000
1626295256186354.250,-7.324,-1.465,-32.715,51.270,1.000
1626295256190260.500,-0.977,-70.801,-41.992,20.020,1.000
1626295256194166.750,-70.312,-99.609,-37.598,-125.488,1.000
1626295256198073.000,-76.660,-4.395,-27.344,-108.887,1.000
1626295256201979.250,-6.836,33.691,-1.465,39.551,1.000
1626295256205885.500,20.996,12.695,-6.836,69.336,1.000
1626295256209791.750,-43.457,-135.742,-44.922,-75.195,1.000
1626295256213698.000,-71.777,-74.707,-48.828,-126.953,1.000
1626295256217604.250,-14.160,7.812,-33.691,4.883,1.000
1626295256221510.500,25.391,15.137,-22.949,81.055,1.000
1626295256225416.750,-18.555,-4.883,-27.832,-26.855,1.000
1626295256229323.000,-91.797,-140.137,-53.711,-137.207,1.000
1626295256233229.250,-73.242,24.902,-22.949,-134.766,1.000
1626295256237135.500,-29.785,-61.035,-21.484,-14.160,1.000
1626295256241041.750,26.855,-83.008,-34.180,78.613,1.000
1626295256244948.000,3.418,-6.348,-42.969,-11.230,1.000
1626295256248854.250,-63.477,14.160,-40.527,-129.395,1.000
1626295256252760.500,-42.969,27.344,-23.926,-50.293,1.000
1626295256256666.750,2.441,-87.402,-35.156,59.570,1.000
1626295256260573.000,-17.578,-77.637,-35.156,-8.301,1.000
1626295256264479.250,-80.566,-26.855,-29.785,-138.672,1.000
1626295256268385.500,-78.613,-4.883,-33.691,-100.098,1.000
1626295256272291.750,2.930,-3.906,-7.812,60.059,1.000
1626295256276198.000,29.297,-109.375,11.230,65.430,1.000
1626295256280104.250,-52.734,-47.363,-25.879,1.000,1.000
1626295256284010.500,-97.168,-15.625,-62.500,1.000,1.000
1626295256287916.750,-28.320,-3.906,-43.457,1.000,1.000
1626295256291823.000,20.508,3.906,-25.879,1.000,1.000
1626295256295729.250,-30.762,-95.215,-39.062,1.000,1.000
1626295256299635.500,-83.008,-58.105,-47.852,1.000,1.000
1626295256303541.750,-33.203,0.977,-24.414,1.000,1.000
1626295256307448.000,21.973,20.020,-26.367,1.000,1.000
1626295256311354.250,-32.715,-6.836,-67.871,1.000,1.000
1626295256315260.500,-88.379,-59.082,-49.316,1.000,1.000
1626295256319166.750,-43.457,-14.648,-15.625,1.000,1.000
1626295256323073.000,23.926,15.625,-33.691,1.000,1.000
1626295256326979.250,22.461,16.602,-9.766,36.621,1.000
1626295256330885.500,-46.875,-76.172,-14.648,-112.793,1.000
1626295256334791.750,-82.520,-102.539,-49.316,-119.141,1.000
1626295256338698.000,-35.645,-27.832,-33.203,16.602,1.000
1626295256342604.250,-5.859,0.488,-19.043,21.973,1.000
1626295256346510.500,-49.805,-0.977,-28.320,-105.469,1.000
1626295256350416.750,-68.848,-101.074,-61.523,-121.094,1.000
1626295256354323.000,-7.812,-59.570,-50.781,20.508,1.000
1626295256358229.250,38.574,11.719,1.465,92.773,1.000
1626295256362135.500,-20.020,11.230,-1.953,-35.156,1.000
1626295256366041.750,-72.266,-28.320,-7.324,-125.488,1.000
1626295256369948.000,-43.945,-166.016,-23.926,-31.738,1.000
1626295256373854.250,-4.395,-75.195,-55.176,54.688,1.000
1626295256377760.500,-43.945,-15.625,-57.129,-48.340,1.000
1626295256381666.750,-104.004,-12.695,-50.781,-164.062,1.000
1626295256385573.000,-70.801,-22.461,-34.668,-84.473,1.000
1626295256389479.250,4.883,-89.355,-26.855,61.035,1.000
1626295256393385.500,20.020,-0.977,-35.645,41.504,1.000
1626295256397291.750,-31.250,12.207,-29.785,-91.797,1.000
1626295256401198.000,-49.805,-8.789,-10.742,-95.215,1.000
1626295256405104.250,-1.953,-24.902,-4.395,30.273,1.000
1626295256409010.500,12.695,-67.383,-22.461,44.434,1.000
1626295256412916.750,-58.594,-16.113,-50.293,-106.445,1.000
1626295256416823.000,-92.773,-3.906,-41.016,-147.461,1.000
1626295256420729.250,-19.531,7.812,-25.391,10.254,1.000
1626295256424635.500,23.926,-69.824,-46.875,79.590,1.000
1626295256428541.750,-18.066,-78.125,-28.809,-31.738,1.000
1626295256432448.000,-65.430,11.230,-11.230,-116.699,1.000
1626295256436354.250,-36.133,-5.371,-25.879,-31.250,1.000
1626295256440260.500,13.184,-21.973,-33.691,73.730,1.000
1626295256444166.750,-9.766,-139.160,-39.062,-0.977,1.000
1626295256448073.000,-76.660,-80.566,-39.062,-140.625,1.000
1626295256451979.250,-86.914,-0.977,-39.551,-104.492,1.000
1626295256455885.500,-13.672,18.555,-27.344,42.480,1.000
1626295256459791.750,22.461,6.348,-26.367,45.410,1.000
1626295256463698.000,-56.641,-134.766,-43.945,-112.305,1.000
1626295256467604.250,-80.078,10.742,-39.062,-131.836,1.000
1626295256471510.500,-79.102,-62.988,-42.969,23.926,1.000
1626295256475416.750,9.277,-69.336,-20.996,90.332,1.000
1626295256479323.000,37.109,8.789,-13.184,-41.504,1.000
1626295256483229.250,-29.297,-0.977,-25.391,-121.582,1.000
1626295256487135.500,-60.547,-24.414,-22.949,18.555,1.000
1626295256491041.750,-6.836,-158.203,-24.902,106.445,1.000
1626295256494948.000,27.832,-77.148,-24.414,-25.391,1.000
1626295256498854.250,-19.531,29.785,-36.133,-145.996,1.000
1626295256502760.500,-72.266,23.438,-45.898,-58.594,1.000
1626295256506666.750,-24.414,8.789,-6.348,68.848,1.000
1626295256510573.000,38.574,-130.371,19.043,12.695,1.000
1626295256514479.250,6.836,-58.594,-3.418,1.000,1.000
1626295256518385.500,-81.543,3.906,-39.062,1.000,1.000
1626295256522291.750,-75.684,1.953,-32.715,1.000,1.000
1626295256526198.000,-1.465,-23.438,-22.949,1.000,1.000
1626295256530104.250,-0.488,-85.938,-43.457,1.000,1.000
1626295256534010.500,-63.965,0.000,-48.828,1.000,1.000
1626295256537916.750,-74.707,46.387,-33.203,1.000,1.000
1626295256541823.000,-2.441,41.504,-23.438,1.000,1.000
1626295256545729.250,18.555,-20.996,-41.992,1.000,1.000
1626295256549635.500,-46.875,-86.914,-70.801,1.000,1.000
1626295256553541.750,-69.824,0.977,-75.684,1.000,1.000
1626295256557448.000,2.441,18.555,-49.316,1.000,1.000
1626295256561354.250,26.855,1.465,-13.672,62.012,1.000
1626295256565260.500,-46.387,-75.684,-21.484,-83.496,1.000
1626295256569166.750,-104.980,-89.355,-40.039,-170.898,1.000
1626295256573073.000,-63.477,11.719,-31.738,-57.129,1.000
1626295256576979.250,2.930,38.086,-39.551,45.410,1.000
1626295256580885.500,-14.160,27.832,-54.199,-29.297,1.000
1626295256584791.750,-74.707,-84.961,-39.062,-141.602,1.000
1626295256588698.000,-52.246,-65.918,-23.926,-81.543,1.000
1626295256592604.250,20.508,2.441,-20.996,62.988,1.000
1626295256596510.500,8.301,8.789,-33.691,26.367,1.000
1626295256600416.750,-58.594,1.465,-42.480,-120.117,1.000
1626295256604323.000,-61.523,-123.535,-31.250,-106.445,1.000
1626295256608229.250,-72.266,9.277,-37.598,-92.285,1.000
1626295256612135.500,-3.418,-60.059,-28.809,50.781,1.000
1626295256616041.750,-3.418,-80.566,-44.922,22.949,1.000
1626295256619948.000,-58.105,-3.418,-37.109,-108.887,1.000
1626295256623854.250,-67.383,2.441,-21.484,-103.027,1.000
1626295256627760.500,-12.695,13.184,-16.602,31.250,1.000
1626295256631666.750,27.832,-109.863,-21.973,66.895,1.000
1626295256635573.000,-30.273,-76.660,-40.039,-64.941,1.000
1626295256639479.250,-94.238,8.301,-35.156,-128.906,1.000
1626295256643385.500,-45.410,12.695,-35.156,-12.207,1.000
1626295256647291.750,1.953,-20.508,-46.387,68.359,1.000
1626295256651198.000,-45.410,-166.016,-42.480,-42.480,1.000
1626295256655104.250,-36.621,20.020,-46.875,-143.555,1.000
1626295256659010.500,-89.355,-76.172,-76.660,-52.734,1.000
1626295256662916.750,-22.461,-97.168,-30.762,63.477,1.000
1626295256666823.000,28.809,20.996,15.625,-0.977,1.000
1626295256670729.250,-19.531,23.438,-10.254,-133.301,1.000
1626295256674635.500,-97.168,-17.090,-44.922,-85.449,1.000
1626295256678541.750,-68.848,-145.020,-23.926,48.340,1.000
1626295256682448.000,12.207,-74.707,-3.906,34.668,1.000
1626295256686354.250,-5.859,7.812,-36.133,-117.676,1.000
1626295256690260.500,-69.336,4.395,-44.922,-148.438,1.000
1626295256694166.750,-69.336,-8.789,-34.180,-3.906,1.000
1626295256698073.000,-7.324,-137.207,-53.223,62.500,1.000
1626295256701979.250,23.926,-37.109,-42.969,70.801,1.000
1626295256705885.500,-30.273,36.621,-18.555,-75.684,1.000
1626295256709791.750,-76.660,3.906,-22.949,-125.977,1.000
1626295256713698.000,-30.762,-31.250,-34.180,3.906,1.000
1626295256717604.250,13.672,-109.863,-27.344,62.500,1.000
1626295256721510.500,-28.320,-22.461,-47.363,-53.711,1.000
1626295256725416.750,-69.824,18.066,-57.129,-129.883,1.000
1626295256729323.000,-37.109,13.184,-45.898,-26.367,1.000
1626295256733229.250,21.484,-25.879,-33.691,78.613,1.000
1626295256737135.500,5.859,-76.172,-13.184,-2.930,1.000
1626295256741041.750,-48.828,-26.367,-3.418,-119.141,1.000
1626295256744948.000,-21.484,-8.789,-8.301,-41.992,1.000
1626295256748854.250,53.711,35.156,-3.418,100.098,1.000
1626295256752760.500,34.668,-52.246,-16.113,45.410,1.000
1626295256756666.750,-54.199,-88.379,-39.062,-114.746,1.000
1626295256760573.000,-65.430,12.695,-57.129,-105.957,1.000
1626295256764479.250,2.441,19.531,-53.711,45.410,1.000
1626295256768385.500,15.137,-5.859,-41.016,59.570,1.000
1626295256772291.750,-45.410,-172.363,-50.293,-85.449,1.000
1626295256776198.000,-71.289,-124.023,-66.406,-121.094,1.000
1626295256780104.250,-15.137,-0.488,-54.688,19.043,1.000
1626295256784010.500,28.320,31.738,-17.090,85.449,1.000
1626295256787916.750,-10.254,31.250,1.953,-32.227,1.000
1626295256791823.000,-79.102,-132.324,-20.508,-136.719,1.000
1626295256795729.250,-83.008,4.883,-25.879,-139.648,1.000
1626295256799635.500,-35.645,-37.598,-21.484,-18.066,1.000
1626295256803541.750,22.461,-47.852,-11.230,72.266,1.000
1626295256807448.000,-28.809,-0.977,-36.133,-46.875,1.000
1626295256811354.250,-85.449,-0.488,-46.875,-153.809,1.000
1626295256815260.500,-28.809,18.066,-43.457,-35.156,1.000
1626295256819166.750,41.504,-90.332,-51.270,93.750,1.000
1626295256823073.000,6.836,-90.820,-19.531,2.441,1.000
1626295256826979.250,-65.430,-36.621,-5.859,-134.277,1.000
1626295256830885.500,-68.359,-5.859,-30.273,-95.703,1.000
1626295256834791.750,-5.371,-1.953,-29.297,43.457,1.000
1626295256838698.000,-15.137,-135.254,-41.992,16.113,1.000
1626295256842604.250,-75.684,-65.918,-47.363,1.000,1.000
1626295256846510.500,-86.426,13.184,-45.410,1.000,1.000
1626295256850416.750,-34.180,22.949,-53.223,1.000,1.000
1626295256854323.000,8.301,-9.277,-28.809,1.000,1.000
1626295256858229.250,-23.926,-114.258,-41.016,1.000,1.000
1626295256862135.500,-62.012,-42.480,-66.406,1.000,1.000
1626295256866041.750,-37.598,1.465,-31.738,1.000,1.000
1626295256869948.000,-3.418,10.742,-5.371,1.000,1.000
1626295256873854.250,-28.320,-14.160,-10.254,1.000,1.000
1626295256877760.500,-88.867,-97.656,-40.039,1.000,1.000
1626295256881666.750,-78.613,-40.527,-52.246,1.000,1.000
1626295256885573.000,8.789,15.137,-12.695,1.000,1.000
1626295256889479.250,11.230,24.414,1.465,18.555,1.000
1626295256893385.500,-72.266,-80.566,-33.691,-136.230,1.000
1626295256897291.750,-75.684,-89.355,-56.152,-113.770,1.000
1626295256901198.000,-6.348,20.996,-33.691,41.016,1.000
1626295256905104.250,-1.953,17.090,-24.414,39.062,1.000
1626295256909010.500,-72.754,-13.672,-46.875,-112.305,1.000
1626295256912916.750,-101.562,-152.832,-50.293,-137.207,1.000
1626295256916823.000,-39.062,-107.422,-17.090,7.812,1.000
1626295256920729.250,25.391,9.766,4.883,86.426,1.000
1626295256924635.500,-26.855,13.672,-12.207,-44.434,1.000
1626295256928541.750,-83.496,-20.508,-26.855,-132.324,1.000
1626295256932448.000,-41.016,-157.715,-41.016,-13.184,1.000
1626295256936354.250,-16.602,3.906,-13.184,20.508,1.000
1626295256940260.500,18.555,-73.730,-24.902,77.148,1.000
1626295256944166.750,-23.926,-90.820,-33.203,-47.852,1.000
1626295256948073.000,-70.801,13.672,-46.875,-127.441,1.000
1626295256951979.250,-48.828,20.508,-40.039,-36.621,1.000
1626295256955885.500,10.254,-9.766,-2.441,69.336,1.000
1626295256959791.750,-14.160,-163.574,-7.324,-11.719,1.000
1626295256963698.000,-75.195,-117.676,-28.809,-143.066,1.000
1626295256967604.250,-65.430,15.137,-23.926,-80.078,1.000
1626295256971510.500,5.859,43.457,0.977,70.801,1.000
1626295256975416.750,7.324,11.230,-11.719,37.109,1.000
1626295256979323.000,-73.730,-149.902,-57.617,-125.000,1.000
1626295256983229.250,-17.090,14.648,-40.039,-80.566,1.000
1626295256987135.500,-25.391,-44.434,-37.109,-47.363,1.000
1626295256991041.750,-13.672,-75.684,-24.414,38.574,1.000
1626295256994948.000,-21.484,-3.906,-18.066,3.906,1.000
1626295256998854.250,-83.496,-2.441,-35.156,-140.137,1.000
1626295257002760.500,-95.703,-10.742,-35.156,-139.648,1.000
1626295257006666.750,-18.555,-167.969,-30.273,24.902,1.000
1626295257010573.000,23.926,-109.863,-40.039,67.383,1.000
1626295257014479.250,-33.691,12.695,-40.039,-72.754,1.000
1626295257018385.500,-83.984,18.555,-16.113,-136.230,1.000
1626295257022291.750,-27.832,-15.137,-4.883,-2.930,1.000
1626295257026198.000,29.297,-202.637,-20.020,88.379,1.000
1626295257030104.250,5.371,-81.055,-31.738,1.000,1.000
1626295257034010.500,-52.246,36.621,-52.734,1.000,1.000
1626295257037916.750,-39.551,40.039,-42.969,1.000,1.000
1626295257041823.000,12.695,-4.395,-21.484,1.000,1.000
1626295257045729.250,-5.371,-121.094,-19.531,1.000,1.000
1626295257049635.500,-56.641,-32.227,-8.301,1.000,1.000
1626295257053541.750,-67.871,23.438,-25.391,1.000,1.000
1626295257057448.000,-11.719,25.391,-40.039,1.000,1.000
1626295257061354.250,-3.906,-43.457,-57.617,1.000,1.000
1626295257065260.500,-71.289,-119.141,-62.012,1.000,1.000
1626295257069166.750,-80.078,-8.789,-40.527,1.000,1.000
1626295257073073.000,-24.902,15.625,-37.109,1.000,1.000
1626295257076979.250,20.508,21.973,-34.180,73.730,1.000
1626295257080885.500,-32.715,-80.566,-42.480,-53.711,1.000
1626295257084791.750,-87.891,-121.094,-44.922,-134.766,1.000
1626295257088698.000,-36.133,0.488,-22.949,-13.672,1.000
1626295257092604.250,-0.488,23.926,-20.996,65.430,1.000
1626295257096510.500,-33.691,18.555,-21.484,-28.320,1.000
1626295257100416.750,-104.980,-149.414,-31.738,-150.879,1.000
1626295257104323.000,-75.195,-124.023,-24.414,-61.035,1.000
1626295257108229.250,0.000,-7.812,-11.719,76.660,1.000
1626295257112135.500,-12.695,5.859,-29.785,14.648,1.000
1626295257116041.750,-62.012,-12.207,-25.879,-105.957,1.000
1626295257119948.000,-77.148,-157.227,-34.180,-98.633,1.000
1626295257123854.250,-55.664,-0.488,-33.203,-62.500,1.000
1626295257127760.500,13.184,-67.871,-45.898,69.336,1.000
1626295257131666.750,10.254,-93.750,-51.758,22.949,1.000
1626295257135573.000,-35.156,-15.137,-22.949,-93.750,1.000
1626295257139479.250,-54.688,20.508,-12.207,-87.891,1.000
1626295257143385.500,-5.859,38.574,-18.066,38.086,1.000
1626295257147291.750,0.977,-113.770,-71.777,40.527,1.000
1626295257151198.000,-58.594,-91.797,-87.402,-93.262,1.000
1626295257155104.250,-85.449,1.465,-39.062,-141.602,1.000
1626295257159010.500,-39.062,8.301,-6.348,-15.625,1.000
1626295257162916.750,4.883,-0.488,1.953,63.965,1.000
1626295257166823.000,-36.133,-146.484,-29.297,-47.363,1.000
1626295257170729.250,-71.777,-62.500,-46.387,-127.441,1.000
1626295257174635.500,-37.598,7.812,-33.203,-45.410,1.000
1626295257178541.750,20.020,6.836,-16.602,74.707,1.000
1626295257182448.000,9.277,-10.742,-34.668,19.531,1.000
1626295257186354.250,-80.078,-116.699,-61.523,-141.602,1.000
1626295257190260.500,-76.660,-30.762,-44.434,-95.215,1.000
1626295257194166.750,11.719,25.879,-20.508,61.035,1.000
1626295257198073.000,23.438,29.297,-14.648,52.734,1.000
1626295257201979.250,-55.176,-29.785,-28.809,-96.680,1.000
1626295257205885.500,-68.359,-85.449,-21.973,-104.004,1.000
1626295257209791.750,16.113,18.066,1.465,54.199,1.000
1626295257213698.000,33.691,20.508,-20.020,76.172,1.000
1626295257217604.250,-31.738,10.254,-36.621,-66.895,1.000
1626295257221510.500,-89.844,-66.406,-41.992,-147.949,1.000
1626295257225416.750,-41.992,-78.613,-32.715,-21.484,1.000
1626295257229323.000,38.086,12.695,-17.090,91.309,1.000
1626295257233229.250,-2.441,1.953,-27.344,-20.020,1.000
1626295257237135.500,-64.453,0.488,-41.016,-125.000,1.000
1626295257241041.750,-59.082,-139.648,-52.246,-58.105,1.000
1626295257244948.000,14.648,-91.797,-23.926,77.148,1.000
1626295257248854.250,22.949,16.602,-28.809,41.992,1.000
1626295257252760.500,-49.316,8.789,-49.805,-106.934,1.000
1626295257256666.750,-65.430,-14.160,-27.344,-92.773,1.000
1626295257260573.000,-27.832,-126.465,-42.969,15.625,1.000
1626295257264479.250,6.836,-45.898,-37.109,1.000,1.000
1626295257268385.500,-60.059,-4.883,-46.387,1.000,1.000
1626295257272291.750,-93.262,-0.488,-39.062,1.000,1.000
1626295257276198.000,0.488,-3.418,0.000,1.000,1.000
1626295257280104.250,27.344,-112.793,-15.625,1.000,1.000
1626295257284010.500,-31.250,-39.551,-31.250,1.000,1.000
1626295257287916.750,-77.637,-8.301,-31.250,1.000,1.000
1626295257291823.000,-22.949,-22.461,-31.738,1.000,1.000
1626295257295729.250,23.438,-56.152,-46.875,1.000,1.000
1626295257299635.500,-30.273,-95.215,-62.500,1.000,1.000
1626295257303541.750,-83.496,6.348,-48.340,1.000,1.000
1626295257307448.000,-65.918,30.273,-21.484,1.000,1.000
1626295257311354.250,9.277,28.809,2.930,61.035,1.000
1626295257315260.500,0.488,-55.176,-26.367,8.301,1.000
1626295257319166.750,-68.848,-82.031,-37.598,-133.789,1.000
1626295257323073.000,-51.270,2.441,-5.859,-90.332,1.000
1626295257326979.250,4.395,-9.766,-16.602,46.387,1.000
1626295257330885.500,14.648,-9.766,-34.180,51.758,1.000
1626295257334791.750,-59.082,-135.254,-74.707,-104.980,1.000
1626295257338698.000,-88.867,-86.914,-64.941,-140.625,1.000
1626295257342604.250,-36.621,16.602,-25.879,-1.953,1.000
1626295257346510.500,-14.160,11.230,-23.438,38.086,1.000
1626295257350416.750,-56.152,-18.066,-37.598,-82.031,1.000
1626295257354323.000,-114.746,-172.363,-63.477,-179.688,1.000
1626295257358229.250,-83.984,-0.977,-21.973,-126.953,1.000
1626295257362135.500,-24.902,-60.547,-27.832,10.742,1.000
1626295257366041.750,34.180,-72.754,-35.156,85.938,1.000
1626295257369948.000,8.301,0.488,-9.277,-12.695,1.000
1626295257373854.250,-47.852,-1.465,0.488,-105.469,1.000
1626295257377760.500,-41.504,-18.555,-29.785,-37.109,1.000
1626295257381666.750,-5.371,-89.355,-55.176,54.688,1.000
1626295257385573.000,-24.902,-46.875,-54.688,-17.090,1.000
1626295257389479.250,-85.449,-3.418,-46.875,-144.043,1.000
1626295257393385.500,-70.312,10.254,-32.715,-83.984,1.000
1626295257397291.750,7.324,1.953,-9.766,65.918,1.000
1626295257401198.000,5.859,-157.227,-16.113,33.691,1.000
1626295257405104.250,-39.551,-58.594,-9.766,1.000,1.000
1626295257409010.500,-54.688,18.066,-22.461,1.000,1.000
1626295257412916.750,-17.090,-14.648,-42.480,1.000,1.000
1626295257416823.000,0.488,-49.316,-41.016,1.000,1.000
1626295257420729.250,-70.801,-154.297,-62.500,1.000,1.000
1626295257424635.500,-100.098,-51.270,-52.734,1.000,1.000
1626295257428541.750,-33.203,20.508,-31.738,1.000,1.000
1626295257432448.000,14.160,27.344,-15.625,1.000,1.000
1626295257436354.250,-29.297,-22.461,-18.555,1.000,1.000
1626295257440260.500,-79.590,-96.191,-48.340,1.000,1.000
1626295257444166.750,-42.480,-0.977,-42.480,1.000,1.000
1626295257448073.000,21.973,14.160,-4.883,1.000,1.000
1626295257451979.250,12.695,-4.883,-0.488,16.602,1.000
1626295257455885.500,-84.473,-100.586,-45.410,-133.789,1.000
1626295257459791.750,-80.566,-121.582,-42.969,-95.703,1.000
1626295257463698.000,37.598,19.531,-15.137,91.797,1.000
1626295257467604.250,25.879,33.691,-38.086,61.035,1.000
1626295257471510.500,-64.941,9.277,-41.992,-109.375,1.000
1626295257475416.750,-101.074,-120.117,-40.039,-144.531,1.000
1626295257479323.000,-28.809,-79.102,-39.062,-0.977,1.000
1626295257483229.250,22.461,10.254,-48.340,64.453,1.000
1626295257487135.500,-29.297,24.414,-32.227,-58.105,1.000
1626295257491041.750,-76.660,2.441,-18.066,-127.930,1.000
1626295257494948.000,-73.242,-183.105,-41.016,-49.316,1.000
1626295257498854.250,-17.578,21.484,-16.602,29.297,1.000
1626295257502760.500,3.418,-62.012,-12.207,66.406,1.000
1626295257506666.750,-46.387,-103.516,-20.020,-56.641,1.000
1626295257510573.000,-57.617,-9.766,-30.762,-99.121,1.000
1626295257514479.250,-12.207,1.465,-41.016,9.277,1.000
1626295257518385.500,36.133,-6.348,-1.465,106.445,1.000
1626295257522291.750,-32.227,-147.461,-24.902,-25.879,1.000
1626295257526198.000,-95.703,-100.586,-39.062,-156.250,1.000
1626295257530104.250,-64.941,-18.555,-30.762,-69.336,1.000
1626295257534010.500,12.207,-0.977,-37.109,70.312,1.000
1626295257537916.750,12.207,18.555,-32.227,28.320,1.000
1626295257541823.000,-83.984,-121.582,-39.062,-136.719,1.000
1626295257545729.250,-69.824,27.344,-10.254,-112.305,1.000
1626295257549635.500,-75.195,-52.246,-32.227,39.062,1.000
1626295257553541.750,-3.418,-73.730,-29.297,54.199,1.000
1626295257557448.000,20.996,0.488,-19.043,-82.031,1.000
1626295257561354.250,-54.199,-7.812,-44.434,-124.023,1.000
1626295257565260.500,-67.871,5.371,-32.715,20.508,1.000
1626295257569166.750,-27.832,-117.676,-33.691,86.426,1.000
1626295257573073.000,-6.348,-87.402,-31.250,-46.387,1.000
1626295257576979.250,-41.504,-10.254,-17.578,-154.297,1.000
1626295257580885.500,-65.430,-23.926,-19.043,-65.918,1.000
1626295257584791.750,-25.879,-31.738,-35.156,63.477,1.000
1626295257588698.000,-5.371,-149.414,-57.617,-0.488,1.000
1626295257592604.250,-24.902,-46.875,-26.367,1.000,1.000
1626295257596510.500,-69.336,17.090,-8.789,1.000,1.000
1626295257600416.750,-51.758,9.277,-18.555,1.000,1.000
1626295257604323.000,-0.488,-14.160,-30.273,1.000,1.000
1626295257608229.250,-26.367,-112.793,-49.805,1.000,1.000
1626295257612135.500,-73.242,-24.902,-46.387,1.000,1.000
1626295257616041.750,-52.734,26.367,-34.668,1.000,1.000
1626295257619948.000,30.273,41.504,-10.254,1.000,1.000
1626295257623854.250,36.133,-38.086,-19.531,1.000,1.000
1626295257627760.500,-39.062,-140.625,-29.785,1.000,1.000
1626295257631666.750,-71.289,-22.949,-30.762,1.000,1.000
1626295257635573.000,-32.715,14.160,-34.668,1.000,1.000
1626295257639479.250,6.348,1.953,-27.344,53.223,1.000
1626295257643385.500,-56.641,-70.312,-61.523,-96.680,1.000
1626295257647291.750,-105.469,-95.215,-62.988,-167.480,1.000
1626295257651198.000,-36.133,2.441,-30.273,-20.020,1.000
1626295257655104.250,21.484,20.020,-31.738,70.801,1.000
1626295257659010.500,-7.324,26.855,-39.551,-20.996,1.000
1626295257662916.750,-76.660,-134.277,-80.078,-137.695,1.000
1626295257666823.000,-47.852,-100.098,-67.871,-52.734,1.000
1626295257670729.250,37.598,33.691,-9.277,90.332,1.000
1626295257674635.500,13.672,17.090,0.977,21.973,1.000
1626295257678541.750,-82.031,-28.809,-18.555,-143.066,1.000
1626295257682448.000,-101.562,-183.594,-39.062,-133.789,1.000
1626295257686354.250,-66.406,13.672,-29.785,-57.129,1.000
1626295257690260.500,1.953,-67.383,-20.508,68.848,1.000
1626295257694166.750,-9.277,-86.426,-34.180,16.113,1.000
1626295257698073.000,-76.660,2.441,-48.340,-124.023,1.000
1626295257701979.250,-71.777,5.859,-28.320,-96.680,1.000
1626295257705885.500,0.488,21.484,-2.930,60.059,1.000
1626295257709791.750,-3.418,-91.797,-37.109,46.875,1.000
1626295257713698.000,-55.664,-64.941,-41.992,-95.215,1.000
1626295257717604.250,-70.312,12.695,-23.438,-116.211,1.000
1626295257721510.500,-1.953,20.020,-20.996,33.203,1.000
1626295257725416.750,51.270,14.648,-22.461,107.422,1.000
1626295257729323.000,-14.648,-150.879,-26.855,-31.738,1.000
1626295257733229.250,-65.918,-79.102,-11.719,1.000,1.000
1626295257737135.500,-30.273,-0.977,-27.832,1.000,1.000
1626295257741041.750,26.367,9.277,-35.156,1.000,1.000
1626295257744948.000,6.836,5.859,-14.160,1.000,1.000
1626295257748854.250,-75.684,-118.164,-42.969,1.000,1.000
1626295257752760.500,-64.453,-48.340,-45.898,1.000,1.000
1626295257756666.750,19.043,25.391,-7.324,1.000,1.000
1626295257760573.000,29.785,41.992,5.371,1.000,1.000
1626295257764479.250,-55.176,-15.137,-19.531,1.000,1.000
1626295257768385.500,-91.309,-89.355,-36.133,1.000,1.000
1626295257772291.750,-17.090,-4.883,-33.203,1.000,1.000
1626295257776198.000,18.066,12.695,-30.273,1.000,1.000
1626295257780104.250,-32.715,-1.953,-22.949,-67.383,1.000
1626295257784010.500,-72.754,-96.191,-48.340,-119.141,1.000
1626295257787916.750,-32.227,-125.488,-63.477,-0.977,1.000
1626295257791823.000,7.812,4.883,-40.039,68.848,1.000
1626295257795729.250,-34.668,26.367,-31.738,-51.758,1.000
1626295257799635.500,-67.871,-0.977,-23.438,-125.977,1.000
1626295257803541.750,-39.062,-135.742,-37.598,-33.203,1.000
1626295257807448.000,20.020,-66.406,-29.297,82.031,1.000
1626295257811354.250,-0.488,44.922,-18.555,13.672,1.000
1626295257815260.500,-75.195,19.043,-29.297,-133.301,1.000
1626295257819166.750,-75.684,-15.137,-29.785,-101.562,1.000
1626295257823073.000,-16.113,-140.625,-41.504,26.367,1.000
1626295257826979.250,21.973,-52.246,-25.879,1.000,1.000
1626295257830885.500,-30.762,-4.883,-29.785,1.000,1.000
1626295257834791.750,-53.711,1.953,-39.551,1.000,1.000
1626295257838698.000,10.742,-10.254,-32.715,1.000,1.000
1626295257842604.250,17.578,-137.207,-39.062,1.000,1.000
1626295257846510.500,-40.039,-36.133,-29.785,1.000,1.000
1626295257850416.750,-76.172,27.344,-30.762,1.000,1.000
1626295257854323.000,-20.508,35.645,-6.348,1.000,1.000
1626295257858229.250,28.320,-2.930,2.441,1.000,1.000
1626295257862135.500,-29.785,-99.121,-45.898,1.000,1.000
1626295257866041.750,-77.637,-19.531,-44.922,1.000,1.000
1626295257869948.000,-42.480,31.250,-17.578,1.000,1.000
1626295257873854.250,20.020,31.250,-8.789,78.125,1.000
1626295257877760.500,14.648,-49.805,-21.973,25.391,1.000
1626295257881666.750,-53.223,-95.215,-55.664,-115.723,1.000
1626295257885573.000,-57.617,-20.996,-45.898,-90.820,1.000
1626295257889479.250,6.348,5.371,-8.789,58.105,1.000
1626295257893385.500,22.949,31.250,0.488,62.500,1.000
1626295257897291.750,-52.734,-116.699,-19.043,-98.633,1.000
1626295257901198.000,-83.984,-107.910,-14.160,-129.883,1.000
1626295257905104.250,-17.578,17.090,-13.184,15.137,1.000
1626295257909010.500,26.367,39.551,-20.996,67.383,1.000
1626295257912916.750,-41.016,-13.184,-43.945,-81.543,1.000
1626295257916823.000,-117.676,-175.781,-81.543,-179.688,1.000
1626295257920729.250,-71.777,29.297,-28.809,-125.000,1.000
1626295257924635.500,-17.090,-49.316,-32.227,16.113,1.000
1626295257928541.750,9.277,-100.098,-64.941,67.871,1.000
1626295257932448.000,-38.574,-8.789,-55.664,-58.594,1.000
1626295257936354.250,-80.078,24.414,4.883,-129.395,1.000
1626295257940260.500,-37.109,33.691,6.348,-11.230,1.000
1626295257944166.750,-13.672,-118.652,-47.363,61.035,1.000
1626295257948073.000,-36.133,-98.145,-34.180,-20.020,1.000
1626295257951979.250,-81.543,-18.555,-11.719,-131.348,1.000
1626295257955885.500,-73.730,-30.273,-21.973,-81.543,1.000
1626295257959791.750,-1.465,-24.414,-27.832,57.617,1.000
1626295257963698.000,-21.973,-174.316,-61.035,-2.441,1.000
1626295257967604.250,-74.219,-71.777,-41.504,-133.301,1.000
1626295257971510.500,-66.895,24.902,-25.391,-100.586,1.000
1626295257975416.750,-1.465,25.391,-20.020,50.293,1.000
1626295257979323.000,20.508,-6.836,-14.648,64.453,1.000
1626295257983229.250,-54.688,-125.488,-46.875,-91.309,1.000
1626295257987135.500,-64.941,-41.016,-34.668,-109.863,1.000
1626295257991041.750,1.465,18.066,-19.043,38.086,1.000
1626295257994948.000,32.715,39.551,-28.809,91.797,1.000
1626295257998854.250,-27.832,-27.832,-41.504,-50.293,1.000
1626295258002760.500,-90.820,-125.000,-50.781,-151.855,1.000
1626295258006666.750,-53.711,-13.184,-46.875,-54.199,1.000
1626295258010573.000,13.672,36.133,-27.344,63.965,1.000
1626295258014479.250,16.602,42.969,-7.324,16.602,1.000
1626295258018385.500,-62.012,-41.992,-21.484,-123.047,1.000
1626295258022291.750,-66.895,-84.473,-20.020,-79.102,1.000
1626295258026198.000,21.484,11.719,0.000,88.867,1.000
1626295258030104.250,21.973,22.461,-14.160,63.965,1.000
1626295258034010.500,-36.621,0.488,-30.762,-79.590,1.000
1626295258037916.750,-74.219,-133.789,-58.594,-104.004,1.000
1626295258041823.000,-28.320,-86.426,-53.223,19.531,1.000
1626295258045729.250,12.207,7.324,-23.926,57.617,1.000
1626295258049635.500,-49.805,4.395,-29.785,-81.543,1.000
1626295258053541.750,-91.309,-16.113,-40.039,-140.137,1.000
1626295258057448.000,-56.641,-160.645,-53.711,-23.926,1.000
1626295258061354.250,-4.883,12.207,-27.344,28.320,1.000
1626295258065260.500,21.484,-68.848,-57.617,68.359,1.000
1626295258069166.750,-20.020,-88.379,-45.898,-53.223,1.000
1626295258073073.000,-59.082,2.441,-3.418,-118.164,1.000
1626295258076979.250,-13.184,17.090,-0.977,9.277,1.000
1626295258080885.500,43.945,38.086,-13.672,113.281,1.000
1626295258084791.750,-9.277,-87.891,-55.664,-12.207,1.000
1626295258088698.000,-81.055,-78.125,-51.758,-141.602,1.000
1626295258092604.250,-67.383,9.766,-22.949,-68.848,1.000
1626295258096510.500,-4.395,7.812,-9.277,57.617,1.000
1626295258100416.750,0.977,-12.695,-15.137,17.090,1.000
1626295258104323.000,-67.871,-137.207,-25.879,-117.676,1.000
1626295258108229.250,-58.105,11.230,-34.668,-79.102,1.000
1626295258112135.500,-58.594,-83.008,-43.945,82.031,1.000
1626295258116041.750,-4.395,-117.676,-34.668,83.984,1.000
1626295258119948.000,17.090,-10.254,-16.113,-74.707,1.000
1626295258123854.250,-22.461,17.090,-7.812,-116.211,1.000
1626295258127760.500,-58.105,15.625,-31.250,21.484,1.000
1626295258131666.750,-26.855,-126.953,-47.852,63.965,1.000
1626295258135573.000,3.906,-90.332,-48.340,-58.594,1.000
1626295258139479.250,-42.969,15.625,-51.758,-136.230,1.000
1626295258143385.500,-64.453,31.250,-30.273,-45.410,1.000
1626295258147291.750,-15.137,4.883,-25.879,63.477,1.000
1626295258151198.000,8.301,-176.758,-30.273,6.836,1.000
1626295258155104.250,-23.438,-97.168,-24.902,1.000,1.000
1626295258159010.500,-62.988,0.488,-29.785,1.000,1.000
1626295258162916.750,-42.480,17.578,-28.809,1.000,1.000
1626295258166823.000,12.207,4.395,-30.273,1.000,1.000
1626295258170729.250,4.395,-100.586,-24.902,1.000,1.000
1626295258174635.500,-46.387,-15.137,-19.043,1.000,1.000
1626295258178541.750,-55.664,1.465,-26.855,1.000,1.000
1626295258182448.000,-5.371,2.441,-25.391,1.000,1.000
1626295258186354.250,2.441,-17.090,-38.574,1.000,1.000
1626295258190260.500,-62.988,-108.887,-66.895,1.000,1.000
1626295258194166.750,-64.453,-16.602,-46.387,1.000,1.000
1626295258198073.000,6.348,10.254,-22.461,1.000,1.000
1626295258201979.250,24.414,1.953,-28.320,64.941,1.000
1626295258205885.500,-30.273,-44.434,-32.715,-74.219,1.000
1626295258209791.750,-63.965,-79.102,-26.367,-123.047,1.000
1626295258213698.000,-8.789,6.348,1.953,13.672,1.000
1626295258217604.250,35.156,37.109,-10.254,90.332,1.000
1626295258221510.500,-14.648,19.531,-37.109,-31.738,1.000
1626295258225416.750,-82.520,-136.230,-32.715,-143.555,1.000
1626295258229323.000,-58.594,-94.727,-30.273,-54.688,1.000
1626295258233229.250,7.324,21.484,-26.855,67.383,1.000
1626295258237135.500,-0.488,33.691,-37.109,8.301,1.000
1626295258241041.750,-64.453,-11.719,-31.738,-121.582,1.000
1626295258244948.000,-70.312,-203.613,-7.324,-86.914,1.000
1626295258248854.250,-62.988,28.320,-17.578,-49.316,1.000
1626295258252760.500,-1.953,-36.133,-45.410,70.312,1.000
1626295258256666.750,0.000,-71.777,-51.270,19.531,1.000
1626295258260573.000,-73.242,11.230,-40.527,-134.277,1.000
1626295258264479.250,-84.473,20.996,-20.508,-114.746,1.000
1626295258268385.500,-9.766,30.273,-16.602,35.645,1.000
1626295258272291.750,5.371,-95.215,-42.969,31.250,1.000
1626295258276198.000,-57.129,-85.938,-47.363,-108.887,1.000
1626295258280104.250,-86.914,-10.742,-30.273,-138.672,1.000
1626295258284010.500,-17.090,-9.766,-32.715,8.789,1.000
1626295258287916.750,33.203,-41.016,-59.082,85.449,1.000
1626295258291823.000,-23.438,-170.410,-50.293,-43.457,1.000
1626295258295729.250,-79.102,-35.156,-32.227,1.000,1.000
1626295258299635.500,-47.852,53.711,-27.832,1.000,1.000
1626295258303541.750,13.672,40.039,-25.391,1.000,1.000
1626295258307448.000,-11.719,-4.395,-38.574,1.000,1.000
1626295258311354.250,-75.195,-120.605,-34.180,1.000,1.000
1626295258315260.500,-65.430,-39.062,-26.367,1.000,1.000
1626295258319166.750,0.977,10.254,-39.062,1.000,1.000
1626295258323073.000,11.230,12.695,-49.316,1.000,1.000
1626295258326979.250,-53.223,-20.508,-42.969,1.000,1.000
1626295258330885.500,-65.430,-88.867,-35.156,1.000,1.000
1626295258334791.750,9.766,-23.438,-28.320,1.000,1.000
1626295258338698.000,40.527,-22.949,-21.484,1.000,1.000
1626295258342604.250,-24.902,-10.742,-32.227,-64.941,1.000
1626295258346510.500,-68.848,-36.133,-42.480,-117.676,1.000
1626295258350416.750,-25.391,-57.617,-32.227,8.789,1.000
1626295258354323.000,21.484,22.949,-31.738,76.660,1.000
1626295258358229.250,-23.926,29.297,-45.410,-53.223,1.000
1626295258362135.500,-85.938,18.555,-33.691,-155.273,1.000
1626295258366041.750,-63.477,-129.883,-34.180,-54.688,1.000
1626295258369948.000,5.371,-97.656,-39.062,60.059,1.000
1626295258373854.250,7.812,16.113,-34.180,-2.441,1.000
1626295258377760.500,-40.527,-16.113,-32.715,-110.352,1.000
1626295258381666.750,-18.066,-38.086,-34.668,-41.992,1.000
1626295258385573.000,16.602,-123.535,-44.922,71.777,1.000
1626295258389479.250,3.418,-24.414,-29.297,1.000,1.000
1626295258393385.500,-58.105,35.645,-6.836,1.000,1.000
1626295258397291.750,-88.379,17.578,-6.836,1.000,1.000
1626295258401198.000,-37.598,-12.207,-20.020,1.000,1.000
1626295258405104.250,-15.137,-133.301,-38.086,1.000,1.000
1626295258409010.500,-68.848,-46.875,-42.480,1.000,1.000
1626295258412916.750,-104.004,-7.812,-34.180,1.000,1.000
1626295258416823.000,-45.898,-15.137,-21.973,1.000,1.000
1626295258420729.250,2.441,-21.973,-22.461,1.000,1.000
1626295258424635.500,-43.457,-97.168,-36.133,1.000,1.000
1626295258428541.750,-95.215,-27.832,-38.574,1.000,1.000
1626295258432448.000,-53.223,22.949,-25.879,1.000,1.000
1626295258436354.250,28.809,42.969,-8.789,90.332,1.000
1626295258440260.500,25.391,-44.434,-15.137,31.250,1.000
1626295258444166.750,-57.129,-113.281,-50.293,-115.234,1.000
1626295258448073.000,-73.242,-30.762,-59.570,-87.402,1.000
1626295258451979.250,8.789,-10.742,-38.086,63.965,1.000
1626295258455885.500,21.484,0.488,-31.738,47.852,1.000
1626295258459791.750,-70.801,-139.160,-37.598,-123.047,1.000
1626295258463698.000,-91.797,-91.309,-25.391,-130.859,1.000
1626295258467604.250,-15.137,42.480,-18.555,25.391,1.000
1626295258471510.500,14.648,51.270,-22.949,60.059,1.000
1626295258475416.750,-45.898,20.996,-33.203,-80.078,1.000
1626295258479323.000,-76.172,-153.809,-63.965,-131.348,1.000
1626295258483229.250,-109.375,2.441,-59.082,-2.441,1.000
1626295258487135.500,-57.129,-27.344,-45.898,76.660,1.000
1626295258491041.750,-3.906,-64.941,-30.762,-31.738,1.000
1626295258494948.000,-46.387,-12.207,-31.738,-149.902,1.000
1626295258498854.250,-94.727,-2.441,-29.297,-73.730,1.000
1626295258502760.500,-44.434,7.324,-23.438,67.383,1.000
1626295258506666.750,-1.465,-125.977,-25.879,9.277,1.000
1626295258510573.000,-31.738,-82.520,-38.086,-126.953,1.000
1626295258514479.250,-69.336,12.695,-54.199,-76.660,1.000
1626295258518385.500,-48.340,1.953,-33.691,63.965,1.000
1626295258522291.750,3.906,3.906,-21.973,57.617,1.000
1626295258526198.000,-10.254,-151.855,-59.570,-102.051,1.000
1626295258530104.250,-76.660,-69.336,-51.758,1.000,1.000
1626295258534010.500,-85.938,25.391,-10.254,1.000,1.000
1626295258537916.750,-20.996,21.973,-6.836,1.000,1.000
1626295258541823.000,7.324,4.883,-16.113,1.000,1.000
1626295258545729.250,-41.992,-103.027,-20.508,1.000,1.000
1626295258549635.500,-74.219,-50.781,-25.879,1.000,1.000
1626295258553541.750,-21.484,8.301,-20.996,1.000,1.000
1626295258557448.000,34.180,28.320,-16.602,1.000,1.000
1626295258561354.250,-21.484,-41.504,-33.691,1.000,1.000
1626295258565260.500,-93.262,-123.047,-44.922,1.000,1.000
1626295258569166.750,-46.387,-13.672,-26.367,1.000,1.000
1626295258573073.000,25.391,30.762,-12.207,1.000,1.000
1626295258576979.250,1.953,33.691,-20.508,4.395,1.000
1626295258580885.500,-72.266,-53.223,-45.410,-134.766,1.000
1626295258584791.750,-60.059,-102.051,-39.062,-75.684,1.000
1626295258588698.000,16.113,1.465,-21.973,75.195,1.000
1626295258592604.250,26.367,23.438,-25.391,42.480,1.000
1626295258596510.500,-30.762,7.324,-26.367,-93.750,1.000
1626295258600416.750,-61.035,-100.586,-29.785,-95.703,1.000
1626295258604323.000,-0.977,-66.406,-28.809,44.922,1.000
1626295258608229.250,27.344,1.465,-34.668,69.824,1.000
1626295258612135.500,-47.852,-13.672,-33.203,-84.961,1.000
1626295258616041.750,-96.191,-37.109,-47.852,-145.996,1.000
1626295258619948.000,-47.363,-186.523,-39.551,-17.090,1.000
1626295258623854.250,-15.137,26.367,-15.137,33.691,1.000
1626295258627760.500,16.113,-54.688,-23.438,63.965,1.000
1626295258631666.750,-46.875,-133.301,-41.992,-79.590,1.000
1626295258635573.000,-80.078,-29.785,-34.668,-133.301,1.000
1626295258639479.250,-24.414,9.277,-36.621,0.488,1.000
1626295258643385.500,20.996,15.625,-16.602,81.055,1.000
1626295258647291.750,-32.715,-127.930,-27.832,-51.270,1.000
1626295258651198.000,-98.145,-109.863,-51.270,-170.410,1.000
1626295258655104.250,-48.340,23.926,-21.484,-62.500,1.000
1626295258659010.500,26.855,42.969,-1.465,68.359,1.000
1626295258662916.750,7.324,2.441,-27.344,8.301,1.000
1626295258666823.000,-71.777,-167.480,-72.266,-133.301,1.000
1626295258670729.250,-38.086,22.461,-54.688,-88.867,1.000
1626295258674635.500,-33.691,-65.918,-53.223,63.965,1.000
1626295258678541.750,12.695,-103.516,-37.598,51.758,1.000
1626295258682448.000,15.625,5.371,-16.113,-104.004,1.000
1626295258686354.250,-41.992,30.273,-16.113,-130.371,1.000
1626295258690260.500,-53.711,32.227,-38.086,25.879,1.000
1626295258694166.750,-18.555,-93.262,-58.105,65.918,1.000
1626295258698073.000,8.789,-74.707,-46.875,-78.613,1.000
1626295258701979.250,-35.156,-6.348,-42.480,-145.508,1.000
1626295258705885.500,-68.848,4.883,-49.805,-16.602,1.000
1626295258709791.750,-13.184,7.812,-28.320,86.914,1.000
1626295258713698.000,-1.953,-173.828,-44.434,-7.812,1.000
1626295258717604.250,-37.598,-98.145,-53.711,1.000,1.000
1626295258721510.500,-85.938,4.395,-47.852,1.000,1.000
1626295258725416.750,-65.918,21.973,-39.062,1.000,1.000
1626295258729323.000,-0.977,10.742,-30.273,1.000,1.000
1626295258733229.250,-30.273,-114.746,-36.133,1.000,1.000
1626295258737135.500,-95.703,-39.551,-32.227,1.000,1.000
1626295258741041.750,-67.871,12.207,-25.391,1.000,1.000
1626295258744948.000,11.719,-4.883,-27.832,1.000,1.000
1626295258748854.250,8.301,-59.570,-36.621,1.000,1.000
1626295258752760.500,-62.988,-130.371,-47.363,1.000,1.000
1626295258756666.750,-69.336,-18.066,-36.133,1.000,1.000
1626295258760573.000,-6.836,53.223,-12.695,1.000,1.000
1626295258764479.250,6.836,52.734,-12.207,59.082,1.000
1626295258768385.500,-69.824,-32.227,-53.711,-98.145,1.000
1626295258772291.750,-106.445,-84.961,-51.270,-152.832,1.000
1626295258776198.000,-51.270,-34.668,-22.461,-12.207,1.000
1626295258780104.250,1.953,-26.855,-11.230,70.312,1.000
1626295258784010.500,-20.020,-5.371,-10.254,-29.785,1.000
1626295258787916.750,-73.730,-103.027,-31.738,-122.070,1.000
1626295258791823.000,-53.223,-73.242,-29.785,-28.320,1.000
1626295258795729.250,4.883,17.090,-14.648,76.660,1.000
1626295258799635.500,4.395,22.461,-3.418,12.207,1.000
1626295258803541.750,-54.688,-2.930,-0.488,-105.469,1.000
1626295258807448.000,-75.684,-152.344,-31.738,-78.125,1.000
1626295258811354.250,-52.734,40.039,-31.250,-48.340,1.000
1626295258815260.500,11.719,-53.223,-20.996,70.312,1.000
1626295258819166.750,-4.883,-143.066,-29.785,16.602,1.000
1626295258823073.000,-81.543,-30.273,-55.176,-126.953,1.000
1626295258826979.250,-77.148,13.672,-57.617,-94.727,1.000
1626295258830885.500,4.395,31.250,-20.508,62.500,1.000
1626295258834791.750,0.977,-82.031,-21.484,42.969,1.000
1626295258838698.000,-60.059,-72.266,-45.410,-101.562,1.000
1626295258842604.250,-67.383,7.812,-26.855,-100.586,1.000
1626295258846510.500,-8.789,12.207,-7.324,38.574,1.000
1626295258850416.750,19.531,21.484,-13.184,75.195,1.000
1626295258854323.000,-39.062,-122.070,-26.367,-61.523,1.000
1626295258858229.250,-79.590,-76.660,-26.855,1.000,1.000
1626295258862135.500,-24.902,-9.277,-22.949,1.000,1.000
1626295258866041.750,37.598,11.719,-6.836,1.000,1.000
1626295258869948.000,6.348,-7.324,-16.602,1.000,1.000
1626295258873854.250,-64.453,-142.578,-40.039,1.000,1.000
1626295258877760.500,-54.199,-51.270,-38.574,1.000,1.000
1626295258881666.750,15.137,28.320,-32.227,1.000,1.000
1626295258885573.000,20.996,40.527,-24.902,1.000,1.000
1626295258889479.250,-41.504,5.859,-17.090,1.000,1.000
1626295258893385.500,-59.082,-75.684,-18.555,1.000,1.000
1626295258897291.750,19.531,-13.184,-6.836,1.000,1.000
1626295258901198.000,62.500,-3.906,-11.719,1.000,1.000
1626295258905104.250,-21.973,-8.301,-34.668,-62.988,1.000
1626295258909010.500,-61.523,-65.430,-28.809,-105.957,1.000
1626295258912916.750,-4.395,-79.590,-12.695,26.855,1.000
1626295258916823.000,20.508,38.086,-41.504,75.684,1.000
1626295258920729.250,-32.715,37.109,-45.410,-56.152,1.000
1626295258924635.500,-87.402,15.625,-20.996,-149.414,1.000
1626295258928541.750,-56.152,-106.934,-23.926,-42.480,1.000
1626295258932448.000,13.184,-83.984,-17.090,76.660,1.000
1626295258936354.250,-10.742,-2.930,-19.043,-13.184,1.000
1626295258940260.500,-72.266,-13.672,-32.227,-139.648,1.000
1626295258944166.750,-42.480,-18.066,-14.648,-59.082,1.000
1626295258948073.000,35.156,-163.574,-5.859,88.379,1.000
1626295258951979.250,29.297,-97.656,-35.645,41.504,1.000
1626295258955885.500,-39.551,2.441,-45.898,-112.305,1.000
1626295258959791.750,-56.152,28.809,-29.785,-106.445,1.000
1626295258963698.000,-20.508,-13.184,-41.016,16.602,1.000
1626295258967604.250,-4.883,-143.066,-68.359,28.809,1.000
1626295258971510.500,-42.480,-22.461,-74.219,-95.703,1.000
1626295258975416.750,-82.520,9.766,-60.547,-148.926,1.000
1626295258979323.000,-33.203,-15.625,-28.809,-11.719,1.000
1626295258983229.250,19.043,-15.137,-14.160,73.242,1.000
1626295258987135.500,-11.719,-87.891,-25.879,-34.180,1.000
1626295258991041.750,-41.992,-37.109,-24.414,-112.793,1.000
1626295258994948.000,1.465,6.348,-15.137,-6.348,1.000
1626295258998854.250,55.176,48.828,-13.672,98.633,1.000
1626295259002760.500,2.441,-35.156,-32.227,-11.719,1.000
1626295259006666.750,-89.355,-106.445,-59.082,-162.109,1.000
1626295259010573.000,-67.383,-1.465,-53.223,-93.750,1.000
1626295259014479.250,28.320,20.508,-36.621,70.801,1.000
1626295259018385.500,41.992,10.742,-43.945,45.410,1.000
1626295259022291.750,-40.527,-139.648,-65.430,-114.258,1.000
1626295259026198.000,-54.688,-98.633,-48.828,-104.492,1.000
1626295259030104.250,23.926,35.645,-27.344,62.500,1.000
1626295259034010.500,51.758,29.297,-28.320,89.844,1.000
1626295259037916.750,-19.531,-0.977,-41.992,-61.035,1.000
1626295259041823.000,-69.824,-154.785,-58.105,-124.512,1.000
1626295259045729.250,-48.828,20.508,-8.301,35.156,1.000
1626295259049635.500,-2.441,-39.551,-10.742,117.188,1.000
1626295259053541.750,25.879,-74.707,-26.855,-19.531,1.000
1626295259057448.000,-26.367,2.441,-37.598,-140.137,1.000
1626295259061354.250,-85.449,7.324,-31.738,-67.383,1.000
1626295259065260.500,-33.691,22.949,-20.020,80.078,1.000
1626295259069166.750,16.113,-104.980,-39.062,28.320,1.000
1626295259073073.000,-20.508,-87.891,-48.340,-123.535,1.000
1626295259076979.250,-70.312,7.812,-42.969,-83.984,1.000
1626295259080885.500,-37.109,-0.488,-28.809,69.824,1.000
1626295259084791.750,43.457,7.812,-12.207,69.824,1.000
1626295259088698.000,30.273,-151.367,-35.156,-73.242,1.000
1626295259092604.250,-50.293,-90.820,-32.715,1.000,1.000
1626295259096510.500,-68.848,4.883,-14.648,1.000,1.000
1626295259100416.750,-1.953,34.180,-24.414,1.000,1.000
1626295259104323.000,1.953,19.043,-44.922,1.000,1.000
1626295259108229.250,-80.566,-108.887,-50.781,1.000,1.000
1626295259112135.500,-78.613,-35.645,-28.320,1.000,1.000
1626295259116041.750,-3.418,13.184,-16.113,1.000,1.000
1626295259119948.000,41.504,2.441,-15.625,1.000,1.000
1626295259123854.250,-10.742,-40.527,-33.203,1.000,1.000
1626295259127760.500,-89.355,-96.191,-58.594,1.000,1.000
1626295259131666.750,-27.344,22.461,-28.320,1.000,1.000
1626295259135573.000,30.762,49.316,-10.742,1.000,1.000
1626295259139479.250,-35.645,25.879,-36.621,-43.945,1.000
1626295259143385.500,-108.398,-33.203,-56.152,-179.199,1.000
1626295259147291.750,-89.355,-57.129,-40.527,-109.375,1.000
1626295259151198.000,-26.855,26.855,-27.344,28.809,1.000
1626295259155104.250,-32.227,20.508,-34.668,-13.672,1.000
1626295259159010.500,-96.191,-5.859,-41.016,-158.691,1.000
1626295259162916.750,-108.887,-128.906,-44.922,-154.785,1.000
1626295259166823.000,-15.137,-66.895,-38.086,13.184,1.000
1626295259170729.250,8.789,36.133,-55.176,24.414,1.000
1626295259174635.500,-61.035,18.555,-65.430,-134.277,1.000
1626295259178541.750,-79.590,5.859,-47.852,-156.738,1.000
1626295259182448.000,-39.062,-154.785,-63.965,-30.273,1.000
1626295259186354.250,-8.789,38.086,-32.227,45.898,1.000
1626295259190260.500,13.672,-34.668,-18.066,73.730,1.000
1626295259194166.750,-58.594,-115.234,-39.062,-83.008,1.000
1626295259198073.000,-78.613,-11.230,-24.414,-121.582,1.000
1626295259201979.250,-20.020,35.156,2.441,13.672,1.000
1626295259205885.500,16.113,42.480,-1.465,80.566,1.000
1626295259209791.750,-48.340,-119.629,-38.086,-58.105,1.000
1626295259213698.000,-100.098,-135.254,-49.805,-159.180,1.000
1626295259217604.250,-46.875,-17.090,-32.715,-42.480,1.000
1626295259221510.500,3.906,13.672,-32.715,64.941,1.000
1626295259225416.750,-27.344,11.230,-54.688,-17.578,1.000
1626295259229323.000,-97.168,-167.969,-64.453,-149.414,1.000
1626295259233229.250,-79.590,5.859,-38.086,-93.262,1.000
1626295259237135.500,-74.219,-54.688,-46.875,46.387,1.000
1626295259241041.750,-17.090,-98.633,-46.875,24.902,1.000
1626295259244948.000,-7.812,-12.207,-46.875,-119.141,1.000
1626295259248854.250,-72.754,-16.113,-42.480,-143.555,1.000
1626295259252760.500,-61.035,-5.859,-8.789,17.090,1.000
1626295259256666.750,-9.766,-117.676,-9.766,77.637,1.000
1626295259260573.000,0.977,-87.891,-25.391,-55.176,1.000
1626295259264479.250,-41.992,20.996,-33.691,-136.230,1.000
1626295259268385.500,-58.594,20.996,-18.066,-31.738,1.000
1626295259272291.750,5.859,16.113,12.695,75.195,1.000
1626295259276198.000,9.277,-141.113,-11.719,-21.973,1.000
1626295259280104.250,-58.594,-79.102,-41.016,1.000,1.000
1626295259284010.500,-87.891,-6.348,-40.527,1.000,1.000
1626295259287916.750,-13.672,16.113,-22.949,1.000,1.000
1626295259291823.000,33.203,-7.812,-20.996,1.000,1.000
1626295259295729.250,-30.762,-185.547,-29.297,1.000,1.000
1626295259299635.500,-89.844,-76.660,-22.949,1.000,1.000
1626295259303541.750,-60.059,34.180,-12.207,1.000,1.000
1626295259307448.000,17.578,38.086,3.906,1.000,1.000
1626295259311354.250,5.371,-29.297,-4.395,1.000,1.000
1626295259315260.500,-65.430,-138.672,-12.207,1.000,1.000
1626295259319166.750,-56.641,-31.738,9.277,1.000,1.000
1626295259323073.000,-7.324,7.324,-6.348,1.000,1.000
1626295259326979.250,2.441,-0.488,-39.551,61.523,1.000
1626295259330885.500,-72.754,-67.871,-62.500,-100.098,1.000
1626295259334791.750,-113.770,-128.418,-55.176,-145.020,1.000
1626295259338698.000,-28.809,-27.344,-6.348,20.508,1.000
1626295259342604.250,27.344,2.930,8.301,86.426,1.000
1626295259346510.500,-18.555,-38.574,1.465,-42.969,1.000
1626295259350416.750,-68.848,-163.574,-20.020,-125.977,1.000
1626295259354323.000,-22.949,-82.031,-24.414,-7.812,1.000
1626295259358229.250,37.598,35.645,-11.230,100.586,1.000
1626295259362135.500,0.488,29.785,-29.297,-3.418,1.000
1626295259366041.750,-79.102,4.883,-43.457,-134.766,1.000
1626295259369948.000,-79.102,-168.457,-32.227,-84.473,1.000
1626295259373854.250,-57.617,10.254,-9.277,-43.945,1.000
1626295259377760.500,11.230,-48.828,-13.672,80.566,1.000
1626295259381666.750,-17.578,-122.559,-41.016,-1.465,1.000
1626295259385573.000,-83.496,-62.988,-48.340,-136.719,1.000
1626295259389479.250,-69.336,-35.156,-42.480,-85.938,1.000
1626295259393385.500,7.324,20.996,-22.949,67.383,1.000
1626295259397291.750,35.645,-48.340,-2.441,67.383,1.000
1626295259401198.000,-45.898,-66.406,-19.043,-93.750,1.000
1626295259405104.250,-94.727,6.836,-34.180,-129.883,1.000
1626295259409010.500,-47.363,24.414,-33.203,0.000,1.000
1626295259412916.750,-23.926,-0.488,-38.086,25.391,1.000
1626295259416823.000,-65.918,-172.852,-39.062,-101.074,1.000
1626295259420729.250,-91.797,-99.121,-42.969,1.000,1.000
1626295259424635.500,-47.852,-3.906,-43.457,1.000,1.000
1626295259428541.750,7.812,-5.859,-30.762,1.000,1.000
1626295259432448.000,-13.184,-23.438,-25.879,1.000,1.000
1626295259436354.250,-80.078,-126.465,-31.738,1.000,1.000
1626295259440260.500,-51.270,-16.602,-26.855,1.000,1.000
1626295259444166.750,0.977,35.156,-33.203,1.000,1.000
1626295259448073.000,-20.508,14.648,-41.992,1.000,1.000
1626295259451979.250,-69.336,-24.414,-26.367,1.000,1.000
1626295259455885.500,-68.848,-113.770,-13.672,1.000,1.000
1626295259459791.750,-3.418,-39.551,-6.836,1.000,1.000
1626295259463698.000,22.461,8.301,-3.906,1.000,1.000
1626295259467604.250,-34.180,24.414,-16.602,-77.148,1.000
1626295259471510.500,-79.590,-46.387,-62.988,-120.605,1.000
1626295259475416.750,-24.902,-83.496,-72.266,8.789,1.000
1626295259479323.000,20.020,0.488,-41.504,67.871,1.000
1626295259483229.250,-38.086,17.090,-46.387,-67.871,1.000
1626295259487135.500,-65.430,52.734,-25.391,-124.023,1.000
1626295259491041.750,-9.766,-77.148,1.953,1.953,1.000
1626295259494948.000,28.809,-95.703,-19.531,81.543,1.000
1626295259498854.250,-14.160,0.000,-36.621,-25.391,1.000
1626295259502760.500,-86.914,9.277,-37.109,-146.973,1.000
1626295259506666.750,-67.383,-5.371,-35.645,-68.359,1.000
1626295259510573.000,4.395,-170.410,-39.062,72.266,1.000
1626295259514479.250,9.766,42.480,-31.738,57.129,1.000
1626295259518385.500,-3.906,-19.043,-26.855,-18.066,1.000
1626295259522291.750,-76.660,-92.773,-41.992,-148.926,1.000
1626295259526198.000,-60.059,-7.812,-37.109,-84.473,1.000
1626295259530104.250,20.020,10.254,-14.648,65.430,1.000
1626295259534010.500,20.020,11.719,-22.461,31.250,1.000
1626295259537916.750,-51.758,-123.535,-48.340,-119.141,1.000
1626295259541823.000,-69.336,-109.863,-41.016,-106.934,1.000
1626295259545729.250,-7.324,9.766,-21.973,35.156,1.000
1626295259549635.500,22.461,19.531,-28.320,54.688,1.000
1626295259553541.750,-15.137,5.859,-48.340,-69.336,1.000
1626295259557448.000,-50.781,-131.836,-52.246,-118.652,1.000
1626295259561354.250,-83.984,14.648,-32.227,2.930,1.000
1626295259565260.500,-21.484,-13.672,-10.742,74.707,1.000
1626295259569166.750,13.672,-76.172,-30.762,-41.504,1.000
1626295259573073.000,-41.016,-35.156,-45.410,-137.207,1.000
1626295259576979.250,-84.473,-29.785,-44.434,-39.551,1.000
1626295259580885.500,-47.852,15.625,-53.223,72.754,1.000
1626295259584791.750,3.418,-79.590,-45.410,-1.465,1.000
1626295259588698.000,-8.789,-65.918,-30.762,-136.719,1.000
1626295259592604.250,-68.359,26.855,-17.578,-94.238,1.000
1626295259596510.500,-55.664,13.672,-10.742,53.711,1.000
1626295259600416.750,11.719,-6.348,-19.531,49.805,1.000
1626295259604323.000,-7.812,-162.109,-41.992,-114.746,1.000
1626295259608229.250,-64.453,-91.309,-37.109,1.000,1.000
1626295259612135.500,-60.547,-12.207,-27.832,1.000,1.000
1626295259616041.750,-3.906,-30.762,-33.203,1.000,1.000
1626295259619948.000,12.695,-35.645,-34.668,1.000,1.000
1626295259623854.250,-63.477,-105.957,-32.715,1.000,1.000
1626295259627760.500,-78.613,-9.277,-34.668,1.000,1.000
1626295259631666.750,-3.418,45.410,-43.945,1.000,1.000
1626295259635573.000,15.137,34.668,-43.945,1.000,1.000
1626295259639479.250,-59.082,-36.133,-42.969,1.000,1.000
1626295259643385.500,-109.863,-150.391,-39.551,1.000,1.000
1626295259647291.750,-50.293,-49.805,-24.902,1.000,1.000
1626295259651198.000,20.996,0.488,-17.578,1.000,1.000
1626295259655104.250,-4.883,3.906,-20.508,-20.508,1.000
1626295259659010.500,-75.195,-52.734,-46.875,-137.695,1.000
1626295259662916.750,-59.082,-83.496,-43.457,-63.477,1.000
1626295259666823.000,11.719,22.461,-26.855,65.430,1.000
1626295259670729.250,9.766,37.109,-36.621,16.602,1.000
1626295259674635.500,-66.406,14.160,-34.668,-125.488,1.000
1626295259678541.750,-95.215,-141.602,-42.969,-123.047,1.000
1626295259682448.000,-20.996,-115.723,-40.527,18.555,1.000
1626295259686354.250,7.812,14.648,-24.902,31.738,1.000
1626295259690260.500,-54.199,20.020,-19.531,-108.398,1.000
1626295259694166.750,-75.195,-8.301,-18.066,-127.930,1.000
1626295259698073.000,-37.109,-200.684,-33.203,-1.953,1.000
1626295259701979.250,-8.301,14.160,-17.090,36.621,1.000
1626295259705885.500,15.625,-15.137,-35.645,54.688,1.000
1626295259709791.750,-40.527,-68.848,-50.293,-78.613,1.000
1626295259713698.000,-56.152,12.695,-34.668,-99.121,1.000
1626295259717604.250,-15.625,29.297,-41.992,25.879,1.000
1626295259721510.500,28.320,39.062,-31.738,88.867,1.000
1626295259725416.750,-16.602,-86.914,-1.465,-32.715,1.000
1626295259729323.000,-90.332,-111.816,-8.301,-144.531,1.000
1626295259733229.250,-58.594,-17.090,-17.578,-51.270,1.000
1626295259737135.500,13.184,-8.789,-5.859,79.102,1.000
1626295259741041.750,-14.160,-29.785,-15.137,0.488,1.000
1626295259744948.000,-100.586,-158.203,-50.293,-150.879,1.000
1626295259748854.250,-67.871,-46.387,-37.598,1.000,1.000
1626295259752760.500,33.203,54.688,3.906,1.000,1.000
1626295259756666.750,41.992,19.531,-2.930,1.000,1.000
1626295259760573.000,-44.922,-24.414,-41.992,1.000,1.000
1626295259764479.250,-100.586,-140.137,-62.988,1.000,1.000
1626295259768385.500,-26.855,-22.949,-28.809,1.000,1.000
1626295259772291.750,35.156,47.363,-0.488,1.000,1.000
1626295259776198.000,-29.785,3.418,-24.414,1.000,1.000
1626295259780104.250,-86.914,-33.203,-39.551,1.000,1.000
1626295259784010.500,-46.387,-86.426,-27.344,1.000,1.000
1626295259787916.750,14.648,-3.418,-15.625,1.000,1.000
1626295259791823.000,-7.324,16.602,-12.207,1.000,1.000
1626295259795729.250,-57.617,9.277,-9.277,-121.582,1.000
1626295259799635.500,-48.340,-47.363,-26.855,-47.852,1.000
1626295259803541.750,13.184,-88.867,-40.039,74.219,1.000
1626295259807448.000,21.973,-3.418,-50.781,28.809,1.000
1626295259811354.250,-46.875,-13.672,-57.129,-116.699,1.000
1626295259815260.500,-55.176,-8.301,-30.762,-86.426,1.000
1626295259819166.750,-6.836,-89.355,-20.996,40.039,1.000
1626295259823073.000,-3.418,-69.336,-25.391,17.578,1.000
1626295259826979.250,-64.453,11.230,-30.273,-121.094,1.000
1626295259830885.500,-68.359,13.672,-27.832,-113.770,1.000
1626295259834791.750,8.789,21.973,-19.043,46.387,1.000
1626295259838698.000,27.832,-117.188,-31.738,67.871,1.000
1626295259842604.250,-19.531,-62.500,-33.691,-61.035,1.000
1626295259846510.500,-57.129,6.348,-45.898,-112.305,1.000
1626295259850416.750,-8.789,5.371,-46.387,8.301,1.000
1626295259854323.000,39.551,-5.371,-26.855,91.309,1.000
1626295259858229.250,-4.883,-144.043,-26.367,-13.672,1.000
1626295259862135.500,-62.500,-56.641,-36.133,-122.559,1.000
1626295259866041.750,-52.246,20.020,-41.016,-58.105,1.000
1626295259869948.000,17.090,32.715,-9.277,78.613,1.000
1626295259873854.250,8.789,5.371,-4.395,30.762,1.000
1626295259877760.500,-83.496,-96.680,-39.062,-136.230,1.000
1626295259881666.750,-77.148,-18.066,-37.109,-100.586,1.000
1626295259885573.000,10.742,27.344,-27.832,69.336,1.000
1626295259889479.250,36.621,14.648,-32.227,79.590,1.000
1626295259893385.500,-22.949,-37.598,-42.480,-75.684,1.000
1626295259897291.750,-71.777,-61.035,-42.969,-132.812,1.000
1626295259901198.000,-32.227,18.555,-32.227,-7.812,1.000
1626295259905104.250,7.324,42.480,-25.879,45.898,1.000
1626295259909010.500,-28.320,44.922,-36.133,-71.289,1.000
1626295259912916.750,-73.242,-104.492,-43.945,-146.484,1.000
1626295259916823.000,-36.621,-102.539,-44.434,-39.551,1.000
1626295259920729.250,30.273,17.090,-51.758,65.918,1.000
1626295259924635.500,3.906,22.461,-51.270,-20.996,1.000
1626295259928541.750,-68.848,-0.977,-35.156,-146.484,1.000
1626295259932448.000,-77.148,-164.062,-49.316,-103.027,1.000
1626295259936354.250,-24.414,24.902,-21.484,-22.461,1.000
1626295259940260.500,5.371,-30.273,-28.320,62.500,1.000
1626295259944166.750,-17.578,-79.590,-41.504,-22.949,1.000
1626295259948073.000,-74.707,11.719,-40.527,-142.090,1.000
1626295259951979.250,-65.918,25.391,-33.691,-93.262,1.000
1626295259955885.500,19.531,25.391,-23.926,59.082,1.000
1626295259959791.750,24.902,-99.609,-32.715,36.133,1.000
1626295259963698.000,-50.781,-97.656,-41.016,-115.723,1.000
1626295259967604.250,-64.453,-14.648,-40.039,-104.492,1.000
1626295259971510.500,14.648,-12.207,-13.672,55.664,1.000
1626295259975416.750,41.992,6.348,-13.184,77.148,1.000
1626295259979323.000,-45.898,-125.488,-53.223,-92.773,1.000
1626295259983229.250,-91.309,-40.039,-52.246,1.000,1.000
1626295259987135.500,-36.133,47.852,-37.109,1.000,1.000
1626295259991041.750,12.695,33.203,-29.785,1.000,1.000
1626295259994948.000,-27.344,-27.344,-28.320,1.000,1.000
1626295259998854.250,-82.031,-156.738,-34.180,1.000,1.000
1626295260002760.500,-44.922,-34.668,-21.973,1.000,1.000
1626295260006666.750,13.672,27.832,-15.625,1.000,1.000
1626295260010573.000,9.277,0.977,-24.902,1.000,1.000
1626295260014479.250,-57.617,-37.598,-30.762,1.000,1.000
1626295260018385.500,-69.336,-118.164,-31.738,1.000,1.000
1626295260022291.750,1.953,-18.555,-30.762,1.000,1.000
1626295260026198.000,12.207,40.039,-36.133,1.000,1.000
1626295260030104.250,-57.617,33.691,-38.086,-107.422,1.000
1626295260034010.500,-89.355,-33.691,-28.809,-124.023,1.000
1626295260037916.750,-35.156,-95.703,-19.043,9.277,1.000
1626295260041823.000,3.906,-13.672,-19.043,53.711,1.000
1626295260045729.250,-48.828,8.789,-31.250,-78.613,1.000
1626295260049635.500,-80.566,0.488,-28.809,-142.090,1.000
1626295260053541.750,-41.016,-99.121,-27.832,-17.578,1.000
1626295260057448.000,-1.953,-93.750,-41.016,70.801,1.000
1626295260061354.250,-26.367,-1.953,-46.387,-32.715,1.000
1626295260065260.500,-77.637,24.902,-32.715,-135.742,1.000
1626295260069166.750,-56.152,23.926,-22.461,-52.246,1.000
1626295260073073.000,-8.301,-147.949,-25.879,60.059,1.000
1626295260076979.250,47.852,25.391,-12.695,103.027,1.000
1626295260080885.500,-10.742,-28.809,-29.297,-18.555,1.000
1626295260084791.750,-78.125,-109.375,-38.574,-144.043,1.000
1626295260088698.000,-38.086,-16.113,-19.043,-52.246,1.000
1626295260092604.250,36.621,25.879,-26.855,87.891,1.000
1626295260096510.500,32.227,48.828,-33.203,41.504,1.000
1626295260100416.750,-68.359,-83.984,-37.109,-127.441,1.000
1626295260104323.000,-99.121,-100.586,-40.039,-122.070,1.000
1626295260108229.250,-23.438,6.836,-20.508,38.574,1.000
1626295260112135.500,-2.441,18.555,-15.625,48.828,1.000
1626295260116041.750,-52.734,12.695,-24.902,-88.867,1.000
1626295260119948.000,-99.609,-143.555,-43.457,-142.578,1.000
1626295260123854.250,-83.984,21.484,-37.109,-110.352,1.000
1626295260127760.500,-14.648,-21.484,-22.461,38.574,1.000
1626295260131666.750,15.625,-78.613,-20.020,62.988,1.000
1626295260135573.000,-36.621,-21.484,-21.484,-66.406,1.000
1626295260139479.250,-82.520,-4.883,-33.691,-127.930,1.000
1626295260143385.500,-25.879,27.344,-28.809,-2.441,1.000
1626295260147291.750,7.324,-81.543,-48.340,59.570,1.000
1626295260151198.000,-32.227,-99.121,-53.223,-58.594,1.000
1626295260155104.250,-65.918,0.488,-41.016,-145.020,1.000
1626295260159010.500,-45.898,9.277,-36.133,-60.547,1.000
1626295260162916.750,7.812,-18.555,-18.066,55.664,1.000
1626295260166823.000,-29.785,-165.527,-28.809,-23.438,1.000
1626295260170729.250,-85.938,-72.266,-30.273,1.000,1.000
1626295260174635.500,-53.223,37.598,-19.043,1.000,1.000
1626295260178541.750,14.160,40.527,-25.391,1.000,1.000
1626295260182448.000,6.836,-26.855,-43.457,1.000,1.000
1626295260186354.250,-77.637,-194.824,-62.500,1.000,1.000
1626295260190260.500,-85.938,-84.473,-53.223,1.000,1.000
1626295260194166.750,-19.043,0.977,-25.391,1.000,1.000
1626295260198073.000,15.137,23.926,-15.137,1.000,1.000
1626295260201979.250,-36.621,-4.883,-40.527,1.000,1.000
1626295260205885.500,-94.727,-117.188,-56.641,1.000,1.000
1626295260209791.750,-43.945,-18.066,-36.133,1.000,1.000
1626295260213698.000,32.715,10.742,-24.902,1.000,1.000
1626295260217604.250,-7.812,-19.043,-45.410,-31.738,1.000
1626295260221510.500,-90.332,-43.457,-52.246,-164.551,1.000
1626295260225416.750,-69.336,-60.547,-37.598,-84.473,1.000
1626295260229323.000,-1.953,11.230,-26.855,46.875,1.000
1626295260233229.250,1.465,20.996,-22.949,1.465,1.000
1626295260237135.500,-51.270,13.672,-31.250,-125.977,1.000
1626295260241041.750,-75.684,-126.465,-48.828,-107.422,1.000
1626295260244948.000,-4.883,-105.469,-29.297,42.969,1.000
1626295260248854.250,21.973,20.020,-5.371,43.945,1.000
1626295260252760.500,-38.086,19.531,-26.367,-94.238,1.000
1626295260256666.750,-52.734,10.254,-32.715,-103.516,1.000
1626295260260573.000,-12.695,-146.973,-33.203,20.508,1.000
1626295260264479.250,-4.395,20.508,-41.016,61.035,1.000
1626295260268385.500,7.812,-7.812,-21.484,58.594,1.000
1626295260272291.750,-54.688,-77.637,-16.602,-86.914,1.000
1626295260276198.000,-77.148,-8.301,-16.602,-118.164,1.000
1626295260280104.250,-30.273,6.348,-16.602,8.789,1.000
1626295260284010.500,18.555,21.484,-16.602,76.172,1.000
1626295260287916.750,-3.418,-73.730,-8.301,-20.508,1.000
1626295260291823.000,-54.199,-97.168,-16.113,-103.516,1.000
1626295260295729.250,-51.758,0.488,-31.738,-30.762,1.000
1626295260299635.500,-7.324,33.203,-27.832,62.500,1.000
1626295260303541.750,-15.625,15.625,-21.484,-7.812,1.000
1626295260307448.000,-82.031,-158.691,-32.227,-127.930,1.000
1626295260311354.250,-72.754,-78.125,-40.039,1.000,1.000
1626295260315260.500,14.160,34.180,-12.695,1.000,1.000
1626295260319166.750,7.324,15.625,-20.508,1.000,1.000
1626295260323073.000,-56.152,-26.367,-40.527,1.000,1.000
1626295260326979.250,-74.707,-157.715,-32.715,1.000,1.000
1626295260330885.500,-13.184,-43.945,-26.367,1.000,1.000
1626295260334791.750,40.527,41.992,-18.555,1.000,1.000
1626295260338698.000,-25.879,21.484,-37.598,1.000,1.000
1626295260342604.250,-80.078,1.953,-44.434,1.000,1.000
1626295260346510.500,-41.992,-63.965,-24.414,1.000,1.000
1626295260350416.750,-0.977,1.465,-34.668,1.000,1.000
1626295260354323.000,-23.926,-3.906,-41.016,1.000,1.000
1626295260358229.250,-73.242,-6.348,-33.691,-138.672,1.000
1626295260362135.500,-49.805,-27.832,-26.855,-45.410,1.000
1626295260366041.750,17.578,-59.570,-10.254,79.590,1.000
1626295260369948.000,6.836,13.184,-25.879,14.160,1.000
1626295260373854.250,-63.965,-9.766,-53.223,-121.582,1.000
1626295260377760.500,-64.453,-10.742,-44.922,-78.125,1.000
1626295260381666.750,17.578,-90.332,-9.766,69.336,1.000
1626295260385573.000,39.062,-65.430,4.395,65.918,1.000
1626295260389479.250,-41.016,32.715,-32.227,-91.309,1.000
1626295260393385.500,-77.637,18.555,-47.363,-123.535,1.000
1626295260397291.750,-5.859,6.348,-24.902,24.902,1.000
1626295260401198.000,20.508,-115.234,-34.180,47.852,1.000
1626295260405104.250,-43.945,-38.574,-49.316,1.000,1.000
1626295260409010.500,-69.336,45.898,-41.992,1.000,1.000
1626295260412916.750,-8.301,39.062,-18.555,1.000,1.000
1626295260416823.000,37.109,-11.230,-27.832,1.000,1.000
1626295260420729.250,-14.648,-163.086,-65.918,1.000,1.000
1626295260424635.500,-71.289,-45.410,-67.871,1.000,1.000
1626295260428541.750,-31.738,37.598,-39.551,1.000,1.000
1626295260432448.000,42.480,32.715,-18.555,1.000,1.000
1626295260436354.250,29.785,-3.418,-39.551,1.000,1.000
1626295260440260.500,-44.434,-96.191,-53.711,1.000,1.000
1626295260444166.750,-50.293,-8.789,-49.316,1.000,1.000
1626295260448073.000,9.766,24.902,-45.898,1.000,1.000
1626295260451979.250,13.672,2.441,-37.109,30.273,1.000
1626295260455885.500,-49.805,-38.086,-32.715,-105.957,1.000
1626295260459791.750,-73.242,-68.359,-32.227,-125.488,1.000
1626295260463698.000,-17.090,4.883,-28.320,15.137,1.000
1626295260467604.250,16.602,15.625,-26.855,54.688,1.000
1626295260471510.500,-12.695,15.137,-21.973,-50.293,1.000
1626295260475416.750,-47.852,-78.613,-19.531,-104.004,1.000
1626295260479323.000,-18.555,-68.848,-43.457,0.000,1.000
1626295260483229.250,37.109,10.742,-41.992,104.492,1.000
1626295260487135.500,-9.766,8.301,-45.410,-11.719,1.000
1626295260491041.750,-79.102,5.859,-51.758,-146.973,1.000
1626295260494948.000,-55.176,-134.277,-39.551,-72.266,1.000
1626295260498854.250,-45.898,0.977,-42.480,-36.133,1.000
1626295260502760.500,5.371,-33.203,-31.738,68.848,1.000
1626295260506666.750,-25.879,-66.895,-40.527,-19.043,1.000
1626295260510573.000,-83.984,7.324,-37.109,-136.719,1.000
1626295260514479.250,-57.129,20.996,-33.691,-65.430,1.000
1626295260518385.500,15.625,26.367,-34.180,75.195,1.000
1626295260522291.750,16.113,-63.477,-27.344,38.574,1.000
1626295260526198.000,-59.082,-77.148,-36.621,-114.746,1.000
1626295260530104.250,-69.824,-11.230,-34.668,-110.352,1.000
1626295260534010.500,17.578,3.418,-4.883,58.105,1.000
1626295260537916.750,41.992,-5.859,-13.184,83.496,1.000
1626295260541823.000,-25.879,-175.293,-41.504,-67.383,1.000
1626295260545729.250,-68.848,-88.867,-64.453,1.000,1.000
1626295260549635.500,-35.645,31.738,-75.195,1.000,1.000
1626295260553541.750,8.789,39.551,-54.688,1.000,1.000
1626295260557448.000,-18.066,11.230,-25.391,1.000,1.000
1626295260561354.250,-77.637,-119.629,-22.949,1.000,1.000
1626295260565260.500,-59.082,-54.199,-23.926,1.000,1.000
1626295260569166.750,10.254,0.000,-14.160,1.000,1.000
1626295260573073.000,2.441,-12.695,-7.324,1.000,1.000
1626295260576979.250,-75.195,-57.617,-22.461,1.000,1.000
1626295260580885.500,-64.453,-97.656,-37.109,1.000,1.000
1626295260584791.750,1.953,8.789,-41.016,1.000,1.000
1626295260588698.000,-3.418,15.137,-51.758,1.000,1.000
1626295260592604.250,-66.895,-7.812,-60.059,-117.676,1.000
1626295260596510.500,-69.824,-45.410,-33.691,-107.422,1.000
1626295260600416.750,10.742,-62.500,-16.113,57.617,1.000
1626295260604323.000,33.203,15.137,-31.738,72.754,1.000
1626295260608229.250,-38.086,-19.043,-29.297,-89.355,1.000
1626295260612135.500,-72.266,-21.484,-22.949,-136.719,1.000
1626295260616041.750,-20.508,-51.270,-35.156,1.953,1.000
1626295260619948.000,14.648,-51.270,-38.574,67.871,1.000
1626295260623854.250,-24.902,0.977,-25.391,-42.969,1.000
1626295260627760.500,-79.102,6.836,-12.695,-138.184,1.000
1626295260631666.750,-54.688,7.324,-15.625,-51.270,1.000
1626295260635573.000,0.000,-140.137,-27.832,64.941,1.000
1626295260639479.250,25.391,7.812,-20.508,77.148,1.000
1626295260643385.500,-1.465,-38.086,-40.039,-11.230,1.000
1626295260647291.750,-70.312,-85.938,-40.527,-131.348,1.000
1626295260651198.000,-59.082,0.977,-7.324,-65.430,1.000
1626295260655104.250,12.695,14.648,12.695,69.824,1.000
1626295260659010.500,16.602,5.859,-8.789,29.785,1.000
1626295260662916.750,-61.035,-91.309,-53.711,-113.281,1.000
1626295260666823.000,-72.266,-89.844,-52.246,-94.238,1.000
1626295260670729.250,4.883,0.977,-16.602,55.664,1.000
1626295260674635.500,3.906,1.465,-21.973,38.574,1.000
1626295260678541.750,-52.734,-6.348,-31.738,-104.004,1.000
1626295260682448.000,-57.129,-141.113,-17.578,-110.352,1.000
1626295260686354.250,-65.430,13.672,-19.043,32.715,1.000
1626295260690260.500,-23.926,-29.297,-28.809,75.684,1.000
1626295260694166.750,-22.461,-88.867,-40.527,-64.941,1.000
1626295260698073.000,-71.777,-29.297,-40.039,-134.277,1.000
1626295260701979.250,-93.262,-14.648,-26.855,-4.883,1.000
1626295260705885.500,-30.762,-8.789,-9.277,92.773,1.000
1626295260709791.750,27.832,-89.355,3.418,-1.465,1.000
1626295260713698.000,-8.789,-74.707,-7.812,-130.371,1.000
1626295260717604.250,-62.012,-5.859,-28.809,-66.895,1.000
1626295260721510.500,-28.320,3.418,-26.855,78.125,1.000
1626295260725416.750,25.879,28.809,-14.160,41.016,1.000
1626295260729323.000,-6.348,-98.633,-33.203,-102.051,1.000
1626295260733229.250,-80.566,-75.195,-46.387,1.000,1.000
1626295260737135.500,-79.102,-4.883,-29.297,1.000,1.000
1626295260741041.750,-1.953,24.414,-24.414,1.000,1.000
1626295260744948.000,20.020,7.324,-29.297,1.000,1.000
1626295260748854.250,-48.340,-113.770,-26.367,1.000,1.000
1626295260752760.500,-73.242,-33.203,-23.926,1.000,1.000
1626295260756666.750,-1.953,19.531,-5.371,1.000,1.000
1626295260760573.000,25.879,13.672,-5.859,1.000,1.000
1626295260764479.250,-34.668,-36.133,-31.250,1.000,1.000
1626295260768385.500,-59.570,-135.742,-25.391,1.000,1.000
1626295260772291.750,-4.395,-37.598,-22.949,1.000,1.000
1626295260776198.000,30.273,26.855,-37.598,1.000,1.000
1626295260780104.250,-19.531,32.715,-45.898,-47.363,1.000
1626295260784010.500,-81.055,-41.016,-50.781,-150.879,1.000
1626295260787916.750,-52.734,-104.004,-31.250,-56.641,1.000
1626295260791823.000,8.789,-38.086,-20.020,66.406,1.000
1626295260795729.250,-22.461,-8.789,-56.641,-11.230,1.000
1626295260799635.500,-78.125,31.738,-55.664,-129.883,1.000
1626295260803541.750,-57.129,-60.547,-14.648,-70.801,1.000
1626295260807448.000,8.301,-78.613,-17.578,64.453,1.000
1626295260811354.250,4.395,-11.719,-36.621,37.109,1.000
1626295260815260.500,-57.129,-13.672,-37.598,-120.117,1.000
1626295260819166.750,-50.293,-13.184,-31.738,-108.887,1.000
1626295260823073.000,9.277,-155.273,-28.809,42.969,1.000
1626295260826979.250,-8.789,-6.836,-6.348,52.734,1.000
1626295260830885.500,1.465,-41.016,-30.273,42.480,1.000
1626295260834791.750,-66.406,-116.211,-46.875,-104.004,1.000
1626295260838698.000,-71.777,-15.625,-39.062,-113.281,1.000
1626295260842604.250,-4.395,38.574,-14.160,31.738,1.000
1626295260846510.500,2.930,23.926,-19.043,63.965,1.000
1626295260850416.750,-47.363,-89.355,-29.785,-65.430,1.000
1626295260854323.000,-77.148,-77.637,-28.320,-132.324,1.000
1626295260858229.250,-29.297,17.090,-31.738,-17.090,1.000
1626295260862135.500,28.320,9.766,-18.066,81.543,1.000
1626295260866041.750,-17.578,-22.949,-18.555,-28.809,1.000
1626295260869948.000,-81.543,-148.438,-27.832,-148.438,1.000
1626295260873854.250,-49.805,-67.871,-32.227,1.000,1.000
1626295260877760.500,11.719,16.602,-50.781,1.000,1.000
1626295260881666.750,-2.930,9.766,-52.246,1.000,1.000
1626295260885573.000,-69.336,-24.902,-42.480,1.000,1.000
1626295260889479.250,-81.055,-126.465,-34.668,1.000,1.000
1626295260893385.500,1.465,-22.949,2.441,1.000,1.000
1626295260897291.750,23.926,7.324,2.930,1.000,1.000
1626295260901198.000,-56.641,-19.043,-35.645,1.000,1.000
1626295260905104.250,-80.078,-12.207,-45.410,1.000,1.000
1626295260909010.500,-19.043,-76.660,-24.414,1.000,1.000
1626295260912916.750,14.648,-18.555,-12.695,1.000,1.000
1626295260916823.000,-43.457,3.906,-36.621,1.000,1.000
1626295260920729.250,-104.492,-15.137,-55.176,1.000,1.000
1626295260924635.500,-62.988,-22.949,-46.875,1.000,1.000
1626295260928541.750,14.160,-12.207,-26.367,1.000,1.000
1626295260932448.000,-0.977,32.715,-10.254,1.000,1.000
1626295260936354.250,-61.035,23.438,-1.953,1.000,1.000
1626295260940260.500,-54.688,22.949,-10.254,1.000,1.000
1626295260944166.750,8.789,-83.008,-23.438,1.000,1.000
1626295260948073.000,19.531,-113.281,-24.414,1.000,1.000
1626295260951979.250,-52.246,-27.832,-34.668,1.000,1.000
1626295260955885.500,-75.684,-4.883,-32.715,1.000,1.000
1626295260959791.750,-18.066,-0.488,-19.531,1.000,1.000
1626295260963698.000,13.672,-93.750,-26.855,1.000,1.000
1626295260967604.250,-33.691,-51.758,-46.875,-78.613,1.000
1626295260971510.500,-69.336,9.766,-40.527,-128.906,1.000
1626295260975416.750,-21.973,28.320,-18.555,2.441,1.000
1626295260979323.000,30.273,-9.277,-19.043,90.332,1.000
1626295260983229.250,-8.789,-169.922,-38.086,-23.926,1.000
1626295260987135.500,-68.848,-71.289,-51.270,-126.953,1.000
1626295260991041.750,-38.086,18.066,-34.668,-26.855,1.000
1626295260994948.000,6.836,20.020,-13.184,77.148,1.000
1626295260998854.250,-7.812,9.277,-6.348,3.418,1.000
1626295261002760.500,-68.848,-73.730,-17.090,-121.094,1.000
1626295261006666.750,-88.867,-21.484,-41.016,-95.703,1.000
1626295261010573.000,-31.250,-6.836,-59.082,32.715,1.000
1626295261014479.250,-10.254,-8.789,-52.246,26.367,1.000
1626295261018385.500,-68.359,-49.316,-29.785,-113.281,1.000
1626295261022291.750,-87.402,-105.469,-24.902,-117.676,1.000
1626295261026198.000,-19.531,-14.160,-24.414,31.738,1.000
1626295261030104.250,9.277,-0.488,-31.738,58.105,1.000
1626295261034010.500,-38.086,-11.230,-38.086,-67.871,1.000
1626295261037916.750,-66.406,-104.492,-31.250,-108.887,1.000
1626295261041823.000,-26.855,-79.590,-33.203,0.977,1.000
1626295261045729.250,19.043,23.438,-19.043,76.172,1.000
1626295261049635.500,-9.277,16.602,-7.812,-20.020,1.000
1626295261053541.750,-72.754,0.000,-28.809,-133.301,1.000
1626295261057448.000,-44.434,-134.277,-41.504,-48.340,1.000
1626295261061354.250,-41.992,29.785,-11.230,80.566,1.000
1626295261065260.500,0.000,-2.441,-14.648,18.066,1.000
1626295261069166.750,-34.180,-64.941,-28.320,-113.770,1.000
1626295261073073.000,-87.891,-10.254,-29.297,-87.891,1.000
1626295261076979.250,-62.988,-2.930,-27.832,53.711,1.000
1626295261080885.500,3.906,-28.809,-47.363,41.016,1.000
1626295261084791.750,17.090,-106.445,-36.133,-93.750,1.000
1626295261088698.000,-47.852,-81.543,-22.949,-109.863,1.000
1626295261092604.250,-62.988,9.277,-20.508,25.391,1.000
1626295261096510.500,-4.883,41.992,-4.395,86.914,1.000
1626295261100416.750,-19.043,35.156,-20.996,-58.105,1.000
1626295261104323.000,-83.984,-129.395,-28.809,-139.648,1.000
1626295261108229.250,-100.586,-72.754,-29.297,-141.602,1.000
1626295261112135.500,-23.926,7.812,-21.484,11.719,1.000
1626295261116041.750,31.250,-16.602,-23.926,81.055,1.000
1626295261119948.000,-17.090,-36.621,-43.945,-41.504,1.000
1626295261123854.250,-66.895,-116.699,-44.434,-120.605,1.000
1626295261127760.500,-41.992,-15.625,-23.926,-26.855,1.000
1626295261131666.750,17.578,42.480,-10.254,73.730,1.000
1626295261135573.000,-7.324,5.859,-34.180,-13.184,1.000
1626295261139479.250,-77.637,-42.969,-53.711,-135.742,1.000
1626295261143385.500,-72.266,-103.027,-46.875,-78.125,1.000
1626295261147291.750,-16.113,-20.020,-33.691,44.922,1.000
1626295261151198.000,-13.672,8.301,-15.137,18.066,1.000
1626295261155104.250,-61.035,7.812,-5.371,-103.027,1.000
1626295261159010.500,-65.430,-21.973,-19.043,-97.656,1.000
1626295261162916.750,-9.766,-63.965,-40.527,35.156,1.000
1626295261166823.000,3.418,-12.207,-41.016,46.387,1.000
1626295261170729.250,-57.129,3.906,-39.062,-96.191,1.000
1626295261174635.500,-96.191,9.277,-47.363,-142.578,1.000
1626295261178541.750,-43.945,-71.777,-42.480,-8.301,1.000
1626295261182448.000,4.883,-70.801,-34.668,61.523,1.000
1626295261186354.250,-34.180,-7.324,-37.109,-47.363,1.000
1626295261190260.500,-86.914,-2.930,-44.922,-140.137,1.000
1626295261194166.750,-50.293,14.648,-48.340,-45.410,1.000
1626295261198073.000,25.879,-104.492,-26.855,90.820,1.000
1626295261201979.250,14.160,17.090,-19.531,79.102,1.000
1626295261205885.500,-12.695,-41.016,-29.297,-21.973,1.000
1626295261209791.750,-70.312,-97.656,-24.414,-127.930,1.000
1626295261213698.000,-58.105,1.953,-33.203,-52.734,1.000
1626295261217604.250,16.602,20.020,-29.785,82.031,1.000
1626295261221510.500,12.207,6.836,-31.738,26.855,1.000
1626295261225416.750,-55.664,-97.168,-32.715,-111.328,1.000
1626295261229323.000,-69.336,-112.793,-17.090,-91.309,1.000
1626295261233229.250,-15.137,8.789,-23.438,39.551,1.000
1626295261237135.500,9.766,34.180,-26.855,40.039,1.000
1626295261241041.750,-54.688,2.930,-31.738,-105.469,1.000
1626295261244948.000,-89.844,-141.113,-47.852,-131.836,1.000
1626295261248854.250,-73.242,10.742,-51.270,11.719,1.000
1626295261252760.500,6.836,-25.879,-20.020,66.406,1.000
1626295261256666.750,27.344,-85.938,-20.020,-69.336,1.000
1626295261260573.000,-42.480,-20.508,-28.809,-149.414,1.000
1626295261264479.250,-69.824,3.906,-23.926,-32.715,1.000
1626295261268385.500,-12.695,9.277,-38.086,61.035,1.000
1626295261272291.750,18.066,-81.543,-39.062,-24.902,1.000
1626295261276198.000,-36.621,-84.473,-22.461,-133.789,1.000
1626295261280104.250,-85.449,7.812,-13.184,-62.500,1.000
1626295261284010.500,-53.711,17.090,-15.625,87.402,1.000
1626295261287916.750,-2.930,11.719,-20.020,25.879,1.000
1626295261291823.000,-20.020,-114.746,-18.555,-138.672,1.000
1626295261295729.250,-64.941,-58.105,-19.531,1.000,1.000
1626295261299635.500,-47.852,5.859,-25.879,1.000,1.000
1626295261303541.750,1.465,-9.766,-32.715,1.000,1.000
1626295261307448.000,-6.348,-35.156,-25.879,1.000,1.000
1626295261311354.250,-59.082,-166.504,-18.066,1.000,1.000
1626295261315260.500,-73.242,-66.406,-40.527,1.000,1.000
1626295261319166.750,-13.184,0.000,-49.316,1.000,1.000
1626295261323073.000,18.066,16.113,-32.227,1.000,1.000
1626295261326979.250,-47.363,-2.441,-30.762,1.000,1.000
1626295261330885.500,-92.773,-113.770,-41.016,1.000,1.000
1626295261334791.750,-32.227,-17.578,-24.902,1.000,1.000
1626295261338698.000,20.020,39.551,-7.812,1.000,1.000
1626295261342604.250,-33.203,29.297,-23.438,-49.316,1.000
1626295261346510.500,-100.586,-20.020,-41.016,-156.250,1.000
1626295261350416.750,-71.777,-83.496,-33.203,-57.129,1.000
1626295261354323.000,9.766,-28.809,-18.555,74.219,1.000
1626295261358229.250,-5.859,-9.277,-30.762,2.930,1.000
1626295261362135.500,-75.684,5.371,-36.621,-126.465,1.000
1626295261366041.750,-63.477,-89.844,-18.555,-66.406,1.000
1626295261369948.000,9.766,-80.566,-15.137,75.684,1.000
1626295261373854.250,17.578,20.508,-16.113,49.316,1.000
1626295261377760.500,-41.016,9.766,-18.066,-85.449,1.000
1626295261381666.750,-63.477,-3.418,-29.297,-86.426,1.000
1626295261385573.000,-28.320,-137.695,-30.762,27.832,1.000
1626295261389479.250,4.883,20.996,-29.785,50.781,1.000
1626295261393385.500,15.137,-8.789,-44.922,32.227,1.000
1626295261397291.750,-41.504,-73.242,-62.012,-107.422,1.000
1626295261401198.000,-64.453,8.301,-40.039,-117.188,1.000
1626295261405104.250,8.301,41.016,-2.930,38.086,1.000
1626295261409010.500,38.574,36.621,-22.461,74.219,1.000
1626295261412916.750,-43.945,-87.891,-39.062,-83.496,1.000
1626295261416823.000,-91.797,-100.098,-20.020,-146.973,1.000
1626295261420729.250,-42.480,8.301,-24.902,-17.090,1.000
1626295261424635.500,6.836,19.531,-37.598,71.289,1.000
1626295261428541.750,-16.602,-3.418,-30.273,-24.902,1.000
1626295261432448.000,-70.801,-175.781,-37.109,-136.230,1.000
1626295261436354.250,-48.828,-111.816,-51.758,1.000,1.000
1626295261440260.500,6.348,-3.906,-47.363,1.000,1.000
1626295261444166.750,-21.973,12.207,-34.668,1.000,1.000
1626295261448073.000,-84.473,1.953,-24.414,1.000,1.000
1626295261451979.250,-73.242,-119.629,-21.484,1.000,1.000
1626295261455885.500,-1.953,-28.320,-18.555,1.000,1.000
1626295261459791.750,-0.488,19.531,-31.738,1.000,1.000
1626295261463698.000,-75.195,-1.465,-42.969,1.000,1.000
1626295261467604.250,-100.098,-26.367,-44.922,1.000,1.000
1626295261471510.500,-27.832,-79.590,-32.227,1.000,1.000
1626295261475416.750,44.434,-7.324,-5.859,1.000,1.000
1626295261479323.000,-17.090,-10.254,-19.531,1.000,1.000
1626295261483229.250,-100.586,-11.230,-57.129,-141.113,1.000
1626295261487135.500,-64.453,-27.344,-66.895,-35.156,1.000
1626295261491041.750,-0.977,-69.336,-45.410,68.359,1.000
1626295261494948.000,-13.672,7.812,-21.973,-10.742,1.000
1626295261498854.250,-68.848,20.508,-20.996,-121.582,1.000
1626295261502760.500,-48.340,25.879,-14.160,-50.293,1.000
1626295261506666.750,20.020,-53.223,-6.348,83.496,1.000
1626295261510573.000,3.906,-76.660,-18.066,31.250,1.000
1626295261514479.250,-59.570,3.906,-31.250,-113.281,1.000
1626295261518385.500,-63.477,17.090,-41.016,-91.797,1.000
1626295261522291.750,-0.977,-15.625,-28.809,55.176,1.000
1626295261526198.000,32.715,-164.551,-1.465,79.102,1.000
1626295261530104.250,-31.738,-83.496,-13.184,-71.289,1.000
1626295261534010.500,-87.891,-1.465,-37.109,-142.578,1.000
1626295261537916.750,-41.992,18.555,-42.969,-10.254,1.000
1626295261541823.000,7.812,21.973,-37.598,66.895,1.000
1626295261545729.250,-28.320,-130.859,-19.531,-46.875,1.000
1626295261549635.500,-86.426,-58.105,-19.531,-134.766,1.000
1626295261553541.750,-42.480,28.809,-18.555,-27.344,1.000
1626295261557448.000,22.461,26.855,-10.254,75.684,1.000
1626295261561354.250,-4.395,-12.695,-18.066,-9.766,1.000
1626295261565260.500,-64.941,-107.422,-29.297,-125.488,1.000
1626295261569166.750,-66.406,-43.457,-44.922,-77.637,1.000
1626295261573073.000,-8.301,-7.324,-41.504,48.828,1.000
1626295261576979.250,0.488,6.836,-45.898,24.902,1.000
1626295261580885.500,-62.988,-9.277,-56.641,-116.211,1.000
1626295261584791.750,-73.242,-58.594,-25.879,-107.910,1.000
1626295261588698.000,-7.324,8.301,-1.465,38.086,1.000
1626295261592604.250,4.395,-1.465,-15.137,45.898,1.000
1626295261596510.500,-64.941,-7.812,-33.691,-107.910,1.000
1626295261600416.750,-85.938,-84.473,-32.715,-139.160,1.000
1626295261604323.000,-16.602,-95.703,-34.180,9.766,1.000
1626295261608229.250,17.090,-6.348,-26.367,73.242,1.000
1626295261612135.500,-42.480,7.324,-25.391,-59.082,1.000
1626295261616041.750,-91.309,11.719,-34.668,-155.762,1.000
1626295261619948.000,-35.645,-107.422,-14.648,-34.668,1.000
1626295261623854.250,-25.879,-17.090,-16.602,92.773,1.000
1626295261627760.500,31.250,-28.809,-8.789,10.254,1.000
1626295261631666.750,-15.625,-65.918,-42.480,-128.906,1.000
1626295261635573.000,-80.566,-19.043,-60.059,-96.680,1.000
1626295261639479.250,-61.035,-3.906,-29.297,45.410,1.000
1626295261643385.500,-0.977,-10.742,-4.883,28.809,1.000
1626295261647291.750,5.371,-74.219,-2.441,-125.000,1.000
1626295261651198.000,-48.340,-71.289,-10.742,-127.441,1.000
1626295261655104.250,-71.777,0.977,-32.715,19.531,1.000
1626295261659010.500,-31.250,-2.441,-34.668,57.617,1.000
1626295261662916.750,-7.812,-16.113,-28.809,-65.430,1.000
1626295261666823.000,-41.992,-149.414,-18.066,-133.301,1.000
1626295261670729.250,-65.918,-79.590,-30.762,1.000,1.000
1626295261674635.500,-20.996,33.203,-64.453,1.000,1.000
1626295261678541.750,16.602,34.180,-54.688,1.000,1.000
1626295261682448.000,-9.277,6.836,-11.719,1.000,1.000
1626295261686354.250,-53.223,-123.047,3.906,1.000,1.000
1626295261690260.500,-34.668,-47.363,-4.883,1.000,1.000
1626295261694166.750,14.648,21.484,-5.859,1.000,1.000
1626295261698073.000,-15.137,1.465,-27.832,1.000,1.000
1626295261701979.250,-81.543,-40.527,-33.691,1.000,1.000
1626295261705885.500,-57.617,-107.422,-6.348,1.000,1.000
1626295261709791.750,2.930,-20.996,-29.785,1.000,1.000
1626295261713698.000,-1.953,5.859,-55.176,1.000,1.000
1626295261717604.250,-56.641,-5.371,-43.945,-116.211,1.000
1626295261721510.500,-49.316,-54.199,-26.367,-77.637,1.000
1626295261725416.750,3.418,-88.379,-5.371,58.105,1.000
1626295261729323.000,0.977,3.418,-4.883,45.898,1.000
1626295261733229.250,-59.570,21.973,-22.461,-103.027,1.000
1626295261737135.500,-87.402,17.578,-29.297,-132.324,1.000
1626295261741041.750,-27.344,-44.922,-22.461,13.672,1.000
1626295261744948.000,13.672,-45.898,-31.738,71.289,1.000
1626295261748854.250,-40.527,8.789,-53.223,-64.453,1.000
1626295261752760.500,-78.125,15.137,-47.363,-135.742,1.000
1626295261756666.750,-18.066,7.812,-34.180,-8.301,1.000
1626295261760573.000,20.996,-156.738,-41.992,81.055,1.000
1626295261764479.250,19.043,1.953,-35.156,72.266,1.000
1626295261768385.500,-12.695,-21.484,-29.785,-38.086,1.000
1626295261772291.750,-68.848,-68.848,-26.855,-135.254,1.000
1626295261776198.000,-45.898,-14.160,-34.668,-41.504,1.000
1626295261780104.250,10.254,13.184,-50.781,72.266,1.000
1626295261784010.500,5.371,20.020,-27.832,14.648,1.000
1626295261787916.750,-66.895,-67.383,-14.648,-125.488,1.000
1626295261791823.000,-76.660,-85.938,-26.855,-94.238,1.000
1626295261795729.250,-0.488,-8.789,-14.648,59.570,1.000
1626295261799635.500,7.324,20.020,-11.230,45.410,1.000
1626295261803541.750,-54.199,19.043,-25.391,-101.562,1.000
1626295261807448.000,-64.941,-143.066,-25.391,-104.980,1.000
1626295261811354.250,-42.969,5.371,-13.184,41.016,1.000
1626295261815260.500,35.156,-18.066,11.719,89.844,1.000
1626295261819166.750,14.648,-96.191,-18.066,-44.922,1.000
1626295261823073.000,-70.801,-21.973,-43.945,-115.234,1.000
1626295261826979.250,-83.496,0.977,-31.738,3.906,1.000
1626295261830885.500,-24.902,7.812,-24.414,74.707,1.000
1626295261834791.750,12.695,-79.102,-38.086,-28.320,1.000
1626295261838698.000,-31.738,-103.027,-50.293,-130.371,1.000
1626295261842604.250,-85.938,-11.230,-56.641,-53.223,1.000
1626295261846510.500,-39.062,-9.277,-37.109,77.148,1.000
1626295261850416.750,33.691,4.395,-8.301,17.090,1.000
1626295261854323.000,16.602,-106.934,1.953,-119.141,1.000
1626295261858229.250,-57.617,-78.613,-14.648,1.000,1.000
1626295261862135.500,-51.758,-1.465,-41.504,1.000,1.000
1626295261866041.750,-5.859,9.277,-36.133,1.000,1.000
1626295261869948.000,-15.625,-3.418,-18.066,1.000,1.000
1626295261873854.250,-41.992,-121.582,-7.324,1.000,1.000
1626295261877760.500,-43.945,-35.156,-13.184,1.000,1.000
1626295261881666.750,0.977,28.809,-20.020,1.000,1.000
1626295261885573.000,20.020,11.230,-31.250,1.000,1.000
1626295261889479.250,-43.457,-27.832,-44.922,1.000,1.000
1626295261893385.500,-86.914,-120.605,-46.875,1.000,1.000
1626295261897291.750,-17.578,-28.809,-31.250,1.000,1.000
1626295261901198.000,32.715,2.441,-16.113,1.000,1.000
1626295261905104.250,-31.738,-24.414,-20.996,-55.664,1.000
1626295261909010.500,-95.703,-43.945,-30.273,-154.785,1.000
1626295261912916.750,-49.316,-70.312,-12.695,-36.621,1.000
1626295261916823.000,27.344,-3.418,-2.930,86.426,1.000
1626295261920729.250,-9.277,24.414,-25.391,-14.160,1.000
1626295261924635.500,-74.219,41.016,-35.645,-138.672,1.000
1626295261928541.750,-60.059,-66.406,-41.504,-70.312,1.000
1626295261932448.000,-2.441,-105.469,-42.480,57.129,1.000
1626295261936354.250,-4.395,-21.973,-32.715,17.090,1.000
1626295261940260.500,-64.453,-5.859,-23.438,-115.723,1.000
1626295261944166.750,-74.219,3.418,-34.180,-104.004,1.000
1626295261948073.000,-0.977,-119.141,-28.320,49.805,1.000
1626295261951979.250,-43.945,-24.902,-28.809,37.598,1.000
1626295261955885.500,-25.391,-41.992,-12.207,26.367,1.000
1626295261959791.750,-70.801,-103.027,6.836,-103.027,1.000
1626295261963698.000,-96.680,-35.156,-11.230,-115.234,1.000
1626295261967604.250,-43.945,2.930,-22.461,23.926,1.000
1626295261971510.500,-7.324,14.648,-28.809,60.547,1.000
1626295261975416.750,-52.734,-48.828,-25.879,-65.918,1.000
1626295261979323.000,-98.145,-63.477,-12.695,-132.812,1.000
1626295261983229.250,-54.688,-11.719,-12.207,-18.555,1.000
1626295261987135.500,5.371,-9.277,-7.812,66.406,1.000
1626295261991041.750,-34.668,-12.207,-28.320,-47.852,1.000
1626295261994948.000,-82.520,-142.090,-32.715,-135.254,1.000
1626295261998854.250,-62.500,-72.754,-35.645,1.000,1.000
1626295262002760.500,-4.395,22.461,-33.691,1.000,1.000
1626295262006666.750,-4.395,18.555,-13.184,1.000,1.000
1626295262010573.000,-70.801,-28.809,-21.484,1.000,1.000
1626295262014479.250,-66.895,-148.438,-29.785,1.000,1.000
1626295262018385.500,-8.789,-41.504,-28.809,1.000,1.000
1626295262022291.750,-6.348,6.836,-38.574,1.000,1.000
1626295262026198.000,-47.852,-3.418,-40.527,1.000,1.000
1626295262030104.250,-49.805,-5.859,-30.273,1.000,1.000
1626295262034010.500,-1.465,-83.984,-25.879,1.000,1.000
1626295262037916.750,16.602,-17.090,-23.438,1.000,1.000
1626295262041823.000,-44.434,16.113,-32.715,1.000,1.000
1626295262045729.250,-94.238,9.766,-46.387,-153.809,1.000
1626295262049635.500,-35.156,-34.180,-31.250,-20.508,1.000
1626295262053541.750,28.809,-98.145,-33.203,78.125,1.000
1626295262057448.000,-3.906,-37.109,-41.016,-18.066,1.000
1626295262061354.250,-73.242,-12.695,-48.828,-135.742,1.000
1626295262065260.500,-63.477,14.160,-49.805,-66.895,1.000
1626295262069166.750,9.277,-47.852,-19.043,66.895,1.000
1626295262073073.000,9.277,-70.801,-3.906,20.508,1.000
1626295262076979.250,-49.316,6.348,-12.207,-109.863,1.000
1626295262080885.500,-58.594,15.625,-21.973,-87.891,1.000
1626295262084791.750,-1.953,2.441,-21.484,44.922,1.000
1626295262088698.000,5.859,-135.742,-24.902,39.551,1.000
1626295262092604.250,-3.418,9.766,-32.227,23.926,1.000
1626295262096510.500,-64.453,-52.734,-51.270,-109.375,1.000
1626295262100416.750,-57.129,-94.727,-35.156,-73.730,1.000
1626295262104323.000,1.953,-5.371,-6.348,59.570,1.000
1626295262108229.250,5.371,12.695,-15.137,53.711,1.000
1626295262112135.500,-47.852,9.277,-21.484,-84.961,1.000
1626295262116041.750,-65.430,-65.918,-24.902,-109.863,1.000
1626295262119948.000,-13.184,-76.660,-36.133,23.438,1.000
1626295262123854.250,19.531,5.859,-37.109,73.730,1.000
1626295262127760.500,-40.527,6.836,-46.387,-64.941,1.000
1626295262131666.750,-93.750,-2.930,-41.504,-157.715,1.000
1626295262135573.000,-49.316,-109.375,-29.785,-40.039,1.000
1626295262139479.250,-58.594,-20.996,-37.109,70.801,1.000
1626295262143385.500,3.906,-26.855,-29.785,-1.465,1.000
1626295262147291.750,-22.461,-66.895,-40.527,-119.141,1.000
1626295262151198.000,-68.848,-8.789,-21.484,-80.078,1.000
1626295262155104.250,-37.598,20.508,-2.930,51.270,1.000
1626295262159010.500,8.789,34.668,-24.414,28.809,1.000
1626295262162916.750,-17.578,-67.871,-33.691,-125.000,1.000
1626295262166823.000,-91.797,-116.211,-33.203,-125.977,1.000
1626295262170729.250,-87.402,-42.480,-20.020,32.227,1.000
1626295262174635.500,-24.414,-26.855,-16.602,67.383,1.000
1626295262178541.750,-23.438,-34.668,-31.738,-70.312,1.000
1626295262182448.000,-90.332,-164.551,-31.738,-146.484,1.000
1626295262186354.250,-114.258,-94.727,-49.805,1.000,1.000
1626295262190260.500,-41.504,6.348,-45.898,1.000,1.000
1626295262194166.750,-7.324,16.113,-24.902,1.000,1.000
1626295262198073.000,-64.453,-29.785,-28.809,1.000,1.000
1626295262201979.250,-88.867,-175.293,-36.621,1.000,1.000
1626295262205885.500,-32.227,-57.617,-30.273,1.000,1.000
1626295262209791.750,27.832,27.344,-12.207,1.000,1.000
1626295262213698.000,-0.488,37.109,-19.043,1.000,1.000
1626295262217604.250,-69.336,-15.625,-49.805,1.000,1.000
1626295262221510.500,-30.762,-114.258,-42.480,1.000,1.000
1626295262225416.750,43.457,-14.648,-34.180,1.000,1.000
1626295262229323.000,11.719,4.395,-43.457,1.000,1.000
1626295262233229.250,-61.523,-6.348,-37.598,-142.578,1.000
1626295262237135.500,-65.430,-19.531,-35.645,-112.793,1.000
1626295262241041.750,3.906,-57.617,-26.855,38.574,1.000
1626295262244948.000,35.156,11.230,-24.414,46.387,1.000
1626295262248854.250,-34.668,-12.695,-36.133,-101.562,1.000
1626295262252760.500,-65.430,-37.109,-27.832,-124.023,1.000
1626295262256666.750,11.230,-78.613,-4.395,37.109,1.000
1626295262260573.000,34.668,-75.684,-21.973,78.613,1.000
1626295262264479.250,-28.809,-6.348,-46.875,-68.359,1.000
1626295262268385.500,-80.566,-2.441,-54.688,-141.602,1.000
1626295262272291.750,-38.574,-0.488,-43.945,-19.531,1.000
1626295262276198.000,28.320,-132.812,-19.531,92.285,1.000
1626295262280104.250,25.879,31.250,-27.832,80.078,1.000
1626295262284010.500,-29.297,-27.344,-29.297,-45.410,1.000
1626295262287916.750,-98.145,-95.703,-44.922,-149.902,1.000
1626295262291823.000,-62.012,-17.090,-43.457,-49.316,1.000
1626295262295729.250,-3.418,-0.488,-28.320,60.547,1.000
1626295262299635.500,-20.508,4.395,-16.113,-11.230,1.000
1626295262303541.750,-76.660,-69.336,-23.926,-126.953,1.000
1626295262307448.000,-52.734,-76.172,-31.250,-60.547,1.000
1626295262311354.250,20.020,19.043,-17.090,76.660,1.000
1626295262315260.500,7.812,31.250,-14.160,34.668,1.000
1626295262319166.750,-65.430,-8.301,-26.855,-111.816,1.000
1626295262323073.000,-73.242,-139.160,-19.043,-100.586,1.000
1626295262326979.250,-2.930,-63.965,-3.418,44.434,1.000
1626295262330885.500,26.367,-18.555,-7.324,67.871,1.000
1626295262334791.750,-50.781,-30.273,-26.855,-87.891,1.000
1626295262338698.000,-84.961,3.418,-24.902,-140.137,1.000
1626295262342604.250,-20.996,-107.422,-15.137,3.906,1.000
1626295262346510.500,27.344,-24.902,-12.207,85.938,1.000
1626295262350416.750,-8.789,31.738,-15.625,-17.578,1.000
1626295262354323.000,-77.637,-0.977,-29.297,-127.441,1.000
1626295262358229.250,-43.457,-22.949,-30.762,-41.504,1.000
1626295262362135.500,30.762,-74.219,-25.391,80.566,1.000
1626295262366041.750,-1.465,-21.973,-33.691,-10.742,1.000
1626295262369948.000,-72.266,-5.859,-34.668,-140.137,1.000
1626295262373854.250,-59.570,11.719,-17.578,1.000,1.000
1626295262377760.500,16.602,-20.020,-2.441,1.000,1.000
1626295262381666.750,21.484,-78.125,-23.438,1.000,1.000
1626295262385573.000,-49.805,1.465,-49.805,1.000,1.000
1626295262389479.250,-66.895,14.160,-40.527,1.000,1.000
1626295262393385.500,1.953,30.762,-14.648,1.000,1.000
1626295262397291.750,39.062,-41.504,-15.625,1.000,1.000
1626295262401198.000,-24.902,-72.266,-31.738,1.000,1.000
1626295262405104.250,-88.867,9.277,-48.340,1.000,1.000
1626295262409010.500,-46.875,12.695,-43.945,1.000,1.000
1626295262412916.750,12.207,-2.441,-52.734,1.000,1.000
1626295262416823.000,-26.367,-119.629,-67.383,1.000,1.000
1626295262420729.250,-90.332,-88.867,-44.922,1.000,1.000
1626295262424635.500,-60.547,-23.926,-24.414,1.000,1.000
1626295262428541.750,3.418,7.324,-24.414,1.000,1.000
1626295262432448.000,-4.395,5.371,-31.250,1.000,1.000
1626295262436354.250,-67.871,-121.582,-34.668,1.000,1.000
1626295262440260.500,-84.473,-35.645,-48.828,1.000,1.000
1626295262444166.750,-16.602,31.250,-52.734,1.000,1.000
1626295262448073.000,9.766,40.527,-34.668,1.000,1.000
1626295262451979.250,-64.453,-0.977,-38.086,1.000,1.000
1626295262455885.500,-77.637,-115.723,-35.156,1.000,1.000
1626295262459791.750,-3.418,-46.387,-22.949,1.000,1.000
1626295262463698.000,25.391,11.230,-28.809,1.000,1.000
1626295262467604.250,-40.039,5.371,-28.809,-70.801,1.000
1626295262471510.500,-102.051,-33.203,-42.969,-161.621,1.000
1626295262475416.750,-50.781,-54.199,-47.363,-39.062,1.000
1626295262479323.000,13.184,2.930,-29.785,72.754,1.000
1626295262483229.250,-24.902,9.766,-33.203,-29.785,1.000
1626295262487135.500,-81.543,20.996,-45.898,-141.602,1.000
1626295262491041.750,-60.547,-70.801,-36.621,-61.523,1.000
1626295262494948.000,-0.488,-104.980,-22.949,66.406,1.000
1626295262498854.250,-11.719,-29.297,-28.809,11.719,1.000
1626295262502760.500,-72.266,-30.762,-36.621,-122.559,1.000
1626295262506666.750,-66.406,-21.484,-18.066,-83.984,1.000
1626295262510573.000,3.906,-100.586,-9.277,67.383,1.000
1626295262514479.250,4.883,19.531,-5.371,62.988,1.000
1626295262518385.500,-1.953,-46.875,-31.250,24.414,1.000
1626295262522291.750,-61.035,-104.004,-21.973,-107.910,1.000
1626295262526198.000,-74.219,-13.184,-32.227,-101.562,1.000
1626295262530104.250,-3.906,38.086,-36.133,48.828,1.000
1626295262534010.500,26.855,38.574,-24.902,68.359,1.000
1626295262537916.750,-29.297,-66.406,-31.250,-70.801,1.000
1626295262541823.000,-57.129,-95.215,-21.484,-103.516,1.000
1626295262545729.250,-3.906,-10.742,-13.672,29.297,1.000
1626295262549635.500,25.879,20.020,-22.461,85.938,1.000
1626295262553541.750,-38.574,9.766,-41.992,-52.246,1.000
1626295262557448.000,-85.938,-133.789,-34.668,-140.625,1.000
1626295262561354.250,-41.504,-75.195,-15.137,1.000,1.000
1626295262565260.500,18.555,20.020,-35.645,1.000,1.000
1626295262569166.750,-8.301,2.930,-60.547,1.000,1.000
1626295262573073.000,-83.008,-41.016,-57.129,1.000,1.000
1626295262576979.250,-64.453,-145.508,-24.902,1.000,1.000
1626295262580885.500,15.137,-43.457,-8.301,1.000,1.000
1626295262584791.750,22.949,1.953,-22.949,1.000,1.000
1626295262588698.000,-67.871,-5.371,-53.223,1.000,1.000
1626295262592604.250,-84.473,-7.812,-50.781,1.000,1.000
1626295262596510.500,-3.418,-85.449,-40.527,1.000,1.000
1626295262600416.750,22.949,-17.578,-28.809,1.000,1.000
1626295262604323.000,-35.645,2.441,-18.066,1.000,1.000
1626295262608229.250,-87.402,-2.930,-30.762,-144.043,1.000
1626295262612135.500,-34.668,-33.691,-21.484,-22.461,1.000
1626295262616041.750,21.973,-86.426,-19.043,78.613,1.000
1626295262619948.000,-14.648,-20.996,-28.809,-22.461,1.000
1626295262623854.250,-65.918,7.812,-22.461,-124.023,1.000
1626295262627760.500,-34.668,22.461,-35.156,-35.156,1.000
1626295262631666.750,26.367,-67.871,-42.969,80.566,1.000
1626295262635573.000,18.555,-88.379,-36.621,15.625,1.000
1626295262639479.250,-51.270,12.695,-46.875,-115.723,1.000
1626295262643385.500,-59.082,19.043,-47.363,-73.730,1.000
1626295262647291.750,5.859,-2.441,-29.297,64.453,1.000
1626295262651198.000,5.371,-144.531,-15.625,42.480,1.000
1626295262655104.250,-33.691,-18.066,-29.785,-12.207,1.000
1626295262659010.500,-88.379,-66.895,-29.785,-137.695,1.000
1626295262662916.750,-91.309,-143.066,-22.949,-109.375,1.000
1626295262666823.000,-19.043,-40.039,-38.574,32.715,1.000
1626295262670729.250,1.953,-17.578,-35.645,44.922,1.000
1626295262674635.500,-56.152,-8.301,-21.484,-88.379,1.000
1626295262678541.750,-101.562,-73.242,-37.109,-136.230,1.000
1626295262682448.000,-53.711,-83.008,-34.180,-4.883,1.000
1626295262686354.250,19.531,-4.883,-20.996,87.891,1.000
1626295262690260.500,-5.859,7.812,-24.902,-19.531,1.000
1626295262694166.750,-76.660,2.930,-23.438,-123.047,1.000
1626295262698073.000,-80.566,-161.133,-39.551,-58.594,1.000
1626295262701979.250,-24.414,-5.859,-28.809,57.617,1.000
1626295262705885.500,17.578,-21.484,-14.160,3.906,1.000
1626295262709791.750,-23.926,-81.543,-38.086,-125.488,1.000
1626295262713698.000,-69.336,-8.789,-37.598,-73.242,1.000
1626295262717604.250,-36.621,14.648,-14.648,45.898,1.000
1626295262721510.500,21.973,20.996,-29.297,28.320,1.000
1626295262725416.750,-10.742,-83.984,-56.152,-104.004,1.000
1626295262729323.000,-62.988,-105.957,-37.109,-97.168,1.000
1626295262733229.250,-31.738,5.859,-11.230,49.805,1.000
1626295262737135.500,37.109,38.574,-6.348,49.316,1.000
1626295262741041.750,29.297,41.016,-19.043,-85.938,1.000
1626295262744948.000,-71.289,-140.625,-70.312,-134.766,1.000
1626295262748854.250,-71.289,-7.812,-25.391,1.000,1.000
1626295262752760.500,-64.453,19.043,-17.578,1.000,1.000
1626295262756666.750,6.348,23.926,-37.598,1.000,1.000
1626295262760573.000,20.020,21.973,-40.039,1.000,1.000
1626295262764479.250,-47.852,8.301,-24.414,1.000,1.000
1626295262768385.500,-66.895,-11.230,-21.484,1.000,1.000
1626295262772291.750,11.230,-11.230,-6.836,1.000,1.000
1626295262776198.000,31.738,-13.184,-6.836,1.000,1.000
1626295262780104.250,-34.668,-11.230,-24.414,1.000,1.000
1626295262784010.500,-67.871,17.578,-16.113,1.000,1.000
1626295262787916.750,-28.809,21.973,-32.715,1.000,1.000
1626295262791823.000,5.371,-133.789,-56.152,1.000,1.000
1626295262795729.250,10.254,-35.645,-19.043,62.988,1.000
1626295262799635.500,-36.133,-41.504,-13.672,-55.664,1.000
1626295262803541.750,-101.562,-86.914,-35.645,-145.996,1.000
1626295262807448.000,-64.941,-4.883,-36.133,-47.852,1.000
1626295262811354.250,2.930,20.508,-43.457,50.293,1.000
1626295262815260.500,-4.395,21.484,-36.621,-18.066,1.000
1626295262819166.750,-75.684,-76.660,-38.574,-136.719,1.000
1626295262823073.000,-71.777,-95.703,-46.387,-86.426,1.000
1626295262826979.250,17.090,15.137,-18.066,63.965,1.000
1626295262830885.500,22.461,6.836,-5.371,35.156,1.000
1626295262834791.750,-57.617,-31.250,-17.578,-117.676,1.000
1626295262838698.000,-93.750,-168.945,-38.574,-125.000,1.000
1626295262842604.250,-34.668,-94.727,-42.969,1.000,1.000
1626295262846510.500,18.066,8.301,-28.809,1.000,1.000
1626295262850416.750,-24.414,5.859,-21.484,1.000,1.000
1626295262854323.000,-70.801,-2.441,-29.297,1.000,1.000
1626295262858229.250,-38.574,-150.879,-35.156,1.000,1.000
1626295262862135.500,18.066,-56.641,-27.832,1.000,1.000
1626295262866041.750,-18.066,14.648,-27.832,1.000,1.000
1626295262869948.000,-69.824,18.555,-18.066,1.000,1.000
1626295262873854.250,-26.855,-0.488,0.000,1.000,1.000
1626295262877760.500,45.410,-104.492,18.555,1.000,1.000
1626295262881666.750,20.996,-55.176,3.418,1.000,1.000
1626295262885573.000,-61.035,-40.039,-25.391,1.000,1.000
1626295262889479.250,-64.941,3.906,-22.461,-71.777,1.000
1626295262893385.500,-21.973,-15.137,-32.715,38.086,1.000
1626295262897291.750,-30.273,-94.727,-41.016,0.977,1.000
1626295262901198.000,-77.637,-8.301,-27.344,-125.000,1.000
1626295262905104.250,-79.102,19.043,-14.160,-106.445,1.000
1626295262909010.500,-8.301,31.738,1.465,43.945,1.000
1626295262912916.750,8.789,-63.965,-24.902,60.547,1.000
1626295262916823.000,-39.062,-106.445,-44.434,-75.684,1.000
1626295262920729.250,-70.801,6.348,-32.227,-120.117,1.000
1626295262924635.500,-25.391,41.992,-27.344,11.230,1.000
1626295262928541.750,39.062,40.039,-15.625,99.121,1.000
1626295262932448.000,-17.578,-120.605,-23.926,-31.738,1.000
1626295262936354.250,-92.285,-114.258,-34.668,-147.461,1.000
1626295262940260.500,-60.059,-14.160,-42.480,-56.152,1.000
1626295262944166.750,13.184,17.090,-17.090,70.312,1.000
1626295262948073.000,-13.184,-14.648,-12.695,3.906,1.000
1626295262951979.250,-102.051,-163.574,-48.828,-152.344,1.000
1626295262955885.500,-82.031,-45.410,-43.945,-101.074,1.000
1626295262959791.750,9.766,46.875,-40.039,60.547,1.000
1626295262963698.000,20.996,30.762,-50.781,36.621,1.000
1626295262967604.250,-55.176,-21.973,-41.504,-118.164,1.000
1626295262971510.500,-85.449,-124.023,-23.926,-129.395,1.000
1626295262975416.750,-20.508,-40.039,-20.508,12.695,1.000
1626295262979323.000,26.367,8.789,-11.719,59.570,1.000
1626295262983229.250,-17.090,18.555,-3.418,-59.082,1.000
1626295262987135.500,-63.965,-24.414,-16.602,-127.441,1.000
1626295262991041.750,-41.992,-90.332,-43.945,-33.203,1.000
1626295262994948.000,25.391,-22.461,-42.480,74.219,1.000
1626295262998854.250,16.113,10.742,-27.344,-0.488,1.000
1626295263002760.500,-55.664,40.039,-35.156,-118.652,1.000
1626295263006666.750,-61.035,-52.734,-54.199,-64.941,1.000
1626295263010573.000,-4.883,-86.426,-43.457,46.387,1.000
1626295263014479.250,0.488,8.789,-14.648,9.766,1.000
1626295263018385.500,-50.781,2.441,-2.930,-100.586,1.000
1626295263022291.750,-49.805,1.465,-13.184,-70.312,1.000
1626295263026198.000,10.742,-104.980,-27.832,58.594,1.000
1626295263030104.250,40.039,28.320,-20.020,66.406,1.000
1626295263034010.500,8.301,-12.207,-42.969,-83.984,1.000
1626295263037916.750,-72.754,-93.750,-50.293,-109.863,1.000
1626295263041823.000,-71.289,-45.898,-34.668,27.344,1.000
1626295263045729.250,-1.953,0.000,-36.133,31.738,1.000
1626295263049635.500,27.832,39.062,-20.996,-95.703,1.000
1626295263053541.750,-47.363,-48.828,-32.227,-150.879,1.000
1626295263057448.000,-98.145,-99.609,-54.199,-32.227,1.000
1626295263061354.250,-37.598,-5.371,-33.691,76.660,1.000
1626295263065260.500,20.996,26.367,-9.766,-18.555,1.000
1626295263069166.750,-13.672,13.672,-7.812,-125.977,1.000
1626295263073073.000,-97.656,-129.395,-41.992,-36.621,1.000
1626295263076979.250,-65.430,-94.727,-52.246,1.000,1.000
1626295263080885.500,15.137,-24.414,-40.039,1.000,1.000
1626295263084791.750,1.953,-6.348,-40.527,1.000,1.000
1626295263088698.000,-63.965,3.906,-43.945,1.000,1.000
1626295263092604.250,-79.102,-102.051,-56.152,1.000,1.000
1626295263096510.500,-9.277,-27.344,-46.875,1.000,1.000
1626295263100416.750,5.371,22.949,-34.180,1.000,1.000
1626295263104323.000,-62.500,22.949,-33.691,1.000,1.000
1626295263108229.250,-77.148,-22.461,-26.367,1.000,1.000
1626295263112135.500,-1.465,-125.977,-28.320,1.000,1.000
1626295263116041.750,42.480,-22.949,-17.578,1.000,1.000
1626295263119948.000,-31.250,-12.207,-41.992,1.000,1.000
1626295263123854.250,-78.613,-29.297,-58.105,-132.812,1.000
1626295263127760.500,-23.438,-49.316,-25.391,-0.977,1.000
1626295263131666.750,33.691,-106.934,-0.488,91.797,1.000
1626295263135573.000,9.277,-12.207,0.977,-7.812,1.000
1626295263139479.250,-61.523,20.508,-25.879,-120.605,1.000
1626295263143385.500,-44.922,27.832,-29.785,-32.227,1.000
1626295263147291.750,8.301,-32.227,-33.691,81.543,1.000
1626295263151198.000,-19.043,-76.660,-38.574,-3.906,1.000
1626295263155104.250,-77.148,-12.207,-33.203,-135.742,1.000
1626295263159010.500,-72.754,5.371,-32.227,-93.750,1.000
1626295263162916.750,3.906,11.719,-10.742,61.035,1.000
1626295263166823.000,5.371,-125.488,-28.320,40.039,1.000
1626295263170729.250,-1.465,31.738,-24.414,14.160,1.000
1626295263174635.500,-80.078,-22.949,-57.617,-132.324,1.000
1626295263178541.750,-86.914,-80.078,-57.617,-101.562,1.000
1626295263182448.000,-15.625,-20.020,-12.207,49.316,1.000
1626295263186354.250,3.906,6.836,-14.648,46.387,1.000
1626295263190260.500,-59.082,18.555,-47.852,-103.516,1.000
1626295263194166.750,-93.262,-70.312,-60.547,-131.836,1.000
1626295263198073.000,-33.203,-88.379,-52.734,7.812,1.000
1626295263201979.250,14.648,-10.742,-34.180,57.617,1.000
1626295263205885.500,-27.832,-6.836,-24.414,-67.383,1.000
1626295263209791.750,-77.148,9.766,-41.016,-136.230,1.000
1626295263213698.000,-46.875,-93.262,-51.758,-31.250,1.000
1626295263217604.250,-21.484,33.203,-14.648,18.066,1.000
1626295263221510.500,11.719,-44.434,-10.742,67.383,1.000
1626295263225416.750,-45.898,-128.906,-35.645,-68.848,1.000
1626295263229323.000,-93.262,-9.277,-42.480,-150.391,1.000
1626295263233229.250,-51.270,25.879,-24.902,-39.062,1.000
1626295263237135.500,19.531,37.109,-13.672,82.520,1.000
1626295263241041.750,-10.254,-55.176,-35.156,-1.953,1.000
1626295263244948.000,-87.402,-115.234,-62.988,-145.508,1.000
1626295263248854.250,-64.941,-4.883,-58.594,-83.008,1.000
1626295263252760.500,10.742,35.645,-22.461,67.383,1.000
1626295263256666.750,12.207,22.949,0.000,33.203,1.000
1626295263260573.000,-69.336,-172.852,-17.578,-126.465,1.000
1626295263264479.250,-69.336,-130.859,-11.719,1.000,1.000
1626295263268385.500,5.371,10.254,-23.438,1.000,1.000
1626295263272291.750,10.254,16.113,-41.992,1.000,1.000
1626295263276198.000,-58.594,-11.230,-45.898,1.000,1.000
1626295263280104.250,-118.164,-177.246,-57.617,1.000,1.000
1626295263284010.500,-62.500,-87.402,-33.203,1.000,1.000
1626295263287916.750,5.371,-4.395,-20.508,1.000,1.000
1626295263291823.000,-28.809,7.812,-34.668,1.000,1.000
1626295263295729.250,-79.102,-2.930,-38.086,1.000,1.000
1626295263299635.500,-59.570,-107.422,-33.203,1.000,1.000
1626295263303541.750,20.020,-10.254,-14.160,1.000,1.000
1626295263307448.000,11.230,18.555,-22.461,1.000,1.000
1626295263311354.250,-75.195,-4.395,-34.668,-132.812,1.000
1626295263315260.500,-81.055,-40.527,-36.133,-95.215,1.000
1626295263319166.750,-20.508,-112.305,-43.945,38.086,1.000
1626295263323073.000,-4.883,-29.785,-46.387,25.879,1.000
1626295263326979.250,-62.012,1.953,-37.598,-110.840,1.000
1626295263330885.500,-78.613,12.695,-25.879,-113.281,1.000
1626295263334791.750,-14.648,-65.918,-27.344,36.133,1.000
1626295263338698.000,9.766,-110.352,-40.039,57.129,1.000
1626295263342604.250,-50.781,-26.855,-54.199,-88.379,1.000
1626295263346510.500,-81.055,-20.996,-35.156,-127.930,1.000
1626295263350416.750,-14.648,6.348,-6.348,22.461,1.000
1626295263354323.000,19.531,-134.766,-28.320,83.008,1.000
1626295263358229.250,36.621,41.992,-3.418,88.379,1.000
1626295263362135.500,-13.672,-7.324,-18.555,-48.828,1.000
1626295263366041.750,-87.891,-117.676,-64.941,-147.461,1.000
1626295263369948.000,-56.152,-47.852,-29.785,-41.504,1.000
1626295263373854.250,7.324,3.906,7.324,60.059,1.000
1626295263377760.500,-11.230,30.273,5.859,-25.391,1.000
1626295263381666.750,-84.961,-64.453,-20.996,-145.996,1.000
1626295263385573.000,-68.848,-104.004,-56.641,-74.219,1.000
1626295263389479.250,19.531,3.418,-34.180,74.707,1.000
1626295263393385.500,8.301,14.160,-10.742,16.602,1.000
1626295263397291.750,-65.918,-9.277,-27.344,-140.137,1.000
1626295263401198.000,-87.891,-172.363,-43.457,-131.836,1.000
1626295263405104.250,-12.207,-113.770,-17.578,1.000,1.000
1626295263409010.500,27.344,11.230,-12.207,1.000,1.000
1626295263412916.750,-37.109,2.441,-21.484,1.000,1.000
1626295263416823.000,-71.777,-18.066,-29.785,1.000,1.000
1626295263420729.250,-47.852,-160.156,-65.430,1.000,1.000
1626295263424635.500,10.254,-44.434,-39.062,1.000,1.000
1626295263428541.750,-32.715,25.879,-23.438,1.000,1.000
1626295263432448.000,-86.426,0.977,-34.180,1.000,1.000
1626295263436354.250,-34.668,-20.508,-26.855,1.000,1.000
1626295263440260.500,10.742,-121.582,-36.133,1.000,1.000
1626295263444166.750,-0.977,-41.016,-21.484,1.000,1.000
1626295263448073.000,-60.547,7.324,-12.207,1.000,1.000
1626295263451979.250,-47.852,22.461,-34.668,-55.664,1.000
1626295263455885.500,6.836,-35.645,-59.082,62.988,1.000
1626295263459791.750,11.230,-120.117,-32.227,30.273,1.000
1626295263463698.000,-24.414,-5.859,-8.789,-84.961,1.000
1626295263467604.250,-65.430,19.043,-42.969,-110.840,1.000
1626295263471510.500,-22.949,14.648,-51.270,17.090,1.000
1626295263475416.750,-3.418,-68.848,-35.156,37.109,1.000
1626295263479323.000,-64.941,-108.887,-28.320,-108.887,1.000
1626295263483229.250,-73.730,-12.207,-21.973,-127.441,1.000
1626295263487135.500,-21.973,6.836,-21.484,6.348,1.000
1626295263491041.750,12.207,14.160,-20.996,67.383,1.000
1626295263494948.000,-40.527,-117.676,-45.898,-62.988,1.000
1626295263498854.250,-77.148,-67.383,-44.922,-141.602,1.000
1626295263502760.500,-18.066,4.395,-26.855,-18.066,1.000
1626295263506666.750,34.668,-14.160,-30.273,91.309,1.000
1626295263510573.000,18.555,-6.348,-7.812,24.902,1.000
1626295263514479.250,-42.480,-152.832,1.953,-102.539,1.000
1626295263518385.500,-61.523,-62.988,-29.297,-76.660,1.000
1626295263522291.750,-3.418,15.625,-46.387,56.152,1.000
1626295263526198.000,13.184,5.371,-35.645,42.969,1.000
1626295263530104.250,-45.410,-25.391,-26.855,-97.168,1.000
1626295263534010.500,-62.500,-140.625,-15.137,-103.516,1.000
1626295263537916.750,-7.812,-33.203,-7.812,39.062,1.000
1626295263541823.000,15.625,31.250,-16.602,64.941,1.000
1626295263545729.250,-25.391,14.648,-32.715,-62.988,1.000
1626295263549635.500,-74.219,-46.875,-54.199,-125.488,1.000
1626295263553541.750,-47.363,-111.816,-47.363,-14.160,1.000
1626295263557448.000,19.043,-5.371,-16.602,84.961,1.000
1626295263561354.250,-4.883,15.625,-11.719,-10.742,1.000
1626295263565260.500,-42.969,32.715,-9.766,-98.145,1.000
1626295263569166.750,-24.414,-51.270,-7.324,-19.531,1.000
1626295263573073.000,7.812,-99.609,-33.691,72.754,1.000
1626295263576979.250,-2.441,-7.324,-53.223,3.906,1.000
1626295263580885.500,-77.637,-12.695,-52.246,-137.695,1.000
1626295263584791.750,-89.355,-17.090,-41.992,-105.957,1.000
1626295263588698.000,-21.973,-153.320,-43.457,37.598,1.000
1626295263592604.250,16.602,30.762,-28.809,46.875,1.000
1626295263596510.500,-10.254,-36.621,-52.734,-94.238,1.000
1626295263600416.750,-83.496,-120.605,-74.707,-122.070,1.000
1626295263604323.000,-54.199,-20.020,-26.367,22.461,1.000
1626295263608229.250,26.855,13.672,-1.465,72.754,1.000
1626295263612135.500,33.203,34.668,-20.508,-60.547,1.000
1626295263616041.750,-59.082,-55.664,-43.457,-132.324,1.000
1626295263619948.000,-95.703,-94.727,-41.504,4.395,1.000
1626295263623854.250,-18.066,20.996,-32.715,81.543,1.000
1626295263627760.500,37.598,26.367,-26.855,-44.434,1.000
1626295263631666.750,-4.395,23.926,-25.879,-148.438,1.000
1626295263635573.000,-81.055,-156.738,-47.363,-68.359,1.000
1626295263639479.250,-48.340,-103.516,-38.574,1.000,1.000
1626295263643385.500,5.859,33.691,-42.480,1.000,1.000
1626295263647291.750,-17.090,25.391,-44.922,1.000,1.000
1626295263651198.000,-59.570,4.883,-32.227,1.000,1.000
1626295263655104.250,-71.777,-159.668,-48.340,1.000,1.000
1626295263659010.500,6.836,-58.594,-30.273,1.000,1.000
1626295263662916.750,21.484,44.434,-7.812,1.000,1.000
1626295263666823.000,-54.688,32.715,-14.648,1.000,1.000
1626295263670729.250,-79.102,-12.207,-34.180,1.000,1.000
1626295263674635.500,-30.762,-142.090,-38.574,1.000,1.000
1626295263678541.750,23.438,-28.320,-14.648,1.000,1.000
1626295263682448.000,-14.160,38.574,-26.367,1.000,1.000
1626295263686354.250,-61.523,11.230,-27.344,-107.422,1.000
1626295263690260.500,-28.320,-36.133,-28.320,5.859,1.000
1626295263694166.750,3.906,-86.914,-45.410,61.035,1.000
1626295263698073.000,-36.133,7.812,-43.457,-54.199,1.000
1626295263701979.250,-88.867,27.344,-36.621,-140.625,1.000
1626295263705885.500,-47.852,15.137,-24.414,-26.855,1.000
1626295263709791.750,9.277,-67.383,-28.809,74.707,1.000
1626295263713698.000,-24.414,-98.633,-30.273,-20.996,1.000
1626295263717604.250,-78.125,-22.461,-26.855,-137.695,1.000
1626295263721510.500,-57.129,-9.277,-23.438,-75.684,1.000
1626295263725416.750,19.043,29.785,-4.883,67.383,1.000
1626295263729323.000,-5.859,-125.488,-40.527,15.137,1.000
1626295263733229.250,5.859,40.527,-11.719,9.766,1.000
1626295263737135.500,-75.195,-31.250,-49.805,-140.137,1.000
1626295263741041.750,-84.961,-114.746,-65.918,-110.840,1.000
1626295263744948.000,0.000,-26.855,-26.367,50.781,1.000
1626295263748854.250,16.113,-5.859,-5.859,50.293,1.000
1626295263752760.500,-60.547,0.488,-17.090,-105.957,1.000
1626295263756666.750,-87.891,-62.988,-38.086,-130.859,1.000
1626295263760573.000,-17.090,-81.543,-32.715,18.555,1.000
1626295263764479.250,29.785,23.438,-25.879,72.754,1.000
1626295263768385.500,-27.832,14.160,-46.875,-64.941,1.000
1626295263772291.750,-57.129,6.348,-36.621,-117.188,1.000
1626295263776198.000,-10.254,-119.629,-18.555,14.160,1.000
1626295263780104.250,-16.602,27.832,-23.438,91.309,1.000
1626295263784010.500,20.020,-18.555,-12.695,-24.414,1.000
1626295263787916.750,-33.203,-118.652,-23.438,-139.648,1.000
1626295263791823.000,-89.355,-52.734,-43.945,-62.988,1.000
1626295263795729.250,-57.129,-11.230,-57.129,59.570,1.000
1626295263799635.500,8.301,38.574,-51.270,11.230,1.000
1626295263803541.750,-29.297,-52.246,-48.828,-113.281,1.000
1626295263807448.000,-91.309,-111.328,-36.621,-83.496,1.000
1626295263811354.250,-56.152,-12.207,-15.137,46.387,1.000
1626295263815260.500,16.602,20.020,-18.066,45.898,1.000
1626295263819166.750,12.695,41.992,-28.809,-91.797,1.000
1626295263823073.000,-62.500,-116.211,-46.387,-116.211,1.000
1626295263826979.250,-59.082,-71.289,-33.203,1.000,1.000
1626295263830885.500,2.441,30.273,-10.254,1.000,1.000
1626295263834791.750,24.902,27.832,-3.906,1.000,1.000
1626295263838698.000,-41.016,-6.348,-38.574,1.000,1.000
1626295263842604.250,-100.098,-189.453,-77.637,1.000,1.000
