timestamps,TP9,AF7,AF8,TP10,Right AUX
1626062888440169.750,1.465,-55.664,-36.133,122.559,1.000
1626062888444076.000,-23.438,-46.875,-38.086,-79.590,1.000
1626062888447982.250,-40.527,-27.832,-48.340,-181.152,1.000
1626062888451888.500,-24.414,-14.648,-34.668,-3.906,1.000
1626062888455794.750,-7.812,-24.414,-6.836,134.277,1.000
1626062888459701.000,-28.320,-44.434,-11.719,-17.090,1.000
1626062888463607.250,-54.688,-23.926,-32.715,-186.523,1.000
1626062888467513.500,-51.758,-11.719,-49.805,-83.008,1.000
1626062888471419.750,-27.344,-39.062,-54.199,98.145,1.000
1626062888475326.000,-15.137,-39.551,-46.387,34.180,1.000
1626062888479232.250,-52.734,-37.598,-49.316,-177.246,1.000
1626062888483138.500,-46.875,-20.996,-57.617,-132.324,1.000
1626062888487044.750,-1.953,3.418,-25.879,98.633,1.000
1626062888490951.000,-8.301,-21.973,1.465,91.309,1.000
1626062888494857.250,-58.594,-69.336,-25.391,-147.949,1.000
1626062888498763.500,-71.777,-63.477,-36.621,-189.453,1.000
1626062888502669.750,-41.016,-47.363,-33.203,22.461,1.000
1626062888506576.000,-21.973,-37.109,-49.316,107.910,1.000
1626062888510482.250,-34.668,-26.367,-61.523,-66.406,1.000
1626062888514388.500,-59.082,-37.598,-32.227,-187.988,1.000
1626062888518294.750,-50.781,-36.133,-14.648,-34.180,1.000
1626062888522201.000,-20.020,-30.762,-35.645,120.117,1.000
1626062888526107.250,-13.184,-39.062,-40.527,3.418,1.000
1626062888530013.500,-37.598,-31.738,-46.875,-171.387,1.000
1626062888533919.750,-38.574,-17.090,-26.367,-73.730,1.000
1626062888537826.000,-42.969,-32.227,-31.250,132.812,1.000
1626062888541732.250,-13.672,-19.043,-24.414,57.617,1.000
1626062888545638.500,-31.250,-23.438,-45.410,-168.945,1.000
1626062888549544.750,-55.176,-31.738,-42.969,-122.070,1.000
1626062888553451.000,-20.508,-15.137,-17.578,100.098,1.000
1626062888557357.250,5.371,-25.879,-40.039,119.629,1.000
1626062888561263.500,-12.695,-35.156,-52.734,-103.027,1.000
1626062888565169.750,-36.133,-34.668,-32.715,-182.617,1.000
1626062888569076.000,-48.828,-26.855,-26.855,43.945,1.000
1626062888572982.250,-34.668,-18.066,-30.762,160.156,1.000
1626062888576888.500,-0.488,-20.020,-17.578,-22.949,1.000
1626062888580794.750,-16.602,-28.809,-41.504,-80.078,1.000
1626062888584701.000,-50.293,-35.645,-62.988,-178.223,1.000
1626062888588607.250,-26.367,-29.297,-41.504,19.043,1.000
1626062888592513.500,-0.977,-27.344,-33.203,141.602,1.000
1626062888596419.750,-26.367,-28.809,-41.016,-34.180,1.000
1626062888600326.000,-56.641,-38.574,-41.016,-200.195,1.000
1626062888604232.250,-52.246,-57.617,-42.969,-76.172,1.000
1626062888608138.500,-17.090,-42.480,-40.039,115.234,1.000
1626062888612044.750,-2.441,-17.578,-30.762,32.715,1.000
1626062888615951.000,-40.039,-21.484,-38.086,-175.293,1.000
1626062888619857.250,-49.316,-22.949,-32.715,-119.141,1.000
1626062888623763.500,-22.461,-42.969,-17.578,89.355,1.000
1626062888627669.750,-18.066,-61.035,-29.785,68.848,1.000
1626062888631576.000,-43.457,-40.039,-50.293,-140.137,1.000
1626062888635482.250,-51.270,-8.789,-34.668,-158.691,1.000
1626062888639388.500,-42.969,-2.930,-40.039,27.832,1.000
1626062888643294.750,-30.273,-18.555,-50.781,93.262,1.000
1626062888647201.000,-38.574,-29.785,-26.367,-80.566,1.000
1626062888651107.250,-52.734,-21.973,-32.715,-177.246,1.000
1626062888655013.500,-32.227,-31.250,-65.918,-3.906,1.000
1626062888658919.750,7.812,-54.688,-35.645,140.625,1.000
1626062888662826.000,-7.324,-53.223,-10.742,-11.719,1.000
1626062888666732.250,-62.500,-36.133,-25.391,-200.195,1.000
1626062888670638.500,-48.340,-22.461,-17.090,-72.754,1.000
1626062888674544.750,-59.082,-31.738,-56.641,-50.781,1.000
1626062888678451.000,-24.902,-21.484,-50.781,104.492,1.000
1626062888682357.250,-26.367,-38.574,-40.527,-21.973,1.000
1626062888686263.500,-38.086,-58.594,-42.480,-184.570,1.000
1626062888690169.750,-12.207,-53.711,-40.039,-62.012,1.000
1626062888694076.000,2.441,-47.363,-42.480,131.348,1.000
1626062888697982.250,-19.043,-43.945,-28.320,49.805,1.000
1626062888701888.500,-46.875,-40.527,-1.953,-164.062,1.000
1626062888705794.750,-47.852,-42.969,-1.465,-138.672,1.000
1626062888709701.000,-31.250,-33.203,-21.484,67.871,1.000
1626062888713607.250,-31.738,-26.367,-32.715,82.031,1.000
1626062888717513.500,-51.758,-22.461,-39.062,-124.023,1.000
1626062888721419.750,-41.016,-5.859,-30.762,1.000,1.000
1626062888725326.000,-4.883,1.953,-19.043,1.000,1.000
1626062888729232.250,3.418,-20.020,-26.367,1.000,1.000
1626062888733138.500,-15.137,-37.109,-50.293,1.000,1.000
1626062888737044.750,-34.180,-30.762,-50.293,1.000,1.000
1626062888740951.000,-18.555,-50.781,-21.973,1.000,1.000
1626062888744857.250,5.859,-62.012,-26.855,1.000,1.000
1626062888748763.500,5.859,-34.668,-36.621,1.000,1.000
1626062888752669.750,-9.277,-22.461,-21.484,1.000,1.000
1626062888756576.000,-14.648,-34.668,-18.066,1.000,1.000
1626062888760482.250,11.230,-6.836,-13.672,1.000,1.000
1626062888764388.500,17.578,14.648,-18.066,1.000,1.000
1626062888768294.750,-15.625,-23.926,-32.227,1.000,1.000
1626062888772201.000,-40.039,-45.410,-60.547,1.000,1.000
1626062888776107.250,-23.926,-32.227,-65.918,1.000,1.000
1626062888780013.500,-9.277,-29.297,-52.246,1.000,1.000
1626062888783919.750,-28.320,-33.203,-45.898,1.000,1.000
1626062888787826.000,-30.273,-13.672,-28.809,1.000,1.000
1626062888791732.250,-4.395,-20.020,-15.137,1.000,1.000
1626062888795638.500,3.906,-46.387,-12.207,1.000,1.000
1626062888799544.750,-16.602,-33.691,-20.996,1.000,1.000
1626062888803451.000,-31.250,3.418,-12.695,1.000,1.000
1626062888807357.250,-29.297,4.395,-15.137,1.000,1.000
1626062888811263.500,-8.301,-21.484,-25.391,1.000,1.000
1626062888815169.750,2.930,-33.691,-23.438,1.000,1.000
1626062888819076.000,-12.207,-31.250,-40.527,1.000,1.000
1626062888822982.250,-17.090,-17.090,-50.781,1.000,1.000
1626062888826888.500,-8.301,-11.719,-32.715,1.000,1.000
1626062888830794.750,-21.484,-18.066,-47.363,1.000,1.000
1626062888834701.000,-37.109,-21.973,-52.734,1.000,1.000
1626062888838607.250,-27.832,-34.180,-27.344,1.000,1.000
1626062888842513.500,9.766,-29.785,-5.371,1.000,1.000
1626062888846419.750,17.090,-23.926,0.000,1.000,1.000
1626062888850326.000,-19.043,-39.062,-20.996,1.000,1.000
1626062888854232.250,-45.898,-59.570,-68.359,1.000,1.000
1626062888858138.500,-8.789,-23.926,-52.246,1.000,1.000
1626062888862044.750,17.090,8.301,-13.184,153.809,1.000
1626062888865951.000,-23.438,-15.625,-27.344,-24.414,1.000
1626062888869857.250,-61.523,-24.414,-40.039,-204.590,1.000
1626062888873763.500,-35.645,-13.672,-31.250,-67.383,1.000
1626062888877669.750,5.371,-11.230,-27.344,139.648,1.000
1626062888881576.000,-8.301,-20.020,-42.480,50.781,1.000
1626062888885482.250,-37.598,-37.598,-43.945,-152.344,1.000
1626062888889388.500,-41.504,-48.340,-46.875,-119.141,1.000
1626062888893294.750,-33.203,-52.246,-66.895,76.660,1.000
1626062888897201.000,-28.320,-48.340,-44.434,84.961,1.000
1626062888901107.250,-39.062,-13.184,-20.508,-108.887,1.000
1626062888905013.500,-62.012,-16.113,-41.992,-165.039,1.000
1626062888908919.750,-41.992,-33.691,-32.715,-143.066,1.000
1626062888912826.000,-7.324,-33.203,-35.645,82.520,1.000
1626062888916732.250,0.977,-32.227,-36.621,111.328,1.000
1626062888920638.500,-25.391,-27.344,-32.227,-103.516,1.000
1626062888924544.750,-51.758,-22.461,-35.156,-179.688,1.000
1626062888928451.000,-47.852,-15.137,-33.691,18.555,1.000
1626062888932357.250,-20.508,-6.836,-18.066,129.883,1.000
1626062888936263.500,-29.297,-25.391,-18.555,-55.664,1.000
1626062888940169.750,-46.875,-41.016,-31.738,-190.430,1.000
1626062888944076.000,-24.414,-20.996,-25.391,-25.879,1.000
1626062888947982.250,8.301,-24.902,-8.789,147.949,1.000
1626062888951888.500,-6.348,-44.434,-20.020,22.461,1.000
1626062888955794.750,-47.852,-35.645,-44.922,1.000,1.000
1626062888959701.000,-59.082,-34.668,-32.227,1.000,1.000
1626062888963607.250,-40.039,-53.223,-36.133,1.000,1.000
1626062888967513.500,-29.785,-25.879,-49.316,1.000,1.000
1626062888971419.750,-55.664,-2.930,-28.809,1.000,1.000
1626062888975326.000,-62.500,-14.648,-20.996,1.000,1.000
1626062888979232.250,-18.066,-22.461,-12.695,1.000,1.000
1626062888983138.500,-4.395,-48.340,-24.414,1.000,1.000
1626062888987044.750,-42.969,-58.594,-38.086,1.000,1.000
1626062888990951.000,-70.312,-43.945,-41.992,1.000,1.000
1626062888994857.250,-39.062,-35.156,-25.391,1.000,1.000
1626062888998763.500,-21.973,-40.039,-24.414,1.000,1.000
1626062889002669.750,-55.664,-34.180,-57.617,1.000,1.000
1626062889006576.000,-72.266,-14.648,-50.781,1.000,1.000
1626062889010482.250,-41.992,-0.977,-32.227,1.000,1.000
1626062889014388.500,2.930,-8.301,-14.160,1.000,1.000
1626062889018294.750,-1.953,-38.086,-5.371,1.000,1.000
1626062889022201.000,-27.344,-27.832,-2.930,1.000,1.000
1626062889026107.250,-33.203,-16.602,-7.812,1.000,1.000
1626062889030013.500,-10.742,-47.363,-13.672,1.000,1.000
1626062889033919.750,5.859,-56.152,-17.578,1.000,1.000
1626062889037826.000,-27.344,-30.273,-41.016,1.000,1.000
1626062889041732.250,-52.246,-18.555,-55.664,1.000,1.000
1626062889045638.500,-16.113,-37.109,-46.387,1.000,1.000
1626062889049544.750,3.906,-26.367,-28.809,125.977,1.000
1626062889053451.000,-43.945,-7.324,-20.996,-103.516,1.000
1626062889057357.250,-81.543,-35.156,-23.438,-225.586,1.000
1626062889061263.500,-36.621,-29.785,-14.160,-19.531,1.000
1626062889065169.750,22.461,-5.371,14.648,153.809,1.000
1626062889069076.000,-4.395,-34.668,-0.488,-1.953,1.000
1626062889072982.250,-54.688,-49.805,-53.223,-199.707,1.000
1626062889076888.500,-47.363,-38.574,-53.711,-93.262,1.000
1626062889080794.750,-29.785,-47.852,-38.086,95.703,1.000
1626062889084701.000,-27.344,-33.203,-25.879,24.414,1.000
1626062889088607.250,-42.480,0.000,-29.297,-171.875,1.000
1626062889092513.500,-50.293,-15.625,-47.852,-143.066,1.000
1626062889096419.750,-8.301,-44.922,-19.043,89.844,1.000
1626062889100326.000,18.555,-48.340,0.488,117.676,1.000
1626062889104232.250,-32.227,-44.434,-25.391,-120.117,1.000
1626062889108138.500,-81.543,-45.410,-57.129,-206.055,1.000
1626062889112044.750,-58.105,-42.480,-54.688,-4.883,1.000
1626062889115951.000,-21.973,-23.438,-34.668,106.934,1.000
1626062889119857.250,-26.855,-11.230,-47.852,-59.570,1.000
1626062889123763.500,-37.598,-30.762,-58.105,-175.781,1.000
1626062889127669.750,-15.625,-36.621,-44.434,-5.859,1.000
1626062889131576.000,1.953,-29.785,-15.625,145.508,1.000
1626062889135482.250,-4.883,-9.277,-6.348,12.207,1.000
1626062889139388.500,-37.109,2.930,-25.391,-174.805,1.000
1626062889143294.750,-56.152,-48.828,-36.621,-95.703,1.000
1626062889147201.000,-58.594,-39.062,-43.945,104.004,1.000
1626062889151107.250,-15.137,-18.066,-36.133,61.523,1.000
1626062889155013.500,-2.441,-5.859,-8.301,-144.531,1.000
1626062889158919.750,-26.367,-17.578,-8.789,-120.117,1.000
1626062889162826.000,-36.621,-13.672,-29.785,105.957,1.000
1626062889166732.250,-27.832,-22.949,-46.387,123.047,1.000
1626062889170638.500,-20.020,-49.316,-46.387,-105.469,1.000
1626062889174544.750,-39.062,-48.340,-39.062,-188.965,1.000
1626062889178451.000,-55.664,-36.133,-47.852,16.602,1.000
1626062889182357.250,-29.297,-46.875,-50.781,139.160,1.000
1626062889186263.500,-3.906,-37.598,-19.531,-36.621,1.000
1626062889190169.750,-36.621,-26.855,-9.277,1.000,1.000
1626062889194076.000,-68.359,-46.875,-36.621,1.000,1.000
1626062889197982.250,-40.527,-34.668,-41.016,1.000,1.000
1626062889201888.500,-9.766,-27.832,-25.879,1.000,1.000
1626062889205794.750,-20.508,-37.598,-28.809,1.000,1.000
1626062889209701.000,-47.363,-24.414,-60.547,1.000,1.000
1626062889213607.250,-36.133,-19.531,-62.988,1.000,1.000
1626062889217513.500,-0.488,-32.715,-23.926,1.000,1.000
1626062889221419.750,-9.277,-35.645,-31.250,1.000,1.000
1626062889225326.000,-48.340,-31.250,-32.715,1.000,1.000
1626062889229232.250,-50.293,-35.645,-13.672,1.000,1.000
1626062889233138.500,-40.039,-50.293,-42.480,1.000,1.000
1626062889237044.750,-30.273,-45.898,-57.617,60.059,1.000
1626062889240951.000,-34.180,-39.062,-40.039,-136.230,1.000
1626062889244857.250,-60.547,-37.109,-43.457,-173.828,1.000
1626062889248763.500,-38.574,-12.695,-58.594,44.434,1.000
1626062889252669.750,-8.301,-12.695,-64.941,127.930,1.000
1626062889256576.000,-25.391,-36.621,-41.992,-73.730,1.000
1626062889260482.250,-20.508,-35.645,-15.625,-163.574,1.000
1626062889264388.500,8.789,-39.551,-5.859,29.297,1.000
1626062889268294.750,2.930,-29.785,-9.766,141.602,1.000
1626062889272201.000,-37.598,-28.809,-29.297,-41.992,1.000
1626062889276107.250,-65.430,-46.875,-37.109,-215.332,1.000
1626062889280013.500,-26.855,-46.875,-13.672,-61.523,1.000
1626062889283919.750,-40.039,-52.734,-49.805,-30.762,1.000
1626062889287826.000,-8.789,-35.645,-16.113,136.230,1.000
1626062889291732.250,-12.695,-9.277,-16.113,8.301,1.000
1626062889295638.500,-45.898,-49.316,-38.574,-189.453,1.000
1626062889299544.750,-38.086,-74.707,-18.066,-90.332,1.000
1626062889303451.000,-17.578,-39.062,-10.742,116.211,1.000
1626062889307357.250,-22.461,-32.227,-36.133,46.875,1.000
1626062889311263.500,-32.715,-27.344,-38.086,-155.273,1.000
1626062889315169.750,-37.109,-35.645,-26.855,-134.766,1.000
1626062889319076.000,-21.973,-48.340,-21.973,82.031,1.000
1626062889322982.250,-12.207,-22.461,-6.348,114.746,1.000
1626062889326888.500,-42.480,-9.766,-18.066,-105.957,1.000
1626062889330794.750,-65.430,-24.414,-50.293,1.000,1.000
1626062889334701.000,-45.410,-39.551,-60.059,1.000,1.000
1626062889338607.250,-23.926,-61.523,-44.434,1.000,1.000
1626062889342513.500,-42.480,-54.199,-42.480,1.000,1.000
1626062889346419.750,-63.477,-33.691,-39.551,1.000,1.000
1626062889350326.000,-19.043,-18.066,-30.762,1.000,1.000
1626062889354232.250,16.602,-20.020,-40.039,1.000,1.000
1626062889358138.500,-6.348,-41.992,-22.949,1.000,1.000
1626062889362044.750,-46.875,-43.945,-7.812,1.000,1.000
1626062889365951.000,-67.871,-37.109,-38.574,1.000,1.000
1626062889369857.250,-50.781,-25.391,-56.152,1.000,1.000
1626062889373763.500,-40.527,-16.113,-49.805,1.000,1.000
1626062889377669.750,-54.199,-20.020,-58.105,1.000,1.000
1626062889381576.000,-53.711,-46.875,-71.289,1.000,1.000
1626062889385482.250,-16.113,-50.293,-43.457,1.000,1.000
1626062889389388.500,0.488,-31.250,-9.277,1.000,1.000
1626062889393294.750,-40.039,-11.719,-37.109,1.000,1.000
1626062889397201.000,-55.664,0.000,-62.500,1.000,1.000
1626062889401107.250,-22.461,-25.879,-29.297,1.000,1.000
1626062889405013.500,-5.371,-63.965,-30.762,1.000,1.000
1626062889408919.750,-38.574,-64.453,-51.758,1.000,1.000
1626062889412826.000,-75.684,-49.805,-46.875,1.000,1.000
1626062889416732.250,-50.781,-20.996,-27.832,1.000,1.000
1626062889420638.500,-13.184,-7.812,-28.320,1.000,1.000
1626062889424544.750,-6.836,-31.738,-43.457,1.000,1.000
1626062889428451.000,-30.273,-51.270,-30.762,1.000,1.000
1626062889432357.250,-41.016,-21.484,-25.391,1.000,1.000
1626062889436263.500,-0.488,8.789,-41.504,1.000,1.000
1626062889440169.750,3.418,-20.020,-41.016,1.000,1.000
1626062889444076.000,-42.480,-44.922,-35.156,1.000,1.000
1626062889447982.250,-52.246,-43.945,-33.203,1.000,1.000
1626062889451888.500,-19.531,-53.223,-26.855,1.000,1.000
1626062889455794.750,-13.184,-61.035,-32.715,1.000,1.000
1626062889459701.000,-41.504,-38.086,-33.691,1.000,1.000
1626062889463607.250,-60.547,-10.254,-23.926,1.000,1.000
1626062889467513.500,-44.922,-14.648,-32.227,1.000,1.000
1626062889471419.750,-7.812,-30.762,-32.227,126.953,1.000
1626062889475326.000,-4.395,-17.090,-29.785,-7.812,1.000
1626062889479232.250,-48.828,-32.715,-70.312,-189.941,1.000
1626062889483138.500,-55.176,-60.547,-66.895,-86.914,1.000
1626062889487044.750,-14.160,-39.062,-32.715,107.422,1.000
1626062889490951.000,-8.789,-22.461,-32.227,38.574,1.000
1626062889494857.250,-41.992,-39.551,-41.016,-171.387,1.000
1626062889498763.500,-53.223,-35.156,-38.574,-147.461,1.000
1626062889502669.750,-31.250,-12.207,-23.438,69.824,1.000
1626062889506576.000,-29.297,-10.254,-24.414,66.406,1.000
1626062889510482.250,-38.574,-3.418,-28.320,-145.508,1.000
1626062889514388.500,-31.738,-7.324,-39.551,-175.293,1.000
1626062889518294.750,-63.477,-23.926,-41.016,-135.742,1.000
1626062889522201.000,-53.711,-43.457,-22.461,67.871,1.000
1626062889526107.250,-47.363,-51.758,-43.457,83.008,1.000
1626062889530013.500,-54.688,-31.738,-46.875,-117.676,1.000
1626062889533919.750,-62.988,-30.273,-43.945,-185.547,1.000
1626062889537826.000,-29.297,-15.137,-40.527,31.738,1.000
1626062889541732.250,4.395,-20.996,-36.133,160.156,1.000
1626062889545638.500,-1.953,-40.039,-45.898,-21.973,1.000
1626062889549544.750,-3.906,-20.020,-35.156,-150.391,1.000
1626062889553451.000,-16.113,-29.785,-20.020,-8.789,1.000
1626062889557357.250,-15.137,-29.785,-13.672,149.414,1.000
1626062889561263.500,-12.207,-18.555,-24.414,31.738,1.000
1626062889565169.750,-52.734,-29.785,-38.574,1.000,1.000
1626062889569076.000,-65.430,-39.551,-42.480,1.000,1.000
1626062889572982.250,-24.414,-24.902,-47.852,1.000,1.000
1626062889576888.500,0.000,-16.113,-41.992,1.000,1.000
1626062889580794.750,-38.574,-48.340,-33.203,1.000,1.000
1626062889584701.000,-58.594,-47.363,-29.785,1.000,1.000
1626062889588607.250,-9.766,-32.227,-39.551,1.000,1.000
1626062889592513.500,20.020,-39.551,-34.668,1.000,1.000
1626062889596419.750,-9.766,-27.832,-32.227,1.000,1.000
1626062889600326.000,-43.945,-24.414,-43.457,1.000,1.000
1626062889604232.250,-32.227,-34.180,-35.156,1.000,1.000
1626062889608138.500,-8.789,-39.551,-30.762,1.000,1.000
1626062889612044.750,-25.879,-40.527,-22.461,-27.344,1.000
1626062889615951.000,-39.062,-19.043,-19.043,-180.176,1.000
1626062889619857.250,-48.828,-22.949,-56.641,-55.176,1.000
1626062889623763.500,-24.414,-19.043,-64.453,126.465,1.000
1626062889627669.750,-3.906,-21.973,-33.691,42.969,1.000
1626062889631576.000,-25.391,-60.547,-10.742,-161.621,1.000
1626062889635482.250,-16.113,-45.898,-9.277,-98.145,1.000
1626062889639388.500,7.324,-8.789,-35.156,118.164,1.000
1626062889643294.750,-9.277,-10.254,-43.945,83.984,1.000
1626062889647201.000,-40.527,-20.508,-26.367,-146.973,1.000
1626062889651107.250,-44.922,-35.156,-11.230,-175.781,1.000
1626062889655013.500,-34.668,-39.551,-23.926,36.621,1.000
1626062889658919.750,-27.832,-41.016,-45.410,104.980,1.000
1626062889662826.000,-24.414,-34.668,-34.180,-75.195,1.000
1626062889666732.250,-41.016,-23.926,-23.438,-179.199,1.000
1626062889670638.500,-19.531,-6.836,-17.578,11.719,1.000
1626062889674544.750,14.160,-40.039,-21.973,161.621,1.000
1626062889678451.000,-6.836,-66.406,-69.336,-2.930,1.000
1626062889682357.250,-44.922,-27.344,-64.453,-187.500,1.000
1626062889686263.500,-53.223,-31.738,-19.043,-82.520,1.000
1626062889690169.750,-14.160,-21.973,-7.812,126.465,1.000
1626062889694076.000,1.465,-0.488,-20.996,66.895,1.000
1626062889697982.250,-41.016,-31.250,-36.621,-163.086,1.000
1626062889701888.500,-48.828,-40.527,-32.715,-140.137,1.000
1626062889705794.750,-11.230,-22.461,-18.066,86.914,1.000
1626062889709701.000,-7.812,-38.086,-20.020,90.820,1.000
1626062889713607.250,-26.367,-45.898,-31.738,-124.512,1.000
1626062889717513.500,-23.926,-46.875,-49.805,-164.551,1.000
1626062889721419.750,-12.207,-58.594,-57.129,33.691,1.000
1626062889725326.000,-20.996,-37.598,-36.133,108.398,1.000
1626062889729232.250,-34.180,-30.273,-22.461,-70.312,1.000
1626062889733138.500,-43.945,-32.227,-22.949,-189.941,1.000
1626062889737044.750,-22.461,-15.625,-23.438,-14.648,1.000
1626062889740951.000,-2.930,-18.555,-29.785,145.996,1.000
1626062889744857.250,-16.113,-31.738,-29.785,11.719,1.000
1626062889748763.500,-48.340,-35.156,-19.043,-179.199,1.000
1626062889752669.750,-83.984,-38.086,-48.340,-94.727,1.000
1626062889756576.000,-54.688,-20.020,-44.434,115.723,1.000
1626062889760482.250,-0.977,-34.668,-8.301,58.105,1.000
1626062889764388.500,-26.855,-55.664,-6.348,-156.250,1.000
1626062889768294.750,-66.406,-41.016,-9.277,-147.949,1.000
1626062889772201.000,-66.406,-34.180,-18.066,59.082,1.000
1626062889776107.250,-55.664,-40.527,-54.688,96.680,1.000
1626062889780013.500,-35.645,-33.203,-59.570,-118.652,1.000
1626062889783919.750,-46.387,-40.039,-53.223,-192.383,1.000
1626062889787826.000,-48.340,-43.457,-31.250,17.578,1.000
1626062889791732.250,-29.297,-35.645,-24.414,117.188,1.000
1626062889795638.500,-20.508,-42.480,-36.621,-69.336,1.000
1626062889799544.750,-52.246,-37.598,-45.898,1.000,1.000
1626062889803451.000,-70.312,-36.621,-53.223,1.000,1.000
1626062889807357.250,-37.598,-48.828,-48.340,1.000,1.000
1626062889811263.500,-18.066,-35.156,-37.109,1.000,1.000
1626062889815169.750,-50.293,-38.086,-41.504,1.000,1.000
1626062889819076.000,-86.426,-58.594,-56.152,1.000,1.000
1626062889822982.250,-59.570,-16.602,-36.133,1.000,1.000
1626062889826888.500,-31.250,-11.230,-19.531,1.000,1.000
1626062889830794.750,-38.086,-21.484,-28.320,1.000,1.000
1626062889834701.000,-54.199,-23.438,-26.855,1.000,1.000
1626062889838607.250,-50.293,-53.711,-24.902,1.000,1.000
1626062889842513.500,-17.578,-46.387,-45.898,1.000,1.000
1626062889846419.750,-10.742,-25.391,-60.059,89.355,1.000
1626062889850326.000,-44.434,-32.227,-58.594,-136.230,1.000
1626062889854232.250,-58.105,-40.039,-53.711,-171.875,1.000
1626062889858138.500,-34.180,-38.574,-34.180,50.293,1.000
1626062889862044.750,-11.719,-38.574,-13.184,129.883,1.000
1626062889865951.000,-38.574,-38.574,-14.648,-79.590,1.000
1626062889869857.250,-71.289,-33.203,-25.391,-206.543,1.000
1626062889873763.500,-60.059,-32.715,-31.738,-32.227,1.000
1626062889877669.750,-27.832,-47.852,-23.926,128.418,1.000
1626062889881576.000,-14.648,-45.410,-22.949,3.906,1.000
1626062889885482.250,-58.105,-51.270,-49.316,-188.965,1.000
1626062889889388.500,-69.336,-53.711,-63.965,-92.285,1.000
1626062889893294.750,-40.527,-9.277,-41.992,-31.250,1.000
1626062889897201.000,0.488,-0.488,-47.363,150.391,1.000
1626062889901107.250,9.766,-18.066,-38.086,40.527,1.000
1626062889905013.500,-20.020,-36.133,-30.273,-152.344,1.000
1626062889908919.750,-43.945,-44.922,-34.668,-85.938,1.000
1626062889912826.000,-25.391,-41.992,-35.156,118.652,1.000
1626062889916732.250,-18.066,-43.945,-35.645,63.965,1.000
1626062889920638.500,-59.570,-64.941,-39.551,-176.758,1.000
1626062889924544.750,-66.895,-52.734,-34.668,-166.016,1.000
1626062889928451.000,-36.621,-18.555,-33.203,63.965,1.000
1626062889932357.250,-27.832,-29.297,-35.156,91.309,1.000
1626062889936263.500,-41.504,-36.621,-31.738,-117.188,1.000
1626062889940169.750,-43.945,-28.320,-32.715,-174.805,1.000
1626062889944076.000,-10.254,-17.090,-20.996,40.039,1.000
1626062889947982.250,3.418,-13.672,-22.949,136.719,1.000
1626062889951888.500,-19.043,-21.973,-43.457,-49.805,1.000
1626062889955794.750,-33.203,-30.273,-55.176,-181.641,1.000
1626062889959701.000,-14.648,-43.945,-48.340,-17.090,1.000
1626062889963607.250,0.977,-44.922,-34.668,150.391,1.000
1626062889967513.500,-19.043,-23.926,-22.949,18.555,1.000
1626062889971419.750,-44.434,-14.648,-26.367,-183.105,1.000
1626062889975326.000,-36.621,-17.578,-34.180,-101.562,1.000
1626062889979232.250,0.977,-15.137,-23.438,125.977,1.000
1626062889983138.500,3.906,-26.855,-29.297,91.797,1.000
1626062889987044.750,-29.297,-34.180,-29.785,1.000,1.000
1626062889990951.000,-40.039,-31.738,-20.508,1.000,1.000
1626062889994857.250,-27.344,-33.691,-44.434,1.000,1.000
1626062889998763.500,-17.090,-42.969,-42.480,1.000,1.000
1626062890002669.750,-35.156,-44.434,-55.176,1.000,1.000
1626062890006576.000,-45.410,-17.090,-62.500,1.000,1.000
1626062890010482.250,-14.160,-17.578,-38.086,1.000,1.000
1626062890014388.500,-3.418,-51.270,-39.062,1.000,1.000
1626062890018294.750,-29.297,-38.086,-47.852,1.000,1.000
1626062890022201.000,-48.828,-25.391,-43.457,1.000,1.000
1626062890026107.250,-20.508,-28.809,-11.230,1.000,1.000
1626062890030013.500,3.906,-20.508,-5.371,1.000,1.000
1626062890033919.750,-39.551,-45.898,-48.340,-1.953,1.000
1626062890037826.000,-78.613,-46.875,-52.246,-219.727,1.000
1626062890041732.250,-69.824,-30.762,-52.734,-156.738,1.000
1626062890045638.500,-35.156,-58.105,-56.641,66.895,1.000
1626062890049544.750,-20.508,-54.688,-36.621,63.477,1.000
1626062890053451.000,-51.758,-26.367,-52.246,-162.109,1.000
1626062890057357.250,-46.387,-13.672,-53.223,-177.734,1.000
1626062890061263.500,-15.137,-41.992,-43.945,49.316,1.000
1626062890065169.750,-1.953,-43.945,-22.461,121.094,1.000
1626062890069076.000,-3.906,-4.883,10.742,-58.105,1.000
1626062890072982.250,-35.156,-30.762,-11.230,-177.246,1.000
1626062890076888.500,-18.555,-38.086,-25.879,0.000,1.000
1626062890080794.750,10.254,-6.836,-16.602,150.879,1.000
1626062890084701.000,-15.625,-14.160,-28.320,-15.137,1.000
1626062890088607.250,-50.293,-50.293,-37.109,-197.266,1.000
1626062890092513.500,-45.898,-62.500,-27.344,-81.055,1.000
1626062890096419.750,-15.137,-40.527,-36.621,122.559,1.000
1626062890100326.000,-7.324,-10.742,-60.059,64.453,1.000
1626062890104232.250,-30.762,-6.836,-49.805,-147.461,1.000
1626062890108138.500,-52.734,-39.062,-28.809,-137.695,1.000
1626062890112044.750,-29.785,-54.199,-17.578,81.055,1.000
1626062890115951.000,-6.348,-31.250,-10.254,106.445,1.000
1626062890119857.250,-36.133,-14.648,-18.555,-116.211,1.000
1626062890123763.500,-52.734,-14.160,-25.879,-172.363,1.000
1626062890127669.750,-39.062,-34.180,-2.441,28.320,1.000
1626062890131576.000,-3.906,-42.969,6.836,127.930,1.000
1626062890135482.250,12.207,-22.949,-14.160,-44.922,1.000
1626062890139388.500,-34.668,-24.414,-41.992,-179.688,1.000
1626062890143294.750,-58.594,-46.875,-40.039,-14.648,1.000
1626062890147201.000,-41.504,-48.340,-38.086,145.020,1.000
1626062890151107.250,-20.996,-20.996,-36.621,11.230,1.000
1626062890155013.500,-27.832,-18.555,-32.715,-194.824,1.000
1626062890158919.750,-54.688,-39.551,-44.434,-104.980,1.000
1626062890162826.000,-20.996,-41.016,-34.180,117.676,1.000
1626062890166732.250,39.062,-36.621,8.301,63.965,1.000
1626062890170638.500,13.184,-26.855,4.883,-148.926,1.000
1626062890174544.750,-49.316,-7.324,-36.133,1.000,1.000
1626062890178451.000,-59.570,-17.578,-44.922,1.000,1.000
1626062890182357.250,-28.320,-26.855,-32.715,1.000,1.000
1626062890186263.500,-19.531,-34.180,-36.133,1.000,1.000
1626062890190169.750,-36.621,-50.781,-41.504,1.000,1.000
1626062890194076.000,-38.086,-41.992,-27.832,1.000,1.000
1626062890197982.250,-14.648,-28.809,-38.086,1.000,1.000
1626062890201888.500,-2.441,-23.438,-48.828,1.000,1.000
1626062890205794.750,-31.250,-33.203,-37.598,1.000,1.000
1626062890209701.000,-55.664,-39.551,-31.250,1.000,1.000
1626062890213607.250,-35.645,-30.762,-29.785,1.000,1.000
1626062890217513.500,-3.418,-1.465,-35.645,1.000,1.000
1626062890221419.750,-26.367,-20.508,-32.715,-32.715,1.000
1626062890225326.000,-62.012,-40.527,-24.414,-204.102,1.000
1626062890229232.250,-45.898,-24.414,-14.648,-61.523,1.000
1626062890233138.500,-10.742,-33.203,-31.250,128.418,1.000
1626062890237044.750,12.207,-29.297,-34.180,57.129,1.000
1626062890240951.000,-27.344,-21.973,-20.508,-156.250,1.000
1626062890244857.250,-58.105,-16.602,-41.992,-132.324,1.000
1626062890248763.500,-41.016,-23.926,-43.945,79.102,1.000
1626062890252669.750,-36.133,-48.828,-37.109,74.707,1.000
1626062890256576.000,-46.387,-40.039,-43.457,-136.230,1.000
1626062890260482.250,-45.898,-33.203,-29.297,-156.738,1.000
1626062890264388.500,-18.555,-40.527,0.000,72.754,1.000
1626062890268294.750,-15.625,-58.105,-27.344,96.680,1.000
1626062890272201.000,-8.301,-21.484,-33.203,104.492,1.000
1626062890276107.250,-34.668,-5.859,-18.066,-115.723,1.000
1626062890280013.500,-45.410,-2.930,3.906,-169.922,1.000
1626062890283919.750,-15.137,-8.301,12.207,52.246,1.000
1626062890287826.000,2.930,-11.719,-8.301,158.203,1.000
1626062890291732.250,-18.555,-15.625,-25.391,-34.180,1.000
1626062890295638.500,-42.969,-30.273,-14.160,-174.805,1.000
1626062890299544.750,-35.645,-55.176,-18.066,-23.438,1.000
1626062890303451.000,-12.207,-61.523,-23.926,135.742,1.000
1626062890307357.250,-7.812,-38.574,-16.113,14.648,1.000
1626062890311263.500,-23.438,-31.250,-4.395,-164.062,1.000
1626062890315169.750,-71.289,-33.203,-31.738,-79.590,1.000
1626062890319076.000,-57.617,-26.367,-28.320,113.281,1.000
1626062890322982.250,-11.719,9.277,-17.578,56.641,1.000
1626062890326888.500,-21.484,-5.859,-19.043,-145.020,1.000
1626062890330794.750,-30.762,-14.648,-19.531,-125.977,1.000
1626062890334701.000,-22.461,-31.250,-28.809,82.520,1.000
1626062890338607.250,-10.742,-63.477,-62.500,123.535,1.000
1626062890342513.500,-12.207,-49.805,-58.594,-86.914,1.000
1626062890346419.750,-41.016,-27.344,-46.387,-170.410,1.000
1626062890350326.000,-56.152,-9.766,-56.152,30.273,1.000
1626062890354232.250,-31.250,4.883,-39.062,128.418,1.000
1626062890358138.500,-13.184,-24.902,-16.113,-58.105,1.000
1626062890362044.750,-42.969,-40.527,-24.414,1.000,1.000
1626062890365951.000,-67.383,-4.395,-27.832,1.000,1.000
1626062890369857.250,-47.363,-24.414,-28.320,1.000,1.000
1626062890373763.500,-7.324,-58.594,-14.648,1.000,1.000
1626062890377669.750,-4.883,-39.062,-8.789,1.000,1.000
1626062890381576.000,-45.898,-23.926,-52.246,1.000,1.000
1626062890385482.250,-48.828,-29.785,-79.102,1.000,1.000
1626062890389388.500,-10.742,-5.859,-69.824,1.000,1.000
1626062890393294.750,0.488,10.742,-67.383,1.000,1.000
1626062890397201.000,-35.156,-9.766,-47.852,1.000,1.000
1626062890401107.250,-56.152,-25.391,-23.926,1.000,1.000
1626062890405013.500,-11.230,-12.695,-3.906,1.000,1.000
1626062890408919.750,13.672,-10.742,8.301,107.910,1.000
1626062890412826.000,-9.277,-24.902,0.488,-119.141,1.000
1626062890416732.250,-27.344,-32.715,-24.414,-157.227,1.000
1626062890420638.500,-11.230,-41.504,-39.062,53.223,1.000
1626062890424544.750,-2.441,-48.828,-34.180,107.422,1.000
1626062890428451.000,-21.973,-40.039,-29.785,-76.660,1.000
1626062890432357.250,-22.461,-13.672,-27.832,-159.180,1.000
1626062890436263.500,-2.441,-13.672,-26.855,18.066,1.000
1626062890440169.750,-0.488,-30.762,-30.273,149.414,1.000
1626062890444076.000,-21.973,-30.273,-26.367,-4.883,1.000
1626062890447982.250,-61.035,-24.902,-32.227,-197.754,1.000
1626062890451888.500,-56.152,-19.043,-29.785,-98.633,1.000
1626062890455794.750,-21.484,-18.066,-37.109,-16.602,1.000
1626062890459701.000,26.855,-9.277,-2.930,172.363,1.000
1626062890463607.250,-2.930,-19.043,-14.648,11.719,1.000
1626062890467513.500,-67.871,-20.996,-32.227,-212.402,1.000
1626062890471419.750,-64.941,-18.555,-24.414,-119.141,1.000
1626062890475326.000,-26.367,-35.156,-20.508,104.980,1.000
1626062890479232.250,-21.973,-41.992,-28.809,67.383,1.000
1626062890483138.500,-43.457,-41.016,-22.949,-152.832,1.000
1626062890487044.750,-55.664,-46.387,-16.113,-152.832,1.000
1626062890490951.000,-21.484,-27.344,-19.043,82.520,1.000
1626062890494857.250,10.254,2.441,-16.113,138.672,1.000
1626062890498763.500,-21.973,-15.625,-20.508,-85.938,1.000
1626062890502669.750,-55.664,-43.945,-29.297,1.000,1.000
1626062890506576.000,-27.344,-29.785,-31.250,1.000,1.000
1626062890510482.250,-9.277,-34.180,-47.363,1.000,1.000
1626062890514388.500,-44.434,-70.312,-59.082,1.000,1.000
1626062890518294.750,-50.293,-59.082,-56.152,1.000,1.000
1626062890522201.000,-27.832,-43.945,-56.152,1.000,1.000
1626062890526107.250,-13.672,-41.992,-25.391,1.000,1.000
1626062890530013.500,-24.414,-26.367,-6.836,1.000,1.000
1626062890533919.750,-48.340,-20.996,-13.672,1.000,1.000
1626062890537826.000,-39.551,-24.414,-17.090,1.000,1.000
1626062890541732.250,-20.020,-8.789,-30.273,1.000,1.000
1626062890545638.500,-15.625,-0.488,-28.809,1.000,1.000
1626062890549544.750,-27.344,-26.367,-23.438,1.000,1.000
1626062890553451.000,-28.320,-48.340,-17.578,1.000,1.000
1626062890557357.250,-13.184,-54.199,-12.207,1.000,1.000
1626062890561263.500,-20.996,-62.500,-36.621,1.000,1.000
1626062890565169.750,-45.410,-47.363,-57.129,1.000,1.000
1626062890569076.000,-61.035,-27.344,-53.223,1.000,1.000
1626062890572982.250,-28.809,-1.953,-21.484,1.000,1.000
1626062890576888.500,-0.488,9.277,-4.883,1.000,1.000
1626062890580794.750,-27.344,-17.578,-18.066,1.000,1.000
1626062890584701.000,-52.246,-26.367,-22.949,1.000,1.000
1626062890588607.250,-40.039,-46.875,-38.574,1.000,1.000
1626062890592513.500,-15.137,-49.316,-44.434,1.000,1.000
1626062890596419.750,-28.809,-50.781,-34.180,27.832,1.000
1626062890600326.000,-47.852,-62.500,-10.742,-172.852,1.000
1626062890604232.250,-32.715,-60.547,-4.883,-104.980,1.000
1626062890608138.500,-8.789,-41.992,-33.203,118.164,1.000
1626062890612044.750,-15.137,-21.484,-56.152,95.215,1.000
1626062890615951.000,-51.270,-14.648,-52.734,-142.578,1.000
1626062890619857.250,-65.430,-13.184,-34.180,-178.711,1.000
1626062890623763.500,-32.715,-17.090,-15.625,44.434,1.000
1626062890627669.750,-6.836,-42.969,-37.598,122.559,1.000
1626062890631576.000,-32.227,-45.898,-55.664,-79.590,1.000
1626062890635482.250,-67.871,-39.551,-45.898,-210.449,1.000
1626062890639388.500,-43.457,-29.785,-26.855,-31.738,1.000
1626062890643294.750,-11.230,-32.715,-18.555,131.348,1.000
1626062890647201.000,-19.531,-38.086,-22.949,-10.742,1.000
1626062890651107.250,-37.109,-52.246,-27.832,-184.570,1.000
1626062890655013.500,-27.344,-67.871,-30.762,-68.848,1.000
1626062890658919.750,-1.953,-39.062,-51.270,134.277,1.000
1626062890662826.000,-11.719,-18.066,-76.172,57.129,1.000
1626062890666732.250,-48.828,-17.578,-51.270,-167.480,1.000
1626062890670638.500,-76.660,-25.879,-37.598,-163.574,1.000
1626062890674544.750,-39.062,-8.301,-22.461,69.336,1.000
1626062890678451.000,-5.859,-3.418,-7.812,112.793,1.000
1626062890682357.250,-33.203,-22.461,-32.227,-114.258,1.000
1626062890686263.500,-41.504,-20.020,-27.832,-167.969,1.000
1626062890690169.750,-39.551,-29.297,-33.203,53.223,1.000
1626062890694076.000,-16.602,-31.250,-17.090,141.113,1.000
1626062890697982.250,-12.695,-37.598,-6.836,-46.875,1.000
1626062890701888.500,-19.043,-59.570,-9.277,-168.945,1.000
1626062890705794.750,-24.902,-57.129,-21.484,-26.367,1.000
1626062890709701.000,-28.809,-38.574,-41.016,123.047,1.000
1626062890713607.250,-19.043,-26.855,-44.922,2.930,1.000
1626062890717513.500,-26.855,-0.977,-26.367,-193.848,1.000
1626062890721419.750,-46.387,-7.324,-22.949,-114.258,1.000
1626062890725326.000,-37.598,-39.062,-26.367,104.492,1.000
1626062890729232.250,-8.789,-50.781,-21.973,56.641,1.000
1626062890733138.500,2.441,-18.066,-29.297,-160.645,1.000
1626062890737044.750,-24.902,2.441,-34.668,1.000,1.000
1626062890740951.000,-40.527,-15.625,-21.484,1.000,1.000
1626062890744857.250,-11.719,-24.414,-29.297,1.000,1.000
1626062890748763.500,14.160,-27.832,-27.832,1.000,1.000
1626062890752669.750,-7.324,-44.434,0.977,1.000,1.000
1626062890756576.000,-45.410,-64.453,-7.324,1.000,1.000
1626062890760482.250,-29.297,-44.434,-19.531,1.000,1.000
1626062890764388.500,-13.184,-17.090,-25.391,1.000,1.000
1626062890768294.750,-25.391,3.906,-20.020,1.000,1.000
1626062890772201.000,-42.480,-15.137,-20.020,1.000,1.000
1626062890776107.250,-21.973,-37.109,-25.879,1.000,1.000
1626062890780013.500,-3.418,-24.902,-29.785,1.000,1.000
1626062890783919.750,-19.531,-13.184,-31.738,-30.762,1.000
1626062890787826.000,-39.062,-21.973,-26.855,-191.895,1.000
1626062890791732.250,-33.691,-22.461,-26.367,-64.453,1.000
1626062890795638.500,-18.555,-24.902,-22.461,122.070,1.000
1626062890799544.750,-24.414,-34.668,-25.391,32.227,1.000
1626062890803451.000,-26.367,-26.367,-24.902,-158.691,1.000
1626062890807357.250,-9.766,-37.109,-22.949,-97.168,1.000
1626062890811263.500,-4.883,-61.523,-41.504,104.980,1.000
1626062890815169.750,-13.672,-50.293,-43.457,86.914,1.000
1626062890819076.000,-48.340,-26.367,-37.109,-144.531,1.000
1626062890822982.250,-61.035,-8.789,-32.715,-185.059,1.000
1626062890826888.500,-25.391,1.953,-30.762,38.086,1.000
1626062890830794.750,-29.297,-44.434,-16.602,86.426,1.000
1626062890834701.000,-27.344,-15.625,-18.555,93.262,1.000
1626062890838607.250,-49.805,-12.695,-24.902,-131.348,1.000
1626062890842513.500,-62.500,-20.996,-31.738,-185.547,1.000
1626062890846419.750,-29.785,-30.273,-34.180,32.715,1.000
1626062890850326.000,-9.277,-46.387,-31.738,130.859,1.000
1626062890854232.250,-23.926,-42.480,-26.367,-55.176,1.000
1626062890858138.500,-53.223,-34.668,-28.809,-199.707,1.000
1626062890862044.750,-47.852,-32.715,-44.434,-45.410,1.000
1626062890865951.000,-25.391,-33.203,-59.082,120.605,1.000
1626062890869857.250,-34.668,-45.410,-53.711,-8.301,1.000
1626062890873763.500,-42.480,-36.133,-33.691,-183.594,1.000
1626062890877669.750,-64.453,-56.641,-14.160,-201.172,1.000
1626062890881576.000,-62.988,-36.621,-20.020,-65.918,1.000
1626062890885482.250,-19.043,-18.066,0.488,133.789,1.000
1626062890889388.500,-17.578,-37.109,5.371,31.738,1.000
1626062890893294.750,-47.363,-48.340,-18.555,-178.223,1.000
1626062890897201.000,-46.875,-32.227,-36.621,-104.980,1.000
1626062890901107.250,-12.695,-15.625,-24.902,129.395,1.000
1626062890905013.500,-19.531,-20.020,-31.250,85.938,1.000
1626062890908919.750,-47.363,-28.809,-47.852,-145.020,1.000
1626062890912826.000,-46.387,-32.715,-48.828,-155.762,1.000
1626062890916732.250,-10.254,-31.250,-22.461,78.125,1.000
1626062890920638.500,-0.488,-37.598,-2.441,136.719,1.000
1626062890924544.750,-43.945,-49.316,-26.855,1.000,1.000
1626062890928451.000,-49.805,-48.828,-22.461,1.000,1.000
1626062890932357.250,-15.625,-68.359,-10.254,1.000,1.000
1626062890936263.500,-1.953,-83.984,-30.762,1.000,1.000
1626062890940169.750,-24.414,-48.828,-37.109,1.000,1.000
1626062890944076.000,-68.359,-33.203,-47.363,1.000,1.000
1626062890947982.250,-68.848,-47.852,-44.922,1.000,1.000
1626062890951888.500,-37.109,-51.270,-19.043,1.000,1.000
1626062890955794.750,-23.926,-35.645,-16.113,1.000,1.000
1626062890959701.000,-51.270,-37.598,-30.762,1.000,1.000
1626062890963607.250,-63.965,-52.246,-24.414,1.000,1.000
1626062890967513.500,-4.395,-52.246,-0.488,1.000,1.000
1626062890971419.750,6.836,-43.457,-0.977,119.141,1.000
1626062890975326.000,-36.621,-36.621,-29.785,-134.277,1.000
1626062890979232.250,-59.570,-40.039,-57.129,-178.711,1.000
1626062890983138.500,-51.270,-42.480,-55.176,33.203,1.000
1626062890987044.750,-25.879,-33.203,-49.316,122.070,1.000
1626062890990951.000,-34.180,-16.602,-48.340,-69.336,1.000
1626062890994857.250,-48.828,-11.230,-21.484,-184.082,1.000
1626062890998763.500,-21.973,-29.785,6.348,-3.906,1.000
1626062891002669.750,-10.742,-48.340,-10.254,131.836,1.000
1626062891006576.000,-23.438,-29.785,-31.738,-17.090,1.000
1626062891010482.250,-18.555,-38.086,-23.438,-170.898,1.000
1626062891014388.500,0.000,-55.664,-23.926,-44.434,1.000
1626062891018294.750,-55.664,-37.598,-43.945,-49.316,1.000
1626062891022201.000,-35.156,-43.457,-50.781,114.746,1.000
1626062891026107.250,-24.414,-46.875,-46.387,-1.953,1.000
1626062891030013.500,-49.316,-39.551,-49.316,-191.406,1.000
1626062891033919.750,-46.875,-20.020,-41.504,-99.121,1.000
1626062891037826.000,0.977,-12.207,-7.812,133.301,1.000
1626062891041732.250,5.859,-1.953,-4.395,86.426,1.000
1626062891045638.500,-38.086,-10.742,-21.484,-153.320,1.000
1626062891049544.750,-45.898,-7.812,-19.531,-145.508,1.000
1626062891053451.000,-22.949,-16.602,-37.109,76.172,1.000
1626062891057357.250,-30.762,-51.758,-52.734,90.820,1.000
1626062891061263.500,-58.105,-61.035,-39.062,-125.977,1.000
1626062891065169.750,-57.129,-53.223,-22.949,1.000,1.000
1626062891069076.000,-19.531,-29.785,-19.043,1.000,1.000
1626062891072982.250,-16.113,-20.508,-38.574,1.000,1.000
1626062891076888.500,-42.480,-29.297,-39.551,1.000,1.000
1626062891080794.750,-62.500,-36.133,-22.461,1.000,1.000
1626062891084701.000,-62.988,-30.273,-33.203,1.000,1.000
1626062891088607.250,-32.227,-26.367,-34.180,1.000,1.000
1626062891092513.500,-31.250,-12.695,-19.043,1.000,1.000
1626062891096419.750,-42.480,-4.883,-21.484,1.000,1.000
1626062891100326.000,-47.363,-31.738,-42.969,1.000,1.000
1626062891104232.250,-30.273,-47.363,-51.758,1.000,1.000
1626062891108138.500,-16.602,-36.621,-34.180,1.000,1.000
1626062891112044.750,-51.758,-50.293,-22.461,1.000,1.000
1626062891115951.000,-56.152,-58.594,-17.578,1.000,1.000
1626062891119857.250,-7.812,-43.945,-9.766,1.000,1.000
1626062891123763.500,-1.953,-41.504,-21.484,1.000,1.000
1626062891127669.750,-45.898,-29.785,-18.066,1.000,1.000
1626062891131576.000,-59.570,-23.926,-22.461,1.000,1.000
1626062891135482.250,-17.090,-20.508,-28.320,1.000,1.000
1626062891139388.500,-9.277,-17.578,-32.715,1.000,1.000
1626062891143294.750,-42.969,-24.902,-45.410,1.000,1.000
1626062891147201.000,-60.547,-27.832,-28.320,1.000,1.000
1626062891151107.250,-54.688,-32.715,-26.367,1.000,1.000
1626062891155013.500,-19.043,-17.578,-27.344,1.000,1.000
1626062891158919.750,-15.137,-21.484,-15.625,1.000,1.000
1626062891162826.000,-38.086,-51.758,-11.719,1.000,1.000
1626062891166732.250,-38.574,-52.246,-28.320,1.000,1.000
1626062891170638.500,-23.438,-34.668,-29.785,1.000,1.000
1626062891174544.750,-20.508,-43.945,-36.621,1.000,1.000
1626062891178451.000,-47.852,-62.500,-47.852,1.000,1.000
1626062891182357.250,-50.293,-38.086,-41.992,1.000,1.000
1626062891186263.500,-23.926,-20.020,-45.410,1.000,1.000
1626062891190169.750,-19.043,-2.930,-48.828,1.000,1.000
1626062891194076.000,-39.062,-7.812,-35.645,1.000,1.000
1626062891197982.250,-55.176,-32.227,-18.066,1.000,1.000
1626062891201888.500,-22.461,-33.691,-10.254,1.000,1.000
1626062891205794.750,22.949,-34.180,-4.883,168.945,1.000
1626062891209701.000,-18.066,-55.176,-27.344,-9.766,1.000
1626062891213607.250,-72.266,-54.688,-45.898,-218.750,1.000
1626062891217513.500,-61.035,-31.738,-48.340,-105.469,1.000
1626062891221419.750,-33.203,-32.715,-44.922,101.562,1.000
1626062891225326.000,-12.695,-19.043,-22.949,57.129,1.000
1626062891229232.250,-28.809,-11.719,-39.062,-151.367,1.000
1626062891233138.500,-41.016,-18.555,-47.363,-132.812,1.000
1626062891237044.750,-29.297,-32.227,-39.062,84.961,1.000
1626062891240951.000,-21.484,-41.992,-23.438,109.375,1.000
1626062891244857.250,-43.945,-50.781,-12.695,-115.234,1.000
1626062891248763.500,-64.453,-64.941,-14.648,-186.523,1.000
1626062891252669.750,-77.637,-60.059,-28.809,38.086,1.000
1626062891256576.000,-51.758,-42.969,-31.250,136.230,1.000
1626062891260482.250,-10.254,-12.207,-19.043,-58.105,1.000
1626062891264388.500,-21.484,4.883,-36.621,-195.801,1.000
1626062891268294.750,-59.570,-12.207,-56.152,-48.828,1.000
1626062891272201.000,-41.016,-13.672,-42.969,113.770,1.000
1626062891276107.250,-8.789,-22.949,-33.691,-2.930,1.000
1626062891280013.500,-13.672,-37.598,-40.527,-201.660,1.000
1626062891283919.750,-32.715,-49.316,-41.992,-110.352,1.000
1626062891287826.000,-42.969,-73.242,-38.574,106.445,1.000
1626062891291732.250,-32.227,-70.312,-25.391,57.617,1.000
1626062891295638.500,-20.508,-50.781,-9.277,-162.598,1.000
1626062891299544.750,-46.387,-34.668,-28.809,1.000,1.000
1626062891303451.000,-47.363,-6.836,-50.781,1.000,1.000
1626062891307357.250,-17.090,-19.043,-53.223,1.000,1.000
1626062891311263.500,-18.555,-30.273,-39.062,1.000,1.000
1626062891315169.750,-30.273,-19.043,-16.113,1.000,1.000
1626062891319076.000,-20.020,-33.203,-18.066,1.000,1.000
1626062891322982.250,-5.859,-37.109,-37.598,1.000,1.000
1626062891326888.500,-22.461,-31.738,-48.340,1.000,1.000
1626062891330794.750,-46.387,-23.438,-29.297,1.000,1.000
1626062891334701.000,-62.988,-29.785,-25.879,1.000,1.000
1626062891338607.250,-37.598,-35.645,-31.250,1.000,1.000
1626062891342513.500,-1.465,-38.574,-28.320,1.000,1.000
1626062891346419.750,-19.043,-25.879,-31.250,-16.113,1.000
1626062891350326.000,-52.734,-13.672,-34.180,-193.359,1.000
1626062891354232.250,-46.875,-26.367,-34.668,-70.801,1.000
1626062891358138.500,-23.926,-41.016,-30.273,118.164,1.000
1626062891362044.750,-15.137,-35.156,-17.578,32.227,1.000
1626062891365951.000,-25.391,-28.320,-10.254,-159.180,1.000
1626062891369857.250,-39.062,-28.320,-26.855,-111.816,1.000
1626062891373763.500,-32.715,-25.391,-41.992,90.820,1.000
1626062891377669.750,-34.668,-34.668,-43.945,79.102,1.000
1626062891381576.000,-69.336,-62.988,-57.617,-152.832,1.000
1626062891385482.250,-68.848,-67.871,-49.316,-181.641,1.000
1626062891389388.500,-28.809,-52.734,-24.902,53.711,1.000
1626062891393294.750,-10.254,-13.672,-1.953,82.031,1.000
1626062891397201.000,-2.930,-25.879,-28.809,94.727,1.000
1626062891401107.250,-30.273,-41.992,-50.781,-138.672,1.000
1626062891405013.500,-44.434,-39.551,-56.152,-203.613,1.000
1626062891408919.750,-24.414,-26.855,-51.758,11.230,1.000
1626062891412826.000,0.977,-21.484,-47.363,130.371,1.000
1626062891416732.250,1.953,-10.742,-34.668,-38.574,1.000
1626062891420638.500,-35.156,-9.277,-51.270,-199.707,1.000
1626062891424544.750,-39.062,-32.715,-49.316,-59.082,1.000
1626062891428451.000,-9.766,-61.035,-47.363,121.582,1.000
1626062891432357.250,-12.207,-55.176,-67.383,10.742,1.000
1626062891436263.500,-52.246,-47.363,-54.199,-194.336,1.000
1626062891440169.750,-61.523,-38.086,-52.246,1.000,1.000
1626062891444076.000,-34.180,-24.414,-65.430,1.000,1.000
1626062891447982.250,-13.184,-35.156,-44.922,1.000,1.000
1626062891451888.500,-19.531,-25.391,-21.484,1.000,1.000
1626062891455794.750,-37.109,-17.578,-41.504,1.000,1.000
1626062891459701.000,-24.902,-34.668,-49.805,1.000,1.000
1626062891463607.250,-20.996,-31.738,-42.480,1.000,1.000
1626062891467513.500,-53.223,-20.508,-40.039,1.000,1.000
1626062891471419.750,-56.641,-16.602,-32.227,1.000,1.000
1626062891475326.000,-21.484,-14.648,-34.668,1.000,1.000
1626062891479232.250,0.000,-35.645,-48.340,1.000,1.000
1626062891483138.500,-11.719,-44.922,-70.312,1.000,1.000
1626062891487044.750,-54.688,-26.367,-70.312,1.000,1.000
1626062891490951.000,-55.176,-13.672,-41.992,1.000,1.000
1626062891494857.250,-21.973,-26.855,-29.297,1.000,1.000
1626062891498763.500,-15.625,-37.598,-26.367,1.000,1.000
1626062891502669.750,-19.043,-19.043,-7.324,1.000,1.000
1626062891506576.000,-11.230,-8.789,-8.789,1.000,1.000
1626062891510482.250,13.672,-27.832,-27.344,1.000,1.000
1626062891514388.500,6.348,-54.199,-30.273,1.000,1.000
1626062891518294.750,-22.949,-37.598,-15.625,1.000,1.000
1626062891522201.000,-31.738,-28.320,-13.672,1.000,1.000
1626062891526107.250,-21.973,-24.902,-64.941,1.000,1.000
1626062891530013.500,-14.648,-7.324,-90.332,1.000,1.000
1626062891533919.750,-48.340,-30.762,-48.340,1.000,1.000
1626062891537826.000,-78.125,-45.410,-17.090,1.000,1.000
1626062891541732.250,-46.387,-21.973,-13.672,1.000,1.000
1626062891545638.500,-8.301,-13.184,5.859,1.000,1.000
1626062891549544.750,-23.438,-14.648,6.348,1.000,1.000
1626062891553451.000,-59.082,-25.391,-16.113,1.000,1.000
1626062891557357.250,-52.246,-54.199,-25.879,1.000,1.000
1626062891561263.500,-12.695,-52.734,-27.344,1.000,1.000
1626062891565169.750,-3.418,-18.066,-25.879,1.000,1.000
1626062891569076.000,-36.133,-5.371,-27.832,1.000,1.000
1626062891572982.250,-46.875,-31.250,-33.691,1.000,1.000
1626062891576888.500,-36.621,-42.480,-37.598,1.000,1.000
1626062891580794.750,-29.297,-2.441,-23.926,86.426,1.000
1626062891584701.000,-41.016,6.836,-21.484,-132.812,1.000
1626062891588607.250,-56.152,-22.461,-20.508,-177.734,1.000
1626062891592513.500,-25.879,-25.391,-7.812,51.758,1.000
1626062891596419.750,14.648,-29.785,-0.977,148.438,1.000
1626062891600326.000,-11.230,-55.664,-25.391,-51.758,1.000
1626062891604232.250,-61.035,-70.801,-61.035,-203.125,1.000
1626062891608138.500,-40.039,-24.902,-54.199,-20.508,1.000
1626062891612044.750,-15.625,-26.367,-32.715,142.578,1.000
1626062891615951.000,-32.715,-40.527,-25.391,-8.789,1.000
1626062891619857.250,-54.688,-24.902,-19.531,-187.012,1.000
1626062891623763.500,-52.246,-20.020,-24.414,-83.496,1.000
1626062891627669.750,-37.598,-25.879,-23.926,-45.898,1.000
1626062891631576.000,-9.277,-31.250,-17.090,127.441,1.000
1626062891635482.250,-24.414,-54.199,-38.574,-0.488,1.000
1626062891639388.500,-48.828,-77.148,-54.199,-194.824,1.000
1626062891643294.750,-34.180,-67.871,-54.688,-102.539,1.000
1626062891647201.000,-3.418,-26.367,-41.016,117.188,1.000
1626062891651107.250,-2.930,-7.324,-16.602,73.730,1.000
1626062891655013.500,-44.922,-31.250,-35.645,-168.945,1.000
1626062891658919.750,-50.293,-20.508,-57.617,-172.363,1.000
1626062891662826.000,3.418,7.324,-30.762,77.637,1.000
1626062891666732.250,22.461,11.719,-6.836,128.906,1.000
1626062891670638.500,-24.414,-16.602,-9.766,-105.469,1.000
1626062891674544.750,-60.547,-39.062,-38.574,1.000,1.000
1626062891678451.000,-40.039,-27.344,-57.617,1.000,1.000
1626062891682357.250,-17.090,-38.086,-50.293,1.000,1.000
1626062891686263.500,-13.672,-43.457,-35.645,1.000,1.000
1626062891690169.750,-41.992,-53.223,-38.086,1.000,1.000
1626062891694076.000,-33.691,-37.109,-39.062,1.000,1.000
1626062891697982.250,-3.418,-23.926,-35.645,1.000,1.000
1626062891701888.500,-8.789,-19.531,-30.273,1.000,1.000
1626062891705794.750,-14.648,-30.762,-16.113,1.000,1.000
1626062891709701.000,-34.180,-58.594,-21.484,1.000,1.000
1626062891713607.250,-33.691,-30.762,-34.180,1.000,1.000
1626062891717513.500,-32.227,-18.555,-44.434,1.000,1.000
1626062891721419.750,-59.082,-28.320,-38.086,1.000,1.000
1626062891725326.000,-53.711,-23.926,-14.648,1.000,1.000
1626062891729232.250,-15.137,-18.066,-26.855,1.000,1.000
1626062891733138.500,1.953,-46.387,-43.945,1.000,1.000
1626062891737044.750,-6.348,-78.613,-25.391,1.000,1.000
1626062891740951.000,-21.973,-55.664,-22.949,1.000,1.000
1626062891744857.250,-1.465,-43.457,-22.461,1.000,1.000
1626062891748763.500,31.250,-22.461,-12.207,1.000,1.000
1626062891752669.750,-1.465,-14.160,-55.664,1.000,1.000
1626062891756576.000,-36.133,-30.273,-71.289,1.000,1.000
1626062891760482.250,-42.969,-49.805,-42.969,1.000,1.000
1626062891764388.500,-40.527,-49.805,-17.578,1.000,1.000
1626062891768294.750,-20.508,-21.484,-11.230,131.348,1.000
1626062891772201.000,-39.062,-38.574,-22.461,-22.461,1.000
1626062891776107.250,-56.641,-23.438,-25.391,-206.055,1.000
1626062891780013.500,-50.781,-39.551,-28.809,-98.633,1.000
1626062891783919.750,-40.527,-55.176,-44.434,98.633,1.000
1626062891787826.000,-28.809,-34.180,-34.668,54.688,1.000
1626062891791732.250,-41.016,-24.414,-24.414,-147.949,1.000
1626062891795638.500,-57.129,-29.297,-20.020,-143.555,1.000
1626062891799544.750,-63.477,-44.922,-42.969,42.969,1.000
1626062891803451.000,-60.547,-38.574,-70.801,65.918,1.000
1626062891807357.250,-62.012,-20.996,-60.547,-128.418,1.000
1626062891811263.500,-76.660,-26.855,-45.410,-200.684,1.000
1626062891815169.750,-46.387,-24.414,-46.875,-2.441,1.000
1626062891819076.000,-32.227,-16.602,-35.645,122.070,1.000
1626062891822982.250,-38.574,-35.645,-26.855,-55.176,1.000
1626062891826888.500,-47.852,-45.898,-7.324,-191.895,1.000
1626062891830794.750,-49.316,-13.184,-19.043,-29.785,1.000
1626062891834701.000,-36.621,1.953,-43.457,120.605,1.000
1626062891838607.250,-33.691,-13.672,-51.758,-7.812,1.000
1626062891842513.500,-60.059,-37.109,-42.969,-209.473,1.000
1626062891846419.750,-81.543,-60.059,-31.738,-133.301,1.000
1626062891850326.000,-40.527,-53.711,-27.344,91.309,1.000
1626062891854232.250,8.789,-28.320,-50.293,47.852,1.000
1626062891858138.500,-17.090,-25.391,-64.941,-174.316,1.000
1626062891862044.750,-69.824,-30.273,-33.691,-201.172,1.000
1626062891865951.000,-62.988,-20.508,-13.672,-130.859,1.000
1626062891869857.250,-31.738,-25.879,-13.672,97.168,1.000
1626062891873763.500,-21.484,-36.133,-23.438,77.637,1.000
1626062891877669.750,-37.109,-17.578,-40.039,-138.184,1.000
1626062891881576.000,-59.082,-20.020,-46.387,-169.922,1.000
1626062891885482.250,-40.527,-32.227,-32.715,42.969,1.000
1626062891889388.500,-34.180,-23.438,-31.738,98.633,1.000
1626062891893294.750,-59.082,-29.297,-40.039,-112.793,1.000
1626062891897201.000,-65.430,-52.246,-37.109,-208.008,1.000
1626062891901107.250,-46.875,-54.688,-39.551,-19.043,1.000
1626062891905013.500,-20.996,-35.645,-39.551,132.324,1.000
1626062891908919.750,-19.531,-18.555,-22.949,-11.230,1.000
1626062891912826.000,-33.203,0.000,-12.695,-174.316,1.000
1626062891916732.250,-45.410,-14.160,-34.668,-66.895,1.000
1626062891920638.500,-41.016,-45.898,-39.551,110.352,1.000
1626062891924544.750,-38.086,-43.457,-40.039,32.227,1.000
1626062891928451.000,-50.781,-10.742,-38.574,-166.992,1.000
1626062891932357.250,-45.898,-17.578,-26.367,-119.141,1.000
1626062891936263.500,-39.062,-51.270,-38.574,82.031,1.000
1626062891940169.750,-36.621,-41.504,-27.344,76.172,1.000
1626062891944076.000,-53.711,-27.832,-28.320,-140.625,1.000
1626062891947982.250,-78.613,-27.832,-51.270,-202.637,1.000
1626062891951888.500,-53.223,-33.691,-54.199,12.695,1.000
1626062891955794.750,9.766,0.000,13.672,107.422,1.000
1626062891959701.000,6.836,-17.578,8.789,122.070,1.000
1626062891963607.250,-7.812,-19.531,-0.488,-94.727,1.000
1626062891967513.500,-21.973,-22.461,-30.762,-166.992,1.000
1626062891971419.750,-11.230,-26.855,-61.035,29.297,1.000
1626062891975326.000,8.789,-26.855,-57.129,143.066,1.000
1626062891979232.250,-13.184,-30.273,-34.668,-47.852,1.000
1626062891983138.500,-39.551,-28.809,-4.883,-202.148,1.000
1626062891987044.750,-13.184,-25.391,8.789,-30.273,1.000
1626062891990951.000,6.836,-33.691,1.465,148.438,1.000
1626062891994857.250,-11.230,-35.645,-5.859,14.648,1.000
1626062891998763.500,-44.922,-34.180,-14.648,-191.895,1.000
1626062892002669.750,-50.293,-65.430,-40.527,1.000,1.000
1626062892006576.000,-25.879,-69.824,-48.340,1.000,1.000
1626062892010482.250,-20.508,-37.598,-32.227,1.000,1.000
1626062892014388.500,-49.805,-22.949,-20.508,1.000,1.000
1626062892018294.750,-58.105,-13.672,-18.555,1.000,1.000
1626062892022201.000,-19.043,-18.555,-31.738,1.000,1.000
1626062892026107.250,8.789,-14.648,-30.273,1.000,1.000
1626062892030013.500,-16.602,-7.324,-30.273,1.000,1.000
1626062892033919.750,-48.828,-38.086,-36.133,1.000,1.000
1626062892037826.000,-42.480,-68.359,-34.180,1.000,1.000
1626062892041732.250,-28.320,-76.660,-21.973,1.000,1.000
1626062892045638.500,-45.410,-71.777,-18.066,1.000,1.000
1626062892049544.750,-79.590,-52.246,-36.133,1.000,1.000
1626062892053451.000,-60.547,-44.434,-38.086,1.000,1.000
1626062892057357.250,-18.066,-53.711,-38.574,1.000,1.000
1626062892061263.500,-28.809,-24.902,-41.504,1.000,1.000
1626062892065169.750,-62.988,-6.836,-27.344,1.000,1.000
1626062892069076.000,-60.059,-28.320,-21.484,1.000,1.000
1626062892072982.250,-11.230,-25.391,-8.301,1.000,1.000
1626062892076888.500,-4.883,-28.320,-19.043,1.000,1.000
1626062892080794.750,-52.734,-44.434,-59.570,1.000,1.000
1626062892084701.000,-56.152,-43.457,-58.105,1.000,1.000
1626062892088607.250,-21.973,-35.156,-16.602,1.000,1.000
1626062892092513.500,-17.090,-30.273,-7.812,1.000,1.000
1626062892096419.750,-34.668,-46.387,-23.438,1.000,1.000
1626062892100326.000,-67.871,-51.758,-30.273,1.000,1.000
1626062892104232.250,-72.266,-25.391,-42.480,1.000,1.000
1626062892108138.500,-42.480,-7.812,-46.387,1.000,1.000
1626062892112044.750,-33.691,-20.020,-27.832,1.000,1.000
1626062892115951.000,-52.246,-41.992,-40.527,1.000,1.000
1626062892119857.250,-34.180,-32.715,-51.270,1.000,1.000
1626062892123763.500,-13.672,-20.508,-39.551,1.000,1.000
1626062892127669.750,-19.531,-27.344,-4.395,1.000,1.000
1626062892131576.000,-48.828,-48.828,5.371,1.000,1.000
1626062892135482.250,-61.523,-56.152,-26.855,1.000,1.000
1626062892139388.500,-22.949,-37.598,-20.020,1.000,1.000
1626062892143294.750,-9.277,-28.320,-10.254,97.656,1.000
1626062892147201.000,-35.645,-37.109,-28.320,-127.441,1.000
1626062892151107.250,-57.617,-55.664,-29.785,-176.270,1.000
1626062892155013.500,-44.922,-53.223,-26.855,31.738,1.000
1626062892158919.750,-2.441,-20.508,-17.578,139.160,1.000
1626062892162826.000,-1.953,-5.859,-23.438,-33.691,1.000
1626062892166732.250,-19.531,-22.461,-30.273,-154.297,1.000
1626062892170638.500,-28.809,-43.945,-16.113,-9.277,1.000
1626062892174544.750,-40.039,-31.250,-21.973,115.723,1.000
1626062892178451.000,-46.387,-23.438,-30.273,-19.043,1.000
1626062892182357.250,-58.594,-37.109,-23.926,-194.824,1.000
1626062892186263.500,-48.340,-47.852,-19.531,-89.355,1.000
1626062892190169.750,-56.152,-35.645,-35.156,-61.035,1.000
1626062892194076.000,-20.020,-12.695,-36.621,122.070,1.000
1626062892197982.250,-25.879,-22.461,-36.133,6.348,1.000
1626062892201888.500,-55.176,-56.641,-27.344,-190.918,1.000
1626062892205794.750,-37.109,-51.270,-21.973,-98.633,1.000
1626062892209701.000,-12.207,-40.039,-26.367,115.234,1.000
1626062892213607.250,-12.695,-27.832,-30.762,70.801,1.000
1626062892217513.500,-26.367,-7.812,-34.180,-148.926,1.000
1626062892221419.750,-23.926,-3.418,-18.555,-145.996,1.000
1626062892225326.000,11.230,-9.277,-6.836,90.332,1.000
1626062892229232.250,35.156,-28.320,-18.555,147.949,1.000
1626062892233138.500,14.648,-14.160,-24.414,-57.129,1.000
1626062892237044.750,-27.832,-5.371,-34.180,1.000,1.000
1626062892240951.000,-20.996,-28.809,-28.320,1.000,1.000
1626062892244857.250,24.414,-24.414,-3.418,1.000,1.000
1626062892248763.500,21.484,-17.578,0.488,1.000,1.000
1626062892252669.750,-26.855,-36.133,-14.648,1.000,1.000
1626062892256576.000,-38.086,-35.645,-28.809,1.000,1.000
1626062892260482.250,-13.672,-32.227,-26.367,1.000,1.000
1626062892264388.500,-10.254,-18.555,-27.344,1.000,1.000
1626062892268294.750,-36.621,-15.137,-29.297,1.000,1.000
1626062892272201.000,-39.062,-18.555,-11.719,1.000,1.000
1626062892276107.250,-6.836,-25.879,-17.090,1.000,1.000
1626062892280013.500,4.883,-34.180,-29.785,1.000,1.000
1626062892283919.750,-33.203,-46.875,-46.387,-144.043,1.000
1626062892287826.000,-51.758,-50.293,-49.805,-175.293,1.000
1626062892291732.250,-32.715,-35.156,-32.715,41.504,1.000
1626062892295638.500,-18.066,-24.414,-15.625,108.887,1.000
1626062892299544.750,-39.551,-18.555,-22.949,-104.980,1.000
1626062892303451.000,-49.316,-21.484,-23.926,-199.707,1.000
1626062892307357.250,-21.484,-37.109,-16.602,-5.371,1.000
1626062892311263.500,-10.742,-48.340,-27.344,121.094,1.000
1626062892315169.750,-31.738,-40.039,-22.461,-39.551,1.000
1626062892319076.000,-62.012,-25.879,-29.785,-220.703,1.000
1626062892322982.250,-45.898,-6.836,-56.152,-88.379,1.000
1626062892326888.500,-6.348,-25.391,-69.824,123.047,1.000
1626062892330794.750,-8.789,-16.113,-13.184,142.578,1.000
1626062892334701.000,-31.250,-22.949,-29.785,-11.230,1.000
1626062892338607.250,-65.430,-9.766,-51.758,-200.684,1.000
1626062892342513.500,-50.293,-22.461,-52.734,-81.055,1.000
1626062892346419.750,4.883,-29.297,-19.531,159.180,1.000
1626062892350326.000,4.883,-21.484,-21.973,103.027,1.000
1626062892354232.250,-53.711,-36.133,-44.922,-149.414,1.000
1626062892358138.500,-66.895,-39.062,-60.547,-150.391,1.000
1626062892362044.750,-20.996,-30.762,-51.758,83.984,1.000
1626062892365951.000,-11.230,-21.484,-27.344,114.258,1.000
1626062892369857.250,-45.410,-15.625,-35.645,-115.723,1.000
1626062892373763.500,-58.105,-3.906,-53.223,-186.523,1.000
1626062892377669.750,-52.246,-36.621,-38.086,17.578,1.000
1626062892381576.000,-21.973,-46.387,-16.113,125.000,1.000
1626062892385482.250,-30.762,-55.176,-20.020,-51.270,1.000
1626062892389388.500,-62.988,-49.316,-45.898,-196.289,1.000
1626062892393294.750,-88.867,-45.898,-56.641,-43.945,1.000
1626062892397201.000,-44.434,-44.922,-33.203,133.301,1.000
1626062892401107.250,3.418,-23.926,-33.691,20.020,1.000
1626062892405013.500,-26.367,-32.227,-49.316,-196.289,1.000
1626062892408919.750,-52.734,-27.832,-20.996,-126.465,1.000
1626062892412826.000,-35.156,-12.695,-5.859,110.352,1.000
1626062892416732.250,-13.672,-31.738,-22.461,67.383,1.000
1626062892420638.500,-11.719,-47.363,-25.391,-184.082,1.000
1626062892424544.750,-24.902,-29.297,-33.203,1.000,1.000
1626062892428451.000,-46.387,-47.852,-66.406,1.000,1.000
1626062892432357.250,-44.434,-56.152,-49.316,1.000,1.000
1626062892436263.500,-26.367,-42.480,-9.766,1.000,1.000
1626062892440169.750,-60.059,-39.551,-10.742,1.000,1.000
1626062892444076.000,-91.309,-34.180,-24.902,1.000,1.000
1626062892447982.250,-54.688,-32.227,-21.973,1.000,1.000
1626062892451888.500,-13.672,-33.691,-0.977,1.000,1.000
1626062892455794.750,-50.781,-49.316,-3.418,1.000,1.000
1626062892459701.000,-83.008,-63.477,-33.691,1.000,1.000
1626062892463607.250,-43.945,-72.266,-46.875,1.000,1.000
1626062892467513.500,-17.090,-59.082,-24.902,1.000,1.000
1626062892471419.750,-62.012,-41.016,-33.691,-43.945,1.000
1626062892475326.000,-113.281,-31.738,-51.758,-245.117,1.000
1626062892479232.250,-87.402,-18.555,-38.086,-105.957,1.000
1626062892483138.500,-59.570,-32.715,-41.992,91.797,1.000
1626062892487044.750,-64.941,-46.875,-24.414,16.113,1.000
1626062892490951.000,-73.730,-64.941,-15.137,-175.781,1.000
1626062892494857.250,-76.660,-73.242,-20.508,-144.043,1.000
1626062892498763.500,-69.336,-60.059,-23.926,61.035,1.000
1626062892502669.750,-64.453,-60.059,-24.902,60.547,1.000
1626062892506576.000,-73.242,-62.012,-30.273,-150.879,1.000
1626062892510482.250,-79.590,-44.922,-38.086,-187.988,1.000
1626062892514388.500,-56.641,-21.484,-38.574,25.391,1.000
1626062892518294.750,-29.785,-20.508,-57.129,65.430,1.000
1626062892522201.000,-3.418,-1.465,-47.852,109.863,1.000
1626062892526107.250,-16.602,-9.766,-6.348,-103.027,1.000
1626062892530013.500,-52.734,-27.344,-3.906,-197.266,1.000
1626062892533919.750,-37.598,-10.742,-17.578,8.789,1.000
1626062892537826.000,-10.254,-20.508,-21.484,135.742,1.000
1626062892541732.250,-27.344,-41.992,-33.203,-49.805,1.000
1626062892545638.500,-45.898,-41.992,-24.902,-197.754,1.000
1626062892549544.750,-19.043,-12.695,-8.789,-36.133,1.000
1626062892553451.000,6.348,-8.789,-15.137,140.625,1.000
1626062892557357.250,-4.395,-24.902,-34.668,24.902,1.000
1626062892561263.500,-46.875,-27.832,-44.434,-191.895,1.000
1626062892565169.750,-43.457,-19.531,-35.156,1.000,1.000
1626062892569076.000,-7.812,-20.020,-23.926,1.000,1.000
1626062892572982.250,-30.762,-34.668,-25.391,1.000,1.000
1626062892576888.500,-60.547,-40.527,-29.297,1.000,1.000
1626062892580794.750,-44.922,-22.949,-11.719,1.000,1.000
1626062892584701.000,-11.230,-13.184,-5.859,1.000,1.000
1626062892588607.250,-19.531,-52.246,-33.691,1.000,1.000
1626062892592513.500,-41.016,-52.246,-24.902,1.000,1.000
1626062892596419.750,-41.016,-19.531,-2.930,1.000,1.000
1626062892600326.000,-18.555,-29.785,-18.555,1.000,1.000
1626062892604232.250,8.789,-24.902,-20.020,1.000,1.000
1626062892608138.500,-16.113,-19.043,-9.277,1.000,1.000
1626062892612044.750,-48.340,-25.391,-20.508,1.000,1.000
1626062892615951.000,-42.969,-28.809,-23.438,1.000,1.000
1626062892619857.250,-26.855,-40.039,-17.578,1.000,1.000
1626062892623763.500,-28.320,-41.016,-15.625,1.000,1.000
1626062892627669.750,-45.898,-45.410,-17.578,1.000,1.000
1626062892631576.000,-28.320,-37.598,0.000,1.000,1.000
1626062892635482.250,-7.324,-28.320,7.812,1.000,1.000
1626062892639388.500,-20.996,-37.109,-25.391,1.000,1.000
1626062892643294.750,-45.898,-40.039,-54.688,1.000,1.000
1626062892647201.000,-50.293,-39.551,-37.109,1.000,1.000
1626062892651107.250,-24.414,-45.898,-5.859,1.000,1.000
1626062892655013.500,-15.625,-49.805,6.348,1.000,1.000
1626062892658919.750,-24.414,-34.180,4.883,1.000,1.000
1626062892662826.000,-55.176,-40.527,-16.602,1.000,1.000
1626062892666732.250,-57.617,-41.992,-38.574,1.000,1.000
1626062892670638.500,-32.715,-16.113,-37.109,1.000,1.000
1626062892674544.750,-32.227,-20.508,-34.668,1.000,1.000
1626062892678451.000,-58.594,-39.062,-63.965,1.000,1.000
1626062892682357.250,-61.035,-45.898,-47.363,1.000,1.000
1626062892686263.500,-19.043,-33.691,2.441,1.000,1.000
1626062892690169.750,1.953,-31.250,20.020,1.000,1.000
1626062892694076.000,-29.785,-29.297,13.184,1.000,1.000
1626062892697982.250,-43.945,-26.367,-8.301,1.000,1.000
1626062892701888.500,-27.832,-28.809,-37.598,1.000,1.000
1626062892705794.750,-32.715,-45.410,-62.988,85.449,1.000
1626062892709701.000,-46.387,-59.570,-56.152,-130.859,1.000
1626062892713607.250,-62.500,-51.270,-41.992,-187.012,1.000
1626062892717513.500,-38.574,-25.391,-20.020,28.809,1.000
1626062892721419.750,-27.344,-20.020,-24.902,120.605,1.000
1626062892725326.000,-43.457,-28.320,-23.926,-75.195,1.000
1626062892729232.250,-21.973,-6.348,19.531,-167.969,1.000
1626062892733138.500,-6.348,-20.020,10.254,1.953,1.000
1626062892737044.750,-18.555,-48.828,-23.926,128.906,1.000
1626062892740951.000,-41.992,-42.480,-44.434,-19.531,1.000
1626062892744857.250,-77.637,-31.738,-68.848,-218.750,1.000
1626062892748763.500,-62.988,-29.785,-67.383,-111.328,1.000
1626062892752669.750,-51.270,-15.137,-26.855,123.535,1.000
1626062892756576.000,-20.020,-29.297,-20.020,62.500,1.000
1626062892760482.250,-27.344,-30.762,-25.391,-164.062,1.000
1626062892764388.500,-58.105,-31.250,-29.785,-147.461,1.000
1626062892768294.750,-53.223,-31.738,-25.879,79.102,1.000
1626062892772201.000,-16.113,-29.297,-26.367,114.746,1.000
1626062892776107.250,-1.465,-29.297,-33.203,-113.770,1.000
1626062892780013.500,-28.320,-42.969,-42.969,-192.871,1.000
1626062892783919.750,-31.738,-45.898,-28.809,17.090,1.000
1626062892787826.000,1.465,-30.273,-22.461,131.348,1.000
1626062892791732.250,-6.836,-39.062,-57.129,-52.246,1.000
1626062892795638.500,-44.922,-26.367,-59.082,-205.078,1.000
1626062892799544.750,-56.152,-19.531,-25.879,1.000,1.000
1626062892803451.000,-42.969,-45.410,-31.738,1.000,1.000
1626062892807357.250,-19.043,-38.086,-46.875,1.000,1.000
1626062892811263.500,-26.855,-17.090,-43.457,1.000,1.000
1626062892815169.750,-62.988,-31.250,-37.109,1.000,1.000
1626062892819076.000,-38.574,-20.996,-27.832,1.000,1.000
1626062892822982.250,11.230,-7.812,-26.855,1.000,1.000
1626062892826888.500,-4.883,-48.828,-37.109,1.000,1.000
1626062892830794.750,-64.941,-67.383,-82.031,1.000,1.000
1626062892834701.000,-79.102,-57.617,-83.008,1.000,1.000
1626062892838607.250,-26.367,-54.688,-38.574,1.000,1.000
1626062892842513.500,4.883,-39.062,-27.344,1.000,1.000
1626062892846419.750,-34.180,-21.973,-65.918,-144.531,1.000
1626062892850326.000,-57.129,-31.738,-73.242,-188.477,1.000
1626062892854232.250,-24.414,-48.828,-32.227,45.898,1.000
1626062892858138.500,6.836,-25.879,-15.137,140.137,1.000
1626062892862044.750,-13.184,-1.465,-30.273,-60.547,1.000
1626062892865951.000,-43.457,-8.789,-39.062,-181.641,1.000
1626062892869857.250,-15.137,-11.719,-30.273,4.883,1.000
1626062892873763.500,10.742,-41.016,-34.668,144.531,1.000
1626062892877669.750,-12.207,-55.176,-29.297,-5.859,1.000
1626062892881576.000,-59.082,-50.293,-44.922,-203.613,1.000
1626062892885482.250,-50.781,-47.363,-54.199,-90.820,1.000
1626062892889388.500,-22.461,-36.133,-38.086,118.652,1.000
1626062892893294.750,-5.371,-36.133,-41.016,132.324,1.000
1626062892897201.000,-7.324,-34.668,-26.855,1.953,1.000
1626062892901107.250,-40.527,-23.438,-50.293,-196.289,1.000
1626062892905013.500,-21.973,13.184,-34.180,-87.402,1.000
1626062892908919.750,9.277,14.648,-3.906,137.207,1.000
1626062892912826.000,-5.371,-28.320,-17.090,79.590,1.000
1626062892916732.250,-27.832,-38.574,-32.715,-145.996,1.000
1626062892920638.500,-39.551,-54.199,-19.531,-147.949,1.000
1626062892924544.750,-32.715,-51.270,-10.254,61.523,1.000
1626062892928451.000,-26.855,-20.508,-31.738,95.215,1.000
1626062892932357.250,-35.156,-7.812,-33.203,-111.328,1.000
1626062892936263.500,-45.410,-5.859,-14.160,-184.082,1.000
1626062892940169.750,-61.035,-32.715,-34.668,2.930,1.000
1626062892944076.000,-24.902,-22.949,-47.363,117.676,1.000
1626062892947982.250,-8.301,-32.715,-37.109,-32.227,1.000
1626062892951888.500,-20.996,-47.852,-14.160,-183.594,1.000
1626062892955794.750,-29.297,-34.668,-0.977,-48.340,1.000
1626062892959701.000,-26.367,-29.785,-12.207,135.254,1.000
1626062892963607.250,-17.578,-41.504,-18.555,19.043,1.000
1626062892967513.500,-6.836,-28.809,-4.883,-184.570,1.000
1626062892971419.750,-27.344,-27.344,-27.344,-115.723,1.000
1626062892975326.000,-35.645,-17.090,-39.551,99.121,1.000
1626062892979232.250,-5.859,-7.324,-30.273,88.379,1.000
1626062892983138.500,-7.812,-25.391,-37.598,-149.902,1.000
1626062892987044.750,-36.621,-23.438,-29.297,1.000,1.000
1626062892990951.000,-30.762,-16.113,-15.625,1.000,1.000
1626062892994857.250,3.418,-24.902,-12.695,1.000,1.000
1626062892998763.500,8.301,-38.574,-22.461,1.000,1.000
1626062893002669.750,-22.461,-48.828,-23.926,1.000,1.000
1626062893006576.000,-44.922,-25.879,-12.695,1.000,1.000
1626062893010482.250,-28.809,-9.277,-11.719,1.000,1.000
1626062893014388.500,-1.953,-24.414,-30.273,1.000,1.000
1626062893018294.750,-11.230,-12.695,-33.203,1.000,1.000
1626062893022201.000,-39.062,3.418,-26.367,1.000,1.000
1626062893026107.250,-26.855,-20.020,-35.645,1.000,1.000
1626062893030013.500,-6.348,-26.855,-37.109,1.000,1.000
1626062893033919.750,-9.277,-11.230,-21.973,-10.742,1.000
1626062893037826.000,-39.062,-31.738,-13.672,-190.918,1.000
1626062893041732.250,-52.246,-45.898,-20.508,-99.609,1.000
1626062893045638.500,-20.996,-48.340,-19.531,107.910,1.000
1626062893049544.750,-10.742,-26.855,-9.277,51.758,1.000
1626062893053451.000,-25.879,-2.441,-11.230,-154.297,1.000
1626062893057357.250,-37.598,-30.762,-35.156,-134.277,1.000
1626062893061263.500,-26.367,-42.969,-41.504,74.219,1.000
1626062893065169.750,-11.230,-21.973,-31.250,93.750,1.000
1626062893069076.000,-24.414,-3.906,-24.902,-114.258,1.000
1626062893072982.250,-48.340,-15.625,-26.855,-174.805,1.000
1626062893076888.500,-50.781,-42.969,-27.832,15.625,1.000
1626062893080794.750,-27.832,-46.387,-36.621,62.500,1.000
1626062893084701.000,-21.973,-60.547,-25.879,96.680,1.000
1626062893088607.250,-44.434,-47.852,-29.785,-119.629,1.000
1626062893092513.500,-46.387,-14.648,-26.367,-188.477,1.000
1626062893096419.750,-20.996,-11.230,-33.203,21.484,1.000
1626062893100326.000,-10.254,-27.344,-40.039,141.113,1.000
1626062893104232.250,-23.438,-27.832,-23.926,-33.203,1.000
1626062893108138.500,-44.434,-31.738,-18.066,-191.406,1.000
1626062893112044.750,-34.668,-33.691,-26.855,-46.387,1.000
1626062893115951.000,5.371,-34.180,-24.902,144.043,1.000
1626062893119857.250,5.371,-22.461,-27.832,34.668,1.000
1626062893123763.500,-28.320,-15.625,-31.250,-175.781,1.000
1626062893127669.750,-56.641,-52.246,-46.875,-131.348,1.000
1626062893131576.000,-40.039,-47.363,-43.457,79.590,1.000
1626062893135482.250,-21.973,-22.949,-28.809,64.453,1.000
1626062893139388.500,-45.410,-25.879,-32.227,-164.062,1.000
1626062893143294.750,-53.711,-24.414,-31.250,-176.758,1.000
1626062893147201.000,-20.020,-22.949,-31.250,62.500,1.000
1626062893151107.250,14.160,-21.484,-25.879,139.160,1.000
1626062893155013.500,0.488,-32.715,-34.180,-67.871,1.000
1626062893158919.750,-40.039,-50.781,-40.527,-181.641,1.000
1626062893162826.000,-23.926,-49.316,-37.109,7.324,1.000
1626062893166732.250,-2.441,-42.480,-37.598,139.160,1.000
1626062893170638.500,-25.391,-23.438,-24.902,-34.668,1.000
1626062893174544.750,-51.270,-11.230,-21.484,1.000,1.000
1626062893178451.000,-39.551,-23.926,-26.367,1.000,1.000
1626062893182357.250,-2.930,-20.020,-13.672,1.000,1.000
1626062893186263.500,-5.859,-21.484,-14.648,1.000,1.000
1626062893190169.750,-44.434,-24.414,-41.992,1.000,1.000
1626062893194076.000,-44.434,-15.137,-42.969,1.000,1.000
1626062893197982.250,-15.625,-26.367,-48.828,1.000,1.000
1626062893201888.500,0.488,-30.762,-64.453,1.000,1.000
1626062893205794.750,-2.930,-0.488,-33.691,1.000,1.000
1626062893209701.000,-24.414,-12.207,4.883,1.000,1.000
1626062893213607.250,-41.016,-53.711,-10.254,1.000,1.000
1626062893217513.500,-34.180,-46.875,-37.598,1.000,1.000
1626062893221419.750,-36.621,-12.207,-29.785,1.000,1.000
1626062893225326.000,-49.805,-4.395,-11.719,1.000,1.000
1626062893229232.250,-33.691,-47.363,-7.812,1.000,1.000
1626062893233138.500,-6.348,-38.086,-18.555,1.000,1.000
1626062893237044.750,-1.953,-22.949,-36.133,1.000,1.000
1626062893240951.000,-42.480,-42.969,-51.758,1.000,1.000
1626062893244857.250,-44.434,-22.949,-31.250,1.000,1.000
1626062893248763.500,-3.906,6.836,-7.812,1.000,1.000
1626062893252669.750,-11.719,-3.418,-15.625,1.000,1.000
1626062893256576.000,-45.410,-36.621,-21.484,1.000,1.000
1626062893260482.250,-41.992,-38.086,-18.555,1.000,1.000
1626062893264388.500,-17.578,-38.574,-17.090,1.000,1.000
1626062893268294.750,-15.625,-41.504,-19.531,103.027,1.000
1626062893272201.000,-37.598,-31.250,-16.113,-115.234,1.000
1626062893276107.250,-51.270,-34.180,-15.137,-170.410,1.000
1626062893280013.500,-17.578,-39.062,-11.719,55.176,1.000
1626062893283919.750,12.207,-38.574,-20.020,167.480,1.000
1626062893287826.000,-22.461,-35.156,-58.105,-40.527,1.000
1626062893291732.250,-70.801,-37.598,-60.547,-208.496,1.000
1626062893295638.500,-54.199,-35.156,-14.160,-44.434,1.000
1626062893299544.750,-17.090,-24.902,-0.977,133.301,1.000
1626062893303451.000,-28.320,-41.992,-6.836,0.977,1.000
1626062893307357.250,-28.809,-32.715,-0.977,-171.875,1.000
1626062893311263.500,-17.578,-17.578,-17.090,-79.102,1.000
1626062893315169.750,-16.602,-35.645,-10.254,123.047,1.000
1626062893319076.000,7.812,-37.598,-36.133,73.730,1.000
1626062893322982.250,-10.254,-37.598,-57.129,-161.621,1.000
1626062893326888.500,-40.039,-32.715,-19.043,-155.273,1.000
1626062893330794.750,-52.246,-37.109,-9.277,66.406,1.000
1626062893334701.000,-20.996,-30.273,-13.672,115.234,1.000
1626062893338607.250,-4.883,-36.133,-11.230,-91.309,1.000
1626062893342513.500,-34.668,-42.480,-35.156,-177.734,1.000
1626062893346419.750,-35.645,-20.508,-49.805,35.156,1.000
1626062893350326.000,-4.395,-23.438,-41.992,144.043,1.000
1626062893354232.250,16.113,-18.066,-10.254,-52.734,1.000
1626062893358138.500,-19.043,-11.719,-10.742,-202.637,1.000
1626062893362044.750,-54.688,-28.809,-43.945,1.000,1.000
1626062893365951.000,-31.738,-49.316,-44.922,1.000,1.000
1626062893369857.250,-6.836,-46.387,-29.297,1.000,1.000
1626062893373763.500,-14.160,-2.930,-18.066,1.000,1.000
1626062893377669.750,-48.340,-7.324,-26.367,1.000,1.000
1626062893381576.000,-39.551,-40.039,-21.484,1.000,1.000
1626062893385482.250,13.672,-20.020,-16.602,1.000,1.000
1626062893389388.500,2.441,-24.902,-22.461,1.000,1.000
1626062893393294.750,-42.969,-39.551,-19.531,1.000,1.000
1626062893397201.000,-43.945,-14.160,-32.715,1.000,1.000
1626062893401107.250,-0.977,10.742,-41.504,1.000,1.000
1626062893405013.500,6.836,6.348,-36.621,1.000,1.000
1626062893408919.750,-47.852,-35.645,-39.551,-152.832,1.000
1626062893412826.000,-60.059,-59.082,-30.273,-195.312,1.000
1626062893416732.250,-28.809,-45.898,-29.297,35.645,1.000
1626062893420638.500,-12.695,-36.133,-26.367,120.605,1.000
1626062893424544.750,-13.184,-32.715,-16.113,-74.219,1.000
1626062893428451.000,-26.855,-34.668,-34.180,-188.965,1.000
1626062893432357.250,-9.766,-51.270,-25.879,-0.977,1.000
1626062893436263.500,11.230,-39.551,-4.883,154.785,1.000
1626062893440169.750,-9.766,-14.160,-17.090,-2.930,1.000
1626062893444076.000,-44.922,-20.996,-38.574,-195.312,1.000
1626062893447982.250,-48.828,-35.156,-41.016,-97.656,1.000
1626062893451888.500,-28.809,-41.016,-18.066,104.004,1.000
1626062893455794.750,-22.949,-47.363,-12.207,132.812,1.000
1626062893459701.000,-32.715,-44.434,-33.691,-0.488,1.000
1626062893463607.250,-62.012,-32.227,-47.852,-201.660,1.000
1626062893467513.500,-39.062,-23.926,-39.062,-88.379,1.000
1626062893471419.750,3.418,-34.668,-33.691,137.695,1.000
1626062893475326.000,-4.883,-36.621,-20.020,84.473,1.000
1626062893479232.250,-36.621,-31.250,-19.043,-140.625,1.000
1626062893483138.500,-56.641,-51.270,-40.527,-154.297,1.000
1626062893487044.750,-28.320,-35.156,-42.480,73.242,1.000
1626062893490951.000,-0.977,-0.488,-21.973,125.488,1.000
1626062893494857.250,-22.949,-9.277,-13.672,-100.098,1.000
1626062893498763.500,-48.340,-27.344,-26.367,-200.684,1.000
1626062893502669.750,-40.039,-20.508,-37.598,1.000,1.000
1626062893506576.000,-21.973,-18.555,-36.133,1.000,1.000
1626062893510482.250,-19.043,-14.160,-23.438,1.000,1.000
1626062893514388.500,-33.691,0.977,-27.832,1.000,1.000
1626062893518294.750,-36.133,-29.297,-39.062,1.000,1.000
1626062893522201.000,1.953,-52.734,-14.648,1.000,1.000
1626062893526107.250,5.859,-42.480,-18.555,1.000,1.000
1626062893530013.500,-48.828,-60.547,-53.711,1.000,1.000
1626062893533919.750,-51.270,-38.086,-58.105,1.000,1.000
1626062893537826.000,0.977,2.930,-38.574,1.000,1.000
1626062893541732.250,-5.371,-25.391,-35.156,1.000,1.000
1626062893545638.500,-33.203,-32.227,-11.230,1.000,1.000
1626062893549544.750,-36.621,-12.207,2.441,1.000,1.000
1626062893553451.000,-14.648,-11.719,-20.020,1.000,1.000
1626062893557357.250,-8.301,-27.832,-25.879,1.000,1.000
1626062893561263.500,-39.551,-41.992,-30.762,1.000,1.000
1626062893565169.750,-49.316,-32.227,-34.180,1.000,1.000
1626062893569076.000,-21.484,-41.992,-21.484,1.000,1.000
1626062893572982.250,7.324,-55.664,-10.742,1.000,1.000
1626062893576888.500,8.789,-32.715,-6.836,1.000,1.000
1626062893580794.750,-22.461,-29.297,-18.066,1.000,1.000
1626062893584701.000,-18.555,-6.836,-36.621,1.000,1.000
1626062893588607.250,2.441,5.859,-43.457,1.000,1.000
1626062893592513.500,-17.578,-21.973,-30.762,1.000,1.000
1626062893596419.750,-50.781,-26.367,-8.789,1.000,1.000
1626062893600326.000,-59.082,-31.250,-11.230,1.000,1.000
1626062893604232.250,-36.133,-37.598,-27.344,1.000,1.000
1626062893608138.500,-19.531,-35.645,-43.457,1.000,1.000
1626062893612044.750,-22.949,-41.016,-41.504,1.000,1.000
1626062893615951.000,-31.250,-42.969,-25.879,1.000,1.000
1626062893619857.250,-20.508,-33.691,-18.555,1.000,1.000
1626062893623763.500,-9.277,-26.367,-16.602,1.000,1.000
1626062893627669.750,-16.113,-20.996,-9.766,1.000,1.000
1626062893631576.000,-27.344,-13.672,-23.926,1.000,1.000
1626062893635482.250,-21.484,-19.531,-31.738,1.000,1.000
1626062893639388.500,-10.254,-28.809,-38.574,1.000,1.000
1626062893643294.750,-40.527,-43.945,-74.219,-24.414,1.000
1626062893647201.000,-70.312,-38.086,-61.523,-217.285,1.000
1626062893651107.250,-54.199,-35.156,-23.438,-96.191,1.000
1626062893655013.500,-16.113,-46.875,-15.625,118.164,1.000
1626062893658919.750,-4.395,-36.621,-9.277,60.059,1.000
1626062893662826.000,-41.016,-18.555,-14.648,-164.551,1.000
1626062893666732.250,-41.504,-12.695,-21.484,-141.113,1.000
1626062893670638.500,-15.625,-22.461,-15.137,81.055,1.000
1626062893674544.750,-16.602,-24.414,-34.668,96.680,1.000
1626062893678451.000,-25.879,-15.137,-43.457,-111.816,1.000
1626062893682357.250,-26.367,-22.461,-29.297,-159.668,1.000
1626062893686263.500,4.883,-33.691,-29.297,63.477,1.000
1626062893690169.750,-7.324,-35.645,-40.527,90.820,1.000
1626062893694076.000,-6.348,-24.902,-29.297,125.488,1.000
1626062893697982.250,-38.574,-50.293,-43.945,-98.633,1.000
1626062893701888.500,-59.082,-55.664,-21.973,-184.570,1.000
1626062893705794.750,-32.715,-34.668,4.883,20.020,1.000
1626062893709701.000,-3.418,-27.344,9.766,149.902,1.000
1626062893713607.250,-27.832,-26.367,1.953,-31.250,1.000
1626062893717513.500,-46.387,-22.461,-5.859,-183.594,1.000
1626062893721419.750,-37.109,-0.488,-21.973,-42.969,1.000
1626062893725326.000,-25.391,0.000,-35.156,126.953,1.000
1626062893729232.250,-20.996,-36.133,-28.320,28.320,1.000
1626062893733138.500,-48.340,-54.688,-24.414,-175.781,1.000
1626062893737044.750,-56.152,-44.434,-22.461,1.000,1.000
1626062893740951.000,-24.902,-41.504,-34.180,1.000,1.000
1626062893744857.250,-12.695,-52.734,-41.992,1.000,1.000
1626062893748763.500,-34.668,-56.641,-19.531,1.000,1.000
1626062893752669.750,-59.082,-50.293,-11.719,1.000,1.000
1626062893756576.000,-40.527,-47.363,-17.578,1.000,1.000
1626062893760482.250,-8.301,-43.457,-17.578,1.000,1.000
1626062893764388.500,-39.551,-36.133,-40.527,1.000,1.000
1626062893768294.750,-63.477,-32.715,-28.320,1.000,1.000
1626062893772201.000,-34.180,-37.109,4.395,1.000,1.000
1626062893776107.250,-22.461,-35.645,-18.066,1.000,1.000
1626062893780013.500,-26.855,-22.461,-36.133,1.000,1.000
1626062893783919.750,-35.645,-17.578,-35.156,1.000,1.000
1626062893787826.000,-34.668,-39.551,-29.785,1.000,1.000
1626062893791732.250,-18.555,-44.922,-23.926,1.000,1.000
1626062893795638.500,-23.926,-32.227,-29.785,1.000,1.000
1626062893799544.750,-41.992,-32.227,-22.461,1.000,1.000
1626062893803451.000,-27.832,-35.645,7.324,1.000,1.000
1626062893807357.250,-7.324,-26.367,-6.836,1.000,1.000
1626062893811263.500,-10.742,-19.531,-46.875,1.000,1.000
1626062893815169.750,-33.691,-31.250,-40.527,1.000,1.000
1626062893819076.000,-50.293,-34.180,-31.250,1.000,1.000
1626062893822982.250,-35.645,-31.250,-55.176,1.000,1.000
1626062893826888.500,-9.766,-31.738,-42.480,1.000,1.000
1626062893830794.750,-34.668,-34.180,-16.602,-75.195,1.000
1626062893834701.000,-62.988,-51.758,-17.578,-202.148,1.000
1626062893838607.250,-33.203,-38.574,-23.438,-11.230,1.000
1626062893842513.500,-1.953,-29.785,-26.855,151.367,1.000
1626062893846419.750,5.859,-36.133,-36.621,23.438,1.000
1626062893850326.000,-11.230,-26.367,-50.781,-147.461,1.000
1626062893854232.250,-35.645,-40.039,-54.688,-73.242,1.000
1626062893858138.500,-42.480,-40.527,-31.738,98.145,1.000
1626062893862044.750,-19.043,-16.602,-10.254,59.570,1.000
1626062893865951.000,-30.273,-8.789,-27.832,-142.578,1.000
1626062893869857.250,-66.895,-28.320,-41.504,-154.297,1.000
1626062893873763.500,-37.109,-38.086,-13.184,67.871,1.000
1626062893877669.750,-18.555,-41.016,-8.789,94.238,1.000
1626062893881576.000,-62.500,-45.898,-36.133,-148.438,1.000
1626062893885482.250,-74.707,-36.133,-37.598,-209.473,1.000
1626062893889388.500,-10.742,-19.531,-21.973,41.992,1.000
1626062893893294.750,21.484,-10.742,-51.758,159.180,1.000
1626062893897201.000,-24.902,-20.020,-56.152,-53.223,1.000
1626062893901107.250,-61.035,-39.551,-18.066,-203.125,1.000
1626062893905013.500,-44.922,-41.016,-2.930,-41.016,1.000
1626062893908919.750,-26.367,-37.598,-13.672,123.535,1.000
1626062893912826.000,-41.992,-34.180,-23.926,-12.695,1.000
1626062893916732.250,-52.246,-22.461,-23.438,-197.754,1.000
1626062893920638.500,-36.133,-13.672,-33.203,-104.004,1.000
1626062893924544.750,-84.473,-34.668,-46.387,105.957,1.000
1626062893928451.000,-50.781,-60.059,-20.508,59.570,1.000
1626062893932357.250,-30.762,-34.668,-16.113,-172.363,1.000
1626062893936263.500,-30.762,11.719,-22.461,-165.527,1.000
1626062893940169.750,-45.898,5.859,-26.367,63.965,1.000
1626062893944076.000,-40.527,-19.531,-15.625,112.793,1.000
1626062893947982.250,-33.691,-17.578,-30.762,-90.820,1.000
1626062893951888.500,-63.965,-47.363,-67.383,-183.105,1.000
1626062893955794.750,-60.059,-72.266,-40.039,10.742,1.000
1626062893959701.000,-17.090,-42.480,-10.254,136.230,1.000
1626062893963607.250,-28.809,-44.922,-35.156,-43.457,1.000
1626062893967513.500,-49.316,-59.082,-46.875,-222.168,1.000
1626062893971419.750,-50.293,-56.152,-30.273,1.000,1.000
1626062893975326.000,-5.859,-28.809,-3.906,1.000,1.000
1626062893979232.250,8.789,-19.531,-20.996,1.000,1.000
1626062893983138.500,-14.160,-5.371,-36.621,1.000,1.000
1626062893987044.750,-32.715,10.742,-45.898,1.000,1.000
1626062893990951.000,-48.828,-27.344,-56.152,1.000,1.000
1626062893994857.250,-27.832,-49.805,-44.434,1.000,1.000
1626062893998763.500,-35.645,-62.012,-48.340,1.000,1.000
1626062894002669.750,-75.195,-72.754,-44.922,1.000,1.000
1626062894006576.000,-66.895,-55.664,-35.645,1.000,1.000
1626062894010482.250,-2.441,-8.301,-29.297,1.000,1.000
1626062894014388.500,8.301,-25.391,-5.859,1.000,1.000
1626062894018294.750,-41.992,-67.871,-17.578,-141.113,1.000
1626062894022201.000,-58.594,-44.434,-59.082,-187.988,1.000
1626062894026107.250,-32.715,-16.602,-72.754,31.738,1.000
1626062894030013.500,-25.879,-45.898,-59.570,110.840,1.000
1626062894033919.750,-50.781,-56.641,-52.734,-95.703,1.000
1626062894037826.000,-57.129,-14.160,-41.016,-202.637,1.000
1626062894041732.250,-36.133,-7.324,-39.551,-16.113,1.000
1626062894045638.500,-10.254,-25.391,-43.945,136.230,1.000
1626062894049544.750,-11.230,-43.457,-31.738,0.488,1.000
1626062894053451.000,-32.227,-49.805,-13.184,-163.086,1.000
1626062894057357.250,-31.738,-43.457,-20.508,-60.059,1.000
1626062894061263.500,-21.484,-48.340,-47.363,120.117,1.000
1626062894065169.750,9.277,-4.883,-14.160,173.340,1.000
1626062894069076.000,-7.324,-13.184,-25.391,28.809,1.000
1626062894072982.250,-31.250,-24.902,-46.875,-172.852,1.000
1626062894076888.500,-41.504,-41.016,-53.711,-102.539,1.000
1626062894080794.750,-19.531,-30.273,-45.410,112.793,1.000
1626062894084701.000,-15.625,-20.996,-28.809,67.871,1.000
1626062894088607.250,-41.504,-31.250,-23.926,-160.645,1.000
1626062894092513.500,-39.551,-31.250,-16.113,-151.855,1.000
1626062894096419.750,-13.672,-27.344,-10.742,77.637,1.000
1626062894100326.000,6.348,-38.574,-8.301,131.348,1.000
1626062894104232.250,-8.789,-50.293,-7.812,-75.195,1.000
1626062894108138.500,-39.551,-42.969,-28.320,-172.363,1.000
1626062894112044.750,-26.855,-11.719,-28.809,1.000,1.000
1626062894115951.000,-10.742,-19.043,-10.742,1.000,1.000
1626062894119857.250,-25.391,-41.016,-15.625,1.000,1.000
1626062894123763.500,-58.105,-29.785,-33.203,1.000,1.000
1626062894127669.750,-55.664,-16.113,-42.969,1.000,1.000
1626062894131576.000,0.977,-15.625,-28.320,1.000,1.000
1626062894135482.250,21.973,-1.953,-0.488,1.000,1.000
1626062894139388.500,-33.203,-20.996,-5.859,1.000,1.000
1626062894143294.750,-55.664,-38.086,-14.160,1.000,1.000
1626062894147201.000,-31.738,-40.039,-29.785,1.000,1.000
1626062894151107.250,-26.855,-40.039,-58.594,1.000,1.000
1626062894155013.500,-24.414,-23.438,-49.805,1.000,1.000
1626062894158919.750,-24.414,-32.715,-25.879,-136.230,1.000
1626062894162826.000,-16.113,-24.414,-15.137,78.125,1.000
1626062894166732.250,-3.906,-13.672,-29.785,140.625,1.000
1626062894170638.500,-28.320,-28.320,-45.898,-74.707,1.000
1626062894174544.750,-60.059,-36.133,-29.785,-182.617,1.000
1626062894178451.000,-32.715,-17.090,-9.766,15.625,1.000
1626062894182357.250,6.836,10.254,-10.742,166.504,1.000
1626062894186263.500,-24.414,-4.395,-33.203,-21.973,1.000
1626062894190169.750,-62.012,-28.809,-53.711,-215.820,1.000
1626062894194076.000,-40.527,-34.668,-36.621,-77.148,1.000
1626062894197982.250,-6.348,-28.809,-26.855,131.836,1.000
1626062894201888.500,5.859,-20.996,-17.578,58.105,1.000
1626062894205794.750,-23.926,-29.785,-17.578,1.000,1.000
1626062894209701.000,-42.969,-25.879,-37.598,1.000,1.000
1626062894213607.250,10.742,-4.395,-17.578,1.000,1.000
1626062894217513.500,25.879,-25.391,3.906,1.000,1.000
1626062894221419.750,-33.691,-51.758,-18.555,1.000,1.000
1626062894225326.000,-74.707,-60.547,-42.969,1.000,1.000
1626062894229232.250,-27.344,-26.855,-23.438,1.000,1.000
1626062894233138.500,13.672,1.953,-9.277,1.000,1.000
1626062894237044.750,-32.715,-29.297,-33.691,1.000,1.000
1626062894240951.000,-66.406,-41.504,-34.180,1.000,1.000
1626062894244857.250,-50.293,-43.457,-27.832,1.000,1.000
1626062894248763.500,-17.578,-21.973,-21.973,1.000,1.000
1626062894252669.750,-22.949,-16.602,-22.949,2.441,1.000
1626062894256576.000,-39.062,-31.738,-34.668,-181.152,1.000
1626062894260482.250,-14.160,-23.438,-17.090,-52.734,1.000
1626062894264388.500,3.906,-42.480,-3.418,153.320,1.000
1626062894268294.750,-23.438,-66.895,-18.066,62.012,1.000
1626062894272201.000,-57.129,-37.109,-36.621,-172.852,1.000
1626062894276107.250,-54.688,-9.277,-38.574,-155.273,1.000
1626062894280013.500,-28.320,-28.809,-31.738,68.848,1.000
1626062894283919.750,-26.367,-31.250,-33.691,92.285,1.000
1626062894287826.000,-41.992,-28.320,-28.809,-120.117,1.000
1626062894291732.250,-41.016,-41.992,-40.527,-154.785,1.000
1626062894295638.500,-16.602,-35.645,-35.156,49.805,1.000
1626062894299544.750,-16.602,-28.809,-19.043,83.008,1.000
1626062894303451.000,-18.066,-48.340,-25.391,122.070,1.000
1626062894307357.250,-49.805,-21.484,-32.227,-99.609,1.000
1626062894311263.500,-72.266,-22.949,-38.086,-195.312,1.000
1626062894315169.750,-53.711,-53.223,-36.133,-4.395,1.000
1626062894319076.000,-23.438,-41.016,-34.180,137.695,1.000
1626062894322982.250,-20.508,-34.668,-35.645,-18.066,1.000
1626062894326888.500,-25.391,-34.180,-10.742,-167.969,1.000
1626062894330794.750,-23.438,-12.695,-2.930,-37.598,1.000
1626062894334701.000,-25.391,-10.254,-22.949,125.488,1.000
1626062894338607.250,-34.180,-21.484,-23.438,26.367,1.000
1626062894342513.500,-47.363,-17.090,-17.578,-164.551,1.000
1626062894346419.750,-55.664,-40.527,-36.621,1.000,1.000
1626062894350326.000,-31.738,-53.223,-38.574,1.000,1.000
1626062894354232.250,-18.555,-33.691,-28.809,1.000,1.000
1626062894358138.500,-40.527,-18.066,-15.137,1.000,1.000
1626062894362044.750,-47.852,-13.184,-11.719,1.000,1.000
1626062894365951.000,-21.973,-14.648,-27.832,1.000,1.000
1626062894369857.250,-4.395,-44.434,-29.785,1.000,1.000
1626062894373763.500,-39.062,-63.965,-52.246,1.000,1.000
1626062894377669.750,-65.918,-35.156,-63.477,1.000,1.000
1626062894381576.000,-45.410,-29.297,-38.086,1.000,1.000
1626062894385482.250,-4.883,-28.809,-5.371,1.000,1.000
1626062894389388.500,-17.578,-17.090,-7.812,1.000,1.000
1626062894393294.750,-65.918,-15.625,-25.391,-211.426,1.000
1626062894397201.000,-64.453,-38.574,-21.973,-95.703,1.000
1626062894401107.250,-27.832,-60.547,-23.926,108.887,1.000
1626062894405013.500,2.441,-32.227,-19.531,58.105,1.000
1626062894408919.750,-21.973,-17.578,-20.996,-161.133,1.000
1626062894412826.000,-57.129,-32.715,-33.203,-154.297,1.000
1626062894416732.250,-31.738,-18.555,-36.133,80.566,1.000
1626062894420638.500,-3.906,-3.418,-33.203,102.051,1.000
1626062894424544.750,-28.809,-22.949,-41.992,-133.301,1.000
1626062894428451.000,-50.781,-35.156,-58.105,-190.430,1.000
1626062894432357.250,-19.531,-21.973,-55.664,40.527,1.000
1626062894436263.500,2.930,-16.113,-35.156,140.625,1.000
1626062894440169.750,20.508,-17.578,-14.160,126.953,1.000
1626062894444076.000,-14.160,-37.598,-28.320,-97.168,1.000
1626062894447982.250,-38.574,-42.480,-34.668,-172.363,1.000
1626062894451888.500,-12.207,-32.227,-20.996,35.156,1.000
1626062894455794.750,2.441,-29.297,-17.090,142.578,1.000
1626062894459701.000,-36.621,-33.691,-30.762,-53.711,1.000
1626062894463607.250,-65.918,-42.480,-38.574,-204.102,1.000
1626062894467513.500,-44.434,-45.410,-29.297,-47.363,1.000
1626062894471419.750,-7.812,-73.242,-32.715,140.137,1.000
1626062894475326.000,-20.996,-71.289,-58.594,18.066,1.000
1626062894479232.250,-53.223,-17.090,-42.969,-185.547,1.000
1626062894483138.500,-50.293,-9.277,-20.508,-100.098,1.000
1626062894487044.750,-31.250,-40.039,-25.879,112.305,1.000
1626062894490951.000,7.812,-25.879,-25.879,95.703,1.000
1626062894494857.250,3.906,-25.391,-30.273,-118.164,1.000
1626062894498763.500,-47.363,-57.129,-47.363,-154.785,1.000
1626062894502669.750,-42.969,-44.922,-27.832,58.105,1.000
1626062894506576.000,12.207,-4.395,-13.184,111.328,1.000
1626062894510482.250,29.297,4.883,-35.645,-89.844,1.000
1626062894514388.500,-16.602,5.371,-48.828,-168.457,1.000
1626062894518294.750,-63.477,-33.203,-63.477,28.320,1.000
1626062894522201.000,-49.316,-49.316,-59.082,148.926,1.000
1626062894526107.250,-23.926,-31.738,-33.691,-40.527,1.000
1626062894530013.500,-27.344,-31.738,-24.902,-211.914,1.000
1626062894533919.750,-32.715,-30.273,-19.531,1.000,1.000
1626062894537826.000,-21.484,-41.992,-27.832,1.000,1.000
1626062894541732.250,-8.789,-34.180,-44.434,1.000,1.000
1626062894545638.500,-22.461,-25.879,-53.711,1.000,1.000
1626062894549544.750,-43.945,-36.621,-57.129,1.000,1.000
1626062894553451.000,-34.668,-37.109,-54.199,1.000,1.000
1626062894557357.250,-8.789,-40.527,-39.551,1.000,1.000
1626062894561263.500,-21.973,-42.969,-22.461,1.000,1.000
1626062894565169.750,-61.035,-47.852,-34.180,1.000,1.000
1626062894569076.000,-68.359,-37.598,-54.199,1.000,1.000
1626062894572982.250,-39.062,-17.090,-49.805,1.000,1.000
1626062894576888.500,-28.320,-22.461,-42.480,1.000,1.000
1626062894580794.750,-50.293,-38.086,-50.781,-145.508,1.000
1626062894584701.000,-42.480,-36.133,-33.203,-174.316,1.000
1626062894588607.250,-3.906,-27.344,-23.926,62.012,1.000
1626062894592513.500,-6.348,-39.551,-57.617,134.766,1.000
1626062894596419.750,-42.480,-58.594,-74.707,-84.961,1.000
1626062894600326.000,-71.289,-48.340,-73.730,-221.191,1.000
1626062894604232.250,-53.711,-14.160,-56.641,-51.270,1.000
1626062894608138.500,-32.227,-17.578,-34.180,112.305,1.000
1626062894612044.750,-54.688,-42.480,-42.969,-33.203,1.000
1626062894615951.000,-57.129,-13.184,-29.785,-199.707,1.000
1626062894619857.250,-31.738,-12.695,-23.438,-78.613,1.000
1626062894623763.500,1.465,-30.762,-20.020,138.184,1.000
1626062894627669.750,3.418,-2.441,-25.391,160.645,1.000
1626062894631576.000,-15.137,-16.113,-31.250,33.203,1.000
1626062894635482.250,-44.922,-27.344,-22.949,-174.805,1.000
1626062894639388.500,-41.504,-26.367,-17.578,-97.168,1.000
1626062894643294.750,-11.719,-23.926,-8.789,124.512,1.000
1626062894647201.000,-27.344,-48.340,-30.762,75.195,1.000
1626062894651107.250,-71.289,-57.617,-37.598,-165.527,1.000
1626062894655013.500,-74.707,-46.387,-21.973,-173.340,1.000
1626062894658919.750,-49.316,-49.316,-37.109,48.340,1.000
1626062894662826.000,-22.949,-43.945,-51.758,108.398,1.000
1626062894666732.250,-25.879,-34.180,-40.527,-82.520,1.000
1626062894670638.500,-44.922,-30.273,-30.762,-174.805,1.000
1626062894674544.750,-33.691,-34.668,-37.109,1.000,1.000
1626062894678451.000,-0.488,-18.066,-30.273,1.000,1.000
1626062894682357.250,-10.742,-33.691,-19.531,1.000,1.000
1626062894686263.500,-49.805,-53.223,-39.551,1.000,1.000
1626062894690169.750,-43.457,-37.598,-49.316,1.000,1.000
1626062894694076.000,-15.625,-32.227,-46.875,1.000,1.000
1626062894697982.250,-19.043,-29.297,-37.109,1.000,1.000
1626062894701888.500,-46.387,-49.316,-24.902,1.000,1.000
1626062894705794.750,-48.828,-64.941,-40.527,1.000,1.000
1626062894709701.000,-20.996,-51.270,-57.129,1.000,1.000
1626062894713607.250,-18.555,-29.785,-50.781,1.000,1.000
1626062894717513.500,-26.367,-18.555,-25.391,1.000,1.000
1626062894721419.750,-34.180,-30.273,-23.438,1.000,1.000
1626062894725326.000,-18.066,-30.273,-21.484,1.000,1.000
1626062894729232.250,-12.207,-13.672,-22.461,1.000,1.000
1626062894733138.500,-52.734,-22.461,-48.340,1.000,1.000
1626062894737044.750,-68.848,-20.508,-54.199,1.000,1.000
1626062894740951.000,-37.598,-4.883,-35.156,1.000,1.000
1626062894744857.250,-26.367,-20.020,-27.832,1.000,1.000
1626062894748763.500,-40.527,-29.785,-47.363,1.000,1.000
1626062894752669.750,-61.035,-40.039,-71.777,1.000,1.000
1626062894756576.000,-40.527,-52.734,-55.176,1.000,1.000
1626062894760482.250,26.855,-45.410,-1.465,1.000,1.000
1626062894764388.500,35.645,-33.203,1.953,1.000,1.000
1626062894768294.750,-25.879,-35.156,-47.852,1.000,1.000
1626062894772201.000,-41.016,-59.570,-50.781,1.000,1.000
1626062894776107.250,-17.090,-48.828,-43.945,1.000,1.000
1626062894780013.500,-13.184,-6.836,-40.039,1.000,1.000
1626062894783919.750,-33.203,-1.465,-20.508,1.000,1.000
1626062894787826.000,-63.477,-41.016,-29.785,1.000,1.000
1626062894791732.250,-31.738,-39.551,-29.785,1.000,1.000
1626062894795638.500,-1.953,-22.949,-20.020,1.000,1.000
1626062894799544.750,-15.625,-22.461,-6.836,1.000,1.000
1626062894803451.000,-12.207,-14.648,-9.277,1.000,1.000
1626062894807357.250,2.441,-38.574,-51.758,1.000,1.000
1626062894811263.500,-3.906,-55.176,-52.246,1.000,1.000
1626062894815169.750,-38.086,-40.039,-31.250,-26.367,1.000
1626062894819076.000,-66.406,-26.855,-27.344,-218.262,1.000
1626062894822982.250,-60.059,-32.715,-20.508,-114.746,1.000
1626062894826888.500,-34.180,-61.523,-37.109,106.934,1.000
1626062894830794.750,-30.273,-41.992,-58.594,57.129,1.000
1626062894834701.000,-51.270,-9.766,-35.645,-166.504,1.000
1626062894838607.250,-55.176,-24.902,-24.414,-155.762,1.000
1626062894842513.500,-19.531,-37.598,-29.297,73.242,1.000
1626062894846419.750,23.438,-7.324,-17.578,140.137,1.000
1626062894850326.000,2.441,8.301,-19.043,-76.172,1.000
1626062894854232.250,-54.199,-14.648,-31.738,-192.871,1.000
1626062894858138.500,-48.828,-29.785,-33.203,1.953,1.000
1626062894862044.750,-32.715,-36.133,-14.648,117.188,1.000
1626062894865951.000,-1.953,-25.391,-3.906,-72.266,1.000
1626062894869857.250,-33.203,-32.715,-2.930,-211.426,1.000
1626062894873763.500,-50.781,-24.902,-19.043,-46.387,1.000
1626062894877669.750,-4.883,-19.043,-4.395,125.000,1.000
1626062894881576.000,15.137,-20.508,0.000,11.230,1.000
1626062894885482.250,-14.160,-27.344,-14.648,-169.922,1.000
1626062894889388.500,-56.152,-54.199,-29.785,-83.984,1.000
1626062894893294.750,-53.711,-47.852,-42.969,133.789,1.000
1626062894897201.000,-25.391,-27.344,-30.273,84.473,1.000
1626062894901107.250,-20.020,-23.926,-3.906,-158.691,1.000
1626062894905013.500,-41.992,-34.180,-1.465,-169.434,1.000
1626062894908919.750,-52.734,-44.434,-13.672,1.000,1.000
1626062894912826.000,-11.230,-22.461,-5.371,1.000,1.000
1626062894916732.250,17.578,-16.113,-4.395,1.000,1.000
1626062894920638.500,-15.625,-49.805,-16.602,1.000,1.000
1626062894924544.750,-47.363,-67.383,-24.414,1.000,1.000
1626062894928451.000,-15.137,-42.969,-21.973,1.000,1.000
1626062894932357.250,20.020,-26.855,-17.578,1.000,1.000
1626062894936263.500,-7.324,-29.297,-21.973,1.000,1.000
1626062894940169.750,-53.223,-30.762,-19.043,1.000,1.000
1626062894944076.000,-59.570,-38.086,-25.879,1.000,1.000
1626062894947982.250,-36.621,-49.805,-32.715,1.000,1.000
1626062894951888.500,-29.297,-41.992,-26.367,1.000,1.000
1626062894955794.750,-42.969,-20.508,-18.555,-181.641,1.000
1626062894959701.000,-24.902,-4.395,-7.812,-57.617,1.000
1626062894963607.250,13.184,-15.625,-14.648,161.133,1.000
1626062894967513.500,-13.672,-77.637,-31.738,62.988,1.000
1626062894971419.750,-51.270,-80.566,-20.508,-174.316,1.000
1626062894975326.000,-49.316,-20.508,-22.949,-135.254,1.000
1626062894979232.250,-22.949,-13.672,-62.012,93.750,1.000
1626062894983138.500,-19.043,-20.996,-81.055,100.586,1.000
1626062894987044.750,-48.828,-44.922,-44.922,-125.488,1.000
1626062894990951.000,-61.035,-49.805,-23.926,-184.570,1.000
1626062894994857.250,-35.156,-23.438,-30.273,25.879,1.000
1626062894998763.500,-5.859,-13.184,-25.879,129.395,1.000
1626062895002669.750,-21.484,-45.410,-37.598,100.586,1.000
1626062895006576.000,-15.137,-24.414,-12.695,-84.473,1.000
1626062895010482.250,-34.180,-9.766,-20.508,-171.387,1.000
1626062895014388.500,-40.039,-24.902,-22.461,3.906,1.000
1626062895018294.750,-10.742,-17.578,-19.531,129.395,1.000
1626062895022201.000,-18.066,-38.574,-29.297,-33.203,1.000
1626062895026107.250,-47.363,-61.035,-37.598,-193.848,1.000
1626062895030013.500,-20.996,-14.648,-24.902,-33.203,1.000
1626062895033919.750,11.719,9.277,-12.695,154.785,1.000
1626062895037826.000,-5.859,-6.348,-20.020,22.949,1.000
1626062895041732.250,-31.250,-11.230,-29.785,-175.293,1.000
1626062895045638.500,-44.434,-46.387,-49.805,-104.492,1.000
1626062895049544.750,-16.113,-18.555,-21.973,93.262,1.000
1626062895053451.000,-17.578,-29.785,-36.621,78.613,1.000
1626062895057357.250,-41.016,-39.551,-37.598,-135.254,1.000
1626062895061263.500,-67.383,-46.387,-31.738,-166.016,1.000
1626062895065169.750,-46.875,-31.738,-31.738,66.406,1.000
1626062895069076.000,-8.789,-45.898,-32.227,119.141,1.000
1626062895072982.250,-14.648,-62.988,-31.738,-114.258,1.000
1626062895076888.500,-53.223,-53.711,-29.785,-197.266,1.000
1626062895080794.750,-59.082,-20.996,-12.695,19.531,1.000
1626062895084701.000,-27.344,-7.324,-1.953,153.320,1.000
1626062895088607.250,-16.602,-30.273,-12.207,-23.926,1.000
1626062895092513.500,-28.809,-29.785,-11.230,-173.340,1.000
1626062895096419.750,-65.430,-40.527,-25.391,-189.941,1.000
1626062895100326.000,-57.129,-37.109,-62.500,-13.184,1.000
1626062895104232.250,-24.414,-28.809,-45.410,147.949,1.000
1626062895108138.500,-33.691,-35.156,-20.020,-3.906,1.000
1626062895112044.750,-61.523,-40.039,-40.527,-187.012,1.000
1626062895115951.000,-50.781,-41.992,-27.832,-67.871,1.000
1626062895119857.250,-9.766,-19.531,5.371,148.926,1.000
1626062895123763.500,-16.113,-30.273,-8.789,72.266,1.000
1626062895127669.750,-49.316,-30.762,-23.926,-151.367,1.000
1626062895131576.000,-47.363,-10.254,-21.484,-120.605,1.000
1626062895135482.250,-33.203,-32.715,-31.738,88.379,1.000
1626062895139388.500,-18.555,-27.344,-23.926,102.051,1.000
1626062895143294.750,-35.156,-25.391,-11.719,1.000,1.000
1626062895147201.000,-64.453,-40.039,-32.227,1.000,1.000
1626062895151107.250,-47.852,-38.574,-38.574,1.000,1.000
1626062895155013.500,-20.020,-42.480,-22.949,1.000,1.000
1626062895158919.750,-32.715,-45.410,-30.762,1.000,1.000
1626062895162826.000,-57.617,-50.781,-36.621,1.000,1.000
1626062895166732.250,-34.668,-29.785,-27.344,1.000,1.000
1626062895170638.500,-3.418,-21.484,-38.574,1.000,1.000
1626062895174544.750,-17.090,-43.457,-42.480,1.000,1.000
1626062895178451.000,-50.781,-34.668,-26.855,1.000,1.000
1626062895182357.250,-41.504,-5.859,-3.906,1.000,1.000
1626062895186263.500,-11.719,5.371,-1.953,1.000,1.000
1626062895190169.750,-24.414,-8.301,-20.508,123.047,1.000
1626062895194076.000,-40.527,-39.551,-39.551,-0.977,1.000
1626062895197982.250,-61.035,-48.828,-34.180,-196.777,1.000
1626062895201888.500,-55.176,-59.082,-40.527,-116.211,1.000
1626062895205794.750,-6.836,-42.969,-24.902,125.000,1.000
1626062895209701.000,7.324,-15.625,-12.695,113.770,1.000
1626062895213607.250,-32.227,-22.949,-45.410,-124.512,1.000
1626062895217513.500,-54.199,-31.738,-61.035,-157.715,1.000
1626062895221419.750,-33.203,-33.691,-43.457,62.988,1.000
1626062895225326.000,4.883,-3.418,-0.977,144.531,1.000
1626062895229232.250,6.836,4.395,28.320,-42.969,1.000
1626062895233138.500,-36.133,-24.902,-4.395,-166.504,1.000
1626062895237044.750,-69.336,-53.711,-52.246,1.000,1.000
1626062895240951.000,-49.316,-49.316,-55.176,1.000,1.000
1626062895244857.250,-31.738,-32.227,-30.273,1.000,1.000
1626062895248763.500,-45.410,-39.062,-33.691,1.000,1.000
1626062895252669.750,-37.109,-33.203,-41.504,1.000,1.000
1626062895256576.000,-18.555,-22.461,-39.551,1.000,1.000
1626062895260482.250,-18.066,-11.230,-26.367,1.000,1.000
1626062895264388.500,-35.645,-13.184,-18.555,1.000,1.000
1626062895268294.750,-26.855,-8.789,1.465,1.000,1.000
1626062895272201.000,12.207,1.953,17.578,1.000,1.000
1626062895276107.250,-3.906,-23.438,-13.672,1.000,1.000
1626062895280013.500,-49.316,-65.430,-29.297,1.000,1.000
1626062895283919.750,-43.945,-73.242,-26.367,1.000,1.000
1626062895287826.000,-2.441,-43.945,-32.715,1.000,1.000
1626062895291732.250,-0.977,-38.086,-43.945,1.000,1.000
1626062895295638.500,-56.641,-31.738,-64.941,1.000,1.000
1626062895299544.750,-59.082,3.418,-38.574,1.000,1.000
1626062895303451.000,-18.555,-9.766,-13.672,1.000,1.000
1626062895307357.250,-0.977,-31.738,-22.949,1.000,1.000
1626062895311263.500,-3.418,-16.602,-6.348,1.000,1.000
1626062895315169.750,-42.480,-27.832,-1.953,1.000,1.000
1626062895319076.000,-59.570,-34.668,-25.391,1.000,1.000
1626062895322982.250,-37.598,-30.273,-45.410,1.000,1.000
1626062895326888.500,-19.531,-24.414,-38.574,1.000,1.000
1626062895330794.750,-33.691,-21.484,-20.508,1.000,1.000
1626062895334701.000,-39.062,-35.645,-27.832,1.000,1.000
1626062895338607.250,-22.949,-52.734,-43.457,1.000,1.000
1626062895342513.500,-8.301,-42.969,-25.391,1.000,1.000
1626062895346419.750,-16.602,-20.020,-8.789,1.000,1.000
1626062895350326.000,-41.992,-18.555,-35.645,1.000,1.000
1626062895354232.250,-18.555,-30.273,-37.109,1.000,1.000
1626062895358138.500,-9.766,-41.504,-25.879,1.000,1.000
1626062895362044.750,-36.133,-42.480,-25.391,1.000,1.000
1626062895365951.000,-49.805,-16.602,-17.578,1.000,1.000
1626062895369857.250,-43.945,-18.555,-19.043,1.000,1.000
1626062895373763.500,-20.020,-22.949,-14.648,1.000,1.000
1626062895377669.750,-31.738,-26.855,-30.273,0.000,1.000
1626062895381576.000,-69.824,-61.035,-44.434,-208.984,1.000
1626062895385482.250,-52.246,-61.523,-23.438,-100.098,1.000
1626062895389388.500,-25.879,-45.898,-26.367,110.840,1.000
1626062895393294.750,-20.508,-30.762,-12.207,52.246,1.000
1626062895397201.000,-44.922,-48.340,-23.926,-149.902,1.000
1626062895401107.250,-57.129,-61.035,-53.223,-139.648,1.000
1626062895405013.500,-31.738,-40.039,-20.508,77.637,1.000
1626062895408919.750,-31.250,-33.691,-14.648,99.121,1.000
1626062895412826.000,-42.480,-16.113,-16.113,-117.188,1.000
1626062895416732.250,-58.594,-8.301,-16.602,-197.266,1.000
1626062895420638.500,-39.062,-3.906,-18.555,15.625,1.000
1626062895424544.750,-8.789,-10.254,-16.113,83.496,1.000
1626062895428451.000,-24.902,-33.203,-36.621,117.188,1.000
1626062895432357.250,-61.035,-54.688,-41.504,-111.816,1.000
1626062895436263.500,-65.918,-41.016,-37.109,-205.078,1.000
1626062895440169.750,-29.785,-20.020,-31.250,0.000,1.000
1626062895444076.000,-12.207,-26.367,-31.738,139.648,1.000
1626062895447982.250,-31.738,-50.781,-34.668,-26.367,1.000
1626062895451888.500,-48.828,-38.574,-39.062,-196.777,1.000
1626062895455794.750,-39.062,-45.410,-40.039,-75.195,1.000
1626062895459701.000,-16.113,-66.406,-24.414,118.164,1.000
1626062895463607.250,-16.113,-42.480,-28.809,30.273,1.000
1626062895467513.500,-47.852,-7.812,-42.969,-186.035,1.000
1626062895471419.750,-64.941,-19.531,-48.340,1.000,1.000
1626062895475326.000,-39.062,-45.410,-41.504,1.000,1.000
1626062895479232.250,-24.414,-21.484,-40.527,1.000,1.000
1626062895483138.500,-41.016,-16.113,-38.086,1.000,1.000
1626062895487044.750,-46.387,-34.180,-11.719,1.000,1.000
1626062895490951.000,-34.668,-55.664,-22.949,1.000,1.000
1626062895494857.250,-23.438,-32.227,-35.645,1.000,1.000
1626062895498763.500,-51.270,-5.859,-21.484,1.000,1.000
1626062895502669.750,-90.820,-32.227,-21.484,1.000,1.000
1626062895506576.000,-68.848,-42.480,-16.602,1.000,1.000
1626062895510482.250,-38.574,-39.062,-24.414,1.000,1.000
1626062895514388.500,-48.828,-38.086,-38.086,1.000,1.000
1626062895518294.750,-68.848,-39.062,-45.898,-209.961,1.000
1626062895522201.000,-45.410,-35.645,-38.574,-88.379,1.000
1626062895526107.250,-2.441,-39.062,-31.250,137.207,1.000
1626062895530013.500,-18.066,-66.895,-62.012,50.781,1.000
1626062895533919.750,-41.016,-47.363,-57.617,-168.457,1.000
1626062895537826.000,-30.273,-14.160,-19.531,-126.953,1.000
1626062895541732.250,-9.766,-10.742,-18.555,97.168,1.000
1626062895545638.500,-6.836,-27.344,-36.621,109.863,1.000
1626062895549544.750,-48.828,-52.246,-45.898,-130.371,1.000
1626062895553451.000,-65.918,-41.504,-34.668,-189.453,1.000
1626062895557357.250,-37.598,-36.621,-17.090,26.855,1.000
1626062895561263.500,-25.391,-50.293,-20.996,117.188,1.000
1626062895565169.750,-27.832,-70.312,-36.621,107.422,1.000
1626062895569076.000,-37.598,-69.824,-49.316,-93.750,1.000
1626062895572982.250,-49.316,-62.988,-42.969,-178.223,1.000
1626062895576888.500,-43.457,-61.523,-49.316,1.465,1.000
1626062895580794.750,-9.277,-26.367,-41.016,139.648,1.000
1626062895584701.000,-20.508,-24.414,-34.180,-23.438,1.000
1626062895588607.250,-55.176,-20.996,-29.297,-196.777,1.000
1626062895592513.500,-59.570,-15.137,-26.855,-74.707,1.000
1626062895596419.750,-27.832,-29.785,-33.691,121.094,1.000
1626062895600326.000,-9.277,-29.297,-37.109,37.109,1.000
1626062895604232.250,-38.574,-26.367,-26.367,-169.922,1.000
1626062895608138.500,-39.062,-30.273,-17.090,-107.910,1.000
1626062895612044.750,-8.301,-17.090,-40.527,1.000,1.000
1626062895615951.000,-7.812,-25.879,-43.457,1.000,1.000
1626062895619857.250,-40.527,-47.852,-23.438,1.000,1.000
1626062895623763.500,-55.664,-44.434,-15.137,1.000,1.000
1626062895627669.750,-36.621,-39.551,-18.066,1.000,1.000
1626062895631576.000,-21.973,-42.969,-23.438,1.000,1.000
1626062895635482.250,-23.926,-37.109,-13.672,1.000,1.000
1626062895639388.500,-37.598,-21.484,-10.254,1.000,1.000
1626062895643294.750,-19.043,5.859,-16.602,1.000,1.000
1626062895647201.000,4.395,18.066,-18.066,1.000,1.000
1626062895651107.250,-23.926,-8.789,-43.945,1.000,1.000
1626062895655013.500,-56.641,-27.344,-57.617,1.000,1.000
1626062895658919.750,-48.340,-37.109,-40.039,1.000,1.000
1626062895662826.000,-20.020,-45.410,-18.555,1.000,1.000
1626062895666732.250,-21.484,-46.387,-24.902,1.000,1.000
1626062895670638.500,-57.129,-45.410,-48.340,1.000,1.000
1626062895674544.750,-49.316,-30.762,-35.645,1.000,1.000
1626062895678451.000,-5.859,-29.297,-17.578,1.000,1.000
1626062895682357.250,5.859,-39.551,-17.090,1.000,1.000
1626062895686263.500,-25.391,-62.988,-21.484,1.000,1.000
1626062895690169.750,-49.316,-65.918,-21.484,1.000,1.000
1626062895694076.000,-27.344,-28.320,-12.207,1.000,1.000
1626062895697982.250,-12.207,-1.953,-3.906,1.000,1.000
1626062895701888.500,-36.133,-4.883,-19.531,1.000,1.000
1626062895705794.750,-62.012,-11.230,-49.316,1.000,1.000
1626062895709701.000,-50.293,-8.301,-43.945,1.000,1.000
1626062895713607.250,-33.203,-27.832,-34.180,1.000,1.000
1626062895717513.500,-38.086,-48.340,-52.246,1.000,1.000
1626062895721419.750,-47.363,-60.059,-41.504,1.000,1.000
1626062895725326.000,-52.246,-58.594,-16.602,1.000,1.000
1626062895729232.250,-24.414,-25.391,-6.348,1.000,1.000
1626062895733138.500,-3.418,-32.715,1.465,1.000,1.000
1626062895737044.750,-28.809,-36.133,-9.277,1.000,1.000
1626062895740951.000,-39.551,-19.043,-51.758,1.000,1.000
1626062895744857.250,-25.391,-35.645,-66.895,1.000,1.000
1626062895748763.500,-9.766,-15.625,-27.832,1.000,1.000
1626062895752669.750,-33.203,-17.090,-29.297,-125.488,1.000
1626062895756576.000,-53.711,-50.781,-41.016,-196.289,1.000
1626062895760482.250,-16.113,-40.527,3.418,32.715,1.000
1626062895764388.500,-1.465,-37.109,0.488,136.230,1.000
1626062895768294.750,-19.043,-13.672,-14.648,-60.059,1.000
1626062895772201.000,-30.273,8.789,-11.230,-187.500,1.000
1626062895776107.250,-24.414,-19.043,-17.578,-25.879,1.000
1626062895780013.500,-8.301,-37.598,-27.344,139.648,1.000
1626062895783919.750,-16.602,-42.969,-41.992,12.207,1.000
1626062895787826.000,-35.645,-19.531,-33.691,-180.176,1.000
1626062895791732.250,-27.344,-7.324,-23.926,-83.008,1.000
1626062895795638.500,-9.277,-31.250,-25.391,126.953,1.000
1626062895799544.750,-14.160,-35.645,-22.949,128.418,1.000
1626062895803451.000,5.371,-22.461,-30.273,37.109,1.000
1626062895807357.250,-21.484,-17.578,-40.527,-166.016,1.000
1626062895811263.500,-53.223,-45.898,-37.109,-128.418,1.000
1626062895815169.750,-25.391,-69.824,-22.949,90.332,1.000
1626062895819076.000,-4.395,-76.172,-16.113,94.727,1.000
1626062895822982.250,-30.273,-34.668,-19.531,-125.488,1.000
1626062895826888.500,-33.691,8.789,-20.996,-146.484,1.000
1626062895830794.750,-7.324,11.230,-17.090,80.078,1.000
1626062895834701.000,-11.719,-7.324,-31.250,122.070,1.000
1626062895838607.250,-40.039,-44.922,-35.156,-99.609,1.000
1626062895842513.500,-43.457,-44.434,-11.719,-181.152,1.000
1626062895846419.750,-19.531,-25.391,-13.184,1.000,1.000
1626062895850326.000,-2.441,-27.832,-31.738,1.000,1.000
1626062895854232.250,-25.879,-30.762,-33.203,1.000,1.000
1626062895858138.500,-58.594,-40.527,-41.016,1.000,1.000
1626062895862044.750,-42.480,-25.391,-47.852,1.000,1.000
1626062895865951.000,-21.484,-11.230,-24.414,1.000,1.000
1626062895869857.250,-7.812,-17.090,-0.488,1.000,1.000
1626062895873763.500,-15.137,-48.340,7.812,1.000,1.000
1626062895877669.750,-31.250,-74.707,10.254,1.000,1.000
1626062895881576.000,-28.320,-51.758,-16.113,1.000,1.000
1626062895885482.250,-39.062,-42.480,-48.828,1.000,1.000
1626062895889388.500,-57.129,-26.367,-48.340,1.000,1.000
1626062895893294.750,-64.453,-10.254,-41.016,1.000,1.000
1626062895897201.000,-43.457,-23.438,-37.109,1.000,1.000
1626062895901107.250,-29.297,-47.852,-41.992,1.000,1.000
1626062895905013.500,-49.805,-42.969,-41.992,1.000,1.000
1626062895908919.750,-56.152,-23.926,-30.762,1.000,1.000
1626062895912826.000,-25.879,-36.621,-34.668,1.000,1.000
1626062895916732.250,-7.812,-46.387,-36.621,1.000,1.000
1626062895920638.500,-26.367,-39.551,-29.297,1.000,1.000
1626062895924544.750,-26.855,-7.812,-1.465,1.000,1.000
1626062895928451.000,-23.438,0.488,3.906,1.000,1.000
1626062895932357.250,-26.367,-28.809,-31.738,1.000,1.000
1626062895936263.500,-29.785,-38.574,-63.477,1.000,1.000
1626062895940169.750,-53.711,-32.715,-55.664,1.000,1.000
1626062895944076.000,-55.664,-38.574,-41.016,1.000,1.000
1626062895947982.250,-23.926,-25.391,-28.809,1.000,1.000
1626062895951888.500,-7.324,-15.137,-18.555,1.000,1.000
1626062895955794.750,-32.715,-38.086,-38.086,1.000,1.000
1626062895959701.000,-59.570,-43.945,-55.664,1.000,1.000
1626062895963607.250,-23.438,-19.043,-40.527,1.000,1.000
1626062895967513.500,8.789,-5.859,-28.320,1.000,1.000
1626062895971419.750,-7.324,-9.766,-24.902,1.000,1.000
1626062895975326.000,-40.527,-35.156,-46.875,1.000,1.000
1626062895979232.250,-48.340,-50.781,-57.129,1.000,1.000
1626062895983138.500,-12.695,-37.109,-37.109,1.000,1.000
1626062895987044.750,-0.488,-14.648,-34.180,23.438,1.000
1626062895990951.000,-39.062,-4.395,-57.129,-186.523,1.000
1626062895994857.250,-59.082,-23.926,-61.035,-123.047,1.000
1626062895998763.500,-25.391,-32.227,-41.016,104.980,1.000
1626062896002669.750,-4.883,-25.391,-37.598,78.613,1.000
1626062896006576.000,-27.344,-25.879,-39.551,-140.625,1.000
1626062896010482.250,-21.484,1.465,-18.066,-124.023,1.000
1626062896014388.500,-5.859,-4.395,-18.066,89.355,1.000
1626062896018294.750,-13.184,-36.133,-36.133,113.281,1.000
1626062896022201.000,-30.762,-25.879,-35.156,-97.168,1.000
1626062896026107.250,-44.434,-41.016,-38.574,-187.988,1.000
1626062896030013.500,-21.484,-22.949,-61.035,18.066,1.000
1626062896033919.750,-31.738,-46.387,-64.453,135.254,1.000
1626062896037826.000,-16.113,-43.457,-49.316,-55.664,1.000
1626062896041732.250,-21.484,-27.344,-38.086,-211.914,1.000
1626062896045638.500,-43.457,-34.668,-20.020,-65.918,1.000
1626062896049544.750,-26.367,-13.672,4.883,129.883,1.000
1626062896053451.000,11.230,7.324,8.789,23.926,1.000
1626062896057357.250,-8.301,-25.879,-13.184,-181.152,1.000
1626062896061263.500,-34.180,-33.691,-27.832,-118.164,1.000
1626062896065169.750,-26.855,-15.137,-40.039,89.844,1.000
1626062896069076.000,-4.395,-22.461,-25.879,75.195,1.000
1626062896072982.250,-26.855,-43.457,-24.414,-141.602,1.000
1626062896076888.500,-66.406,-34.180,-33.203,-171.875,1.000
1626062896080794.750,-65.430,-17.578,-38.086,1.000,1.000
1626062896084701.000,-41.992,-25.879,-51.270,1.000,1.000
1626062896088607.250,-17.090,-34.180,-55.664,1.000,1.000
1626062896092513.500,-25.391,-38.574,-57.129,1.000,1.000
1626062896096419.750,-38.086,-33.203,-45.410,1.000,1.000
1626062896100326.000,-20.996,-18.555,-43.457,1.000,1.000
1626062896104232.250,-30.273,-16.113,-48.340,1.000,1.000
1626062896108138.500,-54.199,-13.672,-29.297,1.000,1.000
1626062896112044.750,-71.289,-19.531,-6.348,1.000,1.000
1626062896115951.000,-58.105,-27.832,-19.043,1.000,1.000
1626062896119857.250,-24.414,-24.414,-44.434,1.000,1.000
1626062896123763.500,-31.250,-36.621,-41.992,1.000,1.000
1626062896127669.750,-55.664,-61.523,-28.320,-199.707,1.000
1626062896131576.000,-50.781,-33.203,-24.902,-98.145,1.000
1626062896135482.250,-27.344,-6.348,-33.691,104.980,1.000
1626062896139388.500,-15.625,-41.992,-29.297,55.176,1.000
1626062896143294.750,-40.527,-47.363,-25.879,-163.574,1.000
1626062896147201.000,-53.223,-18.066,-34.180,-153.809,1.000
1626062896151107.250,-19.043,5.371,-28.320,90.820,1.000
1626062896155013.500,-13.672,6.348,-38.086,104.492,1.000
1626062896158919.750,-53.223,-17.578,-41.016,-139.160,1.000
1626062896162826.000,-56.152,-27.344,-27.344,-190.918,1.000
1626062896166732.250,-15.625,-31.738,-20.508,35.645,1.000
1626062896170638.500,-3.906,-40.527,-18.066,136.230,1.000
1626062896174544.750,-17.090,-44.922,9.277,106.445,1.000
1626062896178451.000,-48.340,-32.227,-9.277,-112.305,1.000
1626062896182357.250,-70.312,-31.738,-33.203,-208.008,1.000
1626062896186263.500,-46.387,-36.621,-29.785,-8.789,1.000
1626062896190169.750,-3.906,-24.902,-20.020,146.973,1.000
1626062896194076.000,0.977,0.000,-22.461,2.930,1.000
1626062896197982.250,-24.902,-34.180,-34.180,-171.875,1.000
1626062896201888.500,-41.016,-64.453,-40.039,-54.199,1.000
1626062896205794.750,-29.297,-41.016,-31.250,127.441,1.000
1626062896209701.000,-38.086,-32.227,-18.066,16.113,1.000
1626062896213607.250,-72.754,-29.297,-17.090,-195.801,1.000
1626062896217513.500,-68.359,-9.766,-17.578,-122.070,1.000
1626062896221419.750,-43.457,-14.160,-40.039,1.000,1.000
1626062896225326.000,-29.785,-37.598,-47.363,1.000,1.000
1626062896229232.250,-33.203,-43.945,-19.531,1.000,1.000
1626062896233138.500,-28.320,-44.434,-1.953,1.000,1.000
1626062896237044.750,-17.578,-49.316,-30.273,1.000,1.000
1626062896240951.000,-26.367,-45.898,-66.406,1.000,1.000
1626062896244857.250,-34.668,-12.207,-61.035,1.000,1.000
1626062896248763.500,-57.617,-12.695,-38.574,1.000,1.000
1626062896252669.750,-59.082,-45.898,-27.832,1.000,1.000
1626062896256576.000,-32.227,-33.203,-26.367,1.000,1.000
1626062896260482.250,-43.945,-21.973,-44.434,1.000,1.000
1626062896264388.500,-62.012,-23.438,-40.527,1.000,1.000
1626062896268294.750,-44.434,-33.203,-35.156,1.000,1.000
1626062896272201.000,-30.273,-49.805,-57.617,1.000,1.000
1626062896276107.250,-27.344,-68.359,-60.547,1.000,1.000
1626062896280013.500,-23.926,-63.477,-39.062,1.000,1.000
1626062896283919.750,-20.996,-32.715,-31.738,1.000,1.000
1626062896287826.000,-7.324,-24.414,-46.387,1.000,1.000
1626062896291732.250,0.488,-14.160,-43.457,1.000,1.000
1626062896295638.500,-27.344,4.883,-39.551,1.000,1.000
1626062896299544.750,-62.988,-19.531,-44.434,1.000,1.000
1626062896303451.000,-42.480,-26.367,-32.227,1.000,1.000
1626062896307357.250,-15.137,-37.598,-17.578,1.000,1.000
1626062896311263.500,-35.156,-64.941,-28.320,1.000,1.000
1626062896315169.750,-50.293,-40.527,-38.574,1.000,1.000
1626062896319076.000,-9.766,-21.973,-22.949,1.000,1.000
1626062896322982.250,23.926,-43.945,-7.812,1.000,1.000
1626062896326888.500,-0.977,-27.344,-35.645,1.000,1.000
1626062896330794.750,-38.574,-8.789,-62.988,1.000,1.000
1626062896334701.000,-51.270,-36.133,-45.898,1.000,1.000
1626062896338607.250,-29.297,-24.902,-43.457,1.000,1.000
1626062896342513.500,-27.832,-11.719,-55.664,1.000,1.000
1626062896346419.750,-48.828,-43.457,-49.805,1.000,1.000
1626062896350326.000,-47.363,-74.707,-32.715,1.000,1.000
1626062896354232.250,-17.578,-62.012,-27.344,1.000,1.000
1626062896358138.500,6.836,-32.227,-20.020,1.000,1.000
1626062896362044.750,-26.855,-29.785,-26.367,-115.723,1.000
1626062896365951.000,-44.922,-20.508,-21.484,-190.918,1.000
1626062896369857.250,-34.668,-22.949,-28.320,8.789,1.000
1626062896373763.500,-33.203,-44.434,-58.105,102.539,1.000
1626062896377669.750,-38.086,-41.992,-50.781,-77.148,1.000
1626062896381576.000,-47.852,-39.062,-33.203,-203.125,1.000
1626062896385482.250,-34.180,-43.457,-45.898,-42.969,1.000
1626062896389388.500,-14.648,-44.434,-42.480,129.883,1.000
1626062896393294.750,-25.879,-34.668,-35.156,9.766,1.000
1626062896397201.000,-45.898,-32.227,-49.805,-188.477,1.000
1626062896401107.250,-23.438,-33.203,-27.832,-87.891,1.000
1626062896405013.500,1.953,-25.879,-11.719,129.395,1.000
1626062896408919.750,-35.645,-56.641,-56.641,115.723,1.000
1626062896412826.000,-48.828,-61.035,-54.688,6.836,1.000
1626062896416732.250,-57.617,-23.438,-52.246,-189.941,1.000
1626062896420638.500,-42.969,-12.695,-22.461,-119.141,1.000
1626062896424544.750,-21.973,-35.156,2.441,101.074,1.000
1626062896428451.000,-29.297,-50.293,-23.926,73.730,1.000
1626062896432357.250,-49.805,-48.340,-37.598,-154.785,1.000
1626062896436263.500,-69.824,-44.922,-31.738,-201.660,1.000
1626062896440169.750,-39.551,-25.391,-33.203,28.320,1.000
1626062896444076.000,-1.953,-20.996,-34.180,130.859,1.000
1626062896447982.250,-13.184,-22.949,-21.484,-55.664,1.000
1626062896451888.500,-46.875,-18.555,-15.137,-176.758,1.000
1626062896455794.750,-30.273,-35.156,-18.066,0.000,1.000
1626062896459701.000,0.000,-50.293,-21.484,154.297,1.000
1626062896463607.250,-18.555,-43.457,-32.227,-8.789,1.000
1626062896467513.500,-47.852,-20.508,-40.039,-195.312,1.000
1626062896471419.750,-55.664,-14.648,-35.645,-91.309,1.000
1626062896475326.000,-42.969,-32.227,-33.203,104.004,1.000
1626062896479232.250,-36.621,-31.250,-36.133,42.969,1.000
1626062896483138.500,-47.852,-16.113,-21.973,-167.480,1.000
1626062896487044.750,-29.297,-12.207,-8.789,-115.723,1.000
1626062896490951.000,-0.977,-19.043,-37.598,118.164,1.000
1626062896494857.250,-11.719,-38.574,-51.270,102.051,1.000
1626062896498763.500,-44.922,-63.965,-33.691,-141.113,1.000
1626062896502669.750,-52.246,-57.129,-21.484,1.000,1.000
1626062896506576.000,-14.160,-29.785,-21.973,1.000,1.000
1626062896510482.250,7.324,-21.973,-31.250,1.000,1.000
1626062896514388.500,-21.484,-11.719,-28.809,1.000,1.000
1626062896518294.750,-43.457,-6.348,-20.508,1.000,1.000
1626062896522201.000,-38.086,-37.109,-23.926,1.000,1.000
1626062896526107.250,-21.484,-26.855,-31.250,1.000,1.000
1626062896530013.500,-16.602,-10.742,-28.320,1.000,1.000
1626062896533919.750,-28.320,-20.508,-22.461,1.000,1.000
1626062896537826.000,-31.738,-24.902,-34.180,1.000,1.000
1626062896541732.250,-33.691,-43.457,-61.035,1.000,1.000
1626062896545638.500,-37.598,-47.363,-58.105,1.000,1.000
