timestamps,TP9,AF7,AF8,TP10,Right AUX
1626062413127669.750,51.270,-51.270,-48.828,368.652,1.000
1626062413131576.000,0.000,-17.090,-47.363,113.281,1.000
1626062413135482.250,-96.191,-8.301,-30.273,-404.297,1.000
1626062413139388.500,-80.078,-19.043,-19.043,-265.625,1.000
1626062413143294.750,24.902,-0.977,-26.367,282.227,1.000
1626062413147201.000,22.949,-26.855,-38.574,246.582,1.000
1626062413151107.250,-84.961,-43.457,-38.574,-300.781,1.000
1626062413155013.500,-103.516,-26.367,-27.832,-363.770,1.000
1626062413158919.750,-3.906,-25.391,-16.113,179.199,1.000
1626062413162826.000,37.109,-38.574,-12.695,344.238,1.000
1626062413166732.250,-46.875,-60.547,-32.227,-157.715,1.000
1626062413170638.500,-104.980,-43.945,-47.852,-438.965,1.000
1626062413174544.750,-18.555,-16.602,-26.367,1.000,1.000
1626062413178451.000,67.871,-12.695,4.883,1.000,1.000
1626062413182357.250,0.000,-1.465,-12.207,1.000,1.000
1626062413186263.500,-105.957,-13.184,-44.434,1.000,1.000
1626062413190169.750,-55.664,-23.926,-24.414,1.000,1.000
1626062413194076.000,49.805,-20.020,-0.977,1.000,1.000
1626062413197982.250,28.320,-29.785,-9.277,1.000,1.000
1626062413201888.500,-86.426,-38.086,-31.738,1.000,1.000
1626062413205794.750,-92.773,-43.945,-39.551,1.000,1.000
1626062413209701.000,20.508,-40.527,-40.039,1.000,1.000
1626062413213607.250,42.969,-24.414,-35.645,1.000,1.000
1626062413217513.500,-62.012,-33.203,-47.363,1.000,1.000
1626062413221419.750,-109.375,-43.457,-54.688,1.000,1.000
1626062413225326.000,-14.648,-35.156,-16.602,1.000,1.000
1626062413229232.250,47.852,-29.785,-13.184,1.000,1.000
1626062413233138.500,-38.086,-18.066,-41.016,1.000,1.000
1626062413237044.750,-111.328,-18.555,-35.156,1.000,1.000
1626062413240951.000,-38.086,-44.922,-19.043,1.000,1.000
1626062413244857.250,50.293,-55.176,-14.160,1.000,1.000
1626062413248763.500,-7.324,-24.414,-18.066,1.000,1.000
1626062413252669.750,-103.027,-5.371,-24.902,1.000,1.000
1626062413256576.000,-66.895,-16.602,-29.785,1.000,1.000
1626062413260482.250,31.250,-29.297,-29.785,1.000,1.000
1626062413264388.500,35.156,-17.578,-24.902,1.000,1.000
1626062413268294.750,-62.012,-26.855,-27.344,-313.477,1.000
1626062413272201.000,-76.660,-45.898,-24.414,-302.734,1.000
1626062413276107.250,38.574,-35.645,-0.977,258.789,1.000
1626062413280013.500,53.223,-36.133,-8.301,343.262,1.000
1626062413283919.750,-62.500,-38.574,-33.691,-197.754,1.000
1626062413287826.000,-105.469,-22.461,-51.758,-398.438,1.000
1626062413291732.250,-12.695,-21.484,-50.293,94.238,1.000
1626062413295638.500,55.664,-30.273,-19.531,391.602,1.000
1626062413299544.750,-24.414,-30.762,-10.254,-44.922,1.000
1626062413303451.000,-112.793,-21.973,-18.066,-442.871,1.000
1626062413307357.250,-55.176,-24.414,-22.461,-91.797,1.000
1626062413311263.500,33.691,-22.461,-15.625,372.070,1.000
1626062413315169.750,29.297,-16.113,-32.715,109.375,1.000
1626062413319076.000,-13.672,1.465,-26.367,-405.762,1.000
1626062413322982.250,-93.262,-15.137,-20.020,-234.863,1.000
1626062413326888.500,-58.105,-46.387,-16.602,314.453,1.000
1626062413330794.750,30.273,-34.180,-22.461,249.512,1.000
1626062413334701.000,8.301,-22.949,-21.484,-297.852,1.000
1626062413338607.250,-83.984,-50.293,-24.414,-342.285,1.000
1626062413342513.500,-73.730,-80.566,-39.062,188.477,1.000
1626062413346419.750,29.785,-58.105,-34.180,346.680,1.000
1626062413350326.000,53.711,-8.789,-16.602,-145.508,1.000
1626062413354232.250,-44.922,-10.254,-21.484,-427.246,1.000
1626062413358138.500,-85.449,-26.855,-35.645,-5.859,1.000
1626062413362044.750,-0.488,-24.902,-42.480,1.000,1.000
1626062413365951.000,51.270,-31.250,-45.410,1.000,1.000
1626062413369857.250,-22.949,-30.273,-20.508,1.000,1.000
1626062413373763.500,-96.191,-21.484,-8.301,1.000,1.000
1626062413377669.750,-36.133,-26.367,-30.762,1.000,1.000
1626062413381576.000,30.273,-35.645,-54.199,1.000,1.000
1626062413385482.250,-32.715,-34.668,-52.246,1.000,1.000
1626062413389388.500,-125.977,-46.875,-36.621,1.000,1.000
1626062413393294.750,-77.637,-46.875,-22.949,1.000,1.000
1626062413397201.000,26.855,-48.340,-27.832,1.000,1.000
1626062413401107.250,12.207,-50.781,-38.574,1.000,1.000
1626062413405013.500,-89.844,-40.527,-30.762,1.000,1.000
1626062413408919.750,-96.680,-30.273,-15.625,-299.805,1.000
1626062413412826.000,-5.859,-29.785,-30.762,237.305,1.000
1626062413416732.250,18.555,-31.250,-47.852,300.781,1.000
1626062413420638.500,-73.730,-49.805,-45.410,-235.352,1.000
1626062413424544.750,-117.676,-63.965,-36.133,-416.016,1.000
1626062413428451.000,-16.113,-35.156,-23.438,96.191,1.000
1626062413432357.250,51.758,-12.695,-25.879,383.789,1.000
1626062413436263.500,-30.273,-26.855,-27.344,-60.547,1.000
1626062413440169.750,-122.070,-42.969,-30.273,-443.359,1.000
1626062413444076.000,-45.898,-16.113,-16.113,-62.988,1.000
1626062413447982.250,57.617,-23.438,-7.812,389.648,1.000
1626062413451888.500,2.441,-44.434,-26.855,101.074,1.000
1626062413455794.750,-111.816,-30.273,-60.059,-420.410,1.000
1626062413459701.000,-93.750,-18.066,-67.383,-244.141,1.000
1626062413463607.250,24.902,-14.160,-38.086,313.965,1.000
1626062413467513.500,20.996,-27.832,-29.297,237.305,1.000
1626062413471419.750,-95.703,-46.875,-46.875,-322.266,1.000
1626062413475326.000,-106.445,-57.617,-49.316,-351.562,1.000
1626062413479232.250,18.066,-37.598,-21.484,222.656,1.000
1626062413483138.500,55.664,-30.762,-10.742,324.707,1.000
1626062413487044.750,-36.621,-36.621,-30.762,-202.148,1.000
1626062413490951.000,-75.684,-16.113,-47.363,-378.906,1.000
1626062413494857.250,-12.695,-22.461,-44.434,62.012,1.000
1626062413498763.500,40.527,-33.203,-38.086,366.699,1.000
1626062413502669.750,-19.531,-22.461,-35.645,-28.320,1.000
1626062413506576.000,-101.562,-36.133,-28.320,-430.664,1.000
1626062413510482.250,-47.852,-55.664,-23.926,-108.398,1.000
1626062413514388.500,48.828,-40.527,-27.344,361.328,1.000
1626062413518294.750,13.184,-39.062,-39.062,133.789,1.000
1626062413522201.000,-79.590,-37.109,-33.691,-375.488,1.000
1626062413526107.250,-69.824,-20.996,-13.672,-248.047,1.000
1626062413530013.500,6.348,-31.250,-25.879,267.578,1.000
1626062413533919.750,1.953,-29.785,-45.898,239.746,1.000
1626062413537826.000,-82.520,-26.367,-35.645,-279.785,1.000
1626062413541732.250,-116.699,-44.922,-58.594,-381.836,1.000
1626062413545638.500,-6.348,-43.457,-66.895,151.855,1.000
1626062413549544.750,-1.465,-59.082,-28.809,361.328,1.000
1626062413553451.000,25.879,-61.523,-29.785,-126.953,1.000
1626062413557357.250,-58.105,-32.715,-29.785,-416.016,1.000
1626062413561263.500,-93.750,-18.555,-35.645,-5.371,1.000
1626062413565169.750,-16.113,-21.973,-43.457,366.211,1.000
1626062413569076.000,37.109,-15.137,-56.152,22.461,1.000
1626062413572982.250,-39.551,-13.184,-65.430,-423.340,1.000
1626062413576888.500,-114.746,-20.508,-34.180,-161.133,1.000
1626062413580794.750,-45.898,-44.922,-7.324,340.820,1.000
1626062413584701.000,44.922,-41.016,-12.695,180.176,1.000
1626062413588607.250,-5.371,-37.598,-21.973,-357.422,1.000
1626062413592513.500,-97.168,-30.273,-26.367,-312.012,1.000
1626062413596419.750,-58.594,-11.719,-38.086,1.000,1.000
1626062413600326.000,39.062,-11.230,-40.039,1.000,1.000
1626062413604232.250,28.809,-3.906,-21.484,1.000,1.000
1626062413608138.500,-69.824,-11.719,-26.367,1.000,1.000
1626062413612044.750,-85.938,-20.508,-39.062,1.000,1.000
1626062413615951.000,18.555,-21.484,-37.598,1.000,1.000
1626062413619857.250,42.480,-26.855,-54.688,1.000,1.000
1626062413623763.500,-53.711,-36.133,-55.176,1.000,1.000
1626062413627669.750,-97.656,-40.039,-24.414,1.000,1.000
1626062413631576.000,-18.066,-17.578,-30.762,1.000,1.000
1626062413635482.250,43.457,-7.812,-49.316,1.000,1.000
1626062413639388.500,-31.250,-33.203,-52.246,1.000,1.000
1626062413643294.750,-103.027,-49.316,-34.180,-444.336,1.000
1626062413647201.000,-27.832,-45.898,-25.391,-76.172,1.000
1626062413651107.250,55.176,-20.020,-38.574,381.836,1.000
1626062413655013.500,-13.672,-24.902,-34.180,102.051,1.000
1626062413658919.750,-121.582,-32.227,-24.902,-419.922,1.000
1626062413662826.000,-86.426,-15.625,-20.996,-253.418,1.000
1626062413666732.250,22.949,-16.602,-31.250,299.316,1.000
1626062413670638.500,5.859,-26.367,-55.176,223.633,1.000
1626062413674544.750,-101.074,-40.527,-59.082,-324.219,1.000
1626062413678451.000,-110.840,-40.039,-43.457,-366.699,1.000
1626062413682357.250,-10.742,-31.738,-35.645,154.297,1.000
1626062413686263.500,45.410,-0.977,-25.879,343.750,1.000
1626062413690169.750,48.340,-17.578,-14.160,293.945,1.000
1626062413694076.000,-47.852,-33.691,-21.484,-236.328,1.000
1626062413697982.250,-101.074,-37.598,-24.902,-388.672,1.000
1626062413701888.500,-21.973,-56.641,-37.598,111.328,1.000
1626062413705794.750,41.504,-55.176,-38.086,348.145,1.000
1626062413709701.000,-34.668,-29.785,-32.715,-109.375,1.000
1626062413713607.250,-115.723,-9.277,-49.805,-457.031,1.000
1626062413717513.500,-45.898,-16.602,-30.273,-49.805,1.000
1626062413721419.750,45.410,-31.250,-0.977,381.348,1.000
1626062413725326.000,5.859,-35.645,-16.602,57.617,1.000
1626062413729232.250,-113.770,-63.965,-41.504,-442.383,1.000
1626062413733138.500,-85.938,-52.246,-26.855,-214.355,1.000
1626062413737044.750,33.691,-11.230,-17.578,1.000,1.000
1626062413740951.000,21.973,-8.789,-41.016,1.000,1.000
1626062413744857.250,-75.195,-46.387,-33.203,1.000,1.000
1626062413748763.500,-90.820,-74.219,-31.250,1.000,1.000
1626062413752669.750,12.207,-54.688,-39.062,1.000,1.000
1626062413756576.000,46.387,-34.668,-34.180,1.000,1.000
1626062413760482.250,-71.777,-31.250,-37.598,1.000,1.000
1626062413764388.500,-116.699,-25.391,-22.949,1.000,1.000
1626062413768294.750,-14.160,-18.066,-26.367,1.000,1.000
1626062413772201.000,37.598,-22.461,-41.016,1.000,1.000
1626062413776107.250,-42.969,-33.203,-42.480,1.000,1.000
1626062413780013.500,-126.953,-32.715,-35.645,1.000,1.000
1626062413783919.750,-48.828,-39.551,-26.367,1.000,1.000
1626062413787826.000,56.641,-41.504,-31.738,1.000,1.000
1626062413791732.250,12.207,-49.316,-33.691,1.000,1.000
1626062413795638.500,-92.773,-50.293,-38.574,1.000,1.000
1626062413799544.750,-74.219,-21.973,-35.156,1.000,1.000
1626062413803451.000,39.062,-8.301,-24.902,1.000,1.000
1626062413807357.250,29.785,-21.484,-51.758,1.000,1.000
1626062413811263.500,-84.473,-38.574,-66.895,1.000,1.000
1626062413815169.750,-103.516,-53.223,-60.547,1.000,1.000
1626062413819076.000,10.742,-45.410,-42.480,1.000,1.000
1626062413822982.250,52.246,-36.621,-27.344,1.000,1.000
1626062413826888.500,-41.016,-35.156,-20.508,1.000,1.000
1626062413830794.750,-100.098,-22.949,-20.508,-424.805,1.000
1626062413834701.000,-17.578,-15.137,-23.926,41.016,1.000
1626062413838607.250,65.918,-19.043,-27.832,395.996,1.000
1626062413842513.500,1.953,-28.809,-32.715,2.930,1.000
1626062413846419.750,-88.379,-42.969,-21.484,-423.828,1.000
1626062413850326.000,-50.293,-35.645,-27.344,-119.141,1.000
1626062413854232.250,41.992,-27.832,-38.086,356.934,1.000
1626062413858138.500,11.230,-39.062,-37.109,128.418,1.000
1626062413862044.750,-89.844,-29.785,-42.969,-388.672,1.000
1626062413865951.000,-65.918,-18.555,-33.203,-250.488,1.000
1626062413869857.250,37.598,-27.832,-30.762,291.504,1.000
1626062413873763.500,45.410,-30.762,-39.062,279.785,1.000
1626062413877669.750,-63.965,-42.480,-31.250,-269.531,1.000
1626062413881576.000,-107.910,-38.086,-39.062,-383.789,1.000
1626062413885482.250,-0.977,-26.367,-37.598,147.461,1.000
1626062413889388.500,53.711,-36.133,-27.832,357.422,1.000
1626062413893294.750,-28.809,-65.918,-56.641,-124.512,1.000
1626062413897201.000,-84.473,-57.617,-67.871,-414.062,1.000
1626062413901107.250,0.000,-15.137,-24.414,22.461,1.000
1626062413905013.500,56.641,-20.020,-23.438,384.277,1.000
1626062413908919.750,-22.949,-26.367,-29.785,13.184,1.000
1626062413912826.000,-97.656,-21.484,-27.344,-434.082,1.000
1626062413916732.250,-56.641,-23.438,-42.969,-170.410,1.000
1626062413920638.500,34.668,-26.855,-32.227,333.008,1.000
1626062413924544.750,35.156,-34.180,-11.719,162.598,1.000
1626062413928451.000,-10.254,-21.973,-13.672,-380.859,1.000
1626062413932357.250,-123.535,-27.344,-30.273,-317.383,1.000
1626062413936263.500,-100.098,-37.598,-39.551,234.863,1.000
1626062413940169.750,21.973,-33.691,-28.809,298.828,1.000
1626062413944076.000,22.461,-33.203,-34.180,-238.770,1.000
1626062413947982.250,-83.496,-39.551,-41.992,-420.410,1.000
1626062413951888.500,-112.305,-36.621,-28.809,81.055,1.000
1626062413955794.750,-11.719,-20.508,-19.043,335.938,1.000
1626062413959701.000,37.109,-14.160,-20.020,-124.512,1.000
1626062413963607.250,-66.895,-25.879,-36.621,-476.562,1.000
1626062413967513.500,-121.094,-34.180,-44.434,-83.008,1.000
1626062413971419.750,-35.156,-37.598,-42.969,1.000,1.000
1626062413975326.000,25.391,-27.832,-45.898,1.000,1.000
1626062413979232.250,-39.551,-21.973,-37.598,1.000,1.000
1626062413983138.500,-129.395,-55.664,-49.805,1.000,1.000
1626062413987044.750,-67.383,-42.480,-43.945,1.000,1.000
1626062413990951.000,33.691,-5.371,-25.391,1.000,1.000
1626062413994857.250,-2.930,-48.828,-27.832,1.000,1.000
1626062413998763.500,-93.750,-80.078,-30.762,1.000,1.000
1626062414002669.750,-79.102,-33.691,-36.621,1.000,1.000
1626062414006576.000,14.160,-14.160,-45.898,1.000,1.000
1626062414010482.250,16.113,-13.184,-49.316,1.000,1.000
1626062414014388.500,-71.289,-15.625,-33.203,1.000,1.000
1626062414018294.750,-90.332,-39.062,-48.340,-377.441,1.000
1626062414022201.000,6.836,-30.273,-58.105,157.715,1.000
1626062414026107.250,48.340,-13.184,-34.668,337.891,1.000
1626062414030013.500,-54.688,-34.180,-26.367,-169.922,1.000
1626062414033919.750,-114.258,-47.363,-15.625,-443.848,1.000
1626062414037826.000,-26.855,-38.574,-16.602,21.484,1.000
1626062414041732.250,64.941,-23.438,-17.578,410.156,1.000
1626062414045638.500,-2.441,-46.875,-16.602,28.809,1.000
1626062414049544.750,-126.465,-74.219,-65.918,-447.754,1.000
1626062414053451.000,-83.496,-41.016,-66.406,-165.039,1.000
1626062414057357.250,22.949,-3.906,-38.574,339.355,1.000
1626062414061263.500,3.418,-0.488,-39.551,153.809,1.000
1626062414065169.750,-13.672,-11.719,-38.086,41.504,1.000
1626062414069076.000,-99.121,-25.391,-33.203,-422.363,1.000
1626062414072982.250,-51.758,-20.508,-21.973,-189.941,1.000
1626062414076888.500,45.410,-43.457,-39.062,322.266,1.000
1626062414080794.750,23.926,-48.828,-50.781,193.359,1.000
1626062414084701.000,-80.566,-37.598,-32.715,-349.609,1.000
1626062414088607.250,-86.914,-54.199,-27.832,-333.008,1.000
1626062414092513.500,24.414,-43.945,-35.645,221.191,1.000
1626062414096419.750,44.922,-30.762,-46.875,314.941,1.000
1626062414100326.000,-58.105,-17.578,-50.781,-217.285,1.000
1626062414104232.250,-111.816,-41.992,-49.805,-424.805,1.000
1626062414108138.500,-26.855,-66.406,-35.645,63.965,1.000
1626062414112044.750,9.277,-17.578,-21.484,200.195,1.000
1626062414115951.000,52.734,-25.879,-23.926,354.004,1.000
1626062414119857.250,-48.828,-27.344,-24.902,-167.480,1.000
1626062414123763.500,-127.930,-20.508,-35.156,-446.289,1.000
1626062414127669.750,-37.109,-18.555,-36.621,19.531,1.000
1626062414131576.000,55.176,-20.996,-11.230,398.926,1.000
1626062414135482.250,-20.020,-25.879,-18.555,9.277,1.000
1626062414139388.500,-121.094,-35.156,-37.109,-437.988,1.000
1626062414143294.750,-75.195,-39.551,-37.598,-136.719,1.000
1626062414147201.000,44.434,-17.578,-21.973,375.488,1.000
1626062414151107.250,23.926,-8.789,-18.066,167.480,1.000
1626062414155013.500,-81.543,-22.949,-28.809,-369.141,1.000
1626062414158919.750,-73.242,-38.574,-40.039,1.000,1.000
1626062414162826.000,7.812,-32.715,-56.641,1.000,1.000
1626062414166732.250,35.156,-11.230,-25.391,1.000,1.000
1626062414170638.500,-49.316,-15.137,-11.719,1.000,1.000
1626062414174544.750,-96.191,-32.715,-22.949,1.000,1.000
1626062414178451.000,-7.324,-45.410,-29.297,1.000,1.000
1626062414182357.250,37.598,-42.480,-41.992,1.000,1.000
1626062414186263.500,-55.176,-28.320,-42.480,1.000,1.000
1626062414190169.750,-123.535,-22.461,-32.227,1.000,1.000
1626062414194076.000,-53.223,-24.902,-22.461,1.000,1.000
1626062414197982.250,26.855,-42.480,-34.180,1.000,1.000
1626062414201888.500,-17.090,-52.734,-49.805,1.000,1.000
1626062414205794.750,-103.027,-41.016,-50.293,-433.105,1.000
1626062414209701.000,-61.035,-43.457,-25.879,-175.293,1.000
1626062414213607.250,42.969,-55.176,-13.672,344.238,1.000
1626062414217513.500,27.344,-41.504,-38.086,203.613,1.000
1626062414221419.750,-69.824,-13.184,-41.992,-333.008,1.000
1626062414225326.000,-90.332,4.395,-25.391,-320.312,1.000
1626062414229232.250,7.324,4.883,-15.137,222.656,1.000
1626062414233138.500,36.133,-13.672,-19.531,303.711,1.000
1626062414237044.750,-72.754,-51.270,-32.715,-238.281,1.000
1626062414240951.000,-119.141,-57.129,-42.969,-418.457,1.000
1626062414244857.250,-23.438,-38.086,-40.527,86.914,1.000
1626062414248763.500,46.875,-25.879,-37.598,375.488,1.000
1626062414252669.750,33.203,-20.508,-28.809,316.895,1.000
1626062414256576.000,-65.918,-35.156,-22.949,-191.406,1.000
1626062414260482.250,-124.512,-50.781,-22.949,-429.199,1.000
1626062414264388.500,-39.551,-47.852,-27.832,33.203,1.000
1626062414268294.750,37.109,-27.832,-28.809,370.117,1.000
1626062414272201.000,-24.414,-18.066,-35.156,-17.090,1.000
1626062414276107.250,-123.535,-37.598,-49.316,-437.988,1.000
1626062414280013.500,-82.520,-49.316,-33.691,-134.277,1.000
1626062414283919.750,32.715,-39.062,-17.090,358.398,1.000
1626062414287826.000,20.508,-18.066,-32.227,150.879,1.000
1626062414291732.250,-84.473,-37.598,-36.133,-374.512,1.000
1626062414295638.500,-70.801,-60.547,-14.160,-247.559,1.000
1626062414299544.750,24.414,-49.805,-18.555,1.000,1.000
1626062414303451.000,5.859,-25.879,-46.875,1.000,1.000
1626062414307357.250,-92.773,-7.812,-44.434,1.000,1.000
1626062414311263.500,-103.027,-2.441,-27.344,1.000,1.000
1626062414315169.750,7.812,-12.207,-20.996,1.000,1.000
1626062414319076.000,41.992,-25.391,-24.902,1.000,1.000
1626062414322982.250,-42.969,-29.297,-29.297,1.000,1.000
1626062414326888.500,-89.355,-65.430,-14.648,1.000,1.000
1626062414330794.750,-14.160,-77.148,-20.020,1.000,1.000
1626062414334701.000,45.898,-26.855,-27.832,1.000,1.000
1626062414338607.250,-32.715,-4.883,-25.879,1.000,1.000
1626062414342513.500,-114.746,-7.324,-33.203,1.000,1.000
1626062414346419.750,-70.312,-21.484,-33.203,1.000,1.000
1626062414350326.000,9.766,-41.016,-22.949,1.000,1.000
1626062414354232.250,3.418,-23.438,-4.395,1.000,1.000
1626062414358138.500,-89.355,-29.785,-26.367,1.000,1.000
1626062414362044.750,-82.031,-59.570,-56.152,1.000,1.000
1626062414365951.000,32.715,-52.734,-41.992,1.000,1.000
1626062414369857.250,37.598,-30.762,-20.996,1.000,1.000
1626062414373763.500,-78.613,-20.020,-16.113,1.000,1.000
1626062414377669.750,-125.977,-35.645,-34.668,1.000,1.000
1626062414381576.000,-15.625,-25.879,-34.180,1.000,1.000
1626062414385482.250,55.664,-6.348,-12.695,1.000,1.000
1626062414389388.500,-27.832,-22.461,-10.254,1.000,1.000
1626062414393294.750,-113.281,-43.945,-33.691,1.000,1.000
1626062414397201.000,-32.715,-38.574,-32.227,1.000,1.000
1626062414401107.250,75.684,-36.133,-18.066,1.000,1.000
1626062414405013.500,18.066,-65.918,-40.039,1.000,1.000
1626062414408919.750,-81.055,-85.938,-27.832,1.000,1.000
1626062414412826.000,-63.965,-66.895,-15.137,1.000,1.000
1626062414416732.250,29.297,-32.227,-30.273,1.000,1.000
1626062414420638.500,26.367,-8.789,-37.598,1.000,1.000
1626062414424544.750,-70.312,-7.324,-32.715,1.000,1.000
1626062414428451.000,-78.613,-16.602,-18.555,1.000,1.000
1626062414432357.250,24.414,-21.973,-24.902,1.000,1.000
1626062414436263.500,78.125,-27.832,-21.973,1.000,1.000
1626062414440169.750,-19.043,-59.570,-13.184,-166.016,1.000
1626062414444076.000,-84.473,-74.219,-16.113,-392.090,1.000
1626062414447982.250,7.812,-29.785,-23.926,97.656,1.000
1626062414451888.500,55.664,-20.020,-43.457,383.789,1.000
1626062414455794.750,-29.785,-32.715,-30.273,-45.410,1.000
1626062414459701.000,-117.188,-22.461,-17.090,-439.453,1.000
1626062414463607.250,-56.152,-20.020,-20.996,-86.914,1.000
1626062414467513.500,47.363,-38.086,-31.738,381.348,1.000
1626062414471419.750,6.348,-41.992,-39.062,114.258,1.000
1626062414475326.000,-96.191,-20.508,-28.320,-406.250,1.000
1626062414479232.250,-88.867,-18.555,-17.090,-264.160,1.000
1626062414483138.500,10.742,-29.785,-8.301,277.832,1.000
1626062414487044.750,30.762,-50.293,-39.062,229.492,1.000
1626062414490951.000,0.488,-54.199,-49.316,-309.082,1.000
1626062414494857.250,-106.934,-48.828,-47.363,-349.121,1.000
1626062414498763.500,-104.980,-13.672,-38.574,171.875,1.000
1626062414502669.750,0.000,-0.488,-27.832,323.242,1.000
1626062414506576.000,24.414,-11.230,-29.297,-169.434,1.000
1626062414510482.250,-69.824,-29.785,-25.879,-445.312,1.000
1626062414514388.500,-108.398,-32.715,-25.391,-1.953,1.000
1626062414518294.750,0.977,-40.527,-17.578,373.047,1.000
1626062414522201.000,69.824,-49.316,-19.531,0.977,1.000
1626062414526107.250,-26.855,-47.363,-33.203,-442.871,1.000
1626062414530013.500,-106.934,-31.250,-34.668,-142.578,1.000
1626062414533919.750,-42.480,-15.137,-37.598,1.000,1.000
1626062414537826.000,40.527,-5.859,-42.969,1.000,1.000
1626062414541732.250,-5.371,-4.395,-44.922,1.000,1.000
1626062414545638.500,-100.098,-21.973,-40.527,1.000,1.000
1626062414549544.750,-61.035,-43.457,-26.855,1.000,1.000
1626062414553451.000,41.504,-27.832,-29.297,1.000,1.000
1626062414557357.250,31.738,-22.949,-44.922,1.000,1.000
1626062414561263.500,-66.406,-40.039,-41.016,1.000,1.000
1626062414565169.750,-69.824,-33.691,-33.203,1.000,1.000
1626062414569076.000,30.762,-24.902,-30.273,1.000,1.000
1626062414572982.250,41.992,-29.297,-29.297,1.000,1.000
1626062414576888.500,-53.223,-30.273,-31.738,1.000,1.000
1626062414580794.750,-92.773,-33.691,-31.250,-409.668,1.000
1626062414584701.000,-2.441,-11.230,-18.066,90.820,1.000
1626062414588607.250,60.547,2.441,-13.672,380.371,1.000
1626062414592513.500,-17.090,-20.020,-35.156,-65.918,1.000
1626062414596419.750,-96.191,-31.738,-41.504,-439.453,1.000
1626062414600326.000,-31.250,-39.551,-42.480,-61.035,1.000
1626062414604232.250,55.664,-28.320,-48.340,383.789,1.000
1626062414608138.500,-1.465,-25.879,-32.715,97.656,1.000
1626062414612044.750,-111.816,-44.922,-27.344,-411.133,1.000
1626062414615951.000,-90.332,-40.527,-33.691,-229.980,1.000
1626062414619857.250,23.926,-23.438,-13.184,316.895,1.000
1626062414623763.500,25.879,-24.902,-12.207,248.047,1.000
1626062414627669.750,15.137,-16.602,-20.020,158.691,1.000
1626062414631576.000,-96.191,-26.367,-32.227,-385.254,1.000
1626062414635482.250,-76.172,-41.504,-29.297,-256.836,1.000
1626062414639388.500,28.809,-35.645,-21.973,289.551,1.000
1626062414643294.750,23.926,-26.855,-17.578,265.137,1.000
1626062414647201.000,-68.359,-34.668,-14.648,-259.277,1.000
1626062414651107.250,-84.473,-65.430,-23.438,-355.957,1.000
1626062414655013.500,-2.441,-57.129,-30.273,154.785,1.000
1626062414658919.750,28.320,-20.508,-24.414,349.121,1.000
1626062414662826.000,-58.594,-26.855,-22.949,-142.578,1.000
1626062414666732.250,-107.910,-48.828,-34.668,-436.035,1.000
1626062414670638.500,-20.508,-40.527,-25.879,7.812,1.000
1626062414674544.750,45.410,-23.438,-14.648,1.000,1.000
1626062414678451.000,-20.996,-41.992,-22.949,1.000,1.000
1626062414682357.250,-104.980,-47.852,-58.594,1.000,1.000
1626062414686263.500,-59.082,-27.344,-76.172,1.000,1.000
1626062414690169.750,41.016,-31.250,-36.133,1.000,1.000
1626062414694076.000,-3.906,-43.457,-28.320,1.000,1.000
1626062414697982.250,-114.258,-42.480,-39.062,1.000,1.000
1626062414701888.500,-95.703,-44.434,-23.438,1.000,1.000
1626062414705794.750,15.137,-56.641,-11.719,1.000,1.000
1626062414709701.000,40.039,-59.082,-18.066,1.000,1.000
1626062414713607.250,-45.410,-40.039,-27.832,1.000,1.000
1626062414717513.500,-94.727,-39.062,-28.809,1.000,1.000
1626062414721419.750,-21.973,-47.852,-20.508,1.000,1.000
1626062414725326.000,28.320,-27.832,-19.043,1.000,1.000
1626062414729232.250,-47.852,-18.066,-45.898,1.000,1.000
1626062414733138.500,-134.766,-48.340,-51.758,1.000,1.000
1626062414737044.750,-61.523,-53.711,-40.039,1.000,1.000
1626062414740951.000,37.598,-35.645,-51.270,1.000,1.000
1626062414744857.250,-6.348,-26.367,-35.645,1.000,1.000
1626062414748763.500,-95.215,-27.832,-13.184,1.000,1.000
1626062414752669.750,-77.637,-25.879,-6.836,1.000,1.000
1626062414756576.000,23.438,-12.207,-6.836,1.000,1.000
1626062414760482.250,6.836,-10.254,-33.203,1.000,1.000
1626062414764388.500,-88.379,-35.156,-47.363,1.000,1.000
1626062414768294.750,-101.074,-61.035,-37.109,1.000,1.000
1626062414772201.000,6.348,-41.016,-15.137,1.000,1.000
1626062414776107.250,52.734,-22.949,0.000,1.000,1.000
1626062414780013.500,-40.039,-57.617,-29.297,1.000,1.000
1626062414783919.750,-94.727,-79.590,-53.223,1.000,1.000
1626062414787826.000,-32.227,-43.945,-38.574,1.000,1.000
1626062414791732.250,33.203,-15.625,-11.719,1.000,1.000
1626062414795638.500,-30.762,-13.184,-10.742,1.000,1.000
1626062414799544.750,-118.164,-24.414,-25.879,1.000,1.000
1626062414803451.000,-58.105,-27.344,-18.555,1.000,1.000
1626062414807357.250,36.621,-28.809,-17.090,1.000,1.000
1626062414811263.500,8.301,-17.578,-44.434,1.000,1.000
1626062414815169.750,-88.867,-16.602,-46.387,-389.648,1.000
1626062414819076.000,-78.125,-36.133,-19.531,-247.559,1.000
1626062414822982.250,19.531,-28.809,-16.602,291.992,1.000
1626062414826888.500,15.625,-29.785,-26.855,244.629,1.000
1626062414830794.750,-79.590,-41.504,-25.391,-284.180,1.000
1626062414834701.000,-98.145,-71.289,-7.812,-346.191,1.000
1626062414838607.250,0.000,-63.965,-2.930,173.340,1.000
1626062414842513.500,33.691,-27.344,-30.273,343.750,1.000
1626062414846419.750,-68.848,-34.180,-39.062,-173.340,1.000
1626062414850326.000,-118.164,-39.062,-19.531,-421.387,1.000
1626062414854232.250,-25.879,-24.414,-24.902,43.945,1.000
1626062414858138.500,58.594,-12.207,-36.621,392.090,1.000
1626062414862044.750,-87.402,-22.461,-20.508,1.000,1.000
1626062414865951.000,31.738,-11.230,-15.625,1.000,1.000
1626062414869857.250,32.715,-26.367,-21.973,1.000,1.000
1626062414873763.500,-78.125,-38.086,-33.203,1.000,1.000
1626062414877669.750,-104.004,-49.805,-39.551,1.000,1.000
1626062414881576.000,-11.230,-43.945,-36.133,1.000,1.000
1626062414885482.250,22.949,-33.203,-41.016,1.000,1.000
1626062414889388.500,-72.266,-52.734,-41.016,1.000,1.000
1626062414893294.750,-131.836,-59.570,-32.715,1.000,1.000
1626062414897201.000,-40.039,-53.711,-30.762,1.000,1.000
1626062414901107.250,39.062,-46.875,-41.504,1.000,1.000
1626062414905013.500,-16.602,-34.180,-45.898,1.000,1.000
1626062414908919.750,-105.957,-36.133,-51.758,1.000,1.000
1626062414912826.000,-66.895,-25.391,-71.777,1.000,1.000
1626062414916732.250,41.504,-20.996,-46.387,1.000,1.000
1626062414920638.500,13.184,-47.852,-4.883,1.000,1.000
1626062414924544.750,-96.191,-50.781,-16.602,1.000,1.000
1626062414928451.000,-96.680,-37.109,-41.016,1.000,1.000
1626062414932357.250,12.695,-30.762,-22.949,1.000,1.000
1626062414936263.500,39.062,-34.668,-26.855,1.000,1.000
1626062414940169.750,-61.035,-36.621,-59.570,1.000,1.000
1626062414944076.000,-98.145,-22.461,-46.875,1.000,1.000
1626062414947982.250,-0.488,-35.156,-23.926,1.000,1.000
1626062414951888.500,55.176,-46.875,-16.113,1.000,1.000
1626062414955794.750,-32.715,-29.297,-23.926,-110.352,1.000
1626062414959701.000,-99.121,-21.484,-38.086,-417.969,1.000
1626062414963607.250,-27.832,-32.227,-35.645,0.488,1.000
1626062414967513.500,37.598,-42.969,-41.992,376.465,1.000
1626062414971419.750,-24.414,-36.621,-54.199,20.996,1.000
1626062414975326.000,-102.539,-24.902,-33.203,-429.199,1.000
1626062414979232.250,-48.340,-7.324,-15.137,-156.738,1.000
1626062414983138.500,48.828,-18.555,-24.902,347.168,1.000
1626062414987044.750,21.484,-55.664,-36.133,179.199,1.000
1626062414990951.000,-73.730,-43.945,-48.340,-343.750,1.000
1626062414994857.250,-61.035,-27.344,-58.105,-280.273,1.000
1626062414998763.500,32.715,-48.340,-24.414,253.906,1.000
1626062415002669.750,41.992,-62.988,-45.898,289.062,1.000
1626062415006576.000,36.621,-44.434,-41.992,-251.953,1.000
1626062415010482.250,-71.777,-27.344,-15.625,-419.922,1.000
1626062415014388.500,-105.957,-36.133,-17.578,89.844,1.000
1626062415018294.750,-13.184,-25.879,-20.020,379.883,1.000
1626062415022201.000,30.762,-11.719,-13.672,-72.754,1.000
1626062415026107.250,-56.641,-14.160,-18.066,-442.871,1.000
1626062415030013.500,-124.512,-18.555,-32.227,-57.617,1.000
1626062415033919.750,-43.457,-18.066,-32.227,390.625,1.000
1626062415037826.000,38.574,-18.066,-23.438,104.492,1.000
1626062415041732.250,-31.738,-30.273,-26.855,-410.645,1.000
1626062415045638.500,-117.188,-47.363,-31.738,-217.285,1.000
1626062415049544.750,-63.965,-41.016,-45.410,-131.348,1.000
1626062415053451.000,35.156,-16.113,-48.828,351.562,1.000
1626062415057357.250,11.230,-1.465,-39.062,127.441,1.000
1626062415061263.500,-108.398,-24.902,-35.156,-407.227,1.000
1626062415065169.750,-102.539,-33.203,-20.508,-286.621,1.000
1626062415069076.000,0.977,-29.297,-23.438,259.766,1.000
1626062415072982.250,0.488,-36.133,-29.785,227.051,1.000
1626062415076888.500,-94.727,-31.738,-31.738,-300.781,1.000
1626062415080794.750,-130.371,-31.250,-34.180,-383.789,1.000
1626062415084701.000,-43.457,-23.438,-23.926,113.770,1.000
1626062415088607.250,-4.395,-17.578,-29.297,294.922,1.000
1626062415092513.500,-110.840,-30.273,-41.504,-215.820,1.000
1626062415096419.750,-23.926,-46.875,-26.855,168.945,1.000
1626062415100326.000,-116.699,-26.855,-12.207,-363.281,1.000
1626062415104232.250,-119.141,-17.090,-12.695,-351.562,1.000
1626062415108138.500,-14.648,-35.645,-12.695,197.754,1.000
1626062415112044.750,26.367,-55.664,-12.695,308.594,1.000
1626062415115951.000,-57.617,-58.105,-23.438,-198.730,1.000
1626062415119857.250,-99.121,-47.852,-32.227,-397.461,1.000
1626062415123763.500,-10.254,-38.574,-27.344,87.402,1.000
1626062415127669.750,53.711,-38.574,-33.691,398.926,1.000
1626062415131576.000,-2.441,-32.715,-25.879,-6.836,1.000
1626062415135482.250,-78.125,-44.434,-37.598,-398.438,1.000
1626062415139388.500,2.441,-38.086,-32.227,-26.367,1.000
1626062415143294.750,99.609,-39.551,-27.344,1.000,1.000
1626062415147201.000,35.645,-56.641,-33.691,1.000,1.000
1626062415151107.250,-59.570,-72.754,-29.297,1.000,1.000
1626062415155013.500,-12.207,-73.242,-13.672,1.000,1.000
1626062415158919.750,102.539,-50.293,-1.953,1.000,1.000
1626062415162826.000,73.730,-61.523,-41.016,1.000,1.000
1626062415166732.250,-36.621,-54.688,-51.270,1.000,1.000
1626062415170638.500,-41.016,-50.293,-17.578,1.000,1.000
1626062415174544.750,56.641,-47.363,-5.371,1.000,1.000
1626062415178451.000,98.145,-20.996,-11.230,1.000,1.000
1626062415182357.250,0.488,-24.414,-34.180,1.000,1.000
1626062415186263.500,-58.594,-41.016,-38.574,1.000,1.000
1626062415190169.750,34.668,-45.898,-25.391,1.000,1.000
1626062415194076.000,118.164,-58.105,-41.992,1.000,1.000
1626062415197982.250,62.012,-42.969,-52.246,1.000,1.000
1626062415201888.500,-42.480,-21.973,-43.945,1.000,1.000
1626062415205794.750,-12.207,-28.809,-27.832,1.000,1.000
1626062415209701.000,93.750,-19.043,-16.113,1.000,1.000
1626062415213607.250,73.242,-17.090,-20.020,1.000,1.000
1626062415217513.500,-20.508,-37.598,-16.602,1.000,1.000
1626062415221419.750,-9.277,-54.199,-13.184,1.000,1.000
1626062415225326.000,99.609,-41.504,-19.043,1.000,1.000
1626062415229232.250,120.117,-22.461,-21.973,1.000,1.000
1626062415233138.500,10.254,-20.508,-17.578,1.000,1.000
1626062415237044.750,-37.598,-23.438,-27.344,1.000,1.000
1626062415240951.000,58.105,-14.648,-34.668,1.000,1.000
1626062415244857.250,120.117,-14.648,-27.832,1.000,1.000
1626062415248763.500,34.180,-36.133,-33.691,1.000,1.000
1626062415252669.750,-26.367,-59.082,-22.461,1.000,1.000
1626062415256576.000,33.691,-62.012,-18.555,1.000,1.000
1626062415260482.250,109.863,-20.996,-29.297,1.000,1.000
1626062415264388.500,63.965,-9.277,-23.926,1.000,1.000
1626062415268294.750,-46.387,-40.039,-27.832,1.000,1.000
1626062415272201.000,-9.277,-22.949,-30.273,1.000,1.000
1626062415276107.250,93.750,-15.137,-44.922,1.000,1.000
1626062415280013.500,64.941,-37.598,-49.316,1.000,1.000
1626062415283919.750,-40.039,-28.320,-27.832,-304.199,1.000
1626062415287826.000,-45.898,-24.902,-20.020,-274.902,1.000
1626062415291732.250,52.246,-20.020,-19.043,274.902,1.000
1626062415295638.500,78.125,-24.902,-23.926,354.492,1.000
1626062415299544.750,-27.832,-46.875,-34.180,-190.430,1.000
1626062415303451.000,-74.219,-47.852,-24.414,-373.047,1.000
1626062415307357.250,15.625,-49.316,-26.367,128.418,1.000
1626062415311263.500,62.988,-52.246,-40.039,396.484,1.000
1626062415315169.750,-22.949,-52.734,-40.039,-51.270,1.000
1626062415319076.000,-82.031,-35.156,-21.484,-403.809,1.000
1626062415322982.250,-6.348,-34.668,-25.391,-25.879,1.000
1626062415326888.500,76.660,-41.016,-36.621,418.457,1.000
1626062415330794.750,68.848,-39.062,-27.344,406.250,1.000
1626062415334701.000,-10.254,-40.039,-41.504,-1.465,1.000
1626062415338607.250,-96.191,-23.438,-49.805,-420.898,1.000
1626062415342513.500,-48.340,-44.434,-37.109,-117.188,1.000
1626062415346419.750,43.457,-35.156,-18.066,354.004,1.000
1626062415350326.000,13.184,-5.859,-24.902,141.113,1.000
1626062415354232.250,-82.520,-6.836,-47.363,-372.070,1.000
1626062415358138.500,-67.871,-16.113,-49.805,-254.395,1.000
1626062415362044.750,37.598,-11.719,-22.461,290.527,1.000
1626062415365951.000,52.246,-11.719,-2.441,287.109,1.000
1626062415369857.250,-42.969,-41.504,-7.324,-250.977,1.000
1626062415373763.500,-76.172,-57.129,-12.695,-356.934,1.000
1626062415377669.750,4.883,-57.129,-27.832,1.000,1.000
1626062415381576.000,60.547,-55.176,-38.574,1.000,1.000
1626062415385482.250,-8.789,-29.785,-41.504,1.000,1.000
1626062415389388.500,-89.844,-26.367,-41.504,1.000,1.000
1626062415393294.750,-24.902,-34.668,-17.090,1.000,1.000
1626062415397201.000,52.246,-29.297,-20.996,1.000,1.000
1626062415401107.250,-2.441,-33.203,-23.926,1.000,1.000
1626062415405013.500,-92.773,-27.832,-11.719,1.000,1.000
1626062415408919.750,-56.152,-22.949,-12.695,1.000,1.000
1626062415412826.000,43.945,-23.438,-18.555,1.000,1.000
1626062415416732.250,21.484,-24.414,-41.504,1.000,1.000
1626062415420638.500,-80.566,-23.926,-43.457,1.000,1.000
1626062415424544.750,-78.613,-32.227,-29.785,-299.805,1.000
1626062415428451.000,17.090,-50.293,-31.738,246.094,1.000
1626062415432357.250,37.109,-48.828,-42.969,303.711,1.000
1626062415436263.500,-58.594,-38.574,-45.898,-227.539,1.000
1626062415440169.750,-100.098,-37.109,-26.855,-392.578,1.000
1626062415444076.000,-0.488,-20.996,-7.812,124.512,1.000
1626062415447982.250,58.594,-3.418,-20.020,393.555,1.000
1626062415451888.500,-24.902,-2.441,-45.898,-69.336,1.000
1626062415455794.750,-105.469,-10.254,-47.363,-438.965,1.000
1626062415459701.000,-37.598,-29.785,-22.461,-46.387,1.000
1626062415463607.250,54.688,-55.664,-12.695,396.973,1.000
1626062415467513.500,15.625,-43.945,-9.277,105.469,1.000
1626062415471419.750,-90.332,-56.641,-35.156,-393.555,1.000
1626062415475326.000,-77.148,-72.266,-72.266,-209.473,1.000
1626062415479232.250,40.039,-22.461,-41.992,333.008,1.000
1626062415483138.500,36.621,-11.719,-7.812,238.281,1.000
1626062415487044.750,-71.777,-23.438,-17.578,-315.430,1.000
1626062415490951.000,-91.797,-10.742,-23.438,-326.172,1.000
1626062415494857.250,9.277,-5.371,-23.926,222.168,1.000
1626062415498763.500,39.062,-19.531,-24.902,315.918,1.000
1626062415502669.750,-60.547,-42.480,-24.414,-208.984,1.000
1626062415506576.000,-101.562,-37.109,-19.043,-402.832,1.000
1626062415510482.250,-14.648,-32.715,-27.344,62.012,1.000
1626062415514388.500,48.340,-28.320,-23.438,375.488,1.000
1626062415518294.750,8.301,-35.645,-21.973,348.145,1.000
1626062415522201.000,27.344,-2.441,-38.574,-146.484,1.000
1626062415526107.250,-69.824,-8.301,-54.199,-418.945,1.000
1626062415530013.500,-104.492,-37.109,-56.641,18.555,1.000
1626062415533919.750,-10.742,-27.344,-42.480,374.023,1.000
1626062415537826.000,57.617,-24.414,-13.184,-4.883,1.000
1626062415541732.250,-11.719,-18.066,-16.602,-453.125,1.000
1626062415545638.500,-86.426,1.953,-25.879,-161.621,1.000
1626062415549544.750,-30.762,-20.508,0.977,336.426,1.000
1626062415553451.000,42.480,-54.199,-14.160,174.805,1.000
1626062415557357.250,-13.184,-62.012,-64.453,-354.004,1.000
1626062415561263.500,-111.816,-50.293,-41.504,-295.410,1.000
1626062415565169.750,-68.359,-48.340,-2.441,1.000,1.000
1626062415569076.000,32.715,-35.156,-7.812,1.000,1.000
1626062415572982.250,19.043,-4.395,-22.949,1.000,1.000
1626062415576888.500,-81.543,2.930,-29.297,1.000,1.000
1626062415580794.750,-93.262,-3.418,-25.879,1.000,1.000
1626062415584701.000,-6.836,-18.066,-32.715,1.000,1.000
1626062415588607.250,24.414,-39.062,-41.016,1.000,1.000
1626062415592513.500,-51.758,-50.781,-53.223,1.000,1.000
1626062415596419.750,-95.703,-39.551,-46.875,1.000,1.000
1626062415600326.000,1.465,-31.250,-37.109,1.000,1.000
1626062415604232.250,44.434,-46.387,-61.523,1.000,1.000
1626062415608138.500,-29.785,-23.926,-39.062,1.000,1.000
1626062415612044.750,-84.961,12.695,-0.977,-434.082,1.000
1626062415615951.000,-27.832,-1.953,4.883,-76.172,1.000
1626062415619857.250,53.223,-20.508,-8.301,372.559,1.000
1626062415623763.500,2.930,-18.555,-36.133,96.191,1.000
1626062415627669.750,-97.168,-28.809,-39.551,-408.203,1.000
1626062415631576.000,-63.965,-33.691,-23.926,-221.191,1.000
1626062415635482.250,50.293,-26.855,-12.695,319.824,1.000
1626062415639388.500,41.016,-38.574,-35.156,239.258,1.000
1626062415643294.750,-79.590,-49.316,-57.617,-320.312,1.000
1626062415647201.000,-100.586,-54.688,-46.875,-367.188,1.000
1626062415651107.250,9.277,-27.832,-28.320,184.082,1.000
1626062415655013.500,48.828,-23.438,-31.250,342.285,1.000
1626062415658919.750,15.625,-23.926,-19.043,275.879,1.000
1626062415662826.000,-79.102,-16.602,-32.227,-267.578,1.000
1626062415666732.250,-109.863,-24.414,-41.992,-375.000,1.000
1626062415670638.500,-10.254,-46.875,-45.410,148.438,1.000
1626062415674544.750,54.199,-49.316,-37.109,362.793,1.000
1626062415678451.000,-16.602,-48.828,-14.648,-104.980,1.000
1626062415682357.250,-95.215,-39.062,-21.973,-426.758,1.000
1626062415686263.500,-47.363,-14.160,-37.598,-31.250,1.000
1626062415690169.750,33.691,-19.531,-37.598,363.770,1.000
1626062415694076.000,0.488,-39.551,-38.086,40.039,1.000
1626062415697982.250,-87.891,-41.504,-33.691,-420.410,1.000
1626062415701888.500,-35.645,-19.043,-15.137,-151.367,1.000
1626062415705794.750,61.035,-6.348,-17.090,1.000,1.000
1626062415709701.000,10.254,-28.320,-30.273,1.000,1.000
1626062415713607.250,-100.098,-36.133,-41.504,1.000,1.000
1626062415717513.500,-81.055,-35.645,-44.434,1.000,1.000
1626062415721419.750,31.738,-48.340,-28.320,1.000,1.000
1626062415725326.000,34.668,-43.945,-32.227,1.000,1.000
1626062415729232.250,-60.547,-39.551,-30.762,1.000,1.000
1626062415733138.500,-95.215,-54.199,-24.902,1.000,1.000
1626062415737044.750,-11.719,-38.086,-32.715,1.000,1.000
1626062415740951.000,47.852,-12.695,-15.625,1.000,1.000
1626062415744857.250,-27.344,-27.832,-10.254,1.000,1.000
1626062415748763.500,-104.492,-56.641,-20.996,1.000,1.000
1626062415752669.750,-35.156,-61.035,-12.207,1.000,1.000
1626062415756576.000,48.340,-47.363,-7.812,1.000,1.000
1626062415760482.250,-17.090,-35.156,-13.184,1.000,1.000
1626062415764388.500,-109.863,-38.574,-23.926,1.000,1.000
1626062415768294.750,-58.594,-34.668,-21.973,1.000,1.000
1626062415772201.000,26.855,-50.781,-23.926,1.000,1.000
1626062415776107.250,11.719,-56.152,-32.715,1.000,1.000
1626062415780013.500,-76.172,-38.086,-22.949,1.000,1.000
1626062415783919.750,-103.516,-47.363,-20.020,1.000,1.000
1626062415787826.000,2.930,-37.109,-15.625,1.000,1.000
1626062415791732.250,54.688,-33.203,-9.766,1.000,1.000
1626062415795638.500,-44.434,-37.598,-33.691,1.000,1.000
1626062415799544.750,-117.188,-31.250,-50.293,1.000,1.000
1626062415803451.000,-33.691,-36.621,-35.156,1.000,1.000
1626062415807357.250,48.340,-32.227,-20.508,1.000,1.000
1626062415811263.500,-24.414,-40.039,-29.785,1.000,1.000
1626062415815169.750,-107.422,-45.898,-35.156,1.000,1.000
1626062415819076.000,-58.594,-56.641,-55.176,1.000,1.000
1626062415822982.250,41.016,-50.293,-48.828,1.000,1.000
1626062415826888.500,22.949,-25.879,-9.277,1.000,1.000
1626062415830794.750,-71.289,-22.461,-8.789,1.000,1.000
1626062415834701.000,-54.688,-2.930,-22.949,1.000,1.000
1626062415838607.250,31.738,10.742,-9.277,1.000,1.000
1626062415842513.500,22.949,-8.789,-16.602,1.000,1.000
1626062415846419.750,-79.102,-22.949,-34.668,-297.363,1.000
1626062415850326.000,-103.516,-24.414,-24.902,-378.906,1.000
1626062415854232.250,1.953,-36.133,-14.648,153.809,1.000
1626062415858138.500,45.410,-30.273,-26.855,349.609,1.000
1626062415862044.750,-45.898,-46.875,-47.852,-136.719,1.000
1626062415865951.000,-104.980,-83.008,-43.945,-416.992,1.000
1626062415869857.250,-15.137,-46.387,-20.996,33.691,1.000
1626062415873763.500,58.105,4.395,-22.949,389.160,1.000
1626062415877669.750,-31.250,-7.324,-30.762,-7.812,1.000
1626062415881576.000,-116.211,-15.625,-19.043,-445.312,1.000
1626062415885482.250,-62.500,-18.555,-25.879,-154.785,1.000
1626062415889388.500,36.621,-23.926,-24.414,353.027,1.000
1626062415893294.750,36.621,-26.855,-28.809,179.688,1.000
1626062415897201.000,-22.461,-39.551,-51.758,-363.770,1.000
1626062415901107.250,-118.164,-41.016,-55.664,-285.645,1.000
1626062415905013.500,-68.848,-38.574,-48.340,258.301,1.000
1626062415908919.750,40.039,-47.363,-30.762,288.086,1.000
1626062415912826.000,22.461,-77.148,-36.133,-256.836,1.000
1626062415916732.250,-80.566,-59.570,-36.133,-398.926,1.000
1626062415920638.500,-97.656,-16.113,-22.461,119.629,1.000
1626062415924544.750,-4.395,-16.113,-32.227,358.398,1.000
1626062415928451.000,27.344,-28.320,-38.086,-96.680,1.000
1626062415932357.250,-68.848,-47.852,-30.273,-433.594,1.000
1626062415936263.500,-114.746,-53.711,-27.344,-39.062,1.000
1626062415940169.750,-25.391,-54.688,-38.574,1.000,1.000
1626062415944076.000,45.410,-31.250,-42.969,1.000,1.000
1626062415947982.250,-17.090,-12.695,-28.320,1.000,1.000
1626062415951888.500,-106.934,-41.016,-35.645,1.000,1.000
1626062415955794.750,-56.641,-58.594,-42.480,1.000,1.000
1626062415959701.000,37.109,-61.523,-38.574,1.000,1.000
1626062415963607.250,-1.465,-53.711,-45.410,1.000,1.000
1626062415967513.500,-90.820,-24.414,-37.109,1.000,1.000
1626062415971419.750,-69.824,-10.742,-27.832,1.000,1.000
1626062415975326.000,27.832,-25.879,-32.227,1.000,1.000
1626062415979232.250,19.531,-52.246,-28.809,1.000,1.000
1626062415983138.500,-93.262,-44.922,-20.508,1.000,1.000
1626062415987044.750,-110.840,-25.879,-28.809,-370.117,1.000
1626062415990951.000,-9.277,-30.273,-33.691,167.969,1.000
1626062415994857.250,37.598,-33.691,-25.391,324.707,1.000
1626062415998763.500,-64.941,-42.969,-39.062,-197.266,1.000
1626062416002669.750,-124.023,-43.945,-35.156,-455.566,1.000
1626062416006576.000,-36.133,-41.504,-20.996,18.066,1.000
1626062416010482.250,36.133,-53.711,-24.902,368.164,1.000
1626062416014388.500,-22.461,-39.062,-35.156,-11.230,1.000
1626062416018294.750,-114.258,-35.645,-30.273,-437.012,1.000
1626062416022201.000,-69.336,-43.457,-37.598,-139.648,1.000
1626062416026107.250,39.062,-20.020,-39.062,359.375,1.000
1626062416030013.500,13.672,-4.395,-16.113,160.645,1.000
1626062416033919.750,-1.953,-3.418,-27.344,46.875,1.000
1626062416037826.000,-111.816,-19.531,-34.180,-431.152,1.000
1626062416041732.250,-60.059,-41.016,-23.926,-174.316,1.000
1626062416045638.500,42.480,-42.969,-17.578,337.891,1.000
1626062416049544.750,24.414,-29.297,-15.137,189.453,1.000
1626062416053451.000,-75.684,-31.250,-24.414,-342.773,1.000
1626062416057357.250,-87.891,-39.551,-31.738,-314.453,1.000
1626062416061263.500,11.719,-40.527,-34.668,219.238,1.000
1626062416065169.750,36.621,-37.598,-41.992,299.805,1.000
1626062416069076.000,-60.547,-25.391,-47.852,-229.980,1.000
1626062416072982.250,-110.840,-20.020,-56.641,-417.480,1.000
1626062416076888.500,-19.043,-10.254,-35.645,88.867,1.000
1626062416080794.750,13.184,-12.207,-8.789,369.141,1.000
1626062416084701.000,46.387,-2.930,-12.207,-72.754,1.000
1626062416088607.250,-46.875,-14.160,-20.508,-429.688,1.000
1626062416092513.500,-105.469,-35.645,-19.043,-49.805,1.000
1626062416096419.750,-25.879,-46.875,-10.254,391.113,1.000
1626062416100326.000,47.363,-50.781,-14.160,94.238,1.000
1626062416104232.250,-8.301,-55.176,-33.691,-409.668,1.000
1626062416108138.500,-96.191,-56.152,-41.504,-214.355,1.000
1626062416112044.750,-47.852,-42.969,-33.203,312.500,1.000
1626062416115951.000,53.223,-10.254,-23.926,229.004,1.000
1626062416119857.250,20.020,-5.371,-25.879,-327.637,1.000
1626062416123763.500,-79.590,-10.254,-28.320,-353.027,1.000
1626062416127669.750,-80.078,-14.648,-36.133,1.000,1.000
1626062416131576.000,11.719,-24.414,-45.410,1.000,1.000
1626062416135482.250,37.598,-24.902,-27.832,1.000,1.000
1626062416139388.500,-62.500,-32.227,-29.297,1.000,1.000
1626062416143294.750,-97.656,-32.227,-32.227,1.000,1.000
1626062416147201.000,-19.531,-44.922,-37.598,1.000,1.000
1626062416151107.250,25.391,-46.387,-33.691,1.000,1.000
1626062416155013.500,-39.551,-25.391,-21.973,1.000,1.000
1626062416158919.750,-100.098,-40.039,-35.156,1.000,1.000
1626062416162826.000,-26.367,-52.246,-42.969,1.000,1.000
1626062416166732.250,56.152,-49.316,-51.270,1.000,1.000
1626062416170638.500,2.441,-62.988,-38.574,1.000,1.000
1626062416174544.750,-97.656,-37.109,-30.273,-426.758,1.000
1626062416178451.000,-61.035,4.395,-26.855,-164.062,1.000
1626062416182357.250,45.898,13.672,-12.695,348.633,1.000
1626062416186263.500,20.020,-7.324,-19.043,167.480,1.000
1626062416190169.750,-81.055,-19.043,-15.625,-368.164,1.000
1626062416194076.000,-71.777,-24.414,-17.090,-288.574,1.000
1626062416197982.250,24.414,-33.203,-32.715,249.512,1.000
1626062416201888.500,28.809,-25.391,-33.203,287.109,1.000
1626062416205794.750,-67.383,-32.715,-31.738,-248.047,1.000
1626062416209701.000,-91.797,-42.969,-20.996,-393.555,1.000
1626062416213607.250,2.441,-43.945,-18.066,112.793,1.000
1626062416217513.500,60.547,-24.414,-11.230,367.188,1.000
1626062416221419.750,40.527,-6.836,-26.855,315.430,1.000
1626062416225326.000,-53.711,-39.551,-22.949,-203.125,1.000
1626062416229232.250,-112.793,-57.129,-14.648,-425.781,1.000
1626062416233138.500,-32.715,-49.316,-19.531,49.805,1.000
1626062416237044.750,34.180,-21.973,-17.578,339.355,1.000
1626062416240951.000,-34.668,-8.301,-26.367,-78.125,1.000
1626062416244857.250,-109.863,-12.207,-34.668,-439.453,1.000
1626062416248763.500,-43.945,-31.250,-31.738,-90.332,1.000
1626062416252669.750,45.410,-57.129,-25.879,366.211,1.000
1626062416256576.000,-0.488,-40.039,-26.367,107.422,1.000
1626062416260482.250,-109.375,-11.719,-39.062,-406.250,1.000
1626062416264388.500,-87.402,-21.973,-45.410,-249.023,1.000
1626062416268294.750,5.371,-48.828,-56.641,279.297,1.000
1626062416272201.000,1.465,-48.340,-43.945,229.980,1.000
1626062416276107.250,-87.891,-41.504,-22.949,-301.758,1.000
1626062416280013.500,-102.539,-28.809,-14.160,-360.840,1.000
1626062416283919.750,4.395,-7.812,-7.812,182.129,1.000
1626062416287826.000,38.574,-18.066,-25.879,346.680,1.000
1626062416291732.250,-43.945,-47.363,-33.691,-145.996,1.000
1626062416295638.500,-80.566,-63.477,-11.230,-395.020,1.000
1626062416299544.750,3.418,-40.039,-22.949,51.270,1.000
1626062416303451.000,68.848,-2.930,-45.898,395.996,1.000
1626062416307357.250,-18.066,-14.160,-47.852,-4.883,1.000
1626062416311263.500,-115.723,-39.062,-35.156,-452.637,1.000
1626062416315169.750,-59.082,-27.344,-16.113,1.000,1.000
1626062416319076.000,41.992,-8.789,-10.254,1.000,1.000
1626062416322982.250,17.090,-11.719,-18.066,1.000,1.000
1626062416326888.500,-104.980,-33.203,-52.734,1.000,1.000
1626062416330794.750,-103.027,-25.391,-60.547,1.000,1.000
1626062416334701.000,21.484,-17.090,-33.691,1.000,1.000
1626062416338607.250,49.805,-46.387,-5.859,1.000,1.000
1626062416342513.500,-60.547,-63.477,-20.996,1.000,1.000
1626062416346419.750,-111.816,-65.430,-46.875,1.000,1.000
1626062416350326.000,-10.254,-46.387,-40.527,1.000,1.000
1626062416354232.250,53.711,-16.602,-54.199,1.000,1.000
1626062416358138.500,-19.531,-11.230,-44.434,1.000,1.000
1626062416362044.750,-107.910,-37.598,-25.391,1.000,1.000
1626062416365951.000,-51.270,-48.340,-40.527,1.000,1.000
1626062416369857.250,56.641,-28.809,-24.902,1.000,1.000
1626062416373763.500,-2.441,-40.039,-15.137,1.000,1.000
1626062416377669.750,-107.910,-47.363,-11.719,1.000,1.000
1626062416381576.000,-72.266,-33.203,-9.766,1.000,1.000
1626062416385482.250,22.949,-25.879,-29.297,1.000,1.000
1626062416389388.500,16.113,-40.527,-36.133,1.000,1.000
1626062416393294.750,-86.426,-68.359,-28.809,1.000,1.000
1626062416397201.000,-95.215,-59.570,-33.203,1.000,1.000
1626062416401107.250,10.254,-39.551,-47.852,1.000,1.000
1626062416405013.500,38.086,-16.602,-45.898,1.000,1.000
1626062416408919.750,-54.199,-5.859,-42.969,-221.680,1.000
1626062416412826.000,-104.492,-20.020,-47.363,-409.180,1.000
1626062416416732.250,-16.602,-30.273,-40.527,80.078,1.000
1626062416420638.500,45.898,-38.086,-20.508,358.398,1.000
1626062416424544.750,-22.461,-33.691,-23.926,-62.988,1.000
1626062416428451.000,-96.680,-36.133,-54.688,-429.199,1.000
1626062416432357.250,-39.551,-38.574,-27.344,-69.336,1.000
1626062416436263.500,48.828,-38.086,2.930,372.559,1.000
1626062416440169.750,-8.301,-61.523,-13.672,91.797,1.000
1626062416444076.000,-110.352,-54.199,-24.414,-403.320,1.000
1626062416447982.250,-80.078,-27.344,-41.992,-217.285,1.000
1626062416451888.500,28.809,-36.133,-37.598,318.848,1.000
1626062416455794.750,59.082,-40.527,0.488,240.234,1.000
1626062416459701.000,30.762,-42.969,-31.250,-312.012,1.000
1626062416463607.250,-88.379,-40.527,-47.852,-335.938,1.000
1626062416467513.500,-73.242,-32.227,-15.625,214.355,1.000
1626062416471419.750,36.621,-13.672,-10.254,360.352,1.000
1626062416475326.000,40.039,-16.602,-22.949,-161.621,1.000
1626062416479232.250,-54.688,-18.066,-21.973,-415.527,1.000
1626062416483138.500,-79.102,-16.602,-15.625,41.992,1.000
1626062416487044.750,7.812,-31.250,-37.109,364.258,1.000
1626062416490951.000,61.523,-30.762,-49.316,-19.531,1.000
1626062416494857.250,-22.461,-28.320,-28.320,-445.312,1.000
1626062416498763.500,-94.727,-36.133,-6.836,-135.254,1.000
1626062416502669.750,-38.086,-61.035,-13.184,1.000,1.000
1626062416506576.000,39.062,-76.660,-32.715,1.000,1.000
1626062416510482.250,-11.719,-60.547,-39.062,1.000,1.000
1626062416514388.500,-122.070,-45.410,-48.340,1.000,1.000
1626062416518294.750,-78.613,-24.902,-45.898,1.000,1.000
1626062416522201.000,27.832,-24.414,-30.762,1.000,1.000
1626062416526107.250,9.766,-42.969,-24.902,1.000,1.000
1626062416530013.500,-83.496,-45.410,-20.996,1.000,1.000
1626062416533919.750,-90.820,-28.320,-27.832,1.000,1.000
1626062416537826.000,7.324,-11.719,-26.855,1.000,1.000
1626062416541732.250,19.531,-33.203,-33.691,1.000,1.000
1626062416545638.500,-75.684,-64.941,-75.684,1.000,1.000
1626062416549544.750,-100.098,-67.383,-72.266,-394.043,1.000
1626062416553451.000,-2.441,-33.691,-18.066,124.512,1.000
1626062416557357.250,50.293,-1.953,2.441,383.789,1.000
1626062416561263.500,-51.270,-10.254,-11.230,-95.703,1.000
1626062416565169.750,-128.418,-21.484,-18.555,-459.473,1.000
1626062416569076.000,-51.270,-12.695,-24.902,-59.082,1.000
1626062416572982.250,49.805,-11.719,-27.344,388.672,1.000
1626062416576888.500,0.488,-31.738,-37.598,79.590,1.000
1626062416580794.750,-113.281,-51.270,-48.828,-427.246,1.000
1626062416584701.000,-79.102,-33.203,-31.738,-214.844,1.000
1626062416588607.250,24.902,-24.902,-26.367,314.453,1.000
1626062416592513.500,19.043,-20.020,-15.137,218.750,1.000
1626062416596419.750,26.855,-58.105,-54.199,114.746,1.000
1626062416600326.000,-28.320,-71.289,-39.062,-398.926,1.000
1626062416604232.250,-98.145,-63.477,-28.809,-257.324,1.000
1626062416608138.500,-54.688,-33.691,-29.297,293.945,1.000
1626062416612044.750,47.363,-0.488,-20.508,277.832,1.000
1626062416615951.000,14.160,-22.949,-28.809,-264.648,1.000
1626062416619857.250,-101.074,-33.691,-49.316,-363.770,1.000
1626062416623763.500,-79.102,-29.785,-28.320,159.668,1.000
1626062416627669.750,36.621,-42.480,2.441,332.031,1.000
1626062416631576.000,52.734,-35.156,5.371,-146.973,1.000
1626062416635482.250,-55.664,-41.992,-11.230,-411.133,1.000
1626062416639388.500,-98.145,-37.598,-10.742,13.672,1.000
1626062416643294.750,-12.695,-23.438,-16.602,1.000,1.000
1626062416647201.000,42.480,-26.367,-33.203,1.000,1.000
1626062416651107.250,-29.297,-43.457,-52.734,1.000,1.000
1626062416655013.500,-114.258,-52.246,-68.848,1.000,1.000
1626062416658919.750,-38.574,-24.902,-47.852,1.000,1.000
1626062416662826.000,63.965,-19.043,-27.344,1.000,1.000
1626062416666732.250,10.742,-44.434,-19.531,1.000,1.000
1626062416670638.500,-83.496,-57.617,-17.578,1.000,1.000
1626062416674544.750,-69.824,-67.383,-21.973,1.000,1.000
1626062416678451.000,24.902,-42.969,-15.625,1.000,1.000
1626062416682357.250,20.996,-9.277,-18.555,1.000,1.000
1626062416686263.500,-80.078,-8.301,-25.879,1.000,1.000
1626062416690169.750,-92.285,-26.367,-29.785,1.000,1.000
1626062416694076.000,6.836,-48.340,-42.969,1.000,1.000
1626062416697982.250,44.434,-38.086,-50.293,1.000,1.000
1626062416701888.500,-53.711,-28.809,-53.711,1.000,1.000
1626062416705794.750,-102.539,-25.879,-37.109,1.000,1.000
1626062416709701.000,-10.254,-25.391,-34.180,1.000,1.000
1626062416713607.250,64.453,-25.879,-35.645,1.000,1.000
1626062416717513.500,-12.695,-31.250,-19.043,1.000,1.000
1626062416721419.750,-118.652,-30.762,-26.367,1.000,1.000
1626062416725326.000,-62.012,-21.484,-27.344,1.000,1.000
1626062416729232.250,20.508,-33.691,-39.551,1.000,1.000
1626062416733138.500,-24.414,-47.852,-57.129,1.000,1.000
1626062416737044.750,-114.258,-53.711,-49.805,-412.109,1.000
1626062416740951.000,-83.496,-41.504,-38.086,-238.281,1.000
1626062416744857.250,22.949,-47.852,-32.715,299.805,1.000
1626062416748763.500,9.766,-55.664,-47.852,227.051,1.000
1626062416752669.750,-85.938,-49.316,-41.504,-311.523,1.000
1626062416756576.000,-89.844,-45.898,-24.902,-348.633,1.000
1626062416760482.250,14.648,-37.109,-21.484,191.895,1.000
1626062416764388.500,45.410,-35.156,-30.273,342.773,1.000
1626062416768294.750,-57.617,-36.133,-47.852,-180.664,1.000
1626062416772201.000,-107.422,-18.555,-50.293,-427.246,1.000
1626062416776107.250,-30.273,-26.855,-45.898,32.715,1.000
1626062416780013.500,50.293,-26.367,-28.809,391.602,1.000
1626062416783919.750,70.801,-35.156,-32.227,376.953,1.000
1626062416787826.000,-23.438,-43.457,-36.133,-112.305,1.000
1626062416791732.250,-101.562,-41.504,-18.555,-437.500,1.000
1626062416795638.500,-45.898,-42.480,-20.020,-36.133,1.000
1626062416799544.750,33.691,-27.832,-19.043,365.234,1.000
1626062416803451.000,-12.695,-16.113,-11.719,49.316,1.000
1626062416807357.250,-99.121,-29.785,-12.207,-411.133,1.000
1626062416811263.500,-79.590,-59.082,-23.438,-191.406,1.000
1626062416815169.750,0.488,-56.152,-43.945,308.105,1.000
1626062416819076.000,0.488,-36.621,-45.898,180.176,1.000
1626062416822982.250,-96.191,-29.785,-44.922,-354.492,1.000
1626062416826888.500,-97.168,-8.301,-34.668,-313.965,1.000
1626062416830794.750,-8.301,-20.508,-32.715,1.000,1.000
1626062416834701.000,-1.953,-55.664,-34.668,1.000,1.000
1626062416838607.250,-80.566,-49.316,-28.809,1.000,1.000
1626062416842513.500,-121.582,-55.664,-42.480,1.000,1.000
1626062416846419.750,-25.391,-54.688,-29.785,1.000,1.000
1626062416850326.000,37.598,-39.062,-24.414,1.000,1.000
1626062416854232.250,-46.875,-43.457,-38.086,1.000,1.000
1626062416858138.500,-107.422,-34.180,-25.391,1.000,1.000
1626062416862044.750,-44.922,-27.832,-19.043,1.000,1.000
1626062416865951.000,37.598,-18.066,-31.250,1.000,1.000
1626062416869857.250,-12.207,-14.160,-67.871,1.000,1.000
1626062416873763.500,-112.793,-21.484,-48.828,1.000,1.000
1626062416877669.750,-77.148,-41.016,-0.977,1.000,1.000
1626062416881576.000,23.926,-55.664,-5.371,1.000,1.000
1626062416885482.250,19.043,-42.969,-28.320,1.000,1.000
1626062416889388.500,-86.914,-36.621,-43.945,1.000,1.000
1626062416893294.750,-100.098,-35.156,-33.691,1.000,1.000
1626062416897201.000,12.695,-20.020,-13.672,1.000,1.000
1626062416901107.250,48.340,-23.438,-8.301,1.000,1.000
1626062416905013.500,-51.758,-47.852,-23.438,1.000,1.000
1626062416908919.750,-113.281,-47.363,-43.945,1.000,1.000
1626062416912826.000,-19.043,-13.672,-37.109,1.000,1.000
1626062416916732.250,54.199,1.465,-22.461,1.000,1.000
1626062416920638.500,-9.766,3.906,-10.742,1.000,1.000
1626062416924544.750,-108.887,-28.320,-22.461,-440.430,1.000
1626062416928451.000,-73.242,-52.246,-31.250,-132.812,1.000
1626062416932357.250,46.875,-24.902,-18.555,374.023,1.000
1626062416936263.500,13.184,-35.156,-48.828,143.066,1.000
1626062416940169.750,-99.609,-53.223,-43.945,-389.648,1.000
1626062416944076.000,-94.238,-42.480,-25.879,-262.695,1.000
1626062416947982.250,9.277,-42.480,-35.156,278.809,1.000
1626062416951888.500,31.738,-39.551,-16.602,262.207,1.000
1626062416955794.750,-71.777,-25.391,-10.742,-284.668,1.000
1626062416959701.000,-104.980,-18.066,-24.902,-375.488,1.000
1626062416963607.250,-3.906,-21.484,-38.574,154.297,1.000
1626062416967513.500,41.016,-25.879,-35.645,348.633,1.000
1626062416971419.750,-47.363,-23.438,-39.062,-148.926,1.000
1626062416975326.000,-106.445,-26.855,-82.031,-444.824,1.000
1626062416979232.250,-26.855,-33.203,-68.359,-2.930,1.000
1626062416983138.500,26.367,-57.617,-20.508,359.375,1.000
1626062416987044.750,-35.645,-55.664,-10.742,-4.395,1.000
1626062416990951.000,-105.957,-18.066,-16.602,-435.547,1.000
1626062416994857.250,-53.711,-26.367,-36.621,-156.250,1.000
1626062416998763.500,54.688,-43.457,-49.316,355.957,1.000
1626062417002669.750,21.973,-32.227,-35.156,183.105,1.000
1626062417006576.000,-97.168,-26.367,-13.672,-370.117,1.000
1626062417010482.250,-90.332,-29.297,-2.441,-307.617,1.000
1626062417014388.500,18.555,-23.438,-12.695,250.000,1.000
1626062417018294.750,13.184,-17.578,-36.133,279.297,1.000
1626062417022201.000,-3.418,-20.996,-39.551,-268.555,1.000
1626062417026107.250,-89.844,-37.109,-34.668,-406.250,1.000
1626062417030013.500,-100.098,-48.340,-47.363,96.680,1.000
1626062417033919.750,0.000,-30.762,-40.527,347.168,1.000
1626062417037826.000,34.180,-26.855,-41.992,-105.469,1.000
1626062417041732.250,-69.336,-51.758,-51.270,-448.242,1.000
1626062417045638.500,-115.723,-55.664,-44.922,-41.016,1.000
1626062417049544.750,-23.438,-41.992,-27.832,386.230,1.000
1626062417053451.000,45.410,-32.227,-21.484,74.707,1.000
1626062417057357.250,-24.414,-41.992,-29.785,-425.293,1.000
1626062417061263.500,-99.121,-33.691,-32.715,-217.285,1.000
1626062417065169.750,-56.152,-10.254,-43.457,1.000,1.000
1626062417069076.000,32.227,-24.414,-40.039,1.000,1.000
1626062417072982.250,19.043,-41.992,-20.996,1.000,1.000
1626062417076888.500,-97.656,-42.480,-37.109,1.000,1.000
1626062417080794.750,-81.055,-25.879,-32.715,1.000,1.000
1626062417084701.000,26.367,-33.691,-26.855,1.000,1.000
1626062417088607.250,17.578,-49.805,-40.039,1.000,1.000
1626062417092513.500,-74.219,-46.387,-26.367,1.000,1.000
1626062417096419.750,-92.773,-45.410,-22.461,1.000,1.000
1626062417100326.000,7.812,-14.648,-20.508,1.000,1.000
1626062417104232.250,50.293,-8.301,-20.996,1.000,1.000
1626062417108138.500,-28.809,-28.320,-21.973,1.000,1.000
1626062417112044.750,-93.262,-47.852,-31.738,-419.434,1.000
1626062417115951.000,-29.297,-51.758,-39.062,28.320,1.000
1626062417119857.250,45.410,-14.648,-29.297,378.906,1.000
1626062417123763.500,-35.156,-17.090,-30.273,-24.902,1.000
1626062417127669.750,-118.164,-34.668,-31.250,-454.590,1.000
1626062417131576.000,-56.152,-34.180,-42.480,-150.391,1.000
1626062417135482.250,47.363,-34.180,-39.062,348.633,1.000
1626062417139388.500,20.996,-32.715,-20.996,158.203,1.000
1626062417143294.750,-92.285,-40.039,-20.996,-383.789,1.000
1626062417147201.000,-85.938,-44.922,-39.551,-298.828,1.000
1626062417151107.250,16.113,-45.898,-40.039,241.211,1.000
1626062417155013.500,32.227,-29.297,-18.066,265.625,1.000
1626062417158919.750,22.461,-14.648,-32.227,205.566,1.000
1626062417162826.000,-87.402,-14.648,-47.852,-340.820,1.000
1626062417166732.250,-87.891,-4.883,-39.062,-315.918,1.000
1626062417170638.500,-1.953,-15.137,-36.133,215.332,1.000
1626062417174544.750,26.367,-36.133,-27.832,293.945,1.000
1626062417178451.000,-49.805,-49.805,-18.555,-208.008,1.000
1626062417182357.250,-104.492,-60.059,-50.781,-400.879,1.000
1626062417186263.500,-20.508,-65.430,-46.387,74.707,1.000
1626062417190169.750,41.992,-56.641,-19.043,362.305,1.000
1626062417194076.000,-31.738,-20.996,-18.066,-63.477,1.000
1626062417197982.250,-124.023,-11.719,-24.902,-449.707,1.000
1626062417201888.500,-60.547,-14.648,-28.320,-78.613,1.000
1626062417205794.750,50.781,-7.324,-21.484,1.000,1.000
1626062417209701.000,7.812,-13.672,-29.297,1.000,1.000
1626062417213607.250,-100.586,-38.086,-41.504,1.000,1.000
1626062417217513.500,-77.637,-53.223,-35.156,1.000,1.000
1626062417221419.750,30.273,-42.480,-21.484,1.000,1.000
1626062417225326.000,13.184,-63.477,-33.691,1.000,1.000
1626062417229232.250,-90.332,-57.617,-49.316,1.000,1.000
1626062417233138.500,-91.797,-32.227,-36.621,1.000,1.000
1626062417237044.750,6.348,-35.645,-33.203,1.000,1.000
1626062417240951.000,49.316,-30.762,-36.621,1.000,1.000
1626062417244857.250,-56.152,-43.457,-55.664,1.000,1.000
1626062417248763.500,-112.305,-39.062,-55.664,1.000,1.000
1626062417252669.750,-10.742,-32.227,-36.621,35.645,1.000
1626062417256576.000,58.105,-29.785,-27.344,376.465,1.000
1626062417260482.250,-6.836,-14.160,-21.973,-10.254,1.000
1626062417264388.500,-106.934,-26.855,-33.691,-450.684,1.000
1626062417268294.750,-56.641,-40.039,-30.273,-107.422,1.000
1626062417272201.000,42.969,-35.645,-25.391,325.195,1.000
1626062417276107.250,4.883,-36.133,-39.551,53.223,1.000
1626062417280013.500,-79.590,-15.137,-38.574,-363.770,1.000
1626062417283919.750,-79.590,-26.367,-38.086,-253.906,1.000
1626062417287826.000,9.277,-54.688,-30.273,274.414,1.000
1626062417291732.250,16.113,-33.691,-29.785,261.719,1.000
1626062417295638.500,-70.801,-21.973,-22.949,-270.996,1.000
1626062417299544.750,-104.980,-41.016,-21.973,1.000,1.000
1626062417303451.000,-21.973,-31.250,-41.504,1.000,1.000
1626062417307357.250,41.504,-18.555,-40.039,1.000,1.000
1626062417311263.500,-40.039,-52.246,-21.484,1.000,1.000
1626062417315169.750,-108.887,-48.340,-1.953,1.000,1.000
1626062417319076.000,-41.992,-39.551,-28.320,1.000,1.000
1626062417322982.250,36.133,-51.270,-54.688,1.000,1.000
1626062417326888.500,-0.977,-32.715,-57.617,1.000,1.000
1626062417330794.750,-83.496,-32.227,-41.504,1.000,1.000
1626062417334701.000,-52.734,-34.668,-16.602,1.000,1.000
1626062417338607.250,24.414,-30.273,-39.062,1.000,1.000
1626062417342513.500,2.930,-38.086,-33.691,1.000,1.000
1626062417346419.750,44.922,-28.809,-27.344,380.371,1.000
1626062417350326.000,-32.227,-47.852,-38.574,-45.898,1.000
1626062417354232.250,-99.121,-36.621,-37.598,-415.527,1.000
1626062417358138.500,-44.922,-26.367,-32.715,-78.613,1.000
1626062417362044.750,38.574,-19.043,-21.973,366.699,1.000
1626062417365951.000,-0.977,-19.531,-13.672,124.023,1.000
1626062417369857.250,-94.727,-32.715,-19.531,-385.254,1.000
1626062417373763.500,-72.266,-31.738,-20.996,-237.305,1.000
1626062417377669.750,27.344,-17.090,-20.020,299.316,1.000
1626062417381576.000,43.457,-12.695,-21.484,265.137,1.000
1626062417385482.250,-65.430,-28.320,-32.715,-289.062,1.000
1626062417389388.500,-96.191,-7.812,-27.344,-362.305,1.000
1626062417393294.750,-5.371,-25.879,-33.691,1.000,1.000
1626062417397201.000,26.367,-70.801,-57.129,1.000,1.000
1626062417401107.250,-49.805,-53.223,-38.574,1.000,1.000
1626062417405013.500,-109.863,-37.598,-19.531,1.000,1.000
1626062417408919.750,-31.738,-19.043,-9.277,1.000,1.000
1626062417412826.000,49.805,-3.418,-12.207,1.000,1.000
1626062417416732.250,-14.160,-20.996,-31.738,1.000,1.000
1626062417420638.500,-102.051,-33.691,-33.203,1.000,1.000
1626062417424544.750,-59.570,-36.133,-24.902,1.000,1.000
1626062417428451.000,34.668,-27.832,-27.344,1.000,1.000
1626062417432357.250,8.301,-52.734,-52.246,1.000,1.000
1626062417436263.500,-81.055,-62.500,-62.988,1.000,1.000
1626062417440169.750,-67.871,-12.207,-36.133,1.000,1.000
1626062417444076.000,24.414,5.859,-8.789,1.000,1.000
1626062417447982.250,24.414,-12.695,-4.883,1.000,1.000
1626062417451888.500,-89.355,-40.039,-17.578,1.000,1.000
1626062417455794.750,-115.723,-39.062,-21.484,1.000,1.000
1626062417459701.000,-5.371,-14.648,-21.484,1.000,1.000
1626062417463607.250,59.570,-16.602,-24.414,1.000,1.000
1626062417467513.500,-18.066,-27.344,-41.016,1.000,1.000
1626062417471419.750,-106.445,-36.133,-59.570,1.000,1.000
1626062417475326.000,-39.551,-38.574,-37.598,1.000,1.000
1626062417479232.250,62.500,-30.273,-23.926,1.000,1.000
1626062417483138.500,16.602,-12.207,-32.715,1.000,1.000
1626062417487044.750,-107.910,-36.621,-58.594,1.000,1.000
1626062417490951.000,-92.285,-51.270,-49.805,1.000,1.000
1626062417494857.250,33.203,-40.039,-26.367,1.000,1.000
1626062417498763.500,36.621,-59.570,-29.785,1.000,1.000
1626062417502669.750,-65.430,-41.504,-20.020,1.000,1.000
1626062417506576.000,-85.938,-27.832,-30.273,1.000,1.000
1626062417510482.250,12.695,-25.879,-26.367,1.000,1.000
1626062417514388.500,47.852,-17.578,-19.531,1.000,1.000
1626062417518294.750,-37.109,-30.762,-40.039,1.000,1.000
1626062417522201.000,-82.031,-27.832,-41.504,1.000,1.000
1626062417526107.250,-22.461,-20.996,-44.434,1.000,1.000
1626062417530013.500,33.691,-14.648,-43.457,1.000,1.000
1626062417533919.750,-36.621,-14.160,-38.574,-82.031,1.000
1626062417537826.000,-106.934,-27.344,-40.039,-461.426,1.000
1626062417541732.250,-35.645,-41.016,-45.898,-93.750,1.000
1626062417545638.500,45.898,-29.297,-44.922,352.051,1.000
1626062417549544.750,-9.766,0.488,-56.641,72.754,1.000
1626062417553451.000,-113.281,13.184,-66.406,-444.336,1.000
1626062417557357.250,-91.309,12.207,-56.152,-285.156,1.000
1626062417561263.500,7.812,-6.836,-60.059,244.141,1.000
1626062417565169.750,5.859,-0.977,-80.078,175.781,1.000
1626062417569076.000,-92.285,27.344,-83.008,-373.047,1.000
1626062417572982.250,-114.746,20.020,-71.777,-418.457,1.000
1626062417576888.500,-13.184,31.738,-74.707,117.676,1.000
1626062417580794.750,16.602,9.766,-68.848,271.484,1.000
1626062417584701.000,20.508,21.973,-65.918,-228.516,1.000
1626062417588607.250,-81.543,3.418,-63.965,-485.352,1.000
1626062417592513.500,-113.770,-35.645,-59.082,-4.395,1.000
1626062417596419.750,1.465,-25.391,-41.992,352.539,1.000
1626062417600326.000,57.617,4.395,-52.246,-55.176,1.000
1626062417604232.250,-40.527,0.488,-87.891,-491.699,1.000
1626062417608138.500,-109.863,0.488,-73.730,-167.480,1.000
1626062417612044.750,-54.688,-20.020,-54.688,334.473,1.000
1626062417615951.000,48.340,-20.996,-46.387,124.512,1.000
1626062417619857.250,-2.930,-21.973,-53.711,-412.109,1.000
1626062417623763.500,-117.188,-31.738,-55.664,-318.359,1.000
1626062417627669.750,-80.078,-32.227,-45.898,1.000,1.000
1626062417631576.000,22.461,-12.695,-52.734,1.000,1.000
1626062417635482.250,30.273,18.066,-47.852,1.000,1.000
1626062417639388.500,-64.453,7.812,-42.480,1.000,1.000
1626062417643294.750,-85.449,-6.836,-47.852,1.000,1.000
1626062417647201.000,-1.953,-25.879,-55.176,1.000,1.000
1626062417651107.250,12.695,-41.504,-64.941,1.000,1.000
1626062417655013.500,-69.336,-39.062,-57.129,1.000,1.000
1626062417658919.750,-115.234,-35.156,-60.547,1.000,1.000
1626062417662826.000,-26.855,-19.043,-52.734,1.000,1.000
1626062417666732.250,31.250,-34.668,-40.527,1.000,1.000
1626062417670638.500,-46.387,-41.016,-41.992,1.000,1.000
1626062417674544.750,-105.957,-0.977,-31.250,-451.172,1.000
1626062417678451.000,-29.297,6.348,-16.113,-48.340,1.000
1626062417682357.250,67.871,-16.602,-7.324,402.832,1.000
1626062417686263.500,4.395,-49.316,-38.086,90.820,1.000
1626062417690169.750,-104.492,-45.898,-65.430,-420.410,1.000
1626062417694076.000,-72.266,-7.324,-53.711,-213.867,1.000
1626062417697982.250,40.527,-4.883,-28.320,321.777,1.000
1626062417701888.500,41.504,-19.531,-26.367,229.004,1.000
1626062417705794.750,-71.289,-32.227,-41.992,-318.359,1.000
1626062417709701.000,-78.613,-17.578,-36.133,-326.172,1.000
1626062417713607.250,19.531,-7.324,-35.156,213.867,1.000
1626062417717513.500,45.898,-5.371,-44.922,324.219,1.000
1626062417721419.750,24.902,-16.113,-40.039,254.395,1.000
1626062417725326.000,-76.172,-36.621,-38.574,-286.133,1.000
1626062417729232.250,-109.863,-45.898,-35.645,-377.930,1.000
1626062417733138.500,-27.344,-65.918,-28.320,134.277,1.000
1626062417737044.750,24.414,-41.992,-16.602,326.660,1.000
1626062417740951.000,-53.223,-17.578,-31.250,-158.203,1.000
1626062417744857.250,-108.398,-20.508,-33.203,-443.359,1.000
1626062417748763.500,-31.250,-23.438,-30.762,-4.395,1.000
1626062417752669.750,32.227,-25.391,-41.504,361.816,1.000
1626062417756576.000,-20.508,-30.273,-45.898,5.859,1.000
1626062417760482.250,-97.168,-62.012,-44.434,-431.152,1.000
1626062417764388.500,-42.969,-50.293,-18.555,-143.555,1.000
1626062417768294.750,45.410,-29.297,-14.160,1.000,1.000
1626062417772201.000,7.324,-32.715,-39.551,1.000,1.000
1626062417776107.250,-90.820,-8.789,-49.316,1.000,1.000
1626062417780013.500,-90.820,-11.719,-46.387,1.000,1.000
1626062417783919.750,13.672,-16.602,-29.297,1.000,1.000
1626062417787826.000,34.668,-13.184,-21.484,1.000,1.000
1626062417791732.250,-57.129,-25.391,-16.602,1.000,1.000
1626062417795638.500,-89.844,-26.367,-12.207,1.000,1.000
1626062417799544.750,-3.906,-18.066,-17.090,1.000,1.000
1626062417803451.000,50.293,-39.551,-22.949,1.000,1.000
1626062417807357.250,-39.551,-67.383,-51.758,1.000,1.000
1626062417811263.500,-119.141,-59.570,-53.711,1.000,1.000
1626062417815169.750,-41.504,-30.762,-22.461,1.000,1.000
1626062417819076.000,41.992,-3.418,-29.785,1.000,1.000
1626062417822982.250,-1.953,7.324,-24.414,1.000,1.000
1626062417826888.500,-101.562,0.977,-10.254,1.000,1.000
1626062417830794.750,-77.637,-16.602,-17.578,1.000,1.000
1626062417834701.000,27.832,-24.414,-20.508,1.000,1.000
1626062417838607.250,30.762,-21.484,-25.879,1.000,1.000
1626062417842513.500,-72.266,-55.176,-31.250,1.000,1.000
1626062417846419.750,-102.051,-78.613,-39.551,1.000,1.000
1626062417850326.000,16.113,-40.527,-39.062,1.000,1.000
1626062417854232.250,63.965,-20.508,-30.762,1.000,1.000
1626062417858138.500,-39.551,-18.066,-24.902,1.000,1.000
1626062417862044.750,-118.164,-23.438,-31.250,1.000,1.000
1626062417865951.000,-34.180,-27.832,-25.879,1.000,1.000
1626062417869857.250,48.828,-30.762,-13.184,1.000,1.000
1626062417873763.500,-23.438,-48.340,-32.227,1.000,1.000
1626062417877669.750,-113.770,-49.805,-36.133,1.000,1.000
1626062417881576.000,-68.848,-29.297,-22.949,1.000,1.000
1626062417885482.250,29.297,-39.062,-28.320,1.000,1.000
1626062417889388.500,1.465,-44.922,-39.551,1.000,1.000
1626062417893294.750,-106.445,-40.527,-51.758,1.000,1.000
1626062417897201.000,-88.379,-56.152,-39.551,1.000,1.000
1626062417901107.250,2.441,-63.965,-38.086,1.000,1.000
1626062417905013.500,2.441,-37.598,-43.945,1.000,1.000
1626062417908919.750,-80.566,-14.160,-41.504,-307.129,1.000
1626062417912826.000,-103.516,-17.090,-44.434,-363.281,1.000
1626062417916732.250,2.441,-29.785,-40.527,179.688,1.000
1626062417920638.500,47.363,-49.805,-43.457,338.379,1.000
1626062417924544.750,-25.879,-38.086,-40.039,-154.785,1.000
1626062417928451.000,-83.008,-27.832,-24.902,-400.391,1.000
1626062417932357.250,-29.297,-25.879,-30.762,31.738,1.000
1626062417936263.500,35.645,-9.766,-40.039,366.211,1.000
1626062417940169.750,-34.180,-28.320,-36.133,-19.531,1.000
1626062417944076.000,-111.328,-35.645,-35.156,-442.383,1.000
1626062417947982.250,-41.992,-24.414,-29.785,-133.789,1.000
1626062417951888.500,77.637,-43.945,-13.672,376.953,1.000
1626062417955794.750,62.500,-31.250,-6.836,164.062,1.000
1626062417959701.000,11.719,-19.531,-30.762,-391.602,1.000
1626062417963607.250,-92.285,2.441,-36.133,-294.922,1.000
1626062417967513.500,-80.566,-10.742,-52.734,246.582,1.000
1626062417971419.750,33.203,-11.719,-45.898,257.324,1.000
1626062417975326.000,35.645,-25.391,-19.531,-280.273,1.000
1626062417979232.250,-66.895,-72.754,-23.926,-392.090,1.000
1626062417983138.500,-86.426,-59.082,-39.062,141.602,1.000
1626062417987044.750,-6.348,-26.367,-38.086,358.887,1.000
1626062417990951.000,29.297,-2.441,-32.227,-134.277,1.000
1626062417994857.250,-60.059,-14.648,-47.852,-453.613,1.000
1626062417998763.500,-98.145,-45.410,-28.320,-16.602,1.000
1626062418002669.750,-15.625,-31.250,-21.484,1.000,1.000
1626062418006576.000,22.949,-38.086,-62.988,1.000,1.000
1626062418010482.250,-36.621,-42.480,-56.641,1.000,1.000
1626062418014388.500,-99.121,-36.133,-30.273,1.000,1.000
1626062418018294.750,-40.039,-39.551,-25.879,1.000,1.000
1626062418022201.000,36.133,-38.086,-28.320,1.000,1.000
1626062418026107.250,-9.277,-14.648,-25.391,1.000,1.000
1626062418030013.500,-77.637,1.953,-13.184,1.000,1.000
1626062418033919.750,-57.617,-23.438,-22.949,1.000,1.000
1626062418037826.000,38.086,-42.480,-26.367,1.000,1.000
1626062418041732.250,27.344,-56.641,-27.344,1.000,1.000
1626062418045638.500,-75.684,-62.500,-41.504,1.000,1.000
1626062418049544.750,-94.238,-57.617,-59.570,-341.797,1.000
1626062418053451.000,-20.020,-27.832,-54.199,167.480,1.000
1626062418057357.250,20.996,-0.488,-22.461,302.734,1.000
1626062418061263.500,-66.406,-28.809,-25.391,-198.242,1.000
1626062418065169.750,-109.863,-17.090,-30.762,-423.828,1.000
1626062418069076.000,-12.207,-1.465,-24.414,57.617,1.000
1626062418072982.250,56.641,-24.902,-29.297,383.301,1.000
1626062418076888.500,-11.719,-41.016,-25.391,-18.066,1.000
1626062418080794.750,-104.980,-45.410,-31.738,-439.453,1.000
1626062418084701.000,-51.758,-27.344,-36.621,-120.605,1.000
1626062418088607.250,39.551,-38.574,-32.715,352.051,1.000
1626062418092513.500,10.742,-47.852,-36.133,129.395,1.000
1626062418096419.750,0.488,-18.555,-32.715,30.273,1.000
1626062418100326.000,-97.656,-14.160,-46.875,-431.641,1.000
1626062418104232.250,-69.336,-11.719,-34.180,-165.039,1.000
1626062418108138.500,29.785,-15.137,-33.691,339.355,1.000
1626062418112044.750,25.879,-16.602,-41.504,175.781,1.000
1626062418115951.000,-58.594,-21.973,-45.410,-343.750,1.000
1626062418119857.250,-61.523,-46.875,-39.062,-287.109,1.000
1626062418123763.500,49.316,-29.785,-20.508,256.836,1.000
1626062418127669.750,57.617,-21.484,-20.996,292.969,1.000
1626062418131576.000,-52.246,-34.180,-16.113,-241.699,1.000
1626062418135482.250,-88.379,-33.203,-22.949,-391.602,1.000
1626062418139388.500,-6.348,-3.418,-43.457,104.492,1.000
1626062418143294.750,19.531,-19.531,-37.109,349.609,1.000
1626062418147201.000,56.152,-44.922,-39.551,-109.863,1.000
1626062418151107.250,-41.504,-39.551,-26.855,-438.965,1.000
1626062418155013.500,-102.539,-32.715,-30.273,-47.363,1.000
1626062418158919.750,-16.602,-19.531,-30.762,372.070,1.000
1626062418162826.000,55.176,-7.324,-19.043,58.105,1.000
1626062418166732.250,-19.043,-23.926,-18.555,-434.570,1.000
1626062418170638.500,-98.145,-31.250,-13.672,-210.449,1.000
1626062418174544.750,-33.691,-38.086,-20.996,336.914,1.000
1626062418178451.000,77.148,-49.316,-11.230,225.586,1.000
1626062418182357.250,41.504,-51.270,-24.902,-342.773,1.000
1626062418186263.500,-92.773,-23.926,-54.688,-348.145,1.000
1626062418190169.750,-91.797,-10.254,-46.875,-258.301,1.000
1626062418194076.000,13.184,-13.184,-27.344,281.250,1.000
1626062418197982.250,19.531,-18.066,-19.531,236.328,1.000
1626062418201888.500,-84.961,-35.156,-33.691,-312.012,1.000
1626062418205794.750,-103.027,-30.762,-36.133,-361.816,1.000
1626062418209701.000,2.930,-44.922,-26.855,186.035,1.000
1626062418213607.250,41.504,-47.363,-25.391,342.285,1.000
1626062418217513.500,-44.434,-27.344,-26.855,-157.227,1.000
1626062418221419.750,-102.539,-31.250,-28.809,-428.223,1.000
1626062418225326.000,-22.949,-23.926,-9.766,13.672,1.000
1626062418229232.250,55.176,-36.621,-14.160,373.047,1.000
1626062418233138.500,-18.066,-71.777,-46.387,-9.277,1.000
1626062418237044.750,26.367,-10.742,-37.109,297.852,1.000
1626062418240951.000,-68.848,-20.020,-31.250,-220.215,1.000
1626062418244857.250,-110.840,-25.391,-26.855,-410.156,1.000
1626062418248763.500,-26.855,-44.922,-35.645,84.961,1.000
1626062418252669.750,30.273,-35.645,-41.504,351.074,1.000
1626062418256576.000,-21.973,-26.367,-25.391,-69.824,1.000
1626062418260482.250,-85.938,-66.895,-23.438,-406.250,1.000
1626062418264388.500,-33.691,-78.613,-29.297,-53.223,1.000
1626062418268294.750,44.434,-68.359,-39.551,377.441,1.000
1626062418272201.000,-11.230,-39.551,-49.316,88.867,1.000
1626062418276107.250,-113.770,-4.395,-42.480,-414.551,1.000
1626062418280013.500,-83.496,19.531,-18.066,-224.609,1.000
1626062418283919.750,12.695,0.488,-20.020,1.000,1.000
1626062418287826.000,3.418,-39.062,-36.621,1.000,1.000
1626062418291732.250,-85.938,-48.828,-30.762,1.000,1.000
1626062418295638.500,-113.770,-50.781,-46.387,1.000,1.000
1626062418299544.750,-6.348,-68.359,-36.133,1.000,1.000
1626062418303451.000,33.203,-87.402,-21.973,1.000,1.000
1626062418307357.250,-65.430,-49.316,-26.367,1.000,1.000
1626062418311263.500,-114.746,-5.859,-41.504,1.000,1.000
1626062418315169.750,-27.832,5.371,-44.434,1.000,1.000
1626062418319076.000,50.293,7.812,-11.230,1.000,1.000
1626062418322982.250,-30.762,-14.160,-28.809,1.000,1.000
1626062418326888.500,-113.281,-26.367,-43.945,1.000,1.000
1626062418330794.750,-40.039,-33.691,-15.625,1.000,1.000
1626062418334701.000,56.152,-40.039,-30.762,1.000,1.000
1626062418338607.250,29.297,-22.461,-45.410,1.000,1.000
1626062418342513.500,-89.355,-40.039,-48.828,1.000,1.000
1626062418346419.750,-102.539,-27.344,-32.227,1.000,1.000
1626062418350326.000,10.254,-21.973,-10.742,1.000,1.000
1626062418354232.250,37.109,-31.250,-18.555,1.000,1.000
1626062418358138.500,-56.641,-10.254,-25.879,1.000,1.000
1626062418362044.750,-103.516,-41.016,-46.875,1.000,1.000
1626062418365951.000,0.488,-56.641,-45.410,1.000,1.000
1626062418369857.250,68.359,-31.738,-25.879,1.000,1.000
1626062418373763.500,-16.602,-7.324,-23.926,1.000,1.000
1626062418377669.750,-93.262,-29.785,-36.133,1.000,1.000
1626062418381576.000,-25.391,-50.781,-24.902,1.000,1.000
1626062418385482.250,69.336,-13.672,-7.324,1.000,1.000
1626062418389388.500,6.348,-4.395,-24.902,1.000,1.000
1626062418393294.750,-101.562,-26.367,-40.039,1.000,1.000
1626062418397201.000,-76.660,-57.617,-46.875,1.000,1.000
1626062418401107.250,39.062,-53.711,-37.109,1.000,1.000
1626062418405013.500,26.367,-3.418,-28.809,1.000,1.000
1626062418408919.750,-84.961,-19.043,-39.062,1.000,1.000
1626062418412826.000,-47.363,-45.898,-45.410,1.000,1.000
1626062418416732.250,30.273,-35.156,-53.223,1.000,1.000
1626062418420638.500,4.395,-24.902,-29.785,1.000,1.000
1626062418424544.750,-83.984,-21.973,-49.316,-399.902,1.000
1626062418428451.000,-64.453,-27.832,-62.012,-184.570,1.000
1626062418432357.250,38.086,-33.203,-15.137,334.961,1.000
1626062418436263.500,27.344,-48.828,6.836,205.566,1.000
1626062418440169.750,-73.242,-49.316,-11.719,-347.656,1.000
1626062418444076.000,-89.844,-48.828,-33.203,-337.891,1.000
1626062418447982.250,11.230,-43.457,-28.809,212.891,1.000
1626062418451888.500,30.273,-20.508,-44.434,287.109,1.000
1626062418455794.750,-68.359,-16.602,-56.641,-248.047,1.000
1626062418459701.000,-100.098,-10.742,-35.156,-419.922,1.000
1626062418463607.250,-10.742,-10.254,-48.340,81.055,1.000
1626062418467513.500,54.688,-25.391,-45.410,366.699,1.000
1626062418471419.750,55.664,-3.906,-27.832,347.168,1.000
1626062418475326.000,-48.828,-12.207,-18.066,-173.828,1.000
1626062418479232.250,-126.465,-20.020,-28.809,-449.219,1.000
1626062418483138.500,-48.340,-41.992,-33.691,6.348,1.000
1626062418487044.750,46.875,-34.668,-29.785,369.629,1.000
1626062418490951.000,-1.953,-29.297,-32.715,8.301,1.000
1626062418494857.250,-92.773,-57.617,-43.457,-411.133,1.000
1626062418498763.500,-52.734,-72.266,-37.598,-117.676,1.000
1626062418502669.750,29.297,-31.738,-34.180,348.633,1.000
1626062418506576.000,1.465,-4.395,-26.855,137.695,1.000
1626062418510482.250,-95.703,-22.461,-23.438,-375.488,1.000
1626062418514388.500,-86.914,-25.391,-21.484,-268.555,1.000
1626062418518294.750,13.184,-41.992,-33.203,1.000,1.000
1626062418522201.000,29.297,-51.758,-41.016,1.000,1.000
1626062418526107.250,-66.895,-44.434,-33.691,1.000,1.000
1626062418530013.500,-89.355,-30.273,-30.762,1.000,1.000
1626062418533919.750,16.602,-21.973,-29.297,1.000,1.000
1626062418537826.000,49.316,-31.250,-49.316,1.000,1.000
1626062418541732.250,-30.273,-17.578,-44.922,1.000,1.000
1626062418545638.500,-86.914,-3.906,-35.645,1.000,1.000
1626062418549544.750,-6.348,2.441,-29.297,1.000,1.000
1626062418553451.000,79.102,-6.836,-31.738,1.000,1.000
1626062418557357.250,12.695,-33.691,-45.410,1.000,1.000
1626062418561263.500,-76.172,-43.457,-38.086,1.000,1.000
1626062418565169.750,-23.926,-27.832,-28.320,-129.395,1.000
1626062418569076.000,82.520,-29.297,-22.949,377.441,1.000
1626062418572982.250,52.734,-21.484,-30.273,206.543,1.000
1626062418576888.500,-57.617,-4.395,-40.039,-339.355,1.000
1626062418580794.750,-57.617,-13.184,-37.109,-292.480,1.000
1626062418584701.000,51.758,-32.227,-35.645,268.066,1.000
1626062418588607.250,85.449,-38.086,-30.273,345.703,1.000
1626062418592513.500,-21.484,-22.461,-38.086,-201.660,1.000
1626062418596419.750,-78.125,-4.395,-65.918,-382.324,1.000
1626062418600326.000,10.254,13.672,-59.082,125.977,1.000
1626062418604232.250,64.941,11.719,-22.461,384.277,1.000
1626062418608138.500,-13.184,-27.832,-4.395,-64.453,1.000
1626062418612044.750,-13.672,-22.461,-18.555,-143.555,1.000
1626062418615951.000,-89.844,-27.344,-34.668,-384.277,1.000
1626062418619857.250,-15.137,-15.625,-23.438,76.660,1.000
1626062418623763.500,42.969,-9.766,-29.297,375.488,1.000
1626062418627669.750,-26.855,-17.090,-27.832,-41.992,1.000
1626062418631576.000,-104.004,-25.879,-7.324,-436.523,1.000
1626062418635482.250,-34.668,-18.555,0.977,-86.426,1.000
1626062418639388.500,46.875,-27.344,-29.297,366.699,1.000
1626062418643294.750,-1.465,-36.133,-50.781,125.000,1.000
1626062418647201.000,-92.773,-34.180,-41.016,-373.535,1.000
1626062418651107.250,-74.707,-22.461,-27.344,-239.258,1.000
1626062418655013.500,33.691,-4.883,-2.930,301.758,1.000
1626062418658919.750,51.270,-23.438,-17.578,251.465,1.000
1626062418662826.000,40.039,-6.348,-0.488,-305.176,1.000
1626062418666732.250,-73.730,-28.320,-22.461,-370.605,1.000
1626062418670638.500,-94.727,-43.457,-61.035,176.758,1.000
1626062418674544.750,30.762,-12.695,-35.645,355.469,1.000
1626062418678451.000,51.758,-7.812,-7.812,-158.203,1.000
1626062418682357.250,-43.945,-16.113,-9.766,-437.500,1.000
1626062418686263.500,-94.238,-26.367,-37.598,22.461,1.000
1626062418690169.750,-12.207,-36.133,-46.387,379.395,1.000
1626062418694076.000,58.105,-32.715,-33.691,-6.348,1.000
1626062418697982.250,-20.020,-36.621,-37.598,-448.730,1.000
1626062418701888.500,-90.820,-41.016,-32.227,-150.879,1.000
1626062418705794.750,-25.391,-46.387,-41.992,1.000,1.000
1626062418709701.000,55.664,-31.250,-38.086,1.000,1.000
1626062418713607.250,9.277,-28.320,-21.973,1.000,1.000
1626062418717513.500,-78.125,-32.227,-21.484,1.000,1.000
1626062418721419.750,-49.805,-28.809,-32.715,1.000,1.000
1626062418725326.000,36.621,-32.227,-40.527,1.000,1.000
1626062418729232.250,36.621,-8.789,-38.086,1.000,1.000
1626062418733138.500,-74.707,-8.789,-54.688,1.000,1.000
1626062418737044.750,-97.168,-18.066,-41.016,1.000,1.000
1626062418740951.000,14.160,-20.508,-8.301,1.000,1.000
1626062418744857.250,36.621,-43.945,-12.207,1.000,1.000
1626062418748763.500,-54.688,-62.012,-21.973,1.000,1.000
1626062418752669.750,-93.262,-67.383,-26.855,-402.832,1.000
1626062418756576.000,-19.043,-52.734,-34.668,75.195,1.000
1626062418760482.250,41.504,-15.137,-29.297,367.676,1.000
1626062418764388.500,-33.203,-9.277,-42.480,-71.777,1.000
1626062418768294.750,-109.375,-28.809,-56.152,-455.078,1.000
1626062418772201.000,-49.316,-29.785,-56.641,-97.168,1.000
1626062418776107.250,55.176,-20.508,-43.945,363.770,1.000
1626062418780013.500,7.324,-48.340,-46.387,93.750,1.000
1626062418783919.750,-112.305,-57.129,-41.992,-424.316,1.000
1626062418787826.000,-91.309,-34.180,-13.184,-259.277,1.000
1626062418791732.250,18.555,-10.742,-6.348,288.086,1.000
1626062418795638.500,26.855,-15.625,-17.578,243.164,1.000
1626062418799544.750,8.301,-18.066,-13.184,144.531,1.000
1626062418803451.000,-92.773,-24.414,-27.832,-375.000,1.000
1626062418807357.250,-98.145,-45.898,-36.133,-294.434,1.000
1626062418811263.500,-0.488,-55.664,-19.043,234.863,1.000
1626062418815169.750,22.461,-46.387,-20.996,259.766,1.000
1626062418819076.000,-79.102,-43.945,-47.363,-277.832,1.000
1626062418822982.250,-96.191,-61.523,-33.203,-385.254,1.000
1626062418826888.500,0.488,-57.617,-28.320,141.602,1.000
1626062418830794.750,46.875,-7.812,-27.832,362.793,1.000
1626062418834701.000,-34.668,2.930,-24.414,-109.375,1.000
1626062418838607.250,-110.352,-16.113,-37.598,-430.176,1.000
1626062418842513.500,-38.574,-12.207,-24.902,-19.531,1.000
1626062418846419.750,30.762,-20.508,-33.691,1.000,1.000
1626062418850326.000,-16.113,-31.738,-37.598,1.000,1.000
1626062418854232.250,-97.656,-29.785,-20.996,1.000,1.000
1626062418858138.500,-51.270,-30.273,-10.254,1.000,1.000
1626062418862044.750,57.129,-51.270,-6.348,1.000,1.000
1626062418865951.000,11.230,-74.219,-27.344,1.000,1.000
1626062418869857.250,-83.496,-20.996,-47.852,1.000,1.000
1626062418873763.500,-80.078,16.602,-45.898,1.000,1.000
1626062418877669.750,9.766,-9.277,-19.531,1.000,1.000
1626062418881576.000,32.715,-35.156,-13.184,1.000,1.000
1626062418885482.250,-81.055,-51.270,-41.992,1.000,1.000
1626062418889388.500,-117.676,-20.996,-35.645,1.000,1.000
1626062418893294.750,-13.672,-4.883,-15.137,1.000,1.000
1626062418897201.000,43.945,-26.367,-24.414,1.000,1.000
1626062418901107.250,-45.898,-35.156,-42.480,1.000,1.000
1626062418905013.500,-129.395,-37.109,-43.945,1.000,1.000
1626062418908919.750,-46.387,-47.852,-21.973,1.000,1.000
1626062418912826.000,48.828,-55.176,-19.531,1.000,1.000
1626062418916732.250,5.859,-25.879,-33.203,1.000,1.000
1626062418920638.500,-88.379,0.488,-43.945,1.000,1.000
1626062418924544.750,-61.035,-23.438,-33.203,1.000,1.000
1626062418928451.000,42.480,-32.227,-24.414,1.000,1.000
1626062418932357.250,31.738,-17.090,-32.227,1.000,1.000
1626062418936263.500,-73.730,-13.672,-41.992,1.000,1.000
1626062418940169.750,-107.422,-36.133,-55.176,1.000,1.000
1626062418944076.000,-3.418,-52.246,-35.645,1.000,1.000
1626062418947982.250,48.340,-61.523,-24.414,1.000,1.000
1626062418951888.500,-45.898,-82.031,-40.039,1.000,1.000
1626062418955794.750,-105.469,-50.781,-57.129,1.000,1.000
1626062418959701.000,-26.367,-1.465,-67.871,1.000,1.000
1626062418963607.250,52.246,13.184,-39.062,1.000,1.000
1626062418967513.500,-18.066,-3.906,-25.391,1.000,1.000
1626062418971419.750,-99.121,-16.113,-26.855,1.000,1.000
1626062418975326.000,-54.688,-27.344,-40.039,1.000,1.000
1626062418979232.250,32.227,-32.227,-47.852,1.000,1.000
1626062418983138.500,4.395,-34.180,-27.344,1.000,1.000
1626062418987044.750,-112.793,-49.316,-28.320,-406.738,1.000
1626062418990951.000,-95.215,-40.039,-27.832,-272.461,1.000
1626062418994857.250,6.836,-28.809,-29.297,261.719,1.000
1626062418998763.500,1.953,-31.250,-33.203,228.027,1.000
1626062419002669.750,-86.914,-22.461,-28.320,-298.340,1.000
1626062419006576.000,-100.586,-17.090,-39.551,-375.000,1.000
1626062419010482.250,14.648,-27.832,-34.180,178.711,1.000
1626062419014388.500,61.523,-47.363,-16.113,377.441,1.000
1626062419018294.750,-37.598,-55.176,-8.301,-131.836,1.000
1626062419022201.000,-108.887,-38.086,-12.695,-426.270,1.000
1626062419026107.250,-36.133,-24.902,-21.484,1.465,1.000
1626062419030013.500,45.898,-24.414,-18.066,372.559,1.000
1626062419033919.750,51.270,-34.668,-3.906,21.484,1.000
1626062419037826.000,-26.367,-15.137,-7.324,-429.199,1.000
1626062419041732.250,-105.957,-17.090,-24.902,-163.574,1.000
1626062419045638.500,-49.316,-20.020,-42.480,342.773,1.000
1626062419049544.750,41.504,-12.695,-36.621,171.387,1.000
1626062419053451.000,14.648,-2.441,-14.648,-379.395,1.000
1626062419057357.250,-94.727,-17.090,-18.555,-312.012,1.000
1626062419061263.500,-75.195,-32.227,-31.250,240.723,1.000
1626062419065169.750,42.969,-58.594,-25.879,290.527,1.000
1626062419069076.000,24.414,-62.500,-24.414,-260.742,1.000
1626062419072982.250,-91.309,-23.438,-35.645,-431.152,1.000
1626062419076888.500,-97.168,-8.301,-33.203,98.145,1.000
1626062419080794.750,-1.953,-24.902,-39.062,1.000,1.000
1626062419084701.000,46.387,-19.531,-30.273,1.000,1.000
1626062419088607.250,-49.316,-30.273,-14.648,1.000,1.000
1626062419092513.500,-118.164,-44.922,-16.113,1.000,1.000
1626062419096419.750,-15.625,-30.762,-4.883,1.000,1.000
1626062419100326.000,46.387,-26.855,-4.395,1.000,1.000
1626062419104232.250,-28.320,-52.246,-0.488,1.000,1.000
1626062419108138.500,-111.816,-62.012,-1.953,1.000,1.000
1626062419112044.750,-62.988,-43.945,-5.859,1.000,1.000
1626062419115951.000,22.461,-72.754,-9.766,1.000,1.000
1626062419119857.250,-24.414,-69.336,-43.945,1.000,1.000
1626062419123763.500,-110.840,-21.973,-52.246,1.000,1.000
1626062419127669.750,-80.078,-10.742,-29.785,-242.188,1.000
1626062419131576.000,24.414,-3.906,-13.672,306.641,1.000
1626062419135482.250,19.531,-18.066,-22.461,262.207,1.000
1626062419139388.500,-88.379,-37.109,-30.273,-300.293,1.000
1626062419143294.750,-96.680,-46.387,-11.230,-354.980,1.000
1626062419147201.000,20.020,-54.199,-3.418,196.777,1.000
1626062419151107.250,62.988,-54.688,-12.695,362.305,1.000
1626062419155013.500,-41.992,-49.316,-20.996,-157.715,1.000
1626062419158919.750,-109.375,-49.805,-21.973,-431.641,1.000
1626062419162826.000,-29.297,-47.363,-11.719,29.785,1.000
1626062419166732.250,46.387,-25.391,-13.184,395.508,1.000
1626062419170638.500,-12.695,-13.184,-27.832,22.949,1.000
1626062419174544.750,-35.156,-15.625,-25.391,-103.027,1.000
1626062419178451.000,-109.375,-6.348,-29.785,-431.641,1.000
1626062419182357.250,-36.621,-21.484,-28.320,-20.508,1.000
1626062419186263.500,41.504,-30.762,-18.555,372.559,1.000
1626062419190169.750,-2.930,-29.297,-10.254,52.734,1.000
1626062419194076.000,-97.656,-35.645,-11.719,-401.855,1.000
1626062419197982.250,-76.660,-52.734,-25.391,-179.688,1.000
1626062419201888.500,11.719,-43.457,-43.945,313.965,1.000
1626062419205794.750,1.465,-15.625,-40.039,180.664,1.000
1626062419209701.000,-94.238,-27.344,-33.203,-350.098,1.000
1626062419213607.250,-99.121,-29.785,-39.062,-321.777,1.000
1626062419217513.500,8.789,-22.949,-30.273,231.934,1.000
1626062419221419.750,24.902,-43.457,-24.414,304.199,1.000
1626062419225326.000,15.625,-30.762,-19.531,-230.469,1.000
1626062419229232.250,-78.613,-36.621,-9.277,-402.832,1.000
1626062419233138.500,-93.262,-31.250,-26.855,95.703,1.000
1626062419237044.750,18.555,3.418,-35.645,370.605,1.000
1626062419240951.000,48.340,3.418,-28.809,-98.145,1.000
1626062419244857.250,-45.898,-16.602,-20.996,-458.008,1.000
1626062419248763.500,-107.422,-34.180,-17.578,-62.500,1.000
1626062419252669.750,-40.039,-46.875,-27.832,379.395,1.000
1626062419256576.000,44.434,-45.898,-15.625,97.656,1.000
1626062419260482.250,-20.020,-51.758,-11.230,-410.645,1.000
1626062419264388.500,-110.840,-60.059,-32.227,-222.168,1.000
1626062419268294.750,-69.824,-54.688,-51.270,1.000,1.000
1626062419272201.000,40.527,-30.273,-51.758,1.000,1.000
1626062419276107.250,26.367,-11.230,-26.367,1.000,1.000
1626062419280013.500,-91.797,-15.137,-12.207,1.000,1.000
1626062419283919.750,-93.262,-3.906,-21.973,1.000,1.000
1626062419287826.000,-5.371,-37.598,-34.180,1.000,1.000
1626062419291732.250,20.020,-65.918,-18.066,1.000,1.000
1626062419295638.500,-68.848,-43.457,-26.855,1.000,1.000
1626062419299544.750,-97.168,-25.391,-39.062,1.000,1.000
1626062419303451.000,-4.395,-21.973,-41.504,1.000,1.000
1626062419307357.250,19.531,-18.555,-56.641,1.000,1.000
1626062419311263.500,-54.199,-19.043,-42.480,1.000,1.000
1626062419315169.750,-114.746,-31.250,-39.062,-456.543,1.000
1626062419319076.000,-48.828,-34.668,-48.340,-33.691,1.000
1626062419322982.250,43.457,-25.391,-42.969,362.305,1.000
1626062419326888.500,-20.508,-21.484,-50.781,6.836,1.000
1626062419330794.750,-117.188,-40.527,-47.363,-448.242,1.000
1626062419334701.000,-63.965,-34.180,-32.715,-167.969,1.000
1626062419338607.250,42.969,-19.531,-39.551,343.750,1.000
1626062419342513.500,7.812,-28.809,-46.875,157.227,1.000
1626062419346419.750,-106.445,-23.926,-44.922,-392.090,1.000
1626062419350326.000,-92.285,-15.137,-37.598,-328.125,1.000
1626062419354232.250,15.137,-14.160,-33.203,223.145,1.000
1626062419358138.500,32.227,-3.906,-37.109,281.738,1.000
1626062419362044.750,32.227,-24.414,-19.531,191.895,1.000
1626062419365951.000,-61.523,-16.602,-20.996,-331.055,1.000
1626062419369857.250,-75.684,-32.227,-25.391,-326.172,1.000
1626062419373763.500,-1.465,-41.992,-44.434,195.312,1.000
1626062419377669.750,41.504,-21.973,-38.086,319.336,1.000
1626062419381576.000,-40.039,-4.883,-39.062,-190.918,1.000
1626062419385482.250,-99.609,-11.719,-46.387,-409.668,1.000
1626062419389388.500,-22.949,-29.297,-30.273,62.012,1.000
1626062419393294.750,48.340,-34.668,-19.043,377.930,1.000
1626062419397201.000,-16.602,-32.227,-25.879,-22.949,1.000
1626062419401107.250,-107.910,-38.574,-37.598,-423.828,1.000
1626062419405013.500,-47.852,-37.598,-30.273,-92.285,1.000
1626062419408919.750,32.715,-58.594,-36.621,353.027,1.000
1626062419412826.000,-11.230,-57.129,-44.922,103.516,1.000
1626062419416732.250,-96.191,-23.438,-44.434,-390.137,1.000
1626062419420638.500,-70.312,-10.742,-35.645,-245.605,1.000
1626062419424544.750,14.160,-14.648,-22.949,284.668,1.000
1626062419428451.000,-0.977,-29.297,-35.156,228.516,1.000
1626062419432357.250,-94.238,-41.992,-39.551,-314.453,1.000
1626062419436263.500,-104.004,-48.340,-36.621,-300.781,1.000
1626062419440169.750,-7.812,-41.504,-32.227,190.430,1.000
1626062419444076.000,38.574,-39.551,-34.668,320.312,1.000
1626062419447982.250,-42.480,-51.270,-35.645,-155.273,1.000
1626062419451888.500,-97.168,-58.594,-32.227,-436.035,1.000
1626062419455794.750,-28.320,-44.922,-41.992,1.000,1.000
1626062419459701.000,30.762,-14.648,-43.457,1.000,1.000
1626062419463607.250,-39.062,-16.113,-38.086,1.000,1.000
1626062419467513.500,-127.930,-40.039,-39.062,1.000,1.000
1626062419471419.750,-67.383,-37.109,-34.180,1.000,1.000
1626062419475326.000,40.527,-21.973,-22.461,1.000,1.000
1626062419479232.250,10.742,-33.203,-20.996,1.000,1.000
1626062419483138.500,-102.051,-50.293,-25.391,1.000,1.000
1626062419487044.750,-96.191,-40.039,-25.391,1.000,1.000
1626062419490951.000,-1.953,-44.434,-40.039,1.000,1.000
1626062419494857.250,-1.465,-61.523,-56.152,1.000,1.000
1626062419498763.500,-90.820,-55.664,-42.480,1.000,1.000
1626062419502669.750,-110.352,-51.270,-44.922,1.000,1.000
1626062419506576.000,-8.789,-21.973,-62.500,1.000,1.000
1626062419510482.250,46.387,9.277,-50.293,1.000,1.000
1626062419514388.500,-42.969,-2.441,-35.645,1.000,1.000
1626062419518294.750,-119.629,-31.250,-33.203,1.000,1.000
1626062419522201.000,-53.711,-35.645,-35.156,1.000,1.000
1626062419526107.250,40.527,-34.668,-29.785,1.000,1.000
1626062419530013.500,5.859,-53.711,-32.227,1.000,1.000
1626062419533919.750,-95.703,-54.688,-40.527,1.000,1.000
1626062419537826.000,-74.219,-38.086,-29.785,1.000,1.000
1626062419541732.250,29.785,-20.508,-21.973,1.000,1.000
1626062419545638.500,18.066,3.906,-30.273,1.000,1.000
1626062419549544.750,-84.961,4.395,-35.645,-342.773,1.000
1626062419553451.000,-80.078,-2.930,-21.973,-313.965,1.000
1626062419557357.250,11.719,-13.672,-28.320,225.098,1.000
1626062419561263.500,25.391,-29.785,-42.480,305.176,1.000
1626062419565169.750,-63.965,-45.410,-43.457,-223.633,1.000
1626062419569076.000,-102.539,-64.453,-40.527,-402.344,1.000
1626062419572982.250,6.348,-56.152,-14.648,113.770,1.000
1626062419576888.500,66.895,-48.828,-13.184,396.484,1.000
1626062419580794.750,-22.461,-62.500,-32.227,-48.828,1.000
1626062419584701.000,-104.980,-43.457,-39.551,-430.664,1.000
1626062419588607.250,-47.852,-16.113,-36.621,-76.660,1.000
1626062419592513.500,43.945,-0.977,-24.902,365.723,1.000
1626062419596419.750,30.273,-13.672,-29.297,113.770,1.000
1626062419600326.000,-42.969,-31.250,-39.062,-381.836,1.000
1626062419604232.250,-123.047,-50.293,-27.832,-228.516,1.000
1626062419608138.500,-65.918,-32.227,-16.113,309.082,1.000
1626062419612044.750,38.574,-19.043,-25.391,247.559,1.000
1626062419615951.000,4.883,-32.715,-42.480,-304.199,1.000
1626062419619857.250,-107.422,-47.852,-42.969,-353.027,1.000
1626062419623763.500,-102.539,-57.129,-34.668,181.152,1.000
1626062419627669.750,2.441,-71.777,-34.180,339.844,1.000
1626062419631576.000,17.578,-54.199,-27.832,-170.898,1.000
1626062419635482.250,-80.078,-41.504,-18.555,-441.895,1.000
1626062419639388.500,-113.770,-48.340,-25.879,29.297,1.000
1626062419643294.750,-32.227,-38.574,-47.852,1.000,1.000
1626062419647201.000,15.625,-12.207,-47.363,1.000,1.000
1626062419651107.250,-61.035,-31.250,-42.969,1.000,1.000
1626062419655013.500,-134.766,-60.059,-48.340,1.000,1.000
1626062419658919.750,-60.547,-39.551,-41.992,1.000,1.000
1626062419662826.000,17.578,-41.504,-44.922,1.000,1.000
1626062419666732.250,-27.832,-70.312,-42.480,1.000,1.000
1626062419670638.500,-105.957,-78.613,-40.527,1.000,1.000
1626062419674544.750,-66.406,-48.340,-43.945,1.000,1.000
1626062419678451.000,33.691,-33.203,-46.387,1.000,1.000
1626062419682357.250,6.836,-50.781,-42.480,1.000,1.000
1626062419686263.500,-93.750,-42.969,-37.109,1.000,1.000
1626062419690169.750,-90.332,-28.320,-29.785,-306.152,1.000
1626062419694076.000,16.113,-7.812,-18.555,249.023,1.000
1626062419697982.250,33.203,-9.766,-32.227,314.453,1.000
1626062419701888.500,-78.125,-44.434,-43.945,-230.957,1.000
1626062419705794.750,-113.770,-52.246,-29.785,-398.438,1.000
1626062419709701.000,-10.742,-52.246,-17.090,107.422,1.000
1626062419713607.250,61.523,-57.129,-16.113,390.137,1.000
1626062419717513.500,-30.762,-50.781,-33.203,-71.777,1.000
1626062419721419.750,-129.883,-39.062,-35.645,-452.148,1.000
1626062419725326.000,-59.570,-18.066,-30.762,-62.988,1.000
1626062419729232.250,42.480,-10.742,-31.250,368.652,1.000
1626062419733138.500,4.395,-24.414,-21.973,83.984,1.000
1626062419737044.750,-23.926,-45.898,-53.711,-36.621,1.000
1626062419740951.000,-95.703,-26.855,-45.898,-433.105,1.000
1626062419744857.250,-42.480,-10.742,-35.156,-111.328,1.000
1626062419748763.500,39.062,-11.230,-34.668,341.797,1.000
1626062419752669.750,8.789,-12.695,-30.762,118.652,1.000
1626062419756576.000,-96.191,-53.711,-27.344,-383.789,1.000
1626062419760482.250,-83.984,-74.219,-23.438,-252.930,1.000
1626062419764388.500,30.762,-41.016,-19.043,298.340,1.000
1626062419768294.750,38.574,-11.719,-20.996,282.227,1.000
1626062419772201.000,-72.754,-28.320,-37.109,-277.344,1.000
1626062419776107.250,-107.910,-50.293,-35.156,-374.512,1.000
1626062419780013.500,-11.230,-34.180,-24.902,153.320,1.000
1626062419783919.750,23.438,-27.344,-41.992,1.000,1.000
1626062419787826.000,-67.871,-32.227,-44.434,1.000,1.000
1626062419791732.250,-123.047,-23.926,-32.227,1.000,1.000
1626062419795638.500,-41.504,-64.453,-30.273,1.000,1.000
1626062419799544.750,57.129,-91.309,-14.160,1.000,1.000
1626062419803451.000,-1.953,-55.176,-18.555,1.000,1.000
1626062419807357.250,-111.328,-23.438,-25.879,1.000,1.000
1626062419811263.500,-68.359,-19.043,-26.855,1.000,1.000
1626062419815169.750,27.344,-19.043,-49.805,1.000,1.000
1626062419819076.000,-5.371,-20.508,-55.176,1.000,1.000
1626062419822982.250,-110.840,-24.414,-46.875,1.000,1.000
1626062419826888.500,-88.379,-16.113,-30.273,1.000,1.000
1626062419830794.750,25.879,-18.555,-20.996,1.000,1.000
1626062419834701.000,45.410,-26.367,-21.484,1.000,1.000
1626062419838607.250,-56.152,-40.039,-22.461,1.000,1.000
1626062419842513.500,-106.445,-30.273,-25.879,1.000,1.000
1626062419846419.750,1.953,-25.879,-20.996,1.000,1.000
1626062419850326.000,71.777,-33.203,-26.367,1.000,1.000
1626062419854232.250,-4.395,0.000,-29.297,1.000,1.000
1626062419858138.500,-87.402,-9.277,-32.715,1.000,1.000
1626062419862044.750,-31.250,-38.086,-29.785,1.000,1.000
1626062419865951.000,59.570,-12.207,-17.578,1.000,1.000
1626062419869857.250,10.742,-0.977,-23.926,1.000,1.000
1626062419873763.500,-86.914,-5.371,-28.320,1.000,1.000
1626062419877669.750,-62.012,-27.344,-40.039,1.000,1.000
1626062419881576.000,48.828,-39.062,-46.875,1.000,1.000
1626062419885482.250,32.715,-34.180,-45.410,1.000,1.000
1626062419889388.500,-73.730,-42.480,-36.133,1.000,1.000
1626062419893294.750,-69.824,-50.781,-18.555,1.000,1.000
1626062419897201.000,27.344,-42.480,-29.785,1.000,1.000
1626062419901107.250,59.082,-14.648,-33.203,1.000,1.000
1626062419905013.500,-57.617,-22.949,-34.668,1.000,1.000
1626062419908919.750,-107.910,-22.461,-26.367,1.000,1.000
1626062419912826.000,-14.648,-19.531,-21.484,1.000,1.000
1626062419916732.250,32.227,-41.016,-33.203,1.000,1.000
1626062419920638.500,-29.785,-43.457,-31.250,1.000,1.000
1626062419924544.750,-101.074,-59.570,-33.691,-444.824,1.000
1626062419928451.000,-29.297,-50.781,-28.320,-82.520,1.000
1626062419932357.250,52.734,-23.438,-29.785,366.699,1.000
1626062419936263.500,-14.160,-36.133,-53.711,83.984,1.000
1626062419940169.750,-102.051,-34.668,-54.688,-403.809,1.000
1626062419944076.000,-71.289,-28.320,-38.086,-235.352,1.000
1626062419947982.250,31.738,-27.832,-30.273,296.875,1.000
1626062419951888.500,14.648,-44.922,-45.898,220.703,1.000
1626062419955794.750,-104.004,-68.359,-60.059,-333.496,1.000
1626062419959701.000,-107.910,-46.875,-41.504,-367.188,1.000
1626062419963607.250,0.488,-30.273,-25.879,170.410,1.000
1626062419967513.500,52.246,-32.227,-16.113,346.680,1.000
1626062419971419.750,36.621,-36.133,-23.438,291.504,1.000
1626062419975326.000,-90.820,-59.570,-29.785,-267.090,1.000
1626062419979232.250,-126.953,-40.527,-42.480,-394.043,1.000
1626062419983138.500,-36.621,-30.273,-37.109,118.652,1.000
1626062419987044.750,9.766,-38.574,-10.742,346.191,1.000
1626062419990951.000,-73.730,-54.688,-7.812,-127.930,1.000
1626062419994857.250,-134.766,-56.641,-12.207,-438.477,1.000
1626062419998763.500,-68.359,-52.246,-10.254,-30.762,1.000
1626062420002669.750,12.207,-60.059,-23.926,357.422,1.000
1626062420006576.000,-28.809,-67.871,-32.715,31.738,1.000
1626062420010482.250,-115.723,-68.359,-15.625,-428.223,1.000
1626062420014388.500,-66.406,-50.293,-1.953,-173.340,1.000
1626062420018294.750,19.531,-56.641,-19.531,1.000,1.000
1626062420022201.000,-4.883,-58.105,-27.832,1.000,1.000
1626062420026107.250,-100.098,-48.340,-30.762,1.000,1.000
1626062420030013.500,-110.352,-36.621,-34.180,1.000,1.000
1626062420033919.750,-19.043,-20.508,-32.227,1.000,1.000
1626062420037826.000,4.395,-38.086,-34.180,1.000,1.000
1626062420041732.250,-71.777,-40.527,-21.973,1.000,1.000
1626062420045638.500,-116.699,-46.387,-14.648,1.000,1.000
1626062420049544.750,-36.621,-41.992,-19.531,1.000,1.000
1626062420053451.000,25.391,-20.508,-34.668,1.000,1.000
1626062420057357.250,-46.875,-41.992,-55.664,1.000,1.000
1626062420061263.500,-118.652,-62.500,-43.945,1.000,1.000
1626062420065169.750,-59.082,-55.664,-30.273,1.000,1.000
1626062420069076.000,40.527,-31.250,-33.691,1.000,1.000
1626062420072982.250,12.695,-15.137,-33.203,1.000,1.000
1626062420076888.500,-93.750,-29.297,-36.621,1.000,1.000
1626062420080794.750,-73.242,-21.484,-34.180,1.000,1.000
1626062420084701.000,27.344,-7.324,-27.344,1.000,1.000
1626062420088607.250,18.555,-24.902,-33.203,1.000,1.000
1626062420092513.500,-88.379,-61.035,-34.668,1.000,1.000
1626062420096419.750,-114.258,-70.312,-32.227,1.000,1.000
1626062420100326.000,8.789,-47.852,-24.902,1.000,1.000
1626062420104232.250,44.922,-45.410,-27.344,1.000,1.000
1626062420108138.500,-76.172,-41.016,-35.645,1.000,1.000
1626062420112044.750,-136.719,-41.016,-53.711,-443.359,1.000
1626062420115951.000,-41.504,-28.320,-61.035,32.715,1.000
1626062420119857.250,33.203,-20.996,-50.781,368.164,1.000
1626062420123763.500,-27.832,-39.062,-39.062,-23.438,1.000
1626062420127669.750,-101.074,-41.016,-28.320,-417.969,1.000
1626062420131576.000,-74.707,-60.547,-32.715,-122.559,1.000
1626062420135482.250,14.648,-56.152,-30.762,336.426,1.000
1626062420139388.500,-10.742,-32.227,-39.551,124.512,1.000
1626062420143294.750,-99.609,-22.949,-37.598,-371.582,1.000
1626062420147201.000,-77.637,-34.668,-26.367,-247.559,1.000
1626062420151107.250,5.859,-60.547,-42.969,268.066,1.000
1626062420155013.500,26.367,-38.574,-31.250,271.484,1.000
1626062420158919.750,-58.105,-15.625,-19.043,-259.277,1.000
1626062420162826.000,-94.238,-24.902,-27.344,-356.445,1.000
1626062420166732.250,-15.137,-40.527,-39.551,146.484,1.000
1626062420170638.500,22.461,-45.410,-44.434,323.242,1.000
1626062420174544.750,-50.781,-40.527,-37.109,-139.648,1.000
1626062420178451.000,-111.328,-35.645,-40.039,-416.992,1.000
1626062420182357.250,-32.227,-32.227,-47.363,9.277,1.000
1626062420186263.500,48.828,-46.387,-35.645,379.395,1.000
1626062420190169.750,-20.508,-58.594,-27.344,25.391,1.000
1626062420194076.000,-105.469,-48.828,-20.020,-408.203,1.000
1626062420197982.250,-62.500,-35.645,-18.555,-147.461,1.000
1626062420201888.500,26.855,-20.996,-26.855,339.844,1.000
1626062420205794.750,38.086,-20.020,-6.836,159.668,1.000
1626062420209701.000,-11.719,-28.320,-24.414,-374.023,1.000
1626062420213607.250,-106.445,-37.598,-43.945,-300.781,1.000
1626062420217513.500,-91.309,-60.059,-41.504,258.789,1.000
1626062420221419.750,37.598,-50.781,-11.230,304.688,1.000
1626062420225326.000,63.965,-36.621,-5.371,-243.164,1.000
1626062420229232.250,-53.223,-46.387,-31.738,-377.930,1.000
1626062420233138.500,-90.820,-51.758,-45.410,140.137,1.000
1626062420237044.750,5.371,-48.828,-35.156,391.602,1.000
1626062420240951.000,39.551,-30.273,-23.926,-77.637,1.000
1626062420244857.250,-58.105,-33.203,-28.320,-441.406,1.000
1626062420248763.500,-117.676,-39.551,-28.320,-46.875,1.000
1626062420252669.750,-47.852,-37.598,-34.180,1.000,1.000
1626062420256576.000,28.809,-31.738,-42.480,1.000,1.000
1626062420260482.250,-12.207,-34.668,-46.387,1.000,1.000
1626062420264388.500,-93.750,-44.434,-55.664,1.000,1.000
1626062420268294.750,-43.945,-37.598,-45.410,1.000,1.000
1626062420272201.000,41.992,-35.156,-48.340,1.000,1.000
1626062420276107.250,13.672,-31.738,-42.969,1.000,1.000
1626062420280013.500,-71.777,-23.926,-18.066,1.000,1.000
1626062420283919.750,-64.453,-21.973,-14.160,1.000,1.000
1626062420287826.000,14.160,-40.039,-37.598,1.000,1.000
1626062420291732.250,7.324,-65.430,-49.805,1.000,1.000
1626062420295638.500,-80.078,-43.945,-32.715,1.000,1.000
1626062420299544.750,-93.262,-27.832,-17.578,-358.887,1.000
1626062420303451.000,1.953,-23.926,-8.789,168.457,1.000
1626062420307357.250,34.180,-19.043,-25.391,326.172,1.000
1626062420311263.500,-66.895,-37.109,-65.430,-175.781,1.000
1626062420315169.750,-112.793,-57.617,-59.082,-413.574,1.000
1626062420319076.000,-23.438,-65.918,-36.621,32.227,1.000
1626062420322982.250,51.758,-42.480,-20.508,381.348,1.000
1626062420326888.500,-24.902,-33.203,-32.715,-6.348,1.000
1626062420330794.750,-127.441,-39.551,-46.875,-453.613,1.000
1626062420334701.000,-70.312,-13.184,-26.367,-146.484,1.000
1626062420338607.250,43.457,-18.555,-11.230,350.098,1.000
1626062420342513.500,25.391,-38.086,-29.297,160.156,1.000
1626062420346419.750,-20.020,-49.316,-22.461,37.598,1.000
1626062420350326.000,-122.559,-49.805,-24.414,-427.246,1.000
1626062420354232.250,-82.520,-41.992,-35.645,-206.543,1.000
1626062420358138.500,25.391,-41.504,-38.574,312.500,1.000
1626062420362044.750,31.738,-30.273,-20.020,204.590,1.000
1626062420365951.000,-70.801,-55.176,-27.832,-336.426,1.000
1626062420369857.250,-91.309,-67.383,-23.926,-327.637,1.000
1626062420373763.500,2.930,-53.223,-13.672,214.844,1.000
1626062420377669.750,23.926,-37.598,-26.367,301.270,1.000
1626062420381576.000,-68.848,-31.250,-36.621,-225.098,1.000
1626062420385482.250,-114.258,-46.875,-42.480,-416.992,1.000
1626062420389388.500,-23.438,-25.879,-29.785,81.543,1.000
1626062420393294.750,22.461,-18.066,-33.691,1.000,1.000
1626062420397201.000,-44.922,-39.551,-34.180,1.000,1.000
1626062420401107.250,-92.773,-39.062,-26.855,1.000,1.000
1626062420405013.500,-26.367,-61.035,-25.879,1.000,1.000
1626062420408919.750,51.270,-65.430,-16.113,1.000,1.000
1626062420412826.000,-28.809,-56.152,-37.598,1.000,1.000
1626062420416732.250,-113.770,-30.762,-50.781,1.000,1.000
1626062420420638.500,-43.945,-12.207,-60.059,1.000,1.000
1626062420424544.750,42.480,-12.207,-64.453,1.000,1.000
1626062420428451.000,7.324,-11.230,-33.691,1.000,1.000
1626062420432357.250,-110.840,-49.805,-28.320,1.000,1.000
1626062420436263.500,-106.445,-67.871,-19.531,1.000,1.000
1626062420440169.750,13.672,-45.898,-22.949,196.289,1.000
1626062420444076.000,61.523,-26.367,-26.855,355.957,1.000
1626062420447982.250,-32.227,-27.832,-26.367,-154.785,1.000
1626062420451888.500,-112.305,-44.922,-35.645,-431.641,1.000
1626062420455794.750,-19.531,-21.973,-22.461,44.434,1.000
1626062420459701.000,61.035,-20.508,-27.344,397.461,1.000
1626062420463607.250,-10.742,-26.855,-42.969,0.977,1.000
1626062420467513.500,-101.562,-23.926,-49.805,-425.781,1.000
1626062420471419.750,-54.688,-34.668,-44.434,-128.906,1.000
1626062420475326.000,43.945,-43.457,-29.297,356.445,1.000
1626062420479232.250,24.414,-20.996,-25.879,153.809,1.000
1626062420483138.500,-63.477,-12.207,-13.184,-356.934,1.000
1626062420487044.750,-75.195,-49.805,-19.043,1.000,1.000
1626062420490951.000,29.297,-53.711,-29.785,1.000,1.000
1626062420494857.250,47.363,-24.414,-30.273,1.000,1.000
1626062420498763.500,-60.547,-15.137,-40.039,1.000,1.000
1626062420502669.750,-88.867,-15.625,-41.992,1.000,1.000
1626062420506576.000,-4.883,-29.297,-42.480,1.000,1.000
1626062420510482.250,53.711,-20.996,-31.738,1.000,1.000
1626062420514388.500,-22.949,-21.484,-26.855,1.000,1.000
1626062420518294.750,-89.355,-20.508,-25.391,1.000,1.000
1626062420522201.000,-24.902,-29.297,-27.344,1.000,1.000
1626062420526107.250,48.828,-55.176,-39.551,1.000,1.000
1626062420530013.500,28.809,-21.484,-21.484,1.000,1.000
1626062420533919.750,-67.871,-25.391,-21.973,-388.672,1.000
1626062420537826.000,-49.805,-35.156,-26.367,-151.855,1.000
1626062420541732.250,33.203,-31.738,-33.203,332.031,1.000
1626062420545638.500,5.859,-62.012,-55.664,170.410,1.000
1626062420549544.750,-75.684,-48.828,-56.152,-334.473,1.000
1626062420553451.000,-74.707,-29.297,-44.922,-288.086,1.000
1626062420557357.250,24.414,-24.902,-17.090,249.023,1.000
1626062420561263.500,39.551,-28.320,-9.277,298.828,1.000
1626062420565169.750,-52.246,-25.879,-8.301,-229.980,1.000
1626062420569076.000,-89.844,-28.320,-2.930,-381.836,1.000
1626062420572982.250,-2.930,-35.156,-19.531,125.000,1.000
1626062420576888.500,55.176,-25.391,-23.926,375.977,1.000
1626062420580794.750,34.180,0.488,-29.785,-99.609,1.000
1626062420584701.000,-69.824,-30.762,-29.297,-458.496,1.000
1626062420588607.250,-128.906,-49.316,-35.156,-60.547,1.000
1626062420592513.500,-53.711,-46.875,-38.574,375.000,1.000
1626062420596419.750,37.598,-26.367,-17.578,74.219,1.000
1626062420600326.000,-11.230,-29.297,-13.184,-434.570,1.000
1626062420604232.250,-86.426,-42.480,-12.207,-218.262,1.000
1626062420608138.500,-52.246,-57.617,-18.066,316.895,1.000
1626062420612044.750,21.973,-32.715,-27.832,225.586,1.000
1626062420615951.000,-3.418,-10.254,-29.785,-325.195,1.000
1626062420619857.250,-98.145,-29.785,-32.715,-368.164,1.000
1626062420623763.500,-81.543,-28.320,-32.227,188.477,1.000
1626062420627669.750,21.484,-23.438,-43.945,1.000,1.000
1626062420631576.000,41.504,-15.137,-26.855,1.000,1.000
1626062420635482.250,-59.082,-36.133,-31.738,1.000,1.000
1626062420639388.500,-92.773,-45.410,-54.688,1.000,1.000
1626062420643294.750,8.789,-23.438,-35.156,1.000,1.000
1626062420647201.000,34.180,-45.898,-17.578,1.000,1.000
1626062420651107.250,-48.340,-57.129,-12.207,1.000,1.000
1626062420655013.500,-107.910,-38.574,-25.391,1.000,1.000
1626062420658919.750,-40.039,-11.719,-28.809,1.000,1.000
1626062420662826.000,40.527,-10.254,-19.043,1.000,1.000
1626062420666732.250,-29.785,-40.527,-36.621,1.000,1.000
1626062420670638.500,-109.863,-32.227,-42.480,1.000,1.000
1626062420674544.750,-54.199,-22.949,-33.691,-147.949,1.000
1626062420678451.000,43.457,-39.062,-34.180,342.773,1.000
1626062420682357.250,15.137,-32.227,-42.480,160.645,1.000
1626062420686263.500,-91.309,-29.785,-41.504,-369.141,1.000
1626062420690169.750,-82.520,-29.785,-19.043,-291.992,1.000
1626062420694076.000,17.090,-18.555,-17.090,251.465,1.000
1626062420697982.250,35.156,-12.695,-19.531,291.504,1.000
1626062420701888.500,-70.312,-42.969,-27.832,-259.766,1.000
1626062420705794.750,-114.746,-44.922,-46.387,-403.320,1.000
1626062420709701.000,-15.625,-19.531,-42.480,121.582,1.000
1626062420713607.250,47.363,-15.625,-29.785,359.863,1.000
1626062420717513.500,-26.855,-30.762,-36.621,-95.215,1.000
1626062420721419.750,-46.387,-36.621,-31.250,-205.566,1.000
1626062420725326.000,-89.355,-23.926,-25.879,-398.926,1.000
1626062420729232.250,-4.883,-25.879,-20.020,94.238,1.000
1626062420733138.500,41.504,-46.875,-29.785,368.164,1.000
1626062420737044.750,-38.574,-48.828,-37.109,-60.059,1.000
1626062420740951.000,-110.352,-54.688,-32.227,-425.293,1.000
1626062420744857.250,-41.992,-34.180,-21.484,-60.059,1.000
1626062420748763.500,38.086,-9.277,-30.762,374.512,1.000
1626062420752669.750,-9.766,-14.648,-40.039,102.539,1.000
1626062420756576.000,-101.074,-18.066,-22.949,-386.230,1.000
1626062420760482.250,-83.008,-30.273,-21.484,-228.516,1.000
1626062420764388.500,26.367,-33.691,-24.902,307.617,1.000
1626062420768294.750,40.527,-40.039,-17.090,245.117,1.000
1626062420772201.000,17.578,-19.531,-25.879,-314.453,1.000
1626062420776107.250,-90.820,-27.832,-41.016,-351.074,1.000
1626062420780013.500,-111.816,-36.621,-46.387,184.570,1.000
1626062420783919.750,1.465,-24.414,-38.574,337.891,1.000
1626062420787826.000,23.438,-37.109,-28.320,-164.551,1.000
1626062420791732.250,-88.379,-52.246,-22.949,-419.922,1.000
1626062420795638.500,-114.258,-51.270,-19.531,27.344,1.000
1626062420799544.750,-10.254,-39.551,-8.301,368.164,1.000
1626062420803451.000,39.551,-46.875,-15.625,-12.695,1.000
1626062420807357.250,-53.711,-42.969,-33.203,-447.754,1.000
1626062420811263.500,-110.840,-36.133,-28.320,-145.020,1.000
1626062420815169.750,-32.227,-64.453,-28.320,1.000,1.000
1626062420819076.000,36.133,-53.711,-27.344,1.000,1.000
1626062420822982.250,-20.508,-29.785,-28.809,1.000,1.000
1626062420826888.500,-104.492,-30.273,-39.062,1.000,1.000
1626062420830794.750,-71.777,-16.113,-37.598,1.000,1.000
1626062420834701.000,16.113,-34.180,-54.199,1.000,1.000
1626062420838607.250,23.926,-36.621,-40.039,1.000,1.000
1626062420842513.500,-70.801,-21.973,-24.902,1.000,1.000
1626062420846419.750,-80.078,-32.715,-31.738,1.000,1.000
1626062420850326.000,22.461,-50.781,-16.113,1.000,1.000
1626062420854232.250,19.043,-71.289,-25.391,1.000,1.000
1626062420858138.500,-60.547,-48.828,-28.320,1.000,1.000
1626062420862044.750,-87.402,-12.207,-46.875,-392.090,1.000
1626062420865951.000,-5.371,9.766,-55.176,107.422,1.000
1626062420869857.250,41.992,-15.137,-38.086,367.188,1.000
1626062420873763.500,-37.598,-52.734,-30.762,-92.285,1.000
1626062420877669.750,-95.215,-44.922,-12.207,-428.223,1.000
1626062420881576.000,-31.250,-44.434,-15.137,-47.852,1.000
1626062420885482.250,55.176,-44.434,-20.020,379.883,1.000
1626062420889388.500,-7.324,-40.527,-24.414,77.148,1.000
1626062420893294.750,-125.000,-29.297,-36.133,-436.523,1.000
1626062420897201.000,-86.426,-12.695,-28.320,-233.887,1.000
1626062420901107.250,13.672,-25.391,-22.949,293.457,1.000
1626062420905013.500,7.324,-26.855,-20.020,211.914,1.000
1626062420908919.750,5.371,-26.855,-26.855,138.184,1.000
1626062420912826.000,-72.754,-12.695,1.953,-354.004,1.000
1626062420916732.250,-64.941,-32.227,-0.977,-236.328,1.000
1626062420920638.500,5.371,-41.016,-39.551,268.555,1.000
1626062420924544.750,19.043,-25.879,-33.203,250.000,1.000
1626062420928451.000,-68.359,-20.020,-17.090,-270.020,1.000
1626062420932357.250,-93.750,-31.738,-29.297,-353.027,1.000
1626062420936263.500,-9.766,-44.922,-48.340,152.344,1.000
1626062420940169.750,40.527,-25.391,-43.945,340.820,1.000
1626062420944076.000,-26.855,-10.254,-12.695,-132.324,1.000
1626062420947982.250,-92.773,-41.016,-1.953,-417.480,1.000
1626062420951888.500,-24.414,-44.434,-17.090,14.160,1.000
1626062420955794.750,39.062,-42.480,-33.691,1.000,1.000
1626062420959701.000,-19.531,-34.180,-39.062,1.000,1.000
1626062420963607.250,-90.820,-11.230,-26.367,1.000,1.000
1626062420967513.500,-39.062,-9.277,-15.137,1.000,1.000
1626062420971419.750,53.223,-18.555,-20.996,1.000,1.000
1626062420975326.000,13.672,-60.059,-40.527,1.000,1.000
1626062420979232.250,-84.473,-64.453,-41.992,1.000,1.000
1626062420983138.500,-84.961,-34.668,-53.711,1.000,1.000
1626062420987044.750,10.742,-23.926,-66.406,1.000,1.000
1626062420990951.000,19.043,-33.203,-50.781,1.000,1.000
1626062420994857.250,-94.727,-50.781,-38.086,1.000,1.000
1626062420998763.500,-118.164,-27.344,-31.738,1.000,1.000
1626062421002669.750,-15.625,-6.836,-24.902,1.000,1.000
1626062421006576.000,39.551,-29.297,-25.391,1.000,1.000
1626062421010482.250,-32.715,-42.480,-31.738,1.000,1.000
1626062421014388.500,-118.164,-56.152,-40.527,1.000,1.000
1626062421018294.750,-59.082,-47.852,-33.203,1.000,1.000
1626062421022201.000,29.785,-20.996,-33.203,1.000,1.000
1626062421026107.250,-20.508,-2.930,-35.156,1.000,1.000
1626062421030013.500,-126.465,-21.484,-33.203,1.000,1.000
1626062421033919.750,-92.285,-32.715,-36.133,1.000,1.000
1626062421037826.000,23.438,-24.902,-26.367,1.000,1.000
1626062421041732.250,21.973,-40.527,-14.648,1.000,1.000
1626062421045638.500,-79.102,-46.387,-13.672,1.000,1.000
1626062421049544.750,-101.074,-63.965,-25.879,1.000,1.000
1626062421053451.000,3.906,-61.523,-31.738,1.000,1.000
1626062421057357.250,34.180,-59.082,-35.645,1.000,1.000
1626062421061263.500,-70.312,-40.039,-40.039,1.000,1.000
1626062421065169.750,-122.070,-4.883,-35.156,1.000,1.000
1626062421069076.000,-52.246,-19.043,-41.504,1.000,1.000
1626062421072982.250,29.785,-32.715,-33.691,1.000,1.000
1626062421076888.500,-32.715,-23.926,-37.598,1.000,1.000
1626062421080794.750,-117.188,-17.090,-39.551,1.000,1.000
1626062421084701.000,-56.641,-44.434,-18.555,1.000,1.000
1626062421088607.250,18.555,-78.125,-30.273,1.000,1.000
1626062421092513.500,-6.348,-41.016,-29.785,1.000,1.000
1626062421096419.750,-95.215,-43.945,-27.832,-395.020,1.000
1626062421100326.000,-81.543,-48.340,-37.109,-250.488,1.000
1626062421104232.250,19.531,-20.996,-38.086,281.738,1.000
1626062421108138.500,12.695,-21.484,-44.434,234.863,1.000
1626062421112044.750,-74.707,-8.301,-42.969,-291.992,1.000
1626062421115951.000,-89.355,-9.766,-23.438,-346.680,1.000
1626062421119857.250,6.836,-22.461,-16.602,183.105,1.000
1626062421123763.500,42.969,-38.574,-23.438,333.496,1.000
1626062421127669.750,-51.758,-53.223,-36.621,-172.363,1.000
1626062421131576.000,-116.211,-39.551,-40.527,-441.406,1.000
1626062421135482.250,-35.156,-6.836,-21.973,5.859,1.000
1626062421139388.500,45.410,3.906,-16.602,372.559,1.000
1626062421143294.750,32.715,-24.902,-50.293,-13.184,1.000
1626062421147201.000,-44.434,-29.297,-57.129,-445.312,1.000
1626062421151107.250,-104.980,-26.367,-30.273,-138.184,1.000
1626062421155013.500,-55.176,-33.691,-34.180,349.121,1.000
1626062421158919.750,32.715,-25.391,-39.551,158.691,1.000
1626062421162826.000,-7.324,-19.043,-34.180,-374.023,1.000
1626062421166732.250,-103.516,-35.645,-22.949,-282.715,1.000
1626062421170638.500,-68.359,-43.457,-23.438,259.277,1.000
1626062421174544.750,33.691,-26.367,-29.785,289.551,1.000
1626062421178451.000,18.066,-9.766,-42.969,-244.629,1.000
1626062421182357.250,-91.797,-21.973,-60.059,-386.230,1.000
1626062421186263.500,-93.262,-28.809,-40.527,132.324,1.000
1626062421190169.750,6.836,-36.621,-39.062,1.000,1.000
1626062421194076.000,34.180,-34.668,-36.621,1.000,1.000
1626062421197982.250,-52.734,-30.273,-14.160,1.000,1.000
1626062421201888.500,-93.750,-33.691,-22.949,1.000,1.000
1626062421205794.750,1.465,-24.414,-32.227,1.000,1.000
1626062421209701.000,50.293,-56.152,-38.574,1.000,1.000
1626062421213607.250,-27.832,-53.711,-34.180,1.000,1.000
1626062421217513.500,-99.609,-16.602,-27.344,1.000,1.000
