timestamps,TP9,AF7,AF8,TP10,Right AUX
1626062523565169.750,35.156,-25.879,-24.902,134.277,1.000
1626062523569076.000,-61.523,-33.691,-42.969,-314.453,1.000
1626062523572982.250,-56.641,-23.926,-29.297,-214.355,1.000
1626062523576888.500,37.598,-33.203,-17.578,255.371,1.000
1626062523580794.750,46.875,-25.879,-18.555,238.770,1.000
1626062523584701.000,-60.547,-38.574,-32.227,-239.258,1.000
1626062523588607.250,-89.844,-66.406,-59.082,-321.289,1.000
1626062523592513.500,12.695,-44.922,-58.105,137.207,1.000
1626062523596419.750,59.082,-22.461,-18.066,306.641,1.000
1626062523600326.000,-24.414,-6.348,-20.020,-108.398,1.000
1626062523604232.250,-89.844,13.672,-58.594,-378.906,1.000
1626062523608138.500,-26.367,-8.301,-36.133,-13.184,1.000
1626062523612044.750,56.152,-29.297,-22.949,1.000,1.000
1626062523615951.000,22.461,-52.246,-25.391,1.000,1.000
1626062523619857.250,-60.059,-94.727,-39.551,1.000,1.000
1626062523623763.500,-54.688,-59.570,-55.664,1.000,1.000
1626062523627669.750,28.320,-8.789,-26.367,1.000,1.000
1626062523631576.000,16.113,-14.648,-14.648,1.000,1.000
1626062523635482.250,-70.312,-15.625,-15.625,1.000,1.000
1626062523639388.500,-53.711,6.836,-3.418,1.000,1.000
1626062523643294.750,28.809,2.930,-12.207,1.000,1.000
1626062523647201.000,22.949,-18.066,-31.250,1.000,1.000
1626062523651107.250,-72.266,-31.250,-46.875,1.000,1.000
1626062523655013.500,-102.539,-43.945,-54.688,1.000,1.000
1626062523658919.750,0.977,-60.547,-38.086,1.000,1.000
1626062523662826.000,62.500,-64.941,-38.574,1.000,1.000
1626062523666732.250,-26.367,-67.383,-61.523,1.000,1.000
1626062523670638.500,-106.934,-43.457,-39.062,1.000,1.000
1626062523674544.750,-48.340,-1.953,-9.766,1.000,1.000
1626062523678451.000,39.062,-1.953,-12.207,1.000,1.000
1626062523682357.250,-4.883,-5.371,-34.180,1.000,1.000
1626062523686263.500,-115.234,-5.371,-51.270,1.000,1.000
1626062523690169.750,-103.027,-25.879,-51.270,1.000,1.000
1626062523694076.000,1.465,-46.875,-50.293,1.000,1.000
1626062523697982.250,0.000,-70.312,-56.641,1.000,1.000
1626062523701888.500,-81.543,-60.547,-58.105,1.000,1.000
1626062523705794.750,-108.398,-20.508,-27.344,-344.238,1.000
1626062523709701.000,-86.426,-0.488,-9.766,-209.961,1.000
1626062523713607.250,16.113,-9.766,-4.395,253.906,1.000
1626062523717513.500,17.578,-41.992,-24.414,215.820,1.000
1626062523721419.750,-74.707,-25.879,-45.410,-253.418,1.000
1626062523725326.000,-91.797,-0.977,-37.598,-302.246,1.000
1626062523729232.250,2.441,-13.672,-25.879,159.668,1.000
1626062523733138.500,40.527,-26.855,-27.344,290.527,1.000
1626062523737044.750,-52.734,-53.711,-24.414,-146.973,1.000
1626062523740951.000,-105.469,-50.293,-17.090,-361.328,1.000
1626062523744857.250,-36.133,-38.574,-29.785,20.996,1.000
1626062523748763.500,21.484,-37.598,-31.738,308.594,1.000
1626062523752669.750,-43.457,-24.902,-24.902,1.000,1.000
1626062523756576.000,-119.629,-19.043,-33.691,1.000,1.000
1626062523760482.250,-71.777,-18.555,-34.668,1.000,1.000
1626062523764388.500,18.555,-36.133,-25.879,1.000,1.000
1626062523768294.750,2.441,-31.738,-25.391,1.000,1.000
1626062523772201.000,-104.004,-36.621,-29.785,1.000,1.000
1626062523776107.250,-108.398,-43.457,-29.785,1.000,1.000
1626062523780013.500,-10.742,-22.949,-38.086,1.000,1.000
1626062523783919.750,-4.883,-32.715,-45.898,1.000,1.000
1626062523787826.000,-100.098,-54.199,-39.551,1.000,1.000
1626062523791732.250,-147.461,-40.527,-38.086,1.000,1.000
1626062523795638.500,-54.199,-20.996,-32.715,1.000,1.000
1626062523799544.750,24.414,-6.348,-20.020,1.000,1.000
1626062523803451.000,-51.270,-21.484,-33.203,1.000,1.000
1626062523807357.250,-127.930,-46.387,-37.109,1.000,1.000
1626062523811263.500,-69.824,-40.527,-33.691,1.000,1.000
1626062523815169.750,22.949,-21.973,-51.270,1.000,1.000
1626062523819076.000,-15.137,-28.320,-60.059,1.000,1.000
1626062523822982.250,-121.582,-51.758,-37.109,1.000,1.000
1626062523826888.500,-89.355,-60.547,-34.668,1.000,1.000
1626062523830794.750,5.859,-69.336,-45.410,1.000,1.000
1626062523834701.000,1.465,-62.500,-12.207,1.000,1.000
1626062523838607.250,-86.914,-39.062,-10.254,1.000,1.000
1626062523842513.500,-83.496,-32.227,-17.578,1.000,1.000
1626062523846419.750,-123.535,-58.594,-21.973,200.195,1.000
1626062523850326.000,-55.664,-58.594,-24.414,242.676,1.000
1626062523854232.250,43.457,-58.105,-17.090,-211.914,1.000
1626062523858138.500,13.184,-44.434,-18.555,-357.910,1.000
1626062523862044.750,-69.824,-56.152,-32.715,83.984,1.000
1626062523865951.000,-68.848,-65.430,-50.293,322.754,1.000
1626062523869857.250,15.137,-31.250,-30.762,-69.824,1.000
1626062523873763.500,17.578,-6.348,-14.160,-386.719,1.000
1626062523877669.750,-95.215,-11.719,-27.344,-54.199,1.000
1626062523881576.000,-128.418,-24.902,-26.367,328.613,1.000
1626062523885482.250,-29.785,-29.785,-18.066,66.895,1.000
1626062523889388.500,21.973,-24.902,-23.926,-351.562,1.000
1626062523893294.750,-56.641,-30.762,-31.250,1.000,1.000
1626062523897201.000,-123.047,-26.855,-25.879,1.000,1.000
1626062523901107.250,-58.594,-19.043,-22.949,1.000,1.000
1626062523905013.500,5.859,-25.391,-23.438,1.000,1.000
1626062523908919.750,-66.406,-36.133,-35.645,1.000,1.000
1626062523912826.000,-164.551,-39.062,-45.410,1.000,1.000
1626062523916732.250,-146.484,-28.809,-36.621,1.000,1.000
1626062523920638.500,-74.219,-10.254,-36.621,1.000,1.000
1626062523924544.750,-126.465,-17.090,-41.504,1.000,1.000
1626062523928451.000,-248.535,-37.109,-43.457,1.000,1.000
1626062523932357.250,-258.301,-40.527,-38.574,1.000,1.000
1626062523936263.500,-181.152,-27.344,-31.250,1.000,1.000
1626062523940169.750,-182.617,-33.691,-38.574,39.062,1.000
1626062523944076.000,-275.879,-41.992,-48.828,-435.059,1.000
1626062523947982.250,-309.082,-27.832,-43.945,-553.711,1.000
1626062523951888.500,-217.773,-23.926,-33.203,-100.586,1.000
1626062523955794.750,-146.973,-38.086,-23.438,115.234,1.000
1626062523959701.000,-228.027,-56.152,-32.227,-298.828,1.000
1626062523963607.250,-300.293,-39.062,-43.945,-583.984,1.000
1626062523967513.500,-213.867,-33.203,-38.086,-212.402,1.000
1626062523971419.750,-129.883,-44.434,-33.691,157.227,1.000
1626062523975326.000,-175.781,-22.461,-37.598,-132.324,1.000
1626062523979232.250,-262.207,-19.043,-57.129,-545.410,1.000
1626062523983138.500,-216.309,-15.625,-66.895,-316.406,1.000
1626062523987044.750,-105.469,8.301,-63.477,1.000,1.000
1626062523990951.000,-122.559,-4.883,-50.781,1.000,1.000
1626062523994857.250,-220.703,-38.574,-48.340,1.000,1.000
1626062523998763.500,-237.305,-49.316,-57.129,1.000,1.000
1626062524002669.750,-127.441,-28.320,-36.621,1.000,1.000
1626062524006576.000,-84.473,-36.133,-35.645,1.000,1.000
1626062524010482.250,-175.293,-56.152,-53.223,1.000,1.000
1626062524014388.500,-199.219,-60.547,-45.410,1.000,1.000
1626062524018294.750,-103.027,-76.172,-32.715,1.000,1.000
1626062524022201.000,-19.043,-55.664,-27.832,1.000,1.000
1626062524026107.250,-64.941,-39.551,-36.621,1.000,1.000
1626062524030013.500,-132.324,-41.992,-50.293,1.000,1.000
1626062524033919.750,-66.406,-22.461,-41.016,-86.426,1.000
1626062524037826.000,36.133,-19.531,-20.996,319.336,1.000
1626062524041732.250,20.996,-27.832,-17.090,100.098,1.000
1626062524045638.500,-55.176,-36.133,-12.207,-315.430,1.000
1626062524049544.750,-33.203,-56.641,-6.836,-161.133,1.000
1626062524053451.000,59.082,-47.852,-22.949,292.480,1.000
1626062524057357.250,57.129,-31.250,-37.109,227.539,1.000
1626062524061263.500,-40.039,-60.059,-48.828,-244.629,1.000
1626062524065169.750,-49.316,-60.547,-45.898,-265.625,1.000
1626062524069076.000,62.988,-22.949,-30.273,217.285,1.000
1626062524072982.250,115.723,-26.855,-39.062,351.562,1.000
1626062524076888.500,25.879,-24.902,-70.312,-93.262,1.000
1626062524080794.750,-2.930,-15.137,-56.641,-193.359,1.000
1626062524084701.000,-21.973,-41.016,-54.199,-271.973,1.000
1626062524088607.250,93.750,-35.645,-28.809,209.473,1.000
1626062524092513.500,143.066,-23.438,-24.414,381.836,1.000
1626062524096419.750,35.645,-37.598,-29.297,-61.035,1.000
1626062524100326.000,-29.785,-58.594,-21.973,-313.965,1.000
1626062524104232.250,54.199,-57.129,-4.395,73.242,1.000
1626062524108138.500,118.652,-30.762,-9.277,399.414,1.000
1626062524112044.750,51.758,-20.020,-39.062,77.637,1.000
1626062524115951.000,-30.273,-27.344,-45.410,-314.453,1.000
1626062524119857.250,-3.418,-28.809,-34.668,-89.844,1.000
1626062524123763.500,85.449,-14.648,-24.414,342.285,1.000
1626062524127669.750,74.707,-15.625,-25.391,199.219,1.000
1626062524131576.000,-18.555,-26.367,-30.762,-265.625,1.000
1626062524135482.250,-20.508,-23.438,-21.484,-212.402,1.000
1626062524139388.500,66.406,-28.320,-15.625,253.906,1.000
1626062524143294.750,87.402,-39.551,-24.902,302.246,1.000
1626062524147201.000,-7.324,-45.898,-45.410,-152.832,1.000
1626062524151107.250,-54.688,-48.340,-54.688,-291.992,1.000
1626062524155013.500,38.086,-36.621,-33.691,154.297,1.000
1626062524158919.750,86.914,-36.133,-10.742,372.559,1.000
1626062524162826.000,-0.977,-36.133,-10.742,-42.480,1.000
1626062524166732.250,-75.684,-30.762,-11.719,-338.867,1.000
1626062524170638.500,-13.672,-24.902,-16.602,4.395,1.000
1626062524174544.750,65.430,-29.785,-26.855,1.000,1.000
1626062524178451.000,20.508,-44.922,-29.297,1.000,1.000
1626062524182357.250,-66.406,-41.504,-18.555,1.000,1.000
1626062524186263.500,-42.969,-49.805,-19.531,1.000,1.000
1626062524190169.750,66.895,-63.965,-22.461,1.000,1.000
1626062524194076.000,57.617,-36.133,-27.832,1.000,1.000
1626062524197982.250,-58.105,-6.348,-28.809,1.000,1.000
1626062524201888.500,-53.711,-8.301,-17.578,1.000,1.000
1626062524205794.750,50.293,-21.484,-40.527,1.000,1.000
1626062524209701.000,64.941,-16.602,-45.898,1.000,1.000
1626062524213607.250,-34.668,-8.301,-22.461,1.000,1.000
1626062524217513.500,-84.961,-13.184,-13.672,1.000,1.000
1626062524221419.750,-89.844,-16.602,-35.645,-307.617,1.000
1626062524225326.000,1.953,-16.113,-29.297,149.414,1.000
1626062524229232.250,52.734,-15.625,-21.973,292.969,1.000
1626062524233138.500,-26.367,-17.090,-22.949,-133.789,1.000
1626062524237044.750,-93.262,-21.973,-24.902,-371.094,1.000
1626062524240951.000,-23.438,-12.207,-24.902,15.137,1.000
1626062524244857.250,55.664,-3.906,-16.113,322.754,1.000
1626062524248763.500,-4.395,-10.254,-19.531,-15.137,1.000
1626062524252669.750,-107.910,-29.297,-27.832,-401.855,1.000
1626062524256576.000,-79.102,-31.250,-23.926,-148.926,1.000
1626062524260482.250,-6.348,-29.785,-26.367,255.371,1.000
1626062524264388.500,-52.734,-27.344,-28.809,53.711,1.000
1626062524268294.750,-162.598,-17.578,-32.715,1.000,1.000
1626062524272201.000,-177.246,-30.273,-42.480,1.000,1.000
1626062524276107.250,-92.773,-31.250,-41.016,1.000,1.000
1626062524280013.500,-83.008,-18.555,-29.297,1.000,1.000
1626062524283919.750,-189.453,-23.438,-27.344,1.000,1.000
1626062524287826.000,-243.652,-24.414,-36.621,1.000,1.000
1626062524291732.250,-178.223,-28.320,-36.621,1.000,1.000
1626062524295638.500,-129.395,-27.832,-28.809,1.000,1.000
1626062524299544.750,-198.730,-26.367,-31.738,1.000,1.000
1626062524303451.000,-268.066,-36.133,-37.598,1.000,1.000
1626062524307357.250,-198.730,-50.293,-27.832,1.000,1.000
1626062524311263.500,-114.746,-57.129,-27.832,1.000,1.000
1626062524315169.750,-155.273,-56.152,-52.734,1.000,1.000
1626062524319076.000,-238.770,-44.922,-65.430,1.000,1.000
1626062524322982.250,-207.031,-20.996,-34.668,1.000,1.000
1626062524326888.500,-106.934,-30.273,-24.414,1.000,1.000
1626062524330794.750,-124.512,-19.043,-49.805,1.000,1.000
1626062524334701.000,-236.816,9.277,-47.852,1.000,1.000
1626062524338607.250,-239.258,0.977,-29.297,1.000,1.000
1626062524342513.500,-128.418,-13.184,-13.184,1.000,1.000
1626062524346419.750,-94.727,-21.484,-13.184,1.000,1.000
1626062524350326.000,-178.711,-45.898,-26.855,1.000,1.000
1626062524354232.250,-213.379,-67.871,-34.180,1.000,1.000
1626062524358138.500,-121.582,-42.480,-52.246,1.000,1.000
1626062524362044.750,-32.715,-51.758,-35.156,1.000,1.000
1626062524365951.000,-72.266,-79.102,-4.395,1.000,1.000
1626062524369857.250,-160.645,-46.387,-4.395,1.000,1.000
1626062524373763.500,-125.488,-22.461,-16.602,1.000,1.000
1626062524377669.750,-40.527,-28.320,-35.645,1.000,1.000
1626062524381576.000,-63.477,-27.344,-27.832,1.000,1.000
1626062524385482.250,-150.879,-17.578,-27.344,1.000,1.000
1626062524389388.500,-114.746,-12.695,-39.062,1.000,1.000
1626062524393294.750,6.348,-27.832,-34.180,1.000,1.000
1626062524397201.000,15.625,-42.480,-32.227,1.000,1.000
1626062524401107.250,-66.406,-51.758,-41.016,1.000,1.000
1626062524405013.500,-65.918,-55.664,-39.062,1.000,1.000
1626062524408919.750,-41.016,-41.016,-35.645,-313.477,1.000
1626062524412826.000,-13.672,-43.945,-20.020,-83.008,1.000
1626062524416732.250,83.008,-5.371,-20.508,351.562,1.000
1626062524420638.500,79.102,-2.930,-14.160,210.938,1.000
1626062524424544.750,-21.973,-51.270,-16.602,-254.883,1.000
1626062524428451.000,-24.414,-56.152,-16.602,-191.406,1.000
1626062524432357.250,83.496,-9.766,-12.207,291.016,1.000
1626062524436263.500,115.234,9.277,-9.766,325.195,1.000
1626062524440169.750,25.879,4.395,-22.461,-133.789,1.000
1626062524444076.000,-24.414,-22.461,-35.645,-266.113,1.000
1626062524447982.250,54.688,-20.020,-28.320,159.180,1.000
1626062524451888.500,105.469,-24.414,-24.414,363.281,1.000
1626062524455794.750,34.668,-39.551,-25.879,1.000,1.000
1626062524459701.000,-32.227,-38.574,-22.949,1.000,1.000
1626062524463607.250,16.113,-64.453,-34.180,1.000,1.000
1626062524467513.500,83.984,-51.758,-45.898,1.000,1.000
1626062524471419.750,53.711,-5.859,-41.016,1.000,1.000
1626062524475326.000,-39.062,-5.371,-39.551,1.000,1.000
1626062524479232.250,-30.273,-23.438,-37.109,1.000,1.000
1626062524483138.500,82.031,-1.953,-20.508,1.000,1.000
1626062524487044.750,76.172,-8.301,-29.297,1.000,1.000
1626062524490951.000,-33.691,-31.738,-44.434,1.000,1.000
1626062524494857.250,-33.203,-32.715,-36.621,1.000,1.000
1626062524498763.500,64.941,-34.668,-29.297,1.000,1.000
1626062524502669.750,84.961,-39.551,-31.738,1.000,1.000
1626062524506576.000,-5.371,-42.480,-35.645,1.000,1.000
1626062524510482.250,-39.062,-14.160,-29.297,1.000,1.000
1626062524514388.500,41.016,-11.719,-31.250,1.000,1.000
1626062524518294.750,91.797,-59.570,-30.762,1.000,1.000
1626062524522201.000,20.020,-62.500,-31.738,1.000,1.000
1626062524526107.250,-63.477,-27.832,-34.668,1.000,1.000
1626062524530013.500,-13.672,-12.695,-34.180,1.000,1.000
1626062524533919.750,70.801,7.324,-36.133,1.000,1.000
1626062524537826.000,34.180,-1.465,-37.598,1.000,1.000
1626062524541732.250,-64.453,-51.270,-30.762,1.000,1.000
1626062524545638.500,-43.457,-59.082,-23.926,1.000,1.000
1626062524549544.750,48.828,-28.320,-43.457,1.000,1.000
1626062524553451.000,43.457,-18.555,-47.852,1.000,1.000
1626062524557357.250,-44.434,-31.250,-36.621,1.000,1.000
1626062524561263.500,-59.082,-28.809,-38.086,1.000,1.000
1626062524565169.750,36.133,-21.484,-24.902,1.000,1.000
1626062524569076.000,76.172,-11.230,-15.625,1.000,1.000
1626062524572982.250,-9.277,-18.066,-18.066,1.000,1.000
1626062524576888.500,-64.941,-27.344,-20.996,1.000,1.000
1626062524580794.750,2.930,-21.973,-26.367,1.000,1.000
1626062524584701.000,76.660,-49.805,-7.812,1.000,1.000
1626062524588607.250,30.273,-59.082,4.395,1.000,1.000
1626062524592513.500,-68.359,-37.109,-30.273,1.000,1.000
1626062524596419.750,-98.633,-47.363,-30.273,-362.305,1.000
1626062524600326.000,-13.672,-33.691,-8.301,21.973,1.000
1626062524604232.250,61.523,-22.949,-21.484,344.238,1.000
1626062524608138.500,-5.859,-28.320,-45.410,27.344,1.000
1626062524612044.750,-74.219,-45.898,-47.852,-344.727,1.000
1626062524615951.000,-23.438,-34.668,-48.340,-101.562,1.000
1626062524619857.250,57.617,-5.371,-60.547,308.105,1.000
1626062524623763.500,27.832,-2.441,-62.012,140.625,1.000
1626062524627669.750,-70.312,-13.672,-39.062,-315.430,1.000
1626062524631576.000,-63.965,-22.949,-15.137,-249.512,1.000
1626062524635482.250,33.203,-21.484,-0.977,228.027,1.000
1626062524639388.500,48.340,-32.715,-10.254,269.531,1.000
1626062524643294.750,-48.828,-48.828,-32.715,1.000,1.000
1626062524647201.000,-83.496,-38.574,-41.992,1.000,1.000
1626062524651107.250,6.836,-12.207,-33.203,1.000,1.000
1626062524655013.500,40.527,-29.785,-41.992,1.000,1.000
1626062524658919.750,-51.758,-93.750,-54.688,1.000,1.000
1626062524662826.000,-114.746,-94.727,-62.012,1.000,1.000
1626062524666732.250,-39.551,-24.902,-37.109,1.000,1.000
1626062524670638.500,39.062,-2.930,-5.371,1.000,1.000
1626062524674544.750,-4.395,-11.230,-13.184,1.000,1.000
1626062524678451.000,-82.031,-7.324,-27.832,1.000,1.000
1626062524682357.250,-67.383,-17.578,-30.762,1.000,1.000
1626062524686263.500,21.484,-47.852,-29.297,1.000,1.000
1626062524690169.750,25.391,-55.176,-31.250,1.000,1.000
1626062524694076.000,-69.336,-36.133,-24.902,1.000,1.000
1626062524697982.250,-86.426,-50.293,-48.340,1.000,1.000
1626062524701888.500,25.879,-56.152,-68.359,1.000,1.000
1626062524705794.750,69.824,-32.227,-39.062,1.000,1.000
1626062524709701.000,-32.227,-18.555,-17.578,1.000,1.000
1626062524713607.250,-96.191,-39.062,-8.789,1.000,1.000
1626062524717513.500,-29.297,-34.180,-14.648,1.000,1.000
1626062524721419.750,39.062,-14.648,-19.043,1.000,1.000
1626062524725326.000,-16.113,-5.859,-23.438,1.000,1.000
1626062524729232.250,-94.238,-35.156,-36.133,1.000,1.000
1626062524733138.500,-26.855,-70.801,-14.160,1.000,1.000
1626062524737044.750,-83.008,-66.895,-43.457,-331.055,1.000
1626062524740951.000,-16.113,-45.410,-32.715,104.492,1.000
1626062524744857.250,62.988,4.395,4.395,321.289,1.000
1626062524748763.500,-7.812,4.883,-12.695,-85.449,1.000
1626062524752669.750,-106.445,-19.043,-35.645,-382.812,1.000
1626062524756576.000,-53.711,-28.809,-31.738,-29.297,1.000
1626062524760482.250,27.832,-19.531,-28.320,318.359,1.000
1626062524764388.500,-17.090,-42.969,-40.527,23.438,1.000
1626062524768294.750,-95.703,-69.824,-48.340,-371.582,1.000
1626062524772201.000,-43.945,-46.875,-24.414,-132.324,1.000
1626062524776107.250,43.457,-33.691,-25.879,296.875,1.000
1626062524780013.500,23.926,-30.273,-40.527,162.109,1.000
1626062524783919.750,-0.488,-17.578,-14.648,65.918,1.000
1626062524787826.000,-112.793,-56.641,-51.758,-379.395,1.000
1626062524791732.250,-87.891,-54.199,-53.223,-207.031,1.000
1626062524795638.500,18.066,-13.672,-31.738,264.648,1.000
1626062524799544.750,11.230,8.301,-36.133,183.594,1.000
1626062524803451.000,-97.656,-12.207,-47.852,-293.457,1.000
1626062524807357.250,-97.656,-42.480,-30.273,-291.016,1.000
1626062524811263.500,8.789,-46.875,-9.277,187.988,1.000
1626062524815169.750,47.363,-42.480,-16.113,295.410,1.000
1626062524819076.000,-41.016,-36.133,-37.109,-160.156,1.000
1626062524822982.250,-110.352,-46.875,-43.457,-371.582,1.000
1626062524826888.500,-13.672,-42.969,-15.137,55.664,1.000
1626062524830794.750,62.012,-31.250,-12.207,1.000,1.000
1626062524834701.000,-27.344,-31.250,-35.156,1.000,1.000
1626062524838607.250,-104.004,-27.344,-21.484,1.000,1.000
1626062524842513.500,-44.434,-16.602,-28.809,1.000,1.000
1626062524846419.750,47.852,4.395,-40.527,1.000,1.000
1626062524850326.000,12.207,-18.066,-23.438,1.000,1.000
1626062524854232.250,-93.262,-36.133,-10.742,1.000,1.000
1626062524858138.500,-81.055,-26.855,-16.113,1.000,1.000
1626062524862044.750,13.184,-35.156,-30.273,1.000,1.000
1626062524865951.000,30.762,-77.637,-26.367,1.000,1.000
1626062524869857.250,-45.410,-68.359,-17.578,1.000,1.000
1626062524873763.500,-64.453,-3.906,-33.691,1.000,1.000
1626062524877669.750,-109.375,-33.691,-38.086,161.621,1.000
1626062524881576.000,-79.590,-26.367,-49.316,288.086,1.000
1626062524885482.250,29.785,-20.996,-45.898,-142.090,1.000
1626062524889388.500,29.785,-21.973,-21.484,-371.094,1.000
1626062524893294.750,-83.984,-24.414,-38.086,13.672,1.000
1626062524897201.000,-104.492,-29.785,-56.152,328.125,1.000
1626062524901107.250,0.488,-26.367,-18.555,-1.465,1.000
1626062524905013.500,36.133,-37.109,0.488,-383.789,1.000
1626062524908919.750,-52.246,-48.340,-4.395,-122.070,1.000
1626062524912826.000,-94.727,-44.922,-6.348,318.359,1.000
1626062524916732.250,-18.555,-45.410,-37.598,155.273,1.000
1626062524920638.500,46.387,-46.387,-42.480,-311.035,1.000
1626062524924544.750,45.410,-31.250,-40.039,299.805,1.000
1626062524928451.000,-41.016,-37.109,-57.617,-149.414,1.000
1626062524932357.250,-102.539,-28.320,-24.902,-374.512,1.000
1626062524936263.500,-37.598,-28.320,3.418,23.438,1.000
1626062524940169.750,37.109,-18.066,3.418,323.242,1.000
1626062524944076.000,-17.578,-15.625,-13.672,-16.113,1.000
1626062524947982.250,-101.074,-38.574,-38.086,-380.371,1.000
1626062524951888.500,-53.223,-44.434,-27.344,-104.004,1.000
1626062524955794.750,35.156,-27.832,-12.695,308.594,1.000
1626062524959701.000,-1.465,-22.949,-19.531,106.445,1.000
1626062524963607.250,-85.449,-26.367,-22.461,-333.496,1.000
1626062524967513.500,-63.477,-37.598,-24.902,-224.121,1.000
1626062524971419.750,-63.477,-42.969,-22.949,-136.230,1.000
1626062524975326.000,31.738,-57.129,-27.832,299.316,1.000
1626062524979232.250,24.414,-50.781,-18.066,158.203,1.000
1626062524983138.500,-68.359,-41.992,-16.602,-308.105,1.000
1626062524987044.750,-69.336,-20.020,-23.438,-261.230,1.000
1626062524990951.000,20.996,-18.066,-32.715,213.867,1.000
1626062524994857.250,33.691,-36.133,-45.898,252.930,1.000
1626062524998763.500,-48.828,-12.207,-35.156,-208.008,1.000
1626062525002669.750,-88.379,-2.930,-30.762,-333.984,1.000
1626062525006576.000,0.000,-33.203,-41.992,113.281,1.000
1626062525010482.250,58.594,-45.898,-31.738,323.242,1.000
1626062525014388.500,-29.297,-66.406,-14.160,-91.797,1.000
1626062525018294.750,-71.289,-32.715,-46.387,-194.336,1.000
1626062525022201.000,-116.211,-26.855,-51.758,-366.699,1.000
1626062525026107.250,-14.160,-20.996,-39.551,72.266,1.000
1626062525030013.500,62.500,-23.926,-22.949,339.355,1.000
1626062525033919.750,-15.137,-29.785,-24.902,-39.062,1.000
1626062525037826.000,-92.285,-38.086,-35.156,-367.676,1.000
1626062525041732.250,-33.691,-41.504,-24.414,-63.965,1.000
1626062525045638.500,50.781,-37.109,-38.086,311.523,1.000
1626062525049544.750,7.812,-22.949,-60.547,79.102,1.000
1626062525053451.000,-86.426,-31.250,-39.551,-351.074,1.000
1626062525057357.250,-80.078,-59.570,-41.504,-216.309,1.000
1626062525061263.500,17.090,-45.410,-39.551,245.117,1.000
1626062525065169.750,53.223,-24.414,-44.922,307.129,1.000
1626062525069076.000,16.602,-25.391,-48.828,114.746,1.000
1626062525072982.250,-81.543,-17.090,-28.320,-341.797,1.000
1626062525076888.500,-68.359,-15.137,-21.484,-241.211,1.000
1626062525080794.750,40.527,-6.836,-9.277,243.652,1.000
1626062525084701.000,54.199,-5.859,-14.160,253.418,1.000
1626062525088607.250,-49.805,-24.902,-54.199,-228.027,1.000
1626062525092513.500,-83.984,-21.973,-60.059,-324.707,1.000
1626062525096419.750,13.184,-46.387,-39.551,142.578,1.000
1626062525100326.000,60.059,-61.523,-35.156,325.684,1.000
1626062525104232.250,-40.039,-45.410,-43.457,-114.746,1.000
1626062525108138.500,-120.605,-39.062,-41.992,-397.461,1.000
1626062525112044.750,-89.844,-26.367,-9.766,-333.984,1.000
1626062525115951.000,-21.973,-26.855,-26.367,78.125,1.000
1626062525119857.250,26.855,-19.043,-27.832,302.246,1.000
1626062525123763.500,-36.133,-26.855,-37.598,-74.219,1.000
1626062525127669.750,-98.633,-32.227,-30.762,-374.023,1.000
1626062525131576.000,-36.621,-30.762,-11.230,-40.039,1.000
1626062525135482.250,43.457,-20.508,-8.789,325.195,1.000
1626062525139388.500,-1.465,-39.551,-7.812,66.895,1.000
1626062525143294.750,-93.262,-60.059,-36.621,-358.887,1.000
1626062525147201.000,-65.918,-58.105,-44.922,-179.688,1.000
1626062525151107.250,38.574,-46.875,-14.648,287.109,1.000
1626062525155013.500,37.109,-33.691,-3.418,192.871,1.000
1626062525158919.750,-65.918,-9.766,-10.254,1.000,1.000
1626062525162826.000,-78.125,-6.836,-29.297,1.000,1.000
1626062525166732.250,33.691,-13.184,-43.457,1.000,1.000
1626062525170638.500,44.434,-24.902,-39.551,1.000,1.000
1626062525174544.750,-67.871,-64.941,-30.762,1.000,1.000
1626062525178451.000,-110.352,-57.129,-31.738,1.000,1.000
1626062525182357.250,-40.527,-28.320,-30.273,1.000,1.000
1626062525186263.500,15.625,-29.297,-19.043,1.000,1.000
1626062525190169.750,-58.105,-45.898,-26.855,1.000,1.000
1626062525194076.000,-128.906,-41.504,-38.574,1.000,1.000
1626062525197982.250,-60.059,-30.273,-40.039,1.000,1.000
1626062525201888.500,40.527,-14.160,-31.738,1.000,1.000
1626062525205794.750,15.137,-8.301,-24.902,1.000,1.000
1626062525209701.000,-85.449,-25.391,-30.273,1.000,1.000
1626062525213607.250,-80.078,-26.367,-42.480,1.000,1.000
1626062525217513.500,8.301,-50.293,-46.387,1.000,1.000
1626062525221419.750,22.949,-49.805,-20.996,1.000,1.000
1626062525225326.000,-58.594,-36.621,-6.836,1.000,1.000
1626062525229232.250,-97.168,-43.945,-25.391,1.000,1.000
1626062525233138.500,-21.484,-31.250,-31.250,1.000,1.000
1626062525237044.750,25.391,-14.160,-25.879,1.000,1.000
1626062525240951.000,-59.082,-13.184,-31.738,1.000,1.000
1626062525244857.250,-104.004,-10.254,-29.785,1.000,1.000
1626062525248763.500,-15.137,-1.465,-30.762,1.000,1.000
1626062525252669.750,57.617,-18.066,-38.086,1.000,1.000
1626062525256576.000,-18.066,-70.801,-27.832,1.000,1.000
1626062525260482.250,-102.051,-85.938,-17.578,1.000,1.000
1626062525264388.500,-52.246,-34.180,-18.066,1.000,1.000
1626062525268294.750,24.414,-11.230,-19.043,1.000,1.000
1626062525272201.000,4.395,-20.996,-35.156,1.000,1.000
1626062525276107.250,-86.914,-21.973,-46.387,1.000,1.000
1626062525280013.500,-80.078,-11.230,-30.762,1.000,1.000
1626062525283919.750,20.996,0.000,-16.602,1.000,1.000
1626062525287826.000,19.531,8.301,-30.273,1.000,1.000
1626062525291732.250,-78.125,0.488,-45.898,1.000,1.000
1626062525295638.500,-113.770,-24.414,-62.012,1.000,1.000
1626062525299544.750,-92.285,-49.805,-24.902,-352.051,1.000
1626062525303451.000,-71.289,-19.531,-31.250,-199.707,1.000
1626062525307357.250,27.344,-16.602,-43.457,264.648,1.000
1626062525311263.500,23.438,-55.664,-41.992,191.895,1.000
1626062525315169.750,-64.453,-35.645,-24.414,-272.949,1.000
1626062525319076.000,-81.055,3.418,-10.254,-289.551,1.000
1626062525322982.250,-0.488,7.324,-1.953,171.875,1.000
1626062525326888.500,32.227,3.418,-4.883,290.039,1.000
1626062525330794.750,-44.434,-14.648,-20.508,-150.391,1.000
1626062525334701.000,-85.938,-29.297,-25.879,-355.957,1.000
1626062525338607.250,-13.184,-46.387,-28.809,43.945,1.000
1626062525342513.500,33.691,-46.875,-34.668,315.430,1.000
1626062525346419.750,-43.457,-27.832,-36.621,1.000,1.000
1626062525350326.000,-119.629,-27.344,-33.691,1.000,1.000
1626062525354232.250,-51.270,-27.832,-21.484,1.000,1.000
1626062525358138.500,37.109,-66.895,-33.203,1.000,1.000
1626062525362044.750,-0.488,-61.035,-34.668,1.000,1.000
1626062525365951.000,-92.773,-23.926,-23.926,1.000,1.000
1626062525369857.250,-83.008,-22.461,-32.715,1.000,1.000
1626062525373763.500,11.230,-17.090,-42.480,1.000,1.000
1626062525377669.750,18.555,-17.578,-27.832,1.000,1.000
1626062525381576.000,-69.824,-22.461,-8.789,1.000,1.000
1626062525385482.250,-102.051,-25.391,-25.391,1.000,1.000
1626062525389388.500,-20.996,-22.461,-40.527,1.000,1.000
1626062525393294.750,17.090,-22.949,-35.645,1.000,1.000
1626062525397201.000,-60.059,-33.691,-49.316,1.000,1.000
1626062525401107.250,-106.445,-26.367,-60.059,1.000,1.000
1626062525405013.500,-35.156,-10.742,-44.434,1.000,1.000
1626062525408919.750,33.203,-35.645,-30.762,1.000,1.000
1626062525412826.000,-19.043,-72.754,-40.039,1.000,1.000
1626062525416732.250,-94.727,-80.566,-42.480,1.000,1.000
1626062525420638.500,-50.293,-53.711,-33.691,1.000,1.000
1626062525424544.750,48.828,-15.625,-47.363,1.000,1.000
1626062525428451.000,26.367,-12.207,-59.570,1.000,1.000
1626062525432357.250,-90.820,-29.297,-51.758,1.000,1.000
1626062525436263.500,-96.191,-19.043,-30.273,1.000,1.000
1626062525440169.750,5.859,4.395,-9.277,1.000,1.000
1626062525444076.000,21.484,-16.113,-21.973,1.000,1.000
1626062525447982.250,-76.172,-52.246,-36.133,1.000,1.000
1626062525451888.500,-106.445,-63.477,-29.297,1.000,1.000
1626062525455794.750,-7.324,-49.316,-32.715,1.000,1.000
1626062525459701.000,43.945,-28.809,-42.969,1.000,1.000
1626062525463607.250,-34.668,-13.672,-52.246,1.000,1.000
1626062525467513.500,-90.332,-2.930,-42.480,1.000,1.000
1626062525471419.750,-40.527,-30.762,-38.086,1.000,1.000
1626062525475326.000,31.738,-57.129,-40.527,1.000,1.000
1626062525479232.250,-12.695,-43.457,-29.785,1.000,1.000
1626062525483138.500,-113.281,-19.531,-18.066,1.000,1.000
1626062525487044.750,-45.410,-73.242,-0.488,-125.488,1.000
1626062525490951.000,-93.262,-58.105,-0.488,-343.262,1.000
1626062525494857.250,-13.184,-37.598,-3.906,58.594,1.000
1626062525498763.500,46.387,-13.184,-3.906,348.145,1.000
1626062525502669.750,-29.297,-26.367,-9.277,-2.441,1.000
1626062525506576.000,-104.492,-50.781,-10.742,-359.863,1.000
1626062525510482.250,-41.016,-46.387,-5.859,-82.520,1.000
1626062525514388.500,52.734,-43.945,0.977,332.520,1.000
1626062525518294.750,7.812,-76.660,-2.930,139.648,1.000
1626062525522201.000,-83.008,-83.008,-21.484,-313.477,1.000
1626062525526107.250,-70.312,-63.965,-21.973,-220.215,1.000
1626062525530013.500,19.043,-52.734,-6.348,249.023,1.000
1626062525533919.750,27.344,-53.223,-11.230,1.000,1.000
1626062525537826.000,-74.219,-49.316,-32.227,1.000,1.000
1626062525541732.250,-94.727,-25.879,-25.879,1.000,1.000
1626062525545638.500,9.277,-13.672,-20.996,1.000,1.000
1626062525549544.750,47.363,-22.949,-37.598,1.000,1.000
1626062525553451.000,-43.457,-41.504,-24.414,1.000,1.000
1626062525557357.250,-99.609,-45.410,-9.766,1.000,1.000
1626062525561263.500,-31.250,-37.109,-6.348,1.000,1.000
1626062525565169.750,49.805,-31.250,-9.766,1.000,1.000
1626062525569076.000,0.977,-20.020,-30.762,1.000,1.000
1626062525572982.250,-93.262,-34.668,-29.785,1.000,1.000
1626062525576888.500,-56.152,-46.387,-19.531,1.000,1.000
1626062525580794.750,-85.938,-29.297,-30.273,309.082,1.000
1626062525584701.000,-16.602,-19.531,-20.508,186.035,1.000
1626062525588607.250,43.945,-8.789,-9.766,-287.109,1.000
1626062525592513.500,-20.020,-21.973,-27.344,-272.949,1.000
1626062525596419.750,-88.867,-44.434,-44.922,215.820,1.000
1626062525600326.000,-23.926,-23.926,-34.668,284.180,1.000
1626062525604232.250,67.383,-9.766,-8.789,-183.105,1.000
1626062525608138.500,8.301,-27.344,-6.348,-338.867,1.000
1626062525612044.750,-116.211,-47.852,-22.461,87.402,1.000
1626062525615951.000,-99.121,-57.617,-27.344,314.941,1.000
1626062525619857.250,20.020,-42.480,-26.855,-75.195,1.000
1626062525623763.500,43.945,-21.973,-22.949,-382.812,1.000
1626062525627669.750,5.371,-37.598,-17.090,125.977,1.000
1626062525631576.000,-84.961,-55.664,-22.949,-327.637,1.000
1626062525635482.250,-80.078,-42.969,-24.414,-247.559,1.000
1626062525639388.500,10.254,-39.551,-30.762,217.285,1.000
1626062525643294.750,33.691,-52.734,-28.809,243.652,1.000
1626062525647201.000,-50.781,-54.199,-28.320,-214.844,1.000
1626062525651107.250,-93.750,-34.668,-28.809,-341.797,1.000
1626062525655013.500,-15.137,-31.738,-44.434,85.938,1.000
1626062525658919.750,40.039,-23.926,-52.734,291.992,1.000
1626062525662826.000,-25.391,-7.812,-34.668,-103.516,1.000
1626062525666732.250,-99.609,-7.812,-21.973,-388.672,1.000
1626062525670638.500,-45.898,-21.484,-18.555,-37.109,1.000
1626062525674544.750,40.527,-41.016,-38.086,1.000,1.000
1626062525678451.000,-21.484,-44.434,-66.406,1.000,1.000
1626062525682357.250,-102.539,-35.645,-41.016,1.000,1.000
1626062525686263.500,-48.828,-38.086,-5.371,1.000,1.000
1626062525690169.750,18.555,-31.738,-33.203,1.000,1.000
1626062525694076.000,-7.812,-26.855,-66.406,1.000,1.000
1626062525697982.250,-79.102,-26.855,-39.062,1.000,1.000
1626062525701888.500,-80.566,-27.344,-19.531,1.000,1.000
1626062525705794.750,13.184,-21.973,-29.785,1.000,1.000
1626062525709701.000,32.227,-25.391,-37.598,1.000,1.000
1626062525713607.250,-55.664,-34.668,-30.762,1.000,1.000
1626062525717513.500,-95.215,-37.598,-24.414,1.000,1.000
1626062525721419.750,-74.219,-21.973,-41.992,-337.402,1.000
1626062525725326.000,-60.547,-39.551,-39.551,-223.145,1.000
1626062525729232.250,17.578,-65.918,-56.152,234.863,1.000
1626062525733138.500,21.973,-47.363,-74.707,216.797,1.000
1626062525737044.750,-75.195,-24.902,-75.684,-252.441,1.000
1626062525740951.000,-98.633,-41.992,-49.805,-326.172,1.000
1626062525744857.250,8.301,-47.363,-16.113,145.508,1.000
1626062525748763.500,59.082,-18.066,8.789,326.172,1.000
1626062525752669.750,-43.457,-16.113,6.836,-118.164,1.000
1626062525756576.000,-122.070,-25.391,-7.324,-386.719,1.000
1626062525760482.250,-42.969,-11.230,-20.996,-4.883,1.000
1626062525764388.500,42.480,-7.324,-27.344,323.730,1.000
1626062525768294.750,-7.812,-27.832,-25.391,1.000,1.000
1626062525772201.000,-104.004,-38.574,-25.879,1.000,1.000
1626062525776107.250,-72.266,-35.645,-28.809,1.000,1.000
1626062525780013.500,34.668,-30.273,-27.832,1.000,1.000
1626062525783919.750,12.207,-31.738,-34.180,1.000,1.000
1626062525787826.000,-90.332,-44.434,-42.969,1.000,1.000
1626062525791732.250,-80.566,-49.316,-37.598,1.000,1.000
1626062525795638.500,25.391,-27.344,-27.832,1.000,1.000
1626062525799544.750,49.805,-22.461,-17.090,1.000,1.000
1626062525803451.000,-49.316,-59.570,-21.484,1.000,1.000
1626062525807357.250,-100.586,-63.477,-23.438,1.000,1.000
1626062525811263.500,-25.391,-35.645,-26.367,1.000,1.000
1626062525815169.750,31.738,-25.879,-41.504,1.000,1.000
1626062525819076.000,-32.227,-13.672,-44.434,1.000,1.000
1626062525822982.250,-98.633,-6.348,-41.504,1.000,1.000
1626062525826888.500,-35.645,-7.812,-41.504,1.000,1.000
1626062525830794.750,43.945,-18.555,-39.062,1.000,1.000
1626062525834701.000,5.859,-36.133,-31.250,1.000,1.000
1626062525838607.250,-83.496,-39.551,-32.227,1.000,1.000
1626062525842513.500,-54.199,-29.785,-25.879,1.000,1.000
1626062525846419.750,40.039,-28.809,-9.277,1.000,1.000
1626062525850326.000,17.578,-39.062,-10.742,1.000,1.000
1626062525854232.250,-72.266,-49.805,-31.738,1.000,1.000
1626062525858138.500,-83.008,-55.664,-41.504,1.000,1.000
1626062525862044.750,-58.594,-41.504,-20.996,-208.984,1.000
1626062525865951.000,20.996,-24.414,-61.035,243.164,1.000
1626062525869857.250,27.344,-17.578,-61.035,204.102,1.000
1626062525873763.500,-49.316,-26.367,-10.254,-247.070,1.000
1626062525877669.750,-93.262,-37.109,-14.648,-315.918,1.000
1626062525881576.000,-13.672,-25.879,-27.344,137.695,1.000
1626062525885482.250,36.133,-10.254,-29.785,288.574,1.000
1626062525889388.500,-50.293,-36.133,-60.059,-157.715,1.000
1626062525893294.750,-107.422,-48.828,-41.016,-375.977,1.000
1626062525897201.000,-27.344,-29.785,-11.230,32.715,1.000
1626062525901107.250,47.852,-27.344,-14.648,333.008,1.000
1626062525905013.500,-9.277,-47.363,-20.020,-4.883,1.000
1626062525908919.750,-103.516,-48.828,-34.668,1.000,1.000
1626062525912826.000,-48.340,-21.484,-46.387,1.000,1.000
1626062525916732.250,55.176,-19.043,-51.758,1.000,1.000
1626062525920638.500,11.719,-22.949,-57.617,1.000,1.000
1626062525924544.750,-90.820,-15.625,-43.945,1.000,1.000
1626062525928451.000,-83.008,-22.461,-36.133,1.000,1.000
1626062525932357.250,13.672,-25.391,-46.387,1.000,1.000
1626062525936263.500,30.273,-25.879,-36.133,1.000,1.000
1626062525940169.750,-45.898,-47.363,-13.184,1.000,1.000
1626062525944076.000,-71.289,-50.781,-5.371,1.000,1.000
1626062525947982.250,-9.766,-34.668,-15.137,1.000,1.000
1626062525951888.500,38.086,-25.879,-33.691,1.000,1.000
1626062525955794.750,-29.297,-28.809,-44.434,1.000,1.000
1626062525959701.000,-105.469,-38.574,-31.738,1.000,1.000
1626062525963607.250,-48.828,-34.668,-24.902,1.000,1.000
1626062525967513.500,30.273,-15.625,-38.574,1.000,1.000
1626062525971419.750,-6.348,-14.160,-25.879,1.000,1.000
1626062525975326.000,-86.914,-28.809,-5.371,1.000,1.000
1626062525979232.250,-62.012,-27.344,-12.695,1.000,1.000
1626062525983138.500,18.555,-39.062,-18.555,1.000,1.000
1626062525987044.750,11.230,-65.430,-12.695,1.000,1.000
1626062525990951.000,-80.078,-60.547,-35.645,1.000,1.000
1626062525994857.250,-91.797,-34.668,-53.223,1.000,1.000
1626062525998763.500,12.207,-12.695,-19.043,1.000,1.000
1626062526002669.750,29.297,-17.578,-16.113,1.000,1.000
1626062526006576.000,-80.078,-35.645,-32.227,1.000,1.000
1626062526010482.250,-124.023,-24.414,-28.320,1.000,1.000
1626062526014388.500,-24.414,-13.672,-2.930,1.000,1.000
1626062526018294.750,37.109,-36.621,-8.301,1.000,1.000
1626062526022201.000,-34.180,-38.574,-39.551,1.000,1.000
1626062526026107.250,-98.145,-41.992,-44.922,1.000,1.000
1626062526030013.500,-47.363,-41.016,-32.715,1.000,1.000
1626062526033919.750,44.922,-26.855,-10.742,1.000,1.000
1626062526037826.000,6.348,-37.109,-20.508,1.000,1.000
1626062526041732.250,-100.586,-32.715,-44.922,1.000,1.000
1626062526045638.500,-76.660,-50.293,-31.250,1.000,1.000
1626062526049544.750,-105.469,-32.715,-27.344,-387.695,1.000
1626062526053451.000,-0.488,-18.555,-10.742,34.180,1.000
1626062526057357.250,66.895,-20.020,-14.160,352.539,1.000
1626062526061263.500,-16.113,-28.320,-39.551,5.371,1.000
1626062526065169.750,-123.047,-41.016,-50.293,-395.020,1.000
1626062526069076.000,-66.895,-28.320,-30.273,-121.582,1.000
1626062526072982.250,55.664,-20.508,-24.902,334.473,1.000
1626062526076888.500,9.766,-41.992,-41.016,139.648,1.000
1626062526080794.750,-104.980,-50.781,-43.457,-336.426,1.000
1626062526084701.000,-92.773,-47.363,-35.156,-251.465,1.000
1626062526088607.250,4.883,-24.414,-26.367,227.051,1.000
1626062526092513.500,16.602,-5.859,-16.602,245.605,1.000
1626062526096419.750,-65.430,-18.555,-10.742,1.000,1.000
1626062526100326.000,-92.285,-43.457,-20.508,1.000,1.000
1626062526104232.250,-19.043,-51.758,-46.387,1.000,1.000
1626062526108138.500,36.621,-18.555,-29.297,1.000,1.000
1626062526112044.750,-37.109,2.930,-15.137,1.000,1.000
1626062526115951.000,-110.352,-10.742,-22.949,1.000,1.000
1626062526119857.250,-41.016,-13.672,-24.902,1.000,1.000
1626062526123763.500,45.898,-45.410,-34.668,1.000,1.000
1626062526127669.750,12.207,-64.453,-35.156,1.000,1.000
1626062526131576.000,-86.914,-35.156,-46.387,1.000,1.000
1626062526135482.250,-77.637,-17.090,-51.758,1.000,1.000
1626062526139388.500,14.160,-4.883,-41.504,1.000,1.000
1626062526143294.750,6.348,-9.766,-18.555,1.000,1.000
1626062526147201.000,-90.332,-32.715,-27.344,1.000,1.000
1626062526151107.250,-88.379,-54.688,-33.203,1.000,1.000
1626062526155013.500,18.066,-44.434,-22.461,1.000,1.000
1626062526158919.750,32.227,-18.555,-22.949,1.000,1.000
1626062526162826.000,-53.223,-26.367,-20.996,1.000,1.000
1626062526166732.250,-91.797,-38.086,-43.945,1.000,1.000
1626062526170638.500,-22.461,-26.855,-51.758,1.000,1.000
1626062526174544.750,48.828,-13.184,-18.555,1.000,1.000
1626062526178451.000,-13.672,-18.066,-2.930,1.000,1.000
1626062526182357.250,-111.328,-35.156,-27.832,1.000,1.000
1626062526186263.500,-74.707,-48.828,-38.574,1.000,1.000
1626062526190169.750,14.648,-38.086,-27.344,1.000,1.000
1626062526194076.000,-20.508,-41.016,-58.105,1.000,1.000
1626062526197982.250,-117.676,-61.035,-71.777,1.000,1.000
1626062526201888.500,-83.008,-34.668,-35.645,1.000,1.000
1626062526205794.750,30.762,-20.020,-23.438,1.000,1.000
1626062526209701.000,20.996,-28.320,-28.809,1.000,1.000
1626062526213607.250,-79.590,-42.969,-37.109,1.000,1.000
1626062526217513.500,-74.707,-28.320,-43.457,1.000,1.000
1626062526221419.750,33.203,-20.508,-37.109,1.000,1.000
1626062526225326.000,69.824,-34.668,-23.926,1.000,1.000
1626062526229232.250,-30.273,-28.809,-35.645,1.000,1.000
1626062526233138.500,-96.191,-30.273,-29.297,1.000,1.000
1626062526237044.750,-97.656,-39.551,-31.738,-321.289,1.000
1626062526240951.000,-86.426,-37.598,-24.902,-250.488,1.000
1626062526244857.250,14.648,-31.738,-38.086,226.562,1.000
1626062526248763.500,25.391,-28.809,-51.270,250.000,1.000
1626062526252669.750,-63.965,-37.109,-37.598,-209.473,1.000
1626062526256576.000,-96.191,-58.594,-37.109,-325.684,1.000
1626062526260482.250,5.371,-41.504,-34.668,132.324,1.000
1626062526264388.500,55.664,-24.902,-29.785,333.984,1.000
1626062526268294.750,-29.297,-32.715,-37.109,-81.543,1.000
1626062526272201.000,-87.402,-32.227,-35.645,-366.699,1.000
1626062526276107.250,-34.180,-31.738,-36.133,-33.203,1.000
1626062526280013.500,29.785,-31.250,-39.551,312.012,1.000
1626062526283919.750,-16.113,-46.387,-38.086,30.273,1.000
1626062526287826.000,-97.168,-44.922,-25.879,-373.535,1.000
1626062526291732.250,-61.035,-32.227,-23.926,-168.945,1.000
1626062526295638.500,30.273,-47.363,-31.250,280.273,1.000
1626062526299544.750,13.184,-46.387,-36.621,172.363,1.000
1626062526303451.000,-91.797,-43.457,-50.293,-305.664,1.000
1626062526307357.250,-89.844,-30.273,-59.570,-290.039,1.000
1626062526311263.500,18.066,1.465,-47.852,192.871,1.000
1626062526315169.750,36.133,-8.789,-33.203,274.414,1.000
1626062526319076.000,-46.387,-27.832,-32.227,-177.734,1.000
1626062526322982.250,-83.008,-35.156,-20.996,-344.238,1.000
1626062526326888.500,2.441,-35.156,-4.395,83.008,1.000
1626062526330794.750,50.781,-27.832,-17.578,326.172,1.000
1626062526334701.000,-32.715,-19.531,-38.574,-61.523,1.000
1626062526338607.250,-102.051,-19.043,-43.457,-395.020,1.000
1626062526342513.500,-36.133,-17.578,-37.109,-78.613,1.000
1626062526346419.750,43.457,-27.832,-36.133,315.918,1.000
1626062526350326.000,8.301,-43.945,-23.438,89.844,1.000
1626062526354232.250,-76.172,-49.316,-24.414,-346.680,1.000
1626062526358138.500,-60.547,-37.109,-31.738,-207.031,1.000
1626062526362044.750,34.180,-38.086,-25.391,267.578,1.000
1626062526365951.000,23.926,-54.688,-41.504,201.660,1.000
1626062526369857.250,-77.148,-43.945,-47.852,-284.668,1.000
1626062526373763.500,-89.355,-27.344,-17.090,-310.059,1.000
1626062526377669.750,-103.027,-37.109,-12.695,-254.883,1.000
1626062526381576.000,1.465,-45.898,-11.719,218.262,1.000
1626062526385482.250,28.809,-26.367,-8.301,225.098,1.000
1626062526389388.500,-73.730,-45.898,-18.555,-252.441,1.000
1626062526393294.750,-111.816,-57.129,-36.133,-349.609,1.000
1626062526397201.000,-16.602,-20.020,-29.785,111.816,1.000
1626062526401107.250,28.320,-21.484,-33.691,295.898,1.000
1626062526405013.500,-44.434,-31.250,-56.152,-119.141,1.000
1626062526408919.750,-93.262,-20.020,-63.965,-378.418,1.000
1626062526412826.000,-23.438,-13.672,-28.320,-4.395,1.000
1626062526416732.250,53.223,-10.742,-14.160,336.426,1.000
1626062526420638.500,4.395,-6.836,-31.738,37.109,1.000
1626062526424544.750,-1.465,-41.992,-30.762,-46.875,1.000
1626062526428451.000,-82.520,-67.383,-25.879,-374.023,1.000
1626062526432357.250,-44.434,-53.223,-33.203,-58.105,1.000
1626062526436263.500,28.809,-45.898,-29.785,309.570,1.000
1626062526440169.750,-6.836,-31.738,-26.367,56.641,1.000
1626062526444076.000,-97.656,-18.555,-40.039,-370.605,1.000
1626062526447982.250,-72.754,-30.762,-38.086,-196.289,1.000
1626062526451888.500,26.855,-23.926,-33.203,266.113,1.000
1626062526455794.750,16.113,-9.277,-30.762,174.805,1.000
1626062526459701.000,-85.938,-21.973,-22.949,-301.758,1.000
1626062526463607.250,-107.910,-35.645,-30.762,-316.895,1.000
1626062526467513.500,-1.465,-26.367,-26.367,166.016,1.000
1626062526471419.750,54.199,-13.672,-22.949,1.000,1.000
1626062526475326.000,-46.875,-37.109,-33.691,1.000,1.000
1626062526479232.250,-106.934,-65.430,-40.039,1.000,1.000
1626062526483138.500,-18.066,-51.270,-47.852,1.000,1.000
1626062526487044.750,42.969,-27.832,-46.387,1.000,1.000
1626062526490951.000,-22.949,-25.391,-43.945,1.000,1.000
1626062526494857.250,-103.516,-17.578,-37.598,1.000,1.000
1626062526498763.500,-68.848,-27.344,-36.133,1.000,1.000
1626062526502669.750,17.578,-28.320,-41.504,1.000,1.000
1626062526506576.000,-4.883,-21.973,-29.297,1.000,1.000
1626062526510482.250,-83.496,-32.715,-10.254,1.000,1.000
1626062526514388.500,-72.266,-15.137,-16.113,1.000,1.000
1626062526518294.750,-77.637,-38.086,-34.180,239.746,1.000
1626062526522201.000,-26.367,-30.273,-52.246,194.824,1.000
1626062526526107.250,40.527,-19.043,-36.133,-279.785,1.000
1626062526530013.500,-25.391,-31.738,-33.203,-319.824,1.000
1626062526533919.750,-113.770,-53.711,-39.062,168.945,1.000
1626062526537826.000,-64.453,-35.645,-34.668,304.688,1.000
1626062526541732.250,38.574,-34.180,-32.715,-145.508,1.000
1626062526545638.500,30.273,-50.781,-41.992,-383.301,1.000
1626062526549544.750,-73.730,-36.621,-41.504,21.484,1.000
1626062526553451.000,-100.098,-37.598,-33.203,335.938,1.000
1626062526557357.250,-1.465,-28.809,-28.320,-2.930,1.000
1626062526561263.500,26.367,-30.273,-30.273,-371.094,1.000
1626062526565169.750,-69.824,-38.086,-23.926,1.000,1.000
1626062526569076.000,-98.633,-27.832,-26.855,1.000,1.000
1626062526572982.250,-6.836,-17.090,-53.711,1.000,1.000
1626062526576888.500,54.688,-2.930,-49.316,1.000,1.000
1626062526580794.750,-24.414,-25.391,-31.250,1.000,1.000
1626062526584701.000,-122.070,-47.852,-32.227,1.000,1.000
1626062526588607.250,-66.895,-36.133,-24.414,1.000,1.000
1626062526592513.500,16.602,-30.762,-20.020,1.000,1.000
1626062526596419.750,-22.461,-43.457,-20.508,1.000,1.000
1626062526600326.000,-105.957,-44.434,-20.508,1.000,1.000
1626062526604232.250,-74.707,-36.133,-24.414,1.000,1.000
1626062526608138.500,19.531,-22.949,-49.316,1.000,1.000
1626062526612044.750,14.160,-38.574,-56.641,204.590,1.000
1626062526615951.000,-81.055,-69.336,-42.969,-271.484,1.000
1626062526619857.250,-98.145,-41.016,-36.133,-305.176,1.000
1626062526623763.500,-0.488,-22.949,-35.156,164.551,1.000
1626062526627669.750,38.086,-29.297,-39.062,284.180,1.000
1626062526631576.000,-53.223,-21.484,-39.062,-165.039,1.000
1626062526635482.250,-113.281,-10.254,-39.062,-384.277,1.000
1626062526639388.500,-35.645,-0.977,-30.273,18.066,1.000
1626062526643294.750,61.523,0.000,-14.160,337.402,1.000
1626062526647201.000,7.812,-30.762,-29.297,-10.742,1.000
1626062526651107.250,-96.680,-59.570,-41.504,-396.973,1.000
1626062526655013.500,-46.875,-41.992,-18.555,-111.328,1.000
1626062526658919.750,48.340,-27.344,-22.949,1.000,1.000
1626062526662826.000,4.883,-36.621,-62.988,1.000,1.000
1626062526666732.250,-95.215,-24.414,-63.477,1.000,1.000
1626062526670638.500,-81.543,-42.969,-36.621,1.000,1.000
1626062526674544.750,14.648,-46.875,-26.855,1.000,1.000
1626062526678451.000,15.137,-16.602,-24.902,1.000,1.000
1626062526682357.250,-79.102,-22.461,-35.156,1.000,1.000
1626062526686263.500,-86.914,-32.227,-27.344,1.000,1.000
1626062526690169.750,4.883,-44.922,-22.949,1.000,1.000
1626062526694076.000,30.273,-44.922,-42.480,1.000,1.000
1626062526697982.250,-56.641,-55.176,-38.574,1.000,1.000
1626062526701888.500,-115.723,-58.594,-30.762,1.000,1.000
1626062526705794.750,-85.449,-30.273,-38.574,-331.543,1.000
1626062526709701.000,8.301,-28.809,-37.598,117.676,1.000
1626062526713607.250,55.176,-19.531,-11.230,328.613,1.000
1626062526717513.500,-23.438,-33.203,-12.207,-77.637,1.000
1626062526721419.750,-96.680,-34.180,-23.926,-376.953,1.000
1626062526725326.000,-36.621,-22.949,-10.742,-28.320,1.000
1626062526729232.250,31.738,-26.855,-18.066,325.195,1.000
1626062526733138.500,-24.414,-38.574,-26.855,35.645,1.000
1626062526737044.750,-111.816,-51.758,-20.020,-376.465,1.000
1626062526740951.000,-64.941,-50.293,-24.902,-169.434,1.000
1626062526744857.250,41.504,-51.758,-21.484,274.414,1.000
1626062526748763.500,30.762,-24.414,-16.113,171.875,1.000
1626062526752669.750,-64.453,-20.508,-27.832,1.000,1.000
1626062526756576.000,-95.215,-41.504,-59.082,1.000,1.000
1626062526760482.250,-10.254,-38.086,-59.082,1.000,1.000
1626062526764388.500,31.738,-31.250,-22.461,1.000,1.000
1626062526768294.750,-62.988,-27.832,-12.207,1.000,1.000
1626062526772201.000,-106.934,-19.043,-8.789,1.000,1.000
1626062526776107.250,-24.414,-14.160,-8.301,1.000,1.000
1626062526780013.500,25.391,-33.691,-8.789,1.000,1.000
1626062526783919.750,-36.621,-36.621,-13.184,1.000,1.000
1626062526787826.000,-105.469,-31.250,-21.973,1.000,1.000
1626062526791732.250,-55.176,-38.574,-34.180,1.000,1.000
1626062526795638.500,36.133,-52.734,-36.133,1.000,1.000
1626062526799544.750,16.113,-40.527,-39.551,1.000,1.000
1626062526803451.000,-80.566,-33.203,-58.105,1.000,1.000
1626062526807357.250,-70.312,-55.664,-43.945,1.000,1.000
1626062526811263.500,12.695,-35.645,-13.184,1.000,1.000
1626062526815169.750,5.859,1.465,-16.602,1.000,1.000
1626062526819076.000,-69.824,20.508,-21.973,1.000,1.000
1626062526822982.250,-98.145,-6.836,-36.133,1.000,1.000
1626062526826888.500,-20.508,-23.926,-34.668,1.000,1.000
1626062526830794.750,34.180,-15.625,-20.996,1.000,1.000
1626062526834701.000,-46.387,-55.664,-21.973,1.000,1.000
1626062526838607.250,-104.980,-70.312,-24.414,1.000,1.000
1626062526842513.500,-28.809,-24.414,-34.668,1.000,1.000
1626062526846419.750,-69.336,-42.480,-55.176,-268.066,1.000
1626062526850326.000,30.273,-20.508,-29.297,213.867,1.000
1626062526854232.250,42.480,-46.387,-11.230,258.301,1.000
1626062526858138.500,-60.059,-68.359,-12.695,-212.891,1.000
1626062526862044.750,-108.398,-42.969,-21.973,-357.910,1.000
1626062526865951.000,-20.996,-37.109,-23.438,80.078,1.000
1626062526869857.250,35.645,-31.250,-23.926,305.664,1.000
1626062526873763.500,-36.621,-26.367,-37.109,-90.332,1.000
1626062526877669.750,-112.305,-31.250,-49.316,-401.855,1.000
1626062526881576.000,-59.570,-27.344,-37.598,-74.707,1.000
1626062526885482.250,21.973,-16.602,-30.762,297.852,1.000
1626062526889388.500,-20.508,-29.785,-45.898,35.645,1.000
1626062526893294.750,-105.469,-49.805,-40.527,1.000,1.000
1626062526897201.000,-78.125,-52.734,-16.602,1.000,1.000
1626062526901107.250,17.090,-61.523,-13.672,1.000,1.000
1626062526905013.500,25.391,-78.613,-24.414,1.000,1.000
1626062526908919.750,-64.941,-63.965,-39.551,1.000,1.000
1626062526912826.000,-89.355,-24.414,-42.969,1.000,1.000
1626062526916732.250,-5.371,-24.414,-24.902,1.000,1.000
1626062526920638.500,22.949,-31.738,-12.695,1.000,1.000
1626062526924544.750,-68.848,-30.762,-24.902,1.000,1.000
1626062526928451.000,-115.234,-33.203,-43.457,1.000,1.000
1626062526932357.250,-38.086,-38.574,-53.223,1.000,1.000
1626062526936263.500,33.203,-12.207,-39.062,1.000,1.000
1626062526940169.750,-2.441,-19.043,-21.484,1.000,1.000
1626062526944076.000,-89.355,-61.523,-31.738,1.000,1.000
1626062526947982.250,-55.664,-53.711,-35.645,1.000,1.000
1626062526951888.500,37.109,-41.992,-25.879,1.000,1.000
1626062526955794.750,7.324,-20.996,-32.227,1.000,1.000
1626062526959701.000,-95.703,-5.371,-38.574,1.000,1.000
1626062526963607.250,-75.195,-24.414,-36.621,1.000,1.000
1626062526967513.500,43.457,-29.785,-38.574,1.000,1.000
1626062526971419.750,43.945,-35.645,-42.480,1.000,1.000
1626062526975326.000,-59.570,-36.621,-32.715,1.000,1.000
1626062526979232.250,-73.242,-24.414,-12.207,1.000,1.000
1626062526983138.500,31.738,-30.762,-9.766,1.000,1.000
1626062526987044.750,56.152,-36.133,-31.738,1.000,1.000
1626062526990951.000,-57.617,-38.086,-49.805,1.000,1.000
1626062526994857.250,-119.141,-27.344,-47.852,1.000,1.000
1626062526998763.500,-30.762,-25.879,-34.180,1.000,1.000
1626062527002669.750,55.176,-27.832,-44.434,1.000,1.000
1626062527006576.000,1.465,-31.250,-72.266,1.000,1.000
1626062527010482.250,-85.938,-31.250,-51.270,1.000,1.000
1626062527014388.500,-57.617,-26.855,-5.859,1.000,1.000
1626062527018294.750,23.438,-36.133,2.441,1.000,1.000
1626062527022201.000,1.953,-24.414,-11.719,1.000,1.000
1626062527026107.250,-95.703,-10.742,-31.250,1.000,1.000
1626062527030013.500,-81.543,-10.742,-31.250,1.000,1.000
1626062527033919.750,-115.723,-28.809,-46.875,-405.273,1.000
1626062527037826.000,-51.758,-23.438,-52.734,-79.102,1.000
1626062527041732.250,48.340,-19.531,-29.297,308.594,1.000
1626062527045638.500,12.207,-44.434,-12.695,64.453,1.000
1626062527049544.750,-97.168,-46.875,-29.785,-357.910,1.000
1626062527053451.000,-80.566,-32.227,-46.875,-204.102,1.000
1626062527057357.250,35.156,-8.789,-33.203,263.672,1.000
1626062527061263.500,42.480,2.441,-29.297,195.801,1.000
1626062527065169.750,-62.012,-33.203,-58.594,-282.715,1.000
1626062527069076.000,-87.402,-39.062,-57.129,-307.617,1.000
1626062527072982.250,-0.977,-30.762,-28.809,154.297,1.000
1626062527076888.500,34.180,-44.922,-8.301,263.672,1.000
1626062527080794.750,-45.410,-49.805,-11.230,1.000,1.000
1626062527084701.000,-104.980,-38.086,-21.484,1.000,1.000
1626062527088607.250,-33.203,-21.973,-14.648,1.000,1.000
1626062527092513.500,41.504,-26.855,-12.695,1.000,1.000
1626062527096419.750,-2.930,-28.809,-13.672,1.000,1.000
1626062527100326.000,-71.777,-15.625,-19.531,1.000,1.000
1626062527104232.250,-37.109,-7.812,-27.832,1.000,1.000
1626062527108138.500,35.645,-31.738,-39.551,1.000,1.000
1626062527112044.750,-4.395,-47.363,-42.969,1.000,1.000
1626062527115951.000,-96.680,-17.578,-33.691,1.000,1.000
1626062527119857.250,-79.102,-10.742,-31.250,1.000,1.000
1626062527123763.500,18.555,-25.391,-37.109,1.000,1.000
1626062527127669.750,29.297,-33.691,-38.086,1.000,1.000
1626062527131576.000,-62.012,-33.691,-29.785,1.000,1.000
1626062527135482.250,-81.055,-26.367,-10.254,1.000,1.000
1626062527139388.500,2.441,-27.344,-14.648,1.000,1.000
1626062527143294.750,37.598,-37.598,-37.598,1.000,1.000
1626062527147201.000,-28.320,-44.922,-21.484,1.000,1.000
1626062527151107.250,-93.262,-38.574,-27.344,1.000,1.000
1626062527155013.500,-32.715,-19.043,-47.363,1.000,1.000
1626062527158919.750,44.434,-18.555,-40.039,1.000,1.000
1626062527162826.000,-18.066,-21.484,-38.574,1.000,1.000
1626062527166732.250,-102.539,-39.551,-48.340,1.000,1.000
1626062527170638.500,-57.617,-46.875,-52.734,1.000,1.000
1626062527174544.750,-62.012,-38.574,-34.180,-57.617,1.000
1626062527178451.000,27.344,-39.551,-22.461,307.617,1.000
1626062527182357.250,2.930,-47.363,-35.156,52.734,1.000
1626062527186263.500,-80.566,-31.738,-37.109,-355.469,1.000
1626062527190169.750,-54.688,-20.020,-29.785,-165.039,1.000
1626062527194076.000,52.246,-28.320,-33.691,294.922,1.000
1626062527197982.250,51.270,-26.367,-31.738,195.312,1.000
1626062527201888.500,-56.641,-27.832,-24.414,-283.691,1.000
1626062527205794.750,-85.449,-38.574,-29.297,-290.039,1.000
1626062527209701.000,9.277,-24.902,-24.902,181.152,1.000
1626062527213607.250,44.434,-20.996,-24.902,259.766,1.000
1626062527217513.500,-31.250,-28.320,-28.809,-182.129,1.000
1626062527221419.750,-85.449,-23.926,-26.855,1.000,1.000
1626062527225326.000,-17.090,-13.184,-25.879,1.000,1.000
1626062527229232.250,47.363,-9.277,-30.762,1.000,1.000
1626062527233138.500,-19.531,-35.156,-33.203,1.000,1.000
1626062527237044.750,-105.469,-62.012,-37.598,1.000,1.000
1626062527240951.000,-62.500,-77.637,-35.156,1.000,1.000
1626062527244857.250,23.926,-58.105,-31.738,1.000,1.000
1626062527248763.500,-4.395,-23.438,-50.293,1.000,1.000
1626062527252669.750,-87.402,-11.719,-48.340,1.000,1.000
1626062527256576.000,-66.406,-14.648,-26.855,1.000,1.000
1626062527260482.250,13.672,-17.578,-21.484,1.000,1.000
1626062527264388.500,26.855,-16.113,-15.625,1.000,1.000
1626062527268294.750,-52.246,-37.109,-16.602,1.000,1.000
1626062527272201.000,-105.957,-47.852,-34.180,1.000,1.000
1626062527276107.250,-23.438,-39.062,-48.828,1.000,1.000
1626062527280013.500,25.879,-40.527,-56.641,1.000,1.000
1626062527283919.750,-39.551,-43.945,-52.246,1.000,1.000
1626062527287826.000,-95.703,-52.734,-49.316,1.000,1.000
1626062527291732.250,-33.203,-44.922,-48.828,1.000,1.000
1626062527295638.500,46.387,-25.879,-46.387,1.000,1.000
1626062527299544.750,-17.578,-22.461,-35.645,1.000,1.000
1626062527303451.000,-101.074,-29.297,-8.301,1.000,1.000
1626062527307357.250,-46.387,-46.387,-4.883,1.000,1.000
1626062527311263.500,33.691,-36.621,-25.391,1.000,1.000
1626062527315169.750,-1.465,-28.809,-28.809,1.000,1.000
1626062527319076.000,-105.469,-60.547,-25.879,1.000,1.000
1626062527322982.250,-102.539,-47.363,-37.598,1.000,1.000
1626062527326888.500,1.465,-6.836,-54.688,1.000,1.000
1626062527330794.750,12.207,-17.578,-67.383,1.000,1.000
1626062527334701.000,-57.617,-33.203,-58.105,1.000,1.000
1626062527338607.250,-61.523,-24.902,-38.574,1.000,1.000
1626062527342513.500,9.277,-24.414,-30.273,1.000,1.000
1626062527346419.750,20.508,-49.805,-21.973,1.000,1.000
1626062527350326.000,-69.824,-62.012,-30.273,1.000,1.000
1626062527354232.250,-116.211,-31.738,-35.645,1.000,1.000
1626062527358138.500,-30.762,-22.949,-25.879,1.000,1.000
1626062527362044.750,-92.773,-22.949,-26.855,324.707,1.000
1626062527365951.000,-0.488,-22.949,-35.645,13.672,1.000
1626062527369857.250,44.434,-36.133,-15.137,-377.441,1.000
1626062527373763.500,-32.715,-61.035,-7.324,-145.020,1.000
1626062527377669.750,-82.520,-61.035,-23.926,295.410,1.000
1626062527381576.000,-3.906,-32.715,-20.020,147.461,1.000
1626062527385482.250,45.410,-15.625,-26.367,-312.500,1.000
1626062527389388.500,-35.156,-24.902,-50.781,-262.695,1.000
1626062527393294.750,-103.027,-19.043,-40.039,205.566,1.000
1626062527397201.000,-40.039,-17.578,-33.691,246.582,1.000
1626062527401107.250,34.668,-25.391,-46.875,-228.027,1.000
1626062527405013.500,-5.859,-24.902,-24.414,-359.863,1.000
1626062527408919.750,-18.066,-42.480,-22.949,-8.789,1.000
1626062527412826.000,-110.352,-41.992,-42.969,-403.320,1.000
1626062527416732.250,-56.641,-30.273,-26.367,-128.418,1.000
1626062527420638.500,34.668,-26.855,-19.043,299.805,1.000
1626062527424544.750,-0.488,-39.062,-30.273,115.234,1.000
1626062527428451.000,-90.332,-53.223,-44.922,-338.867,1.000
1626062527432357.250,-61.035,-38.086,-33.691,-230.469,1.000
1626062527436263.500,44.434,-17.090,-34.668,250.488,1.000
1626062527440169.750,37.109,-32.227,-52.734,234.375,1.000
1626062527444076.000,-57.617,-34.180,-25.879,-231.445,1.000
1626062527447982.250,-70.801,-6.836,-6.836,-312.500,1.000
1626062527451888.500,3.906,-6.836,-15.137,126.953,1.000
1626062527455794.750,48.828,-6.836,-17.578,1.000,1.000
1626062527459701.000,-18.555,-0.488,-37.598,1.000,1.000
1626062527463607.250,-101.074,-22.949,-59.570,1.000,1.000
1626062527467513.500,-45.898,-54.199,-41.016,1.000,1.000
1626062527471419.750,35.645,-53.223,-32.715,1.000,1.000
1626062527475326.000,-14.160,-43.457,-40.527,1.000,1.000
1626062527479232.250,-103.516,-54.199,-59.082,1.000,1.000
1626062527483138.500,-65.430,-60.059,-61.035,1.000,1.000
1626062527487044.750,44.434,-23.438,-34.180,1.000,1.000
1626062527490951.000,37.598,-6.836,-22.461,1.000,1.000
1626062527494857.250,-74.219,-28.809,-24.414,1.000,1.000
1626062527498763.500,-92.285,-27.344,-20.996,1.000,1.000
1626062527502669.750,-113.281,-39.551,-39.551,-402.344,1.000
1626062527506576.000,-52.734,-37.598,-24.902,-99.121,1.000
1626062527510482.250,53.223,-28.809,-25.879,328.613,1.000
1626062527514388.500,10.742,-38.574,-45.410,107.910,1.000
1626062527518294.750,-103.516,-37.598,-39.551,-360.352,1.000
1626062527522201.000,-88.867,-38.574,-19.531,-232.422,1.000
1626062527526107.250,16.602,-48.340,-15.137,240.723,1.000
1626062527530013.500,26.367,-44.434,-39.062,212.891,1.000
1626062527533919.750,-69.824,-37.598,-57.617,-260.742,1.000
1626062527537826.000,-96.191,-46.875,-43.945,-333.008,1.000
1626062527541732.250,3.906,-41.992,-30.273,140.625,1.000
1626062527545638.500,61.523,-29.785,-23.926,311.035,1.000
1626062527549544.750,-9.277,-10.742,-17.090,1.000,1.000
1626062527553451.000,-86.426,-8.789,-47.363,1.000,1.000
1626062527557357.250,-32.227,-21.973,-60.547,1.000,1.000
1626062527561263.500,43.945,-8.789,-35.645,1.000,1.000
1626062527565169.750,-9.277,-6.348,-20.996,1.000,1.000
1626062527569076.000,-87.891,-14.648,-9.277,1.000,1.000
1626062527572982.250,-42.480,-23.438,-6.348,1.000,1.000
1626062527576888.500,36.133,-41.504,-36.621,1.000,1.000
1626062527580794.750,-2.930,-55.176,-64.941,1.000,1.000
1626062527584701.000,-88.379,-52.734,-71.289,1.000,1.000
1626062527588607.250,-79.102,-31.738,-68.359,1.000,1.000
1626062527592513.500,6.348,-18.555,-16.602,1.000,1.000
1626062527596419.750,14.160,-34.668,-0.977,1.000,1.000
1626062527600326.000,-77.148,-44.434,-11.719,1.000,1.000
1626062527604232.250,-97.168,-38.086,-1.953,1.000,1.000
1626062527608138.500,-16.602,-42.480,-29.785,1.000,1.000
1626062527612044.750,9.766,-47.852,-51.758,1.000,1.000
1626062527615951.000,-73.242,-38.574,-41.504,1.000,1.000
1626062527619857.250,-117.676,-36.621,-26.855,1.000,1.000
1626062527623763.500,-31.738,-23.438,-24.902,1.000,1.000
1626062527627669.750,34.668,-13.672,-43.945,1.000,1.000
1626062527631576.000,-16.113,-33.203,-54.199,1.000,1.000
1626062527635482.250,-104.004,-45.898,-62.988,1.000,1.000
1626062527639388.500,-79.590,-39.062,-40.527,1.000,1.000
1626062527643294.750,-45.898,-18.555,-10.742,-61.523,1.000
1626062527647201.000,37.598,-3.906,-12.207,315.918,1.000
1626062527651107.250,-9.766,-17.578,-20.996,67.871,1.000
1626062527655013.500,-103.027,-39.551,-25.391,-366.211,1.000
1626062527658919.750,-67.871,-42.969,-20.020,-196.289,1.000
1626062527662826.000,48.828,-47.852,-17.090,286.621,1.000
1626062527666732.250,37.598,-53.711,-36.621,206.055,1.000
1626062527670638.500,-80.078,-34.668,-44.434,-293.457,1.000
1626062527674544.750,-95.703,-20.508,-26.367,-309.570,1.000
1626062527678451.000,-9.766,-16.113,-29.297,160.156,1.000
1626062527682357.250,20.996,-26.367,-38.086,272.461,1.000
1626062527686263.500,-48.340,-29.297,-27.832,-159.180,1.000
1626062527690169.750,-99.609,-33.691,-28.809,1.000,1.000
1626062527694076.000,-26.855,-38.574,-27.832,1.000,1.000
1626062527697982.250,41.992,-20.996,-4.883,1.000,1.000
1626062527701888.500,-27.832,-44.434,-13.672,1.000,1.000
1626062527705794.750,-101.562,-65.430,-36.133,1.000,1.000
1626062527709701.000,-41.504,-32.715,-27.832,1.000,1.000
1626062527713607.250,41.016,2.930,-24.902,1.000,1.000
1626062527717513.500,-2.930,5.859,-38.086,1.000,1.000
1626062527721419.750,-104.492,-7.812,-57.617,1.000,1.000
1626062527725326.000,-78.125,-5.371,-51.270,1.000,1.000
1626062527729232.250,19.043,-5.371,-33.691,1.000,1.000
1626062527733138.500,11.719,-26.855,-49.316,1.000,1.000
1626062527737044.750,-82.520,-21.973,-57.617,-283.691,1.000
1626062527740951.000,-94.727,-14.648,-45.410,-348.145,1.000
1626062527744857.250,-3.906,-12.695,-54.199,120.117,1.000
1626062527748763.500,27.344,-6.348,-60.547,281.250,1.000
1626062527752669.750,-55.664,-22.461,-70.312,-152.832,1.000
1626062527756576.000,-121.094,-35.645,-87.891,-407.715,1.000
1626062527760482.250,-42.969,-34.180,-82.031,-21.484,1.000
1626062527764388.500,45.898,-28.809,-58.105,321.777,1.000
1626062527768294.750,-15.625,-15.137,-33.203,6.348,1.000
1626062527772201.000,-110.352,-5.859,-30.273,-395.020,1.000
1626062527776107.250,-65.430,-16.113,-28.809,-157.715,1.000
1626062527780013.500,25.391,-21.973,-25.879,274.414,1.000
1626062527783919.750,5.371,-23.438,-28.809,1.000,1.000
1626062527787826.000,-97.168,-35.156,-46.387,1.000,1.000
1626062527791732.250,-110.352,-27.344,-71.289,1.000,1.000
1626062527795638.500,3.906,-15.625,-52.246,1.000,1.000
1626062527799544.750,21.484,-29.297,-45.410,1.000,1.000
1626062527803451.000,-94.727,-31.250,-63.477,1.000,1.000
1626062527807357.250,-131.348,-16.113,-60.059,1.000,1.000
1626062527811263.500,-24.902,-19.043,-62.988,1.000,1.000
1626062527815169.750,38.086,-17.578,-54.688,1.000,1.000
1626062527819076.000,-29.297,-14.160,-24.414,1.000,1.000
1626062527822982.250,-93.262,-39.062,-8.789,1.000,1.000
1626062527826888.500,-46.875,-48.340,-24.414,1.000,1.000
1626062527830794.750,-87.891,-33.691,-45.410,332.520,1.000
1626062527834701.000,-1.953,-47.852,-29.785,69.336,1.000
1626062527838607.250,30.273,-35.156,-28.320,-362.305,1.000
1626062527842513.500,-43.457,-15.625,-34.668,-171.875,1.000
1626062527846419.750,-103.027,-19.043,-50.293,281.738,1.000
1626062527850326.000,-25.391,-33.691,-40.039,175.781,1.000
1626062527854232.250,60.547,-36.621,-22.461,-290.527,1.000
1626062527858138.500,5.371,-34.180,-25.391,-292.480,1.000
1626062527862044.750,-91.797,-43.457,-34.180,166.992,1.000
1626062527865951.000,-58.594,-49.805,-34.668,253.418,1.000
1626062527869857.250,35.156,-20.996,-27.832,-198.242,1.000
1626062527873763.500,7.324,-16.113,-37.109,-365.723,1.000
1626062527877669.750,-7.812,-17.090,-20.508,21.973,1.000
1626062527881576.000,-94.727,-35.156,-5.859,-375.488,1.000
1626062527885482.250,-59.082,-28.320,-12.695,-146.484,1.000
1626062527889388.500,34.180,-13.672,-20.996,305.176,1.000
1626062527893294.750,10.742,-34.668,-30.273,155.273,1.000
1626062527897201.000,-85.449,-43.945,-50.293,-317.871,1.000
1626062527901107.250,-68.359,-41.504,-51.270,-250.488,1.000
1626062527905013.500,40.527,-62.500,-35.156,236.816,1.000
1626062527908919.750,47.852,-64.453,-32.227,271.484,1.000
1626062527912826.000,-65.918,-35.645,-37.109,-219.238,1.000
1626062527916732.250,-105.957,-5.371,-31.738,-355.957,1.000
1626062527920638.500,-6.836,-4.395,-20.020,100.098,1.000
1626062527924544.750,9.766,-32.715,-16.602,189.941,1.000
1626062527928451.000,45.410,-50.781,-13.184,280.273,1.000
1626062527932357.250,-49.316,-56.641,-27.832,-171.875,1.000
1626062527936263.500,-116.699,-45.410,-40.527,-370.117,1.000
1626062527940169.750,-28.320,-19.531,-32.715,49.805,1.000
1626062527944076.000,44.434,-3.418,-28.809,327.148,1.000
1626062527947982.250,-23.926,-9.766,-26.855,-36.133,1.000
1626062527951888.500,-90.820,-39.062,-18.066,-377.930,1.000
1626062527955794.750,-34.180,-56.641,-20.508,-81.055,1.000
1626062527959701.000,56.641,-27.832,-20.508,320.801,1.000
1626062527963607.250,22.949,-2.441,-46.875,98.633,1.000
1626062527967513.500,-83.496,-12.695,-59.082,-347.168,1.000
1626062527971419.750,1.000,-18.555,1.000,1.000,1.000
1626062527975326.000,1.000,-17.090,1.000,1.000,1.000
1626062527979232.250,1.000,-31.250,1.000,1.000,1.000
1626062527983138.500,1.000,-52.246,1.000,1.000,1.000
1626062527987044.750,1.000,-27.344,1.000,1.000,1.000
1626062527990951.000,1.000,-9.277,1.000,1.000,1.000
1626062527994857.250,1.000,-31.738,1.000,1.000,1.000
1626062527998763.500,1.000,-33.691,1.000,1.000,1.000
1626062528002669.750,1.000,-40.527,1.000,1.000,1.000
1626062528006576.000,1.000,-48.340,1.000,1.000,1.000
1626062528010482.250,1.000,-31.250,1.000,1.000,1.000
1626062528014388.500,1.000,-28.809,1.000,1.000,1.000
1626062528018294.750,-100.098,-26.855,-68.359,-386.719,1.000
1626062528022201.000,-61.035,-8.301,-53.223,-141.602,1.000
1626062528026107.250,29.785,-4.883,-27.832,281.250,1.000
1626062528030013.500,1.953,-25.879,-40.039,118.164,1.000
1626062528033919.750,-93.262,-45.898,-41.992,-335.449,1.000
1626062528037826.000,-83.008,-44.922,-27.832,-249.023,1.000
1626062528041732.250,12.695,-61.035,-28.809,220.703,1.000
1626062528045638.500,37.598,-76.172,-24.902,240.234,1.000
1626062528049544.750,-50.293,-64.453,-17.090,-217.285,1.000
1626062528053451.000,-83.984,-34.668,-12.695,-323.242,1.000
1626062528057357.250,3.906,-27.832,-20.508,120.117,1.000
1626062528061263.500,40.039,-24.414,-28.809,298.340,1.000
1626062528065169.750,18.066,-37.598,-37.598,253.418,1.000
1626062528069076.000,-81.055,-39.062,-57.617,-221.191,1.000
1626062528072982.250,-104.980,-35.645,-37.598,-357.422,1.000
1626062528076888.500,-23.926,-52.246,-24.902,76.172,1.000
1626062528080794.750,16.602,-41.992,-41.504,296.875,1.000
1626062528084701.000,-58.105,-14.648,-55.664,-95.703,1.000
1626062528088607.250,-116.211,-10.254,-38.086,-399.414,1.000
1626062528092513.500,-35.156,-16.113,-2.441,-54.199,1.000
1626062528096419.750,46.875,-28.320,-16.113,318.359,1.000
1626062528100326.000,-4.883,-25.879,-46.387,64.941,1.000
1626062528104232.250,-103.516,-36.621,-47.852,-362.793,1.000
1626062528108138.500,-73.242,-26.367,-37.109,-186.035,1.000
1626062528112044.750,-30.273,-60.059,-25.879,-80.566,1.000
1626062528115951.000,44.922,-58.594,-8.301,322.266,1.000
1626062528119857.250,-10.254,-35.645,-26.855,96.191,1.000
1626062528123763.500,-111.328,-31.250,-49.316,-371.582,1.000
1626062528127669.750,-85.449,-4.395,-44.922,-234.375,1.000
1626062528131576.000,28.320,3.418,-25.879,260.742,1.000
1626062528135482.250,32.227,-23.438,-19.043,222.656,1.000
1626062528139388.500,-63.477,-49.316,-25.391,-255.859,1.000
1626062528143294.750,-78.125,-46.875,-33.203,-302.246,1.000
1626062528147201.000,24.414,-26.855,-15.625,173.340,1.000
1626062528151107.250,53.711,-16.113,-14.648,318.359,1.000
1626062528155013.500,-55.176,-20.996,-36.133,-132.324,1.000
1626062528158919.750,-124.023,-39.551,-36.133,1.000,1.000
1626062528162826.000,-47.363,-35.156,-30.762,1.000,1.000
1626062528166732.250,60.059,-42.480,-49.805,1.000,1.000
1626062528170638.500,16.113,-69.824,-47.852,1.000,1.000
1626062528174544.750,-101.562,-39.551,-23.438,1.000,1.000
1626062528178451.000,-65.430,2.441,-9.277,1.000,1.000
1626062528182357.250,42.969,9.766,0.000,1.000,1.000
1626062528186263.500,19.531,-14.648,-8.789,1.000,1.000
1626062528190169.750,-99.609,-57.617,-31.738,1.000,1.000
1626062528194076.000,-98.145,-41.016,-40.527,1.000,1.000
1626062528197982.250,8.789,-8.301,-34.180,1.000,1.000
1626062528201888.500,21.484,-8.301,-31.738,1.000,1.000
1626062528205794.750,-67.871,-21.484,-35.156,1.000,1.000
1626062528209701.000,-114.258,-45.898,-37.109,1.000,1.000
1626062528213607.250,-27.344,-63.477,-34.668,1.000,1.000
1626062528217513.500,50.781,-54.688,-18.555,1.000,1.000
1626062528221419.750,0.977,-21.973,-8.301,1.000,1.000
1626062528225326.000,-82.520,-9.277,-32.715,1.000,1.000
1626062528229232.250,-38.086,-12.695,-52.734,1.000,1.000
1626062528233138.500,37.109,-28.809,-41.992,1.000,1.000
1626062528237044.750,-24.414,-44.434,-45.898,1.000,1.000
1626062528240951.000,-104.492,-37.109,-48.340,1.000,1.000
1626062528244857.250,-59.570,-32.227,-36.133,1.000,1.000
1626062528248763.500,22.949,-28.809,-31.738,1.000,1.000
1626062528252669.750,7.812,-23.438,-21.973,1.000,1.000
1626062528256576.000,-83.008,-35.156,-24.414,1.000,1.000
1626062528260482.250,-78.613,-47.852,-25.879,1.000,1.000
1626062528264388.500,34.180,-48.340,-20.020,1.000,1.000
1626062528268294.750,70.801,-39.551,-27.832,1.000,1.000
1626062528272201.000,-16.602,-27.344,-36.621,1.000,1.000
1626062528276107.250,-81.543,-17.578,-46.875,1.000,1.000
1626062528280013.500,-25.391,-13.672,-45.898,1.000,1.000
1626062528283919.750,33.203,-28.320,-34.180,1.000,1.000
1626062528287826.000,-20.508,-34.180,-32.227,1.000,1.000
1626062528291732.250,-90.820,-21.973,-33.691,1.000,1.000
1626062528295638.500,-34.668,-29.297,-36.621,1.000,1.000
1626062528299544.750,-110.352,-7.324,-43.945,-351.074,1.000
1626062528303451.000,-36.621,-17.578,-29.297,86.426,1.000
1626062528307357.250,18.555,-34.668,-14.648,271.484,1.000
1626062528311263.500,-44.434,-45.898,-11.719,-133.789,1.000
1626062528315169.750,-107.422,-41.992,-20.508,-389.160,1.000
1626062528319076.000,-26.855,-33.203,-24.414,-15.137,1.000
1626062528322982.250,52.734,-42.480,-31.250,318.848,1.000
1626062528326888.500,8.301,-41.504,-38.086,18.555,1.000
1626062528330794.750,-67.871,-29.785,-23.438,-351.074,1.000
1626062528334701.000,-54.688,-37.109,-20.996,-134.766,1.000
1626062528338607.250,22.949,-14.648,-21.484,282.227,1.000
1626062528342513.500,8.789,-10.254,-39.551,140.137,1.000
1626062528346419.750,-76.660,-23.438,-33.691,1.000,1.000
1626062528350326.000,-61.035,-18.066,-15.137,1.000,1.000
1626062528354232.250,25.391,-40.527,-21.973,1.000,1.000
1626062528358138.500,25.391,-49.805,-18.555,1.000,1.000
1626062528362044.750,-62.012,-19.531,-20.020,1.000,1.000
1626062528365951.000,-86.914,-20.020,-19.531,1.000,1.000
1626062528369857.250,13.184,-22.461,-12.695,1.000,1.000
1626062528373763.500,67.871,-14.160,-24.414,1.000,1.000
1626062528377669.750,-34.180,-41.016,-46.387,1.000,1.000
1626062528381576.000,-103.516,-49.316,-41.504,1.000,1.000
1626062528385482.250,-20.508,-11.719,-15.625,1.000,1.000
1626062528389388.500,40.527,-8.301,-35.645,1.000,1.000
1626062528393294.750,-18.066,-39.551,-55.664,1.000,1.000
1626062528397201.000,-105.957,-47.852,-30.762,1.000,1.000
1626062528401107.250,-68.359,-38.574,-7.812,1.000,1.000
1626062528405013.500,42.969,-32.227,-10.254,1.000,1.000
1626062528408919.750,29.297,-35.156,-27.832,1.000,1.000
1626062528412826.000,-84.961,-53.711,-35.645,1.000,1.000
1626062528416732.250,-100.586,-46.387,-22.949,1.000,1.000
1626062528420638.500,0.000,-40.527,-25.879,1.000,1.000
1626062528424544.750,34.668,-42.969,-44.434,1.000,1.000
1626062528428451.000,-48.828,-18.555,-39.062,1.000,1.000
1626062528432357.250,-98.633,-13.184,-46.387,1.000,1.000
1626062528436263.500,-21.484,-31.250,-45.898,1.000,1.000
1626062528440169.750,43.457,-35.645,-18.066,1.000,1.000
1626062528444076.000,-17.090,-29.297,-3.906,1.000,1.000
1626062528447982.250,-83.984,-24.414,-15.625,1.000,1.000
1626062528451888.500,-31.738,-30.273,-26.855,1.000,1.000
1626062528455794.750,54.688,-15.625,-20.020,1.000,1.000
1626062528459701.000,17.090,-12.695,-24.902,1.000,1.000
1626062528463607.250,-94.727,-41.016,-47.363,1.000,1.000
1626062528467513.500,-77.148,-27.344,-39.551,1.000,1.000
1626062528471419.750,27.344,-23.926,-26.855,1.000,1.000
1626062528475326.000,35.156,-51.270,-30.762,1.000,1.000
1626062528479232.250,-51.270,-28.320,-29.785,1.000,1.000
1626062528483138.500,-86.426,-1.465,-30.273,1.000,1.000
1626062528487044.750,-91.309,-50.781,-47.363,-368.652,1.000
1626062528490951.000,-61.523,-42.969,-46.387,-148.438,1.000
1626062528494857.250,29.297,-23.926,-20.508,297.852,1.000
1626062528498763.500,10.254,-21.973,-26.855,154.785,1.000
1626062528502669.750,-88.379,-21.973,-36.621,-306.152,1.000
1626062528506576.000,-92.773,-39.062,-16.113,-257.324,1.000
1626062528510482.250,-0.977,-59.082,-14.160,201.660,1.000
1626062528514388.500,20.508,-65.918,-36.133,250.488,1.000
1626062528518294.750,-62.012,-59.082,-48.828,-208.008,1.000
1626062528522201.000,-104.980,-37.109,-57.129,-348.145,1.000
1626062528526107.250,-37.109,-22.461,-61.523,77.637,1.000
1626062528530013.500,14.648,-27.344,-30.273,295.410,1.000
1626062528533919.750,-45.898,-39.551,-6.348,1.000,1.000
1626062528537826.000,-112.793,-45.898,-18.066,1.000,1.000
1626062528541732.250,-61.035,-47.363,-31.738,1.000,1.000
1626062528545638.500,32.227,-26.855,-42.480,1.000,1.000
1626062528549544.750,-3.418,-18.555,-33.691,1.000,1.000
1626062528553451.000,-109.375,-35.156,-28.809,1.000,1.000
1626062528557357.250,-81.055,-53.711,-34.180,1.000,1.000
1626062528561263.500,21.973,-65.430,-42.480,1.000,1.000
1626062528565169.750,16.602,-57.129,-45.898,1.000,1.000
1626062528569076.000,-81.055,-46.875,-48.340,1.000,1.000
1626062528572982.250,-105.957,-42.480,-51.758,1.000,1.000
1626062528576888.500,8.301,-17.578,-26.367,1.000,1.000
1626062528580794.750,-60.059,-21.484,-31.738,-127.441,1.000
1626062528584701.000,39.062,-28.809,-17.578,302.246,1.000
1626062528588607.250,13.672,-26.367,-14.648,138.672,1.000
1626062528592513.500,-71.777,-31.738,-16.602,-307.129,1.000
1626062528596419.750,-61.523,-40.039,-20.020,-222.656,1.000
1626062528600326.000,38.574,-27.344,-15.137,251.953,1.000
1626062528604232.250,47.852,-13.672,-27.344,264.648,1.000
1626062528608138.500,-67.871,-33.691,-55.176,-229.004,1.000
1626062528612044.750,-104.980,-44.922,-49.316,-349.609,1.000
1626062528615951.000,-11.719,-21.484,-27.344,107.910,1.000
1626062528619857.250,40.039,2.930,-32.227,315.430,1.000
1626062528623763.500,-45.898,-6.348,-37.109,-100.098,1.000
1626062528627669.750,37.109,-26.855,-29.297,298.828,1.000
1626062528631576.000,-1.953,-37.598,-43.945,84.961,1.000
1626062528635482.250,-96.191,-36.133,-37.109,-354.980,1.000
1626062528639388.500,-72.266,-27.344,-18.555,-220.215,1.000
1626062528643294.750,33.203,-34.668,-25.879,254.883,1.000
1626062528647201.000,31.738,-38.574,-34.668,227.539,1.000
1626062528651107.250,-61.523,-28.320,-29.297,-243.652,1.000
1626062528655013.500,-86.914,-30.762,-31.738,-325.684,1.000
1626062528658919.750,-6.348,-14.160,-37.109,127.441,1.000
1626062528662826.000,36.621,7.812,-35.645,293.457,1.000
1626062528666732.250,-49.316,-17.090,-40.527,-138.184,1.000
1626062528670638.500,-110.840,-41.016,-40.039,-388.672,1.000
1626062528674544.750,-98.633,-42.480,-32.227,-356.445,1.000
1626062528678451.000,1.953,-58.105,-14.648,100.098,1.000
1626062528682357.250,51.758,-70.801,-23.926,310.059,1.000
1626062528686263.500,-35.645,-71.289,-51.758,-91.309,1.000
1626062528690169.750,-93.262,-26.367,-37.109,-369.141,1.000
1626062528694076.000,-43.457,-13.184,-22.949,-41.504,1.000
1626062528697982.250,19.043,-34.668,-35.156,301.270,1.000
1626062528701888.500,-20.020,-44.922,-38.086,26.367,1.000
1626062528705794.750,-103.516,-39.551,-40.039,-377.441,1.000
1626062528709701.000,-66.895,-14.648,-34.180,-168.945,1.000
1626062528713607.250,37.598,-21.484,-16.602,292.480,1.000
1626062528717513.500,31.250,-36.133,-15.137,182.617,1.000
1626062528721419.750,-83.008,-34.668,-40.039,1.000,1.000
1626062528725326.000,-91.309,-47.363,-46.387,1.000,1.000
1626062528729232.250,22.461,-47.852,-27.344,1.000,1.000
1626062528733138.500,35.156,-51.270,-41.992,1.000,1.000
1626062528737044.750,-59.082,-35.645,-53.223,1.000,1.000
1626062528740951.000,-91.797,-19.043,-50.293,1.000,1.000
1626062528744857.250,-18.555,-27.344,-53.223,1.000,1.000
1626062528748763.500,36.133,-41.016,-45.410,1.000,1.000
1626062528752669.750,-23.438,-42.969,-28.809,1.000,1.000
1626062528756576.000,-122.559,-37.109,-36.133,1.000,1.000
1626062528760482.250,-78.613,-39.062,-35.645,1.000,1.000
1626062528764388.500,26.367,-30.762,-21.973,1.000,1.000
1626062528768294.750,10.742,-15.137,-37.598,1.000,1.000
1626062528772201.000,-70.312,-46.875,-60.059,1.000,1.000
1626062528776107.250,-60.059,-60.059,-54.199,1.000,1.000
1626062528780013.500,29.297,-24.414,-28.809,1.000,1.000
1626062528783919.750,29.297,-15.137,-26.855,1.000,1.000
1626062528787826.000,-73.242,-24.902,-48.340,1.000,1.000
1626062528791732.250,-96.191,-29.297,-39.062,1.000,1.000
1626062528795638.500,-0.977,-22.949,-34.668,1.000,1.000
1626062528799544.750,40.039,-31.250,-54.199,1.000,1.000
1626062528803451.000,-44.922,-40.527,-54.199,1.000,1.000
1626062528807357.250,-96.680,-19.043,-26.367,1.000,1.000
1626062528811263.500,-25.879,-10.254,-10.742,1.000,1.000
1626062528815169.750,29.785,-15.137,-24.414,1.000,1.000
1626062528819076.000,-22.461,-15.625,-21.973,1.000,1.000
1626062528822982.250,-91.309,-14.160,-15.625,1.000,1.000
1626062528826888.500,-51.270,-29.785,-31.738,1.000,1.000
1626062528830794.750,34.668,-40.039,-41.504,1.000,1.000
1626062528834701.000,19.531,-38.086,-41.504,1.000,1.000
1626062528838607.250,-58.105,-41.504,-25.391,1.000,1.000
1626062528842513.500,-62.988,-39.062,-11.230,1.000,1.000
1626062528846419.750,6.348,-27.832,-19.043,1.000,1.000
1626062528850326.000,17.090,-31.738,-39.062,1.000,1.000
1626062528854232.250,-71.289,-44.922,-43.945,1.000,1.000
1626062528858138.500,-94.238,-26.855,-24.414,1.000,1.000
1626062528862044.750,-109.863,-19.531,-26.855,-371.582,1.000
1626062528865951.000,-88.379,-15.137,-8.789,-194.336,1.000
1626062528869857.250,26.367,-19.531,-0.977,272.949,1.000
1626062528873763.500,14.648,-35.156,-16.113,178.711,1.000
1626062528877669.750,-100.586,-39.062,-34.180,-303.223,1.000
1626062528881576.000,-102.539,-35.645,-37.598,-296.875,1.000
1626062528885482.250,-5.859,-51.758,-34.668,177.246,1.000
1626062528889388.500,18.066,-41.016,-34.180,261.230,1.000
1626062528893294.750,-67.383,-43.945,-35.156,-197.266,1.000
1626062528897201.000,-102.051,-47.363,-13.672,-363.770,1.000
1626062528901107.250,-20.508,-31.738,-3.906,62.988,1.000
1626062528905013.500,21.973,-31.738,-9.277,310.547,1.000
1626062528908919.750,-44.922,-24.902,-21.973,1.000,1.000
1626062528912826.000,-110.352,-34.668,-25.391,1.000,1.000
1626062528916732.250,-60.547,-46.387,-13.184,1.000,1.000
1626062528920638.500,30.273,-32.715,-38.086,1.000,1.000
1626062528924544.750,-2.930,-24.902,-40.039,1.000,1.000
1626062528928451.000,-97.168,-41.016,-18.066,1.000,1.000
1626062528932357.250,-78.125,-46.875,-29.297,1.000,1.000
1626062528936263.500,13.184,-39.062,-33.203,1.000,1.000
1626062528940169.750,12.695,-39.062,-18.066,1.000,1.000
1626062528944076.000,-74.707,-36.133,-22.461,1.000,1.000
1626062528947982.250,-95.703,-30.762,-38.574,1.000,1.000
1626062528951888.500,-12.695,-28.320,-37.598,1.000,1.000
1626062528955794.750,-59.082,-18.555,-48.340,-149.902,1.000
1626062528959701.000,34.180,-23.438,-39.062,290.039,1.000
1626062528963607.250,7.812,-42.969,-24.414,156.250,1.000
1626062528967513.500,-95.215,-40.039,-15.625,-319.336,1.000
1626062528971419.750,-100.586,-28.809,-16.113,-291.504,1.000
1626062528975326.000,0.488,-23.438,-20.996,188.477,1.000
1626062528979232.250,39.551,-25.391,-21.973,266.113,1.000
1626062528983138.500,-60.059,-46.875,-34.180,-196.289,1.000
1626062528987044.750,-117.188,-64.941,-44.922,-362.793,1.000
1626062528990951.000,-8.301,-32.715,-18.066,90.820,1.000
1626062528994857.250,51.758,-11.719,-14.160,327.637,1.000
1626062528998763.500,-34.180,-28.809,-33.203,-72.754,1.000
1626062529002669.750,-56.152,-29.297,-44.922,-164.062,1.000
1626062529006576.000,-120.117,-36.133,-43.457,-377.930,1.000
1626062529010482.250,-32.715,-32.715,-20.508,36.621,1.000
1626062529014388.500,40.527,-42.480,-29.297,315.430,1.000
1626062529018294.750,-35.645,-28.320,-45.410,-50.293,1.000
1626062529022201.000,-115.234,-16.113,-32.227,-388.672,1.000
1626062529026107.250,-54.199,-23.926,-19.531,-82.520,1.000
1626062529030013.500,38.086,-20.996,-21.973,324.707,1.000
1626062529033919.750,-0.488,-12.695,-32.715,111.816,1.000
1626062529037826.000,-97.656,-34.668,-32.715,-334.473,1.000
1626062529041732.250,-87.402,-52.734,-28.809,-219.727,1.000
1626062529045638.500,6.348,-42.480,-25.391,241.211,1.000
1626062529049544.750,16.113,-48.340,-22.949,1.000,1.000
1626062529053451.000,-73.242,-15.625,-31.738,1.000,1.000
1626062529057357.250,-110.840,-3.418,-47.852,1.000,1.000
1626062529061263.500,-6.836,-28.809,-30.762,1.000,1.000
1626062529065169.750,42.969,-31.250,-18.066,1.000,1.000
1626062529069076.000,-66.406,-37.598,-45.898,1.000,1.000
1626062529072982.250,-126.465,-36.133,-49.316,1.000,1.000
1626062529076888.500,-33.691,-26.367,-20.996,1.000,1.000
1626062529080794.750,54.688,-33.203,-19.043,1.000,1.000
1626062529084701.000,-4.883,-45.898,-45.410,1.000,1.000
1626062529088607.250,-101.562,-23.926,-42.969,1.000,1.000
1626062529092513.500,-58.594,1.953,-12.695,1.000,1.000
1626062529096419.750,-83.984,-30.762,-34.180,299.805,1.000
1626062529100326.000,0.488,-27.832,-25.879,138.672,1.000
1626062529104232.250,55.664,-34.668,-21.484,-332.031,1.000
1626062529108138.500,-12.695,-57.617,-10.742,-273.438,1.000
1626062529112044.750,-83.008,-43.945,-7.324,215.820,1.000
1626062529115951.000,-32.227,-31.738,-23.438,240.723,1.000
1626062529119857.250,33.691,-39.551,-40.039,-241.699,1.000
1626062529123763.500,-7.812,-38.086,-40.527,-370.117,1.000
1626062529127669.750,-95.703,-16.113,-36.621,98.145,1.000
1626062529131576.000,-65.918,-14.160,-26.367,308.594,1.000
1626062529135482.250,35.645,-48.340,-41.504,-95.703,1.000
1626062529139388.500,11.719,-57.129,-63.477,-372.070,1.000
1626062529143294.750,16.113,-31.250,-28.809,135.742,1.000
1626062529147201.000,-82.520,-20.020,-18.066,-316.895,1.000
1626062529151107.250,-81.055,-34.668,-19.043,-222.656,1.000
1626062529155013.500,26.855,-64.941,-14.160,253.418,1.000
1626062529158919.750,28.809,-66.406,-25.391,230.469,1.000
1626062529162826.000,-62.012,-26.367,-29.785,-234.863,1.000
1626062529166732.250,-84.961,-6.836,-31.738,-309.082,1.000
1626062529170638.500,-15.137,-16.113,-39.062,125.977,1.000
1626062529174544.750,7.812,-40.527,-35.156,252.930,1.000
1626062529178451.000,-71.777,-23.438,-26.855,-171.875,1.000
1626062529182357.250,-127.441,-8.789,-30.762,-399.902,1.000
1626062529186263.500,-52.246,-26.855,-27.832,-21.973,1.000
1626062529190169.750,34.180,-42.480,-3.906,1.000,1.000
1626062529194076.000,-14.160,-51.270,0.000,1.000,1.000
1626062529197982.250,-102.051,-49.805,-20.508,1.000,1.000
1626062529201888.500,-65.430,-51.758,-40.039,1.000,1.000
1626062529205794.750,30.273,-41.992,-41.016,1.000,1.000
1626062529209701.000,26.367,-20.020,-27.344,1.000,1.000
1626062529213607.250,-84.961,-34.180,-38.574,1.000,1.000
1626062529217513.500,-99.121,-30.762,-23.926,1.000,1.000
1626062529221419.750,4.395,-10.742,-6.836,1.000,1.000
1626062529225326.000,13.184,-9.766,-29.297,1.000,1.000
1626062529229232.250,-75.684,-27.832,-50.293,1.000,1.000
1626062529233138.500,-118.164,-56.152,-47.363,1.000,1.000
1626062529237044.750,-99.121,-4.883,-33.203,-352.539,1.000
1626062529240951.000,-83.984,-22.461,-26.367,-208.984,1.000
1626062529244857.250,15.625,-31.250,-17.578,260.254,1.000
1626062529248763.500,16.113,-38.086,-20.996,196.777,1.000
1626062529252669.750,-82.520,-63.477,-51.758,-281.738,1.000
1626062529256576.000,-110.352,-68.848,-70.312,-322.754,1.000
1626062529260482.250,-13.184,-51.270,-32.715,148.926,1.000
1626062529264388.500,43.945,-25.879,-13.184,291.016,1.000
1626062529268294.750,-43.945,-26.855,-36.133,-154.785,1.000
1626062529272201.000,-99.609,-38.086,-46.875,-372.559,1.000
1626062529276107.250,-21.484,-23.438,-37.109,23.926,1.000
1626062529280013.500,46.387,-5.859,-25.879,312.988,1.000
1626062529283919.750,-9.277,-14.160,-24.414,1.000,1.000
1626062529287826.000,-91.797,-26.367,-24.902,1.000,1.000
1626062529291732.250,-38.574,-25.879,-30.273,1.000,1.000
1626062529295638.500,68.359,-18.066,-39.551,1.000,1.000
1626062529299544.750,46.387,-29.785,-31.738,1.000,1.000
1626062529303451.000,-59.570,-45.410,-24.414,1.000,1.000
1626062529307357.250,-72.266,-41.016,-29.785,1.000,1.000
1626062529311263.500,-1.465,-30.762,-24.414,1.000,1.000
1626062529315169.750,8.789,-41.504,-32.715,1.000,1.000
1626062529319076.000,-75.195,-53.223,-48.340,1.000,1.000
1626062529322982.250,-105.469,-37.598,-36.133,1.000,1.000
1626062529326888.500,1.465,-7.324,-19.043,1.000,1.000
1626062529330794.750,-68.359,-17.090,-41.992,307.617,1.000
1626062529334701.000,29.785,-5.371,-25.879,-120.605,1.000
1626062529338607.250,17.578,-3.418,-28.320,-383.301,1.000
1626062529342513.500,-70.312,-22.461,-50.293,-13.672,1.000
1626062529346419.750,-76.660,-53.711,-28.809,312.012,1.000
1626062529350326.000,8.789,-59.570,-26.855,6.836,1.000
1626062529354232.250,30.273,-40.527,-69.824,-386.719,1.000
1626062529358138.500,-61.523,-37.598,-55.664,-159.668,1.000
1626062529362044.750,-118.652,-24.414,-22.949,298.340,1.000
1626062529365951.000,-44.922,-11.719,-19.531,172.363,1.000
1626062529369857.250,12.207,-29.785,-26.855,-304.199,1.000
1626062529373763.500,-44.434,-22.461,-27.344,-267.090,1.000
1626062529377669.750,-25.391,-8.789,-36.621,-121.094,1.000
1626062529381576.000,-92.773,-16.113,-16.602,-355.957,1.000
1626062529385482.250,-41.016,-40.527,-12.207,15.625,1.000
1626062529389388.500,23.926,-46.387,-24.414,308.105,1.000
1626062529393294.750,-28.320,-58.105,-21.973,-8.789,1.000
1626062529397201.000,-111.816,-29.785,-19.043,-375.488,1.000
1626062529401107.250,-69.336,-6.836,-24.414,-126.465,1.000
1626062529405013.500,26.367,-14.160,-27.832,293.457,1.000
1626062529408919.750,6.348,-24.414,-33.691,118.164,1.000
1626062529412826.000,-97.168,-47.363,-38.086,-348.145,1.000
1626062529416732.250,-85.449,-43.457,-27.344,-252.930,1.000
1626062529420638.500,18.555,-19.531,-12.207,223.145,1.000
1626062529424544.750,33.691,-11.230,-26.367,1.000,1.000
1626062529428451.000,-54.688,-12.207,-48.828,1.000,1.000
1626062529432357.250,-90.332,-49.316,-37.598,1.000,1.000
1626062529436263.500,-8.301,-62.012,-28.320,1.000,1.000
1626062529440169.750,22.461,-24.902,-33.203,1.000,1.000
1626062529444076.000,-60.547,-13.672,-30.762,1.000,1.000
1626062529447982.250,-113.770,-23.926,-24.414,1.000,1.000
1626062529451888.500,-43.457,-12.207,-36.133,1.000,1.000
1626062529455794.750,43.457,-18.066,-42.480,1.000,1.000
1626062529459701.000,0.977,-60.547,-32.715,1.000,1.000
1626062529463607.250,-102.051,-78.125,-38.574,1.000,1.000
1626062529467513.500,-67.383,-42.480,-27.344,1.000,1.000
1626062529471419.750,33.203,-21.484,-10.254,300.293,1.000
1626062529475326.000,4.395,-23.926,-20.020,157.715,1.000
1626062529479232.250,-86.914,0.488,-35.156,-304.199,1.000
1626062529483138.500,-81.543,-2.930,-38.574,-263.672,1.000
1626062529487044.750,19.043,-31.250,-19.043,209.473,1.000
1626062529490951.000,38.574,-44.434,-14.648,256.836,1.000
1626062529494857.250,-67.871,-34.668,-28.320,-217.773,1.000
1626062529498763.500,-109.863,-30.273,-38.574,-372.559,1.000
1626062529502669.750,-10.742,-36.133,-45.898,80.078,1.000
1626062529506576.000,56.152,-41.992,-56.152,327.637,1.000
1626062529510482.250,-23.438,-31.738,-60.547,-73.730,1.000
1626062529514388.500,-87.891,-30.762,-42.480,-376.465,1.000
1626062529518294.750,-96.191,-49.805,-60.059,-365.723,1.000
1626062529522201.000,-13.672,-37.598,-21.484,37.109,1.000
1626062529526107.250,50.293,-26.855,-12.695,310.059,1.000
1626062529530013.500,-14.160,-40.039,-25.391,-38.086,1.000
1626062529533919.750,-97.168,-40.039,-22.949,-384.766,1.000
1626062529537826.000,-44.922,-25.391,-13.184,-89.355,1.000
1626062529541732.250,40.527,-18.066,-25.879,311.035,1.000
1626062529545638.500,-7.812,-21.484,-53.223,83.984,1.000
1626062529549544.750,-110.840,-38.086,-49.805,-369.629,1.000
1626062529553451.000,-91.309,-48.340,-41.504,-245.605,1.000
1626062529557357.250,21.973,-25.879,-42.480,240.723,1.000
1626062529561263.500,31.250,-27.832,-44.434,218.262,1.000
1626062529565169.750,-65.918,-38.574,-28.809,1.000,1.000
1626062529569076.000,-89.844,-13.672,-10.742,1.000,1.000
1626062529572982.250,0.488,1.953,-5.371,1.000,1.000
1626062529576888.500,47.852,-23.926,-11.230,1.000,1.000
1626062529580794.750,-40.527,-59.570,-54.199,1.000,1.000
1626062529584701.000,-104.004,-40.527,-80.566,1.000,1.000
1626062529588607.250,-17.578,-18.066,-35.645,1.000,1.000
1626062529592513.500,62.500,-40.527,10.254,1.000,1.000
1626062529596419.750,-16.113,-48.340,-12.695,1.000,1.000
1626062529600326.000,-136.230,-27.344,-55.176,1.000,1.000
1626062529604232.250,-90.332,-24.414,-47.363,1.000,1.000
1626062529608138.500,22.949,-21.973,-35.645,1.000,1.000
1626062529612044.750,11.719,-1.953,-34.180,1.000,1.000
1626062529615951.000,-74.219,-10.742,-10.254,1.000,1.000
1626062529619857.250,-68.848,-32.227,-5.859,1.000,1.000
1626062529623763.500,11.230,-44.922,-41.504,1.000,1.000
1626062529627669.750,25.879,-47.852,-57.129,1.000,1.000
1626062529631576.000,-45.898,-49.316,-35.156,1.000,1.000
1626062529635482.250,-89.355,-46.875,-24.902,1.000,1.000
1626062529639388.500,-17.578,-28.809,-29.297,1.000,1.000
1626062529643294.750,48.340,-10.254,-27.832,1.000,1.000
1626062529647201.000,-25.391,-23.926,-21.484,1.000,1.000
1626062529651107.250,-104.980,-22.949,-13.672,1.000,1.000
1626062529655013.500,-46.875,-19.531,-12.695,1.000,1.000
1626062529658919.750,-36.621,-52.246,-21.973,67.383,1.000
1626062529662826.000,30.273,-59.570,-25.879,308.594,1.000
1626062529666732.250,-28.320,-52.734,-22.461,-58.105,1.000
1626062529670638.500,-114.258,-57.129,-25.391,-394.531,1.000
1626062529674544.750,-57.617,-52.246,-22.461,-90.820,1.000
1626062529678451.000,35.645,-24.902,-19.043,310.547,1.000
1626062529682357.250,-10.742,-24.902,-37.598,66.406,1.000
1626062529686263.500,-98.145,-27.344,-62.500,-369.629,1.000
1626062529690169.750,-65.430,-11.230,-58.105,-203.125,1.000
1626062529694076.000,31.738,-6.348,-41.992,261.230,1.000
1626062529697982.250,18.555,-37.109,-30.273,181.152,1.000
1626062529701888.500,-86.426,-52.734,-25.879,-299.316,1.000
1626062529705794.750,-96.680,-41.504,-33.691,-345.703,1.000
1626062529709701.000,-99.121,-41.016,-53.223,-261.230,1.000
1626062529713607.250,15.625,-42.969,-34.180,226.562,1.000
1626062529717513.500,31.250,-42.969,-26.367,221.680,1.000
1626062529721419.750,-61.523,-57.129,-26.367,-246.582,1.000
1626062529725326.000,-86.426,-35.645,-27.832,-309.082,1.000
1626062529729232.250,-17.578,-22.461,-46.387,127.441,1.000
1626062529733138.500,24.902,-14.160,-46.387,279.297,1.000
1626062529737044.750,-43.457,2.441,-39.551,-135.254,1.000
1626062529740951.000,-105.469,-8.789,-28.320,-380.371,1.000
1626062529744857.250,-41.992,-29.297,-23.926,-0.977,1.000
1626062529748763.500,38.574,-34.668,-28.809,327.148,1.000
1626062529752669.750,47.363,-37.598,-30.762,308.105,1.000
1626062529756576.000,-21.484,-68.359,-37.109,-88.379,1.000
1626062529760482.250,-85.938,-78.125,-32.715,-376.465,1.000
1626062529764388.500,-17.090,-36.621,-20.508,-24.414,1.000
1626062529768294.750,58.594,7.324,-25.879,337.402,1.000
1626062529772201.000,-18.066,-8.789,-48.340,36.621,1.000
1626062529776107.250,-111.816,-22.461,-46.387,-391.113,1.000
1626062529780013.500,-57.129,5.859,-37.109,-172.852,1.000
1626062529783919.750,47.852,2.441,-25.391,289.062,1.000
1626062529787826.000,14.160,-39.062,-37.109,164.062,1.000
1626062529791732.250,-86.426,-43.457,-40.527,-307.129,1.000
1626062529795638.500,-82.520,-33.203,-24.902,-284.668,1.000
1626062529799544.750,-74.219,-42.969,-32.227,1.000,1.000
1626062529803451.000,6.836,-34.668,-34.180,1.000,1.000
1626062529807357.250,16.113,-17.090,-22.949,1.000,1.000
1626062529811263.500,-70.312,-16.113,-31.250,1.000,1.000
1626062529815169.750,-103.516,-35.645,-51.270,1.000,1.000
1626062529819076.000,-10.254,-29.785,-22.461,1.000,1.000
1626062529822982.250,44.434,-22.461,4.395,1.000,1.000
1626062529826888.500,-36.133,-32.227,-9.766,1.000,1.000
1626062529830794.750,-104.004,-38.574,-32.227,1.000,1.000
1626062529834701.000,-42.969,-46.875,-57.129,1.000,1.000
1626062529838607.250,40.527,-38.574,-46.875,1.000,1.000
1626062529842513.500,-7.812,-30.273,-24.902,1.000,1.000
1626062529846419.750,-55.176,-24.414,-30.762,-124.023,1.000
1626062529850326.000,-116.211,-26.855,-35.645,-386.719,1.000
1626062529854232.250,-40.527,-42.969,-23.926,-11.230,1.000
1626062529858138.500,35.645,-53.223,-16.602,326.660,1.000
1626062529862044.750,-13.184,-48.340,-25.391,24.414,1.000
1626062529865951.000,-97.168,-41.016,-31.738,-368.652,1.000
1626062529869857.250,-62.012,-41.992,-16.113,-145.996,1.000
1626062529873763.500,39.551,-44.922,-10.254,296.387,1.000
1626062529877669.750,20.508,-38.574,-37.598,158.691,1.000
1626062529881576.000,-83.496,-26.367,-59.570,-316.406,1.000
1626062529885482.250,-81.055,-8.301,-49.316,-273.438,1.000
1626062529889388.500,5.371,-0.977,-32.715,191.895,1.000
1626062529893294.750,27.832,-11.719,-21.973,1.000,1.000
1626062529897201.000,-60.059,-34.668,-17.578,1.000,1.000
1626062529901107.250,-92.773,-44.922,-11.230,1.000,1.000
1626062529905013.500,8.301,-38.574,-7.812,1.000,1.000
1626062529908919.750,47.363,-54.199,-32.715,1.000,1.000
1626062529912826.000,-45.898,-57.617,-63.477,1.000,1.000
1626062529916732.250,-113.281,-24.414,-63.477,1.000,1.000
1626062529920638.500,-49.316,-25.391,-45.410,1.000,1.000
1626062529924544.750,30.273,-41.992,-27.344,1.000,1.000
1626062529928451.000,-17.578,-36.133,-25.391,1.000,1.000
1626062529932357.250,-95.215,-43.457,-31.738,1.000,1.000
1626062529936263.500,-56.152,-40.527,-39.062,1.000,1.000
1626062529940169.750,-99.121,-51.270,-32.715,-367.676,1.000
1626062529944076.000,-30.273,-25.391,-35.645,12.207,1.000
1626062529947982.250,35.645,-3.418,-22.461,316.406,1.000
1626062529951888.500,-23.438,-11.719,-20.508,-14.648,1.000
1626062529955794.750,-120.117,-36.133,-36.621,-407.715,1.000
1626062529959701.000,-70.312,-23.438,-31.250,-137.207,1.000
1626062529963607.250,33.691,-13.184,-23.438,304.199,1.000
1626062529967513.500,2.930,-63.477,-38.086,120.117,1.000
1626062529971419.750,-100.586,-63.477,-46.387,-347.656,1.000
1626062529975326.000,-88.867,-21.484,-46.387,-262.695,1.000
1626062529979232.250,18.066,-15.625,-44.434,212.402,1.000
1626062529983138.500,38.086,-18.555,-23.438,226.562,1.000
1626062529987044.750,-121.582,-28.320,-31.738,30.762,1.000
1626062529990951.000,-223.145,-26.855,-47.363,-439.453,1.000
1626062529994857.250,-235.352,-40.527,-35.156,-413.574,1.000
1626062529998763.500,-145.020,-61.035,-38.086,48.828,1.000
1626062530002669.750,-127.441,-38.086,-37.598,90.820,1.000
1626062530006576.000,-229.492,-25.391,-30.762,-384.766,1.000
1626062530010482.250,-262.207,-18.066,-30.762,-506.348,1.000
1626062530014388.500,-178.223,-23.438,-32.715,-74.707,1.000
1626062530018294.750,-141.602,-40.039,-49.316,140.137,1.000
1626062530022201.000,-219.238,-34.668,-66.406,-253.418,1.000
1626062530026107.250,-280.273,-28.320,-55.176,-556.152,1.000
1626062530030013.500,-208.008,-10.742,-33.203,-212.402,1.000
1626062530033919.750,-60.059,-55.176,-6.348,41.504,1.000
1626062530037826.000,18.555,-61.035,0.977,337.402,1.000
1626062530041732.250,-20.996,-61.523,3.906,6.836,1.000
1626062530045638.500,-92.285,-60.547,10.254,-342.285,1.000
1626062530049544.750,-41.016,-62.500,7.324,-61.035,1.000
1626062530053451.000,53.711,-61.035,2.930,350.586,1.000
1626062530057357.250,24.902,-72.266,6.348,152.832,1.000
1626062530061263.500,-52.734,-89.355,16.113,-284.668,1.000
1626062530065169.750,-29.297,-83.496,27.832,-151.855,1.000
1626062530069076.000,75.684,-78.125,25.391,323.730,1.000
1626062530072982.250,81.543,-86.914,5.859,296.875,1.000
1626062530076888.500,-8.301,-91.309,1.465,-168.457,1.000
1626062530080794.750,-20.996,-63.477,-8.301,-244.629,1.000
1626062530084701.000,-23.926,-66.406,-12.695,-185.547,1.000
1626062530088607.250,80.566,-67.383,-1.953,294.434,1.000
1626062530092513.500,100.098,-68.848,-2.441,317.871,1.000
1626062530096419.750,-0.488,-53.223,-10.742,-159.180,1.000
1626062530100326.000,-42.480,-50.781,-31.738,-283.203,1.000
1626062530104232.250,47.363,-33.691,-37.109,171.387,1.000
1626062530108138.500,91.309,-17.090,-11.230,378.418,1.000
1626062530112044.750,10.254,-33.691,-0.977,-30.273,1.000
1626062530115951.000,-52.246,-55.664,-26.367,-315.430,1.000
1626062530119857.250,10.742,-55.664,-32.227,37.109,1.000
1626062530123763.500,92.285,-47.363,-1.465,395.020,1.000
1626062530127669.750,48.340,-35.645,-4.395,1.000,1.000
1626062530131576.000,-39.062,-33.691,-23.926,1.000,1.000
1626062530135482.250,-9.277,-38.086,-22.949,1.000,1.000
1626062530139388.500,74.219,-41.992,-13.184,1.000,1.000
1626062530143294.750,52.734,-54.199,-20.996,1.000,1.000
1626062530147201.000,-27.344,-42.480,-33.203,1.000,1.000
1626062530151107.250,-27.344,-30.273,-41.016,1.000,1.000
1626062530155013.500,53.711,-39.062,-41.016,1.000,1.000
1626062530158919.750,72.266,-31.250,-36.621,1.000,1.000
1626062530162826.000,-19.531,-27.832,-31.738,1.000,1.000
1626062530166732.250,-66.895,-21.973,-21.484,1.000,1.000
1626062530170638.500,21.484,-19.531,-13.184,1.000,1.000
1626062530174544.750,-218.262,-32.227,-30.762,373.535,1.000
1626062530178451.000,-133.789,-29.785,-32.715,-10.742,1.000
1626062530182357.250,-139.160,-26.855,-32.715,-330.078,1.000
1626062530186263.500,-241.699,-25.879,-37.109,-18.066,1.000
1626062530190169.750,-266.602,-32.715,-35.645,364.258,1.000
1626062530194076.000,-179.688,-33.203,-29.297,124.512,1.000
1626062530197982.250,-130.371,-34.180,-24.902,-324.707,1.000
1626062530201888.500,-194.824,-57.129,-23.438,-179.199,1.000
1626062530205794.750,-247.559,-64.453,-27.832,274.414,1.000
1626062530209701.000,-170.410,-33.691,-22.461,221.191,1.000
1626062530213607.250,-92.773,-40.527,-15.137,-268.555,1.000
1626062530217513.500,-132.812,-71.777,-31.738,-290.039,1.000
1626062530221419.750,17.578,-49.805,-33.203,-31.738,1.000
1626062530225326.000,-63.965,-60.547,-28.320,-341.309,1.000
1626062530229232.250,0.000,-50.293,-32.227,0.000,1.000
1626062530233138.500,93.750,-31.738,-25.879,373.047,1.000
1626062530237044.750,45.898,-29.785,-23.926,95.215,1.000
1626062530240951.000,-45.410,-36.621,-32.227,-315.918,1.000
1626062530244857.250,-4.395,-38.574,-20.996,-109.863,1.000
1626062530248763.500,101.074,-35.645,-11.230,349.121,1.000
1626062530252669.750,93.262,-26.367,-16.602,246.094,1.000
1626062530256576.000,-2.441,-39.062,-30.273,-232.422,1.000
1626062530260482.250,-8.789,-55.176,-31.738,-230.957,1.000
1626062530264388.500,87.402,-25.391,-21.484,243.652,1.000
1626062530268294.750,89.355,-21.484,-9.277,320.312,1.000
1626062530272201.000,80.566,-36.621,-26.855,258.301,1.000
1626062530276107.250,-25.879,-50.293,-37.109,-229.492,1.000
1626062530280013.500,-52.734,-55.664,-37.109,-275.391,1.000
1626062530283919.750,38.574,-44.922,-36.133,189.941,1.000
1626062530287826.000,89.844,-39.551,-33.203,337.402,1.000
1626062530291732.250,4.395,-42.480,-38.086,-90.820,1.000
1626062530295638.500,-54.199,-33.691,-40.527,-312.012,1.000
1626062530299544.750,24.414,-37.598,-48.828,76.660,1.000
1626062530303451.000,90.332,-53.223,-52.734,369.629,1.000
1626062530307357.250,31.738,-43.457,-43.945,35.645,1.000
1626062530311263.500,-49.316,-22.461,-33.691,-333.984,1.000
1626062530315169.750,-79.590,-21.973,-42.969,-360.840,1.000
1626062530319076.000,-11.230,-6.836,-36.133,6.836,1.000
1626062530322982.250,65.918,-25.391,-32.227,355.469,1.000
1626062530326888.500,5.371,-38.574,-35.156,50.293,1.000
1626062530330794.750,-84.961,-33.203,-29.785,-347.168,1.000
1626062530334701.000,-42.480,-24.902,-16.113,-113.770,1.000
1626062530338607.250,62.988,-29.297,-12.207,333.008,1.000
1626062530342513.500,37.109,-50.293,-27.344,185.547,1.000
1626062530346419.750,-43.457,-43.457,-33.203,-275.879,1.000
1626062530350326.000,-53.711,-24.902,-32.227,-240.234,1.000
1626062530354232.250,18.066,-15.137,-23.438,217.773,1.000
1626062530358138.500,47.363,-19.531,-25.391,268.555,1.000
1626062530362044.750,-46.875,-33.203,-41.504,1.000,1.000
1626062530365951.000,-84.473,-38.086,-33.203,1.000,1.000
1626062530369857.250,10.742,-30.273,-20.020,1.000,1.000
1626062530373763.500,70.801,-35.156,-28.809,1.000,1.000
1626062530377669.750,-12.695,-44.434,-37.109,1.000,1.000
1626062530381576.000,-89.355,-28.809,-46.875,1.000,1.000
1626062530385482.250,-19.043,-6.836,-44.922,1.000,1.000
1626062530389388.500,64.453,0.977,-41.016,1.000,1.000
1626062530393294.750,21.484,-8.789,-44.434,1.000,1.000
1626062530397201.000,-72.754,-13.184,-50.781,1.000,1.000
1626062530401107.250,-51.758,-6.348,-51.270,1.000,1.000
1626062530405013.500,36.621,-15.137,-49.316,1.000,1.000
1626062530408919.750,-19.043,-14.648,-29.785,30.762,1.000
1626062530412826.000,48.828,-20.996,-40.039,337.891,1.000
1626062530416732.250,-5.859,-39.551,-36.133,7.324,1.000
1626062530420638.500,-88.867,-58.594,-23.438,-371.094,1.000
1626062530424544.750,-42.480,-47.852,-10.254,-109.863,1.000
1626062530428451.000,38.574,-27.832,-15.625,311.035,1.000
1626062530432357.250,3.906,-16.602,-37.109,127.441,1.000
1626062530436263.500,-85.938,0.000,-32.715,-330.566,1.000
1626062530440169.750,-85.938,-6.836,-27.344,-248.047,1.000
1626062530444076.000,13.184,-11.230,-32.227,232.422,1.000
1626062530447982.250,35.645,-21.973,-38.574,241.699,1.000
1626062530451888.500,-67.871,-37.598,-59.570,-244.141,1.000
1626062530455794.750,-110.352,-35.645,-49.316,1.000,1.000
1626062530459701.000,-6.836,-34.180,-14.160,1.000,1.000
1626062530463607.250,39.551,-40.527,-20.996,1.000,1.000
1626062530467513.500,-46.875,-49.316,-37.598,1.000,1.000
1626062530471419.750,-104.492,-39.551,-37.598,1.000,1.000
1626062530475326.000,-48.828,-38.574,-32.715,1.000,1.000
1626062530479232.250,30.273,-44.434,-27.344,1.000,1.000
1626062530483138.500,-4.395,-35.156,-23.438,1.000,1.000
1626062530487044.750,-94.238,-21.484,-25.391,1.000,1.000
1626062530490951.000,-66.895,-16.602,-34.180,1.000,1.000
1626062530494857.250,28.320,-26.367,-37.109,1.000,1.000
1626062530498763.500,13.184,-35.156,-46.875,1.000,1.000
1626062530502669.750,-90.332,-32.715,-56.641,1.000,1.000
1626062530506576.000,-87.891,-36.621,-28.809,1.000,1.000
1626062530510482.250,8.789,-41.016,-12.695,1.000,1.000
1626062530514388.500,17.090,-34.180,-20.996,1.000,1.000
1626062530518294.750,-76.172,-22.461,-35.156,1.000,1.000
1626062530522201.000,-109.863,-25.391,-40.527,1.000,1.000
1626062530526107.250,-23.926,-34.180,-29.785,1.000,1.000
1626062530530013.500,19.531,-36.133,-33.691,1.000,1.000
1626062530533919.750,-52.246,-32.227,-43.457,1.000,1.000
1626062530537826.000,-124.512,-33.203,-48.828,1.000,1.000
1626062530541732.250,-60.059,-21.484,-40.039,1.000,1.000
1626062530545638.500,25.879,-20.020,-37.109,1.000,1.000
1626062530549544.750,-23.926,-43.945,-41.016,1.000,1.000
1626062530553451.000,-115.234,-49.805,-31.250,1.000,1.000
1626062530557357.250,-77.637,-41.992,-13.672,1.000,1.000
1626062530561263.500,36.133,-20.996,-10.742,1.000,1.000
1626062530565169.750,23.438,-31.738,-31.738,1.000,1.000
1626062530569076.000,-85.449,-52.734,-35.645,1.000,1.000
1626062530572982.250,-100.098,-58.594,-20.996,1.000,1.000
1626062530576888.500,-9.277,-61.035,-22.461,1.000,1.000
1626062530580794.750,25.879,-35.156,-24.414,1.000,1.000
1626062530584701.000,-67.383,-17.090,-29.297,1.000,1.000
1626062530588607.250,-125.977,-29.297,-35.156,1.000,1.000
1626062530592513.500,-43.457,-30.762,-25.391,1.000,1.000
1626062530596419.750,-101.562,-21.973,-51.270,340.332,1.000
1626062530600326.000,5.371,8.789,-41.016,-15.625,1.000
1626062530604232.250,36.621,16.113,-39.551,-381.348,1.000
1626062530608138.500,-66.895,-3.906,-54.688,-92.773,1.000
1626062530612044.750,-110.840,-20.996,-59.570,321.289,1.000
1626062530615951.000,-8.301,-36.133,-45.898,100.098,1.000
1626062530619857.250,44.922,-57.129,-35.156,-362.305,1.000
1626062530623763.500,-33.203,-43.457,-32.227,-244.141,1.000
1626062530627669.750,-114.746,-22.949,-39.551,249.512,1.000
1626062530631576.000,-60.547,-20.508,-37.109,227.539,1.000
1626062530635482.250,31.738,-5.371,-36.621,-263.672,1.000
1626062530639388.500,-10.742,5.371,-36.133,-337.891,1.000
1626062530643294.750,-106.934,-31.250,-35.645,1.000,1.000
1626062530647201.000,-75.684,-39.551,-35.645,1.000,1.000
1626062530651107.250,24.414,-19.043,-43.945,1.000,1.000
1626062530655013.500,16.602,-27.832,-51.270,1.000,1.000
1626062530658919.750,-82.520,-35.156,-49.316,1.000,1.000
1626062530662826.000,-93.750,-31.738,-39.551,1.000,1.000
1626062530666732.250,17.090,-20.020,-33.203,1.000,1.000
1626062530670638.500,49.805,-30.273,-30.762,1.000,1.000
1626062530674544.750,-46.875,-46.875,-25.391,1.000,1.000
1626062530678451.000,-101.562,-32.715,-28.809,1.000,1.000
1626062530682357.250,-26.367,-19.043,-27.832,1.000,1.000
1626062530686263.500,50.781,-19.043,-26.855,1.000,1.000
1626062530690169.750,-14.160,-20.996,-39.551,1.000,1.000
1626062530694076.000,-115.723,-37.598,-49.316,1.000,1.000
1626062530697982.250,-48.828,-34.180,-26.855,1.000,1.000
1626062530701888.500,53.711,-24.414,-17.578,1.000,1.000
1626062530705794.750,0.977,-27.832,-35.156,1.000,1.000
1626062530709701.000,-102.539,-30.273,-42.969,1.000,1.000
1626062530713607.250,-78.613,-28.320,-35.645,1.000,1.000
1626062530717513.500,38.086,-25.879,-12.207,1.000,1.000
1626062530721419.750,37.109,-31.250,-15.625,1.000,1.000
1626062530725326.000,-64.453,-32.227,-25.879,1.000,1.000
1626062530729232.250,-83.008,-24.902,-20.996,1.000,1.000
1626062530733138.500,-4.883,-20.996,-31.250,1.000,1.000
1626062530737044.750,21.484,-20.020,-44.922,1.000,1.000
1626062530740951.000,-58.105,-20.020,-46.387,1.000,1.000
1626062530744857.250,-96.680,-21.484,-30.762,1.000,1.000
1626062530748763.500,-15.625,-16.113,-22.461,1.000,1.000
1626062530752669.750,53.711,-28.320,-29.297,1.000,1.000
1626062530756576.000,-12.207,-60.547,-52.734,1.000,1.000
1626062530760482.250,-93.262,-50.293,-50.293,1.000,1.000
1626062530764388.500,-25.391,-1.953,-21.484,1.000,1.000
1626062530768294.750,82.031,-2.441,1.465,1.000,1.000
1626062530772201.000,36.133,-42.969,-12.695,1.000,1.000
1626062530776107.250,-92.773,-46.875,-49.316,1.000,1.000
1626062530780013.500,-87.891,-24.902,-45.898,1.000,1.000
1626062530783919.750,-102.539,-41.504,-35.645,-388.184,1.000
1626062530787826.000,-35.645,-15.137,-33.691,-48.828,1.000
1626062530791732.250,49.805,-2.930,-32.715,315.430,1.000
1626062530795638.500,-15.625,-13.672,-41.992,28.320,1.000
1626062530799544.750,-97.168,-10.742,-34.668,-375.977,1.000
1626062530803451.000,-50.781,-22.949,-24.414,-168.457,1.000
1626062530807357.250,25.391,-46.387,-37.598,265.625,1.000
1626062530811263.500,-0.977,-31.250,-42.969,142.090,1.000
1626062530815169.750,-95.703,-8.301,-36.133,-325.684,1.000
1626062530819076.000,-95.215,-19.043,-36.133,-308.594,1.000
1626062530822982.250,20.996,-43.945,-30.273,179.688,1.000
1626062530826888.500,44.434,-30.273,-34.668,268.555,1.000
1626062530830794.750,-64.453,-12.207,-52.734,1.000,1.000
1626062530834701.000,-107.910,-20.508,-58.105,1.000,1.000
1626062530838607.250,-26.855,-11.230,-61.035,1.000,1.000
1626062530842513.500,21.484,-17.090,-58.594,1.000,1.000
1626062530846419.750,-46.875,-38.086,-47.852,1.000,1.000
1626062530850326.000,-114.746,-36.133,-41.992,1.000,1.000
1626062530854232.250,-44.434,-1.953,-43.945,1.000,1.000
1626062530858138.500,50.293,0.488,-41.016,1.000,1.000
1626062530862044.750,-0.977,-43.945,-37.598,1.000,1.000
1626062530865951.000,-115.234,-45.410,-34.668,1.000,1.000
1626062530869857.250,-84.961,-27.344,-28.809,1.000,1.000
1626062530873763.500,37.109,-33.691,-19.043,1.000,1.000
1626062530877669.750,-62.988,-21.484,-27.832,218.262,1.000
1626062530881576.000,25.879,-16.113,-20.508,-274.902,1.000
1626062530885482.250,-35.645,-26.855,-20.020,-315.430,1.000
1626062530889388.500,-145.508,-24.902,-29.785,161.133,1.000
1626062530893294.750,-129.395,-19.531,-34.180,291.992,1.000
1626062530897201.000,-45.410,-11.230,-25.879,-141.602,1.000
1626062530901107.250,-76.660,-4.883,-23.926,-365.234,1.000
1626062530905013.500,-197.266,-8.789,-37.109,26.855,1.000
1626062530908919.750,-222.168,-12.207,-43.945,339.844,1.000
1626062530912826.000,-131.348,-13.672,-38.574,-3.418,1.000
1626062530916732.250,-112.793,-14.648,-41.992,-392.578,1.000
1626062530920638.500,-224.121,-26.367,-51.758,-126.953,1.000
1626062530924544.750,32.227,-32.227,-44.434,-388.184,1.000
1626062530928451.000,-70.312,-48.828,-46.875,-396.484,1.000
1626062530932357.250,-53.711,-35.645,-28.809,74.707,1.000
1626062530936263.500,46.387,-21.484,-17.090,193.359,1.000
1626062530940169.750,45.410,-29.785,-30.273,-241.211,1.000
1626062530944076.000,-41.504,-35.156,-38.086,-422.363,1.000
1626062530947982.250,-59.082,-21.484,-33.203,11.719,1.000
1626062530951888.500,30.762,-15.137,-38.086,304.688,1.000
1626062530955794.750,87.891,-13.672,-33.691,-47.852,1.000
1626062530959701.000,8.301,-28.320,-29.785,-394.531,1.000
1626062530963607.250,-59.082,-53.711,-40.527,-81.543,1.000
1626062530967513.500,16.602,-57.129,-51.270,340.820,1.000
1626062530971419.750,-53.711,-58.105,-34.668,-251.465,1.000
1626062530975326.000,41.504,-47.852,-33.203,224.609,1.000
1626062530979232.250,60.547,-34.180,-33.203,292.969,1.000
1626062530983138.500,-28.809,-24.414,-27.832,-161.621,1.000
1626062530987044.750,-65.430,-15.137,-20.508,-314.941,1.000
1626062530990951.000,19.531,-9.766,-15.625,119.141,1.000
1626062530994857.250,89.355,-1.465,-7.324,370.117,1.000
1626062530998763.500,16.113,-21.973,-10.254,-21.484,1.000
1626062531002669.750,-76.660,-42.969,-28.809,-367.188,1.000
1626062531006576.000,-19.531,-33.691,-29.297,-48.828,1.000
1626062531010482.250,65.918,-41.016,-21.484,330.078,1.000
1626062531014388.500,13.672,-62.988,-25.391,73.730,1.000
1626062531018294.750,-12.207,-45.898,-33.203,-16.602,1.000
1626062531022201.000,-94.238,-63.477,-38.086,-383.301,1.000
1626062531026107.250,-36.133,-32.227,-20.996,-90.820,1.000
1626062531030013.500,68.359,-3.418,-8.789,344.727,1.000
1626062531033919.750,23.438,-20.996,-17.090,127.930,1.000
1626062531037826.000,-89.355,-49.316,-34.180,-341.797,1.000
1626062531041732.250,-77.148,-47.363,-41.016,-218.750,1.000
1626062531045638.500,30.273,-28.809,-37.109,258.301,1.000
1626062531049544.750,41.016,-49.805,-39.062,241.211,1.000
1626062531053451.000,-68.848,-70.312,-54.199,-245.117,1.000
1626062531057357.250,-85.449,-36.621,-43.457,-308.594,1.000
1626062531061263.500,16.602,1.465,-24.902,164.551,1.000
1626062531065169.750,55.176,-0.488,-28.320,1.000,1.000
1626062531069076.000,-36.133,-23.438,-34.668,1.000,1.000
1626062531072982.250,-104.004,-27.344,-27.344,1.000,1.000
1626062531076888.500,-22.461,-29.785,-14.648,1.000,1.000
1626062531080794.750,50.781,-59.570,-19.043,1.000,1.000
1626062531084701.000,-17.578,-54.688,-27.344,1.000,1.000
1626062531088607.250,-97.168,-48.828,-31.250,1.000,1.000
1626062531092513.500,-43.945,-58.594,-27.344,1.000,1.000
1626062531096419.750,55.664,-34.668,-27.832,1.000,1.000
1626062531100326.000,31.250,-51.758,-38.574,1.000,1.000
1626062531104232.250,-73.242,-60.547,-29.785,1.000,1.000
1626062531108138.500,-79.102,-20.508,-25.391,1.000,1.000
1626062531112044.750,-95.215,-18.066,-29.785,-388.184,1.000
1626062531115951.000,-39.551,-35.156,-14.160,-80.078,1.000
1626062531119857.250,53.223,-23.926,-17.578,320.801,1.000
1626062531123763.500,14.160,-24.902,-33.691,90.820,1.000
1626062531127669.750,-86.914,-44.434,-32.227,-346.680,1.000
1626062531131576.000,-61.035,-38.086,-26.855,-196.777,1.000
1626062531135482.250,39.062,-28.320,-25.391,275.879,1.000
1626062531139388.500,29.785,-18.066,-38.574,209.961,1.000
1626062531143294.750,-68.848,-8.301,-34.180,-265.625,1.000
1626062531147201.000,-84.473,-16.602,-25.879,-302.734,1.000
1626062531151107.250,14.160,-25.391,-22.461,162.598,1.000
1626062531155013.500,48.340,-31.250,-16.602,297.852,1.000
1626062531158919.750,38.086,-20.508,-22.461,234.375,1.000
1626062531162826.000,-60.059,-49.316,-20.996,-245.117,1.000
1626062531166732.250,-100.098,-63.965,-14.160,-342.285,1.000
1626062531170638.500,-15.137,-48.340,-15.137,118.652,1.000
1626062531174544.750,29.297,-40.039,-26.855,285.156,1.000
1626062531178451.000,-42.969,-23.926,-22.461,-129.395,1.000
1626062531182357.250,-95.215,-12.695,-18.066,-370.117,1.000
1626062531186263.500,-25.879,-19.043,-20.020,-2.930,1.000
1626062531190169.750,46.387,-36.621,-20.020,338.867,1.000
1626062531194076.000,-4.883,-45.898,-24.902,37.109,1.000
1626062531197982.250,-84.473,-27.344,-21.973,-355.957,1.000
1626062531201888.500,-54.688,-33.203,-18.066,-137.207,1.000
1626062531205794.750,-52.734,-32.227,-31.250,1.000,1.000
1626062531209701.000,42.480,-30.762,-28.809,1.000,1.000
1626062531213607.250,3.906,-34.668,-30.273,1.000,1.000
1626062531217513.500,-90.332,-59.570,-33.203,1.000,1.000
1626062531221419.750,-72.754,-80.566,-32.227,1.000,1.000
1626062531225326.000,32.227,-53.711,-17.578,1.000,1.000
1626062531229232.250,29.297,-19.531,-18.066,1.000,1.000
1626062531233138.500,-77.148,-33.691,-21.484,1.000,1.000
1626062531237044.750,-90.820,-47.852,-28.320,1.000,1.000
1626062531240951.000,-1.465,-30.762,-36.133,1.000,1.000
1626062531244857.250,34.180,-7.812,-20.996,1.000,1.000
1626062531248763.500,-64.453,-19.531,-25.391,1.000,1.000
1626062531252669.750,-126.953,-23.438,-35.156,1.000,1.000
1626062531256576.000,-21.973,-14.648,-27.344,1.000,1.000
1626062531260482.250,48.340,-32.227,-30.762,1.000,1.000
1626062531264388.500,-29.297,-49.805,-41.016,1.000,1.000
1626062531268294.750,-110.352,-49.805,-50.781,1.000,1.000
1626062531272201.000,-49.805,-32.715,-40.527,1.000,1.000
1626062531276107.250,43.945,-14.648,-31.250,1.000,1.000
1626062531280013.500,6.836,-16.113,-44.434,1.000,1.000
1626062531283919.750,-87.402,-36.133,-41.016,1.000,1.000
1626062531287826.000,-74.707,-42.480,-35.645,1.000,1.000
1626062531291732.250,21.973,-29.785,-42.480,1.000,1.000
1626062531295638.500,37.598,-30.273,-56.641,1.000,1.000
1626062531299544.750,-69.336,-37.109,-50.781,1.000,1.000
1626062531303451.000,-119.141,-39.062,-33.203,1.000,1.000
1626062531307357.250,-30.762,-33.203,-33.691,1.000,1.000
1626062531311263.500,30.762,-12.695,-17.578,1.000,1.000
1626062531315169.750,-40.039,-24.414,-4.395,1.000,1.000
1626062531319076.000,-110.840,-47.852,-36.133,1.000,1.000
1626062531322982.250,-26.855,-21.484,-43.945,1.000,1.000
1626062531326888.500,57.129,-19.043,-28.320,1.000,1.000
1626062531330794.750,-8.789,-38.574,-35.156,1.000,1.000
1626062531334701.000,-105.469,-38.574,-24.902,1.000,1.000
1626062531338607.250,-68.359,-34.180,-8.301,1.000,1.000
1626062531342513.500,28.320,-23.926,-17.090,1.000,1.000
1626062531346419.750,48.340,-50.293,-31.738,343.262,1.000
1626062531350326.000,-10.254,-71.289,-26.855,43.945,1.000
1626062531354232.250,-95.215,-62.988,-41.016,-371.094,1.000
1626062531358138.500,-61.035,-17.090,-35.156,-155.273,1.000
1626062531362044.750,24.902,2.930,-32.715,268.066,1.000
1626062531365951.000,5.859,-26.367,-40.527,140.137,1.000
1626062531369857.250,-78.125,-58.105,-24.414,-302.246,1.000
1626062531373763.500,-92.285,-61.523,-32.227,-290.039,1.000
1626062531377669.750,-1.953,-30.273,-48.340,186.035,1.000
1626062531381576.000,23.926,-9.277,-46.875,251.953,1.000
1626062531385482.250,-48.340,-18.555,-30.762,-193.848,1.000
1626062531389388.500,-78.125,-12.207,-23.438,-332.520,1.000
1626062531393294.750,-73.242,-43.457,-29.785,96.191,1.000
1626062531397201.000,14.648,-26.855,-19.043,331.543,1.000
1626062531401107.250,41.504,-17.090,-20.996,-73.242,1.000
1626062531405013.500,-51.758,-52.246,-23.926,-393.066,1.000
1626062531408919.750,-100.586,-59.082,-22.949,-61.035,1.000
1626062531412826.000,-25.391,-37.598,-32.715,319.824,1.000
1626062531416732.250,30.273,-24.414,-40.527,61.035,1.000
1626062531420638.500,-27.344,-15.625,-40.527,-377.930,1.000
1626062531424544.750,-103.516,-31.250,-45.898,-195.801,1.000
1626062531428451.000,-60.547,-45.410,-62.012,272.949,1.000
1626062531432357.250,23.438,-36.133,-64.941,186.035,1.000
1626062531436263.500,4.883,-34.668,-33.203,-270.996,1.000
1626062531440169.750,-22.949,-15.625,-16.113,8.301,1.000
1626062531444076.000,-111.816,-14.160,-25.391,-382.324,1.000
1626062531447982.250,-70.801,-37.109,-27.344,-142.578,1.000
1626062531451888.500,21.484,-46.387,-36.621,293.457,1.000
1626062531455794.750,6.348,-43.457,-30.762,133.301,1.000
1626062531459701.000,-71.289,-30.762,-20.508,-318.359,1.000
1626062531463607.250,-62.988,-11.230,-18.066,-225.098,1.000
1626062531467513.500,26.855,-15.137,-12.695,246.094,1.000
1626062531471419.750,33.203,-37.109,-27.344,254.395,1.000
1626062531475326.000,-79.102,-45.898,-57.129,-240.234,1.000
1626062531479232.250,-106.934,-38.086,-44.434,-352.051,1.000
1626062531483138.500,-0.488,-17.090,-21.973,120.605,1.000
1626062531487044.750,16.602,-15.137,-38.574,207.520,1.000
1626062531490951.000,36.621,-43.457,-44.922,260.742,1.000
1626062531494857.250,-64.941,-54.688,-40.039,-212.891,1.000
1626062531498763.500,-110.352,-51.270,-27.344,-370.605,1.000
1626062531502669.750,-30.762,-39.551,-25.391,55.176,1.000
1626062531506576.000,45.410,-20.996,-20.508,312.500,1.000
1626062531510482.250,-3.906,-12.695,-15.625,-44.434,1.000
1626062531514388.500,-98.145,-43.945,-28.320,-395.020,1.000
1626062531518294.750,-51.270,-36.133,-34.668,-88.867,1.000
1626062531522201.000,41.016,-10.742,-34.668,309.082,1.000
1626062531526107.250,13.672,-30.273,-23.438,75.684,1.000
1626062531530013.500,-81.543,-44.434,-20.996,-359.863,1.000
1626062531533919.750,-93.750,-21.973,-23.438,-376.465,1.000
1626062531537826.000,-33.203,-11.719,-10.742,-86.914,1.000
1626062531541732.250,43.945,-35.156,-31.250,325.195,1.000
1626062531545638.500,2.930,-44.922,-36.621,115.723,1.000
1626062531549544.750,-95.703,-37.109,-35.645,-352.051,1.000
1626062531553451.000,-82.520,-44.922,-29.297,-246.582,1.000
1626062531557357.250,16.113,-38.086,-23.926,231.934,1.000
1626062531561263.500,14.160,-39.062,-33.691,211.914,1.000
1626062531565169.750,-82.520,-43.945,-29.785,-259.277,1.000
1626062531569076.000,-104.980,-26.367,-33.203,-332.520,1.000
1626062531572982.250,-1.465,-11.719,-25.879,140.625,1.000
1626062531576888.500,55.664,-9.766,-6.836,321.777,1.000
1626062531580794.750,-30.273,-19.043,-20.996,1.000,1.000
1626062531584701.000,-95.703,-48.340,-39.062,1.000,1.000
1626062531588607.250,-25.879,-69.336,-36.133,1.000,1.000
1626062531592513.500,54.688,-29.297,-22.461,1.000,1.000
1626062531596419.750,1.465,-9.766,-26.855,1.000,1.000
1626062531600326.000,-93.262,-34.668,-26.367,1.000,1.000
1626062531604232.250,-66.406,-48.828,-22.461,1.000,1.000
1626062531608138.500,16.602,-56.152,-48.828,1.000,1.000
1626062531612044.750,12.207,-20.020,-48.340,1.000,1.000
1626062531615951.000,-65.430,-2.930,-21.973,1.000,1.000
1626062531619857.250,-65.918,-26.367,-6.348,1.000,1.000
1626062531623763.500,26.367,-34.180,-5.371,1.000,1.000
1626062531627669.750,-44.922,-19.531,-44.922,256.348,1.000
1626062531631576.000,60.059,-27.832,-20.508,-210.938,1.000
1626062531635482.250,28.809,-33.691,-9.766,-354.980,1.000
1626062531639388.500,-65.918,-29.297,-24.902,92.285,1.000
1626062531643294.750,-68.359,-29.785,-28.809,307.617,1.000
1626062531647201.000,23.438,-30.273,-24.902,-101.562,1.000
1626062531651107.250,42.480,-23.926,-22.461,-395.996,1.000
1626062531655013.500,-74.707,-24.414,-36.621,-43.945,1.000
1626062531658919.750,-104.492,-38.086,-54.688,332.031,1.000
1626062531662826.000,12.695,-62.500,-45.898,46.387,1.000
1626062531666732.250,51.758,-56.641,-36.621,-374.512,1.000
1626062531670638.500,-54.199,-33.691,-42.480,-168.945,1.000
1626062531674544.750,-58.105,-33.203,-24.902,-233.398,1.000
1626062531678451.000,-98.145,-45.410,-22.949,-343.262,1.000
1626062531682357.250,-14.160,-16.602,-32.227,103.516,1.000
