timestamps,TP9,AF7,AF8,TP10,Right AUX
1626295117342604.250,-29.297,-11.230,-50.293,-40.527,1.000
1626295117346510.500,42.480,15.137,-48.340,104.980,1.000
1626295117350416.750,0.488,6.348,-63.965,1.953,1.000
1626295117354323.000,-96.680,-26.855,-77.148,-173.828,1.000
1626295117358229.250,-84.473,0.000,-49.805,-106.934,1.000
1626295117362135.500,12.695,8.789,-19.531,89.355,1.000
1626295117366041.750,-0.488,9.277,-35.156,50.293,1.000
1626295117369948.000,-97.168,-56.641,-48.828,-155.273,1.000
1626295117373854.250,-77.148,-45.898,-26.367,-134.277,1.000
1626295117377760.500,27.832,3.418,-10.254,78.613,1.000
1626295117381666.750,18.066,-10.742,-35.645,81.543,1.000
1626295117385573.000,-88.379,-22.461,-62.988,-125.977,1.000
1626295117389479.250,-136.719,-75.195,-79.102,1.000,1.000
1626295117393385.500,-60.547,-38.574,-75.684,1.000,1.000
1626295117397291.750,14.160,-11.719,-44.434,1.000,1.000
1626295117401198.000,-40.039,-1.953,-37.109,1.000,1.000
1626295117405104.250,-119.629,-10.254,-46.875,1.000,1.000
1626295117409010.500,-50.781,-70.801,-26.855,1.000,1.000
1626295117412916.750,48.340,-20.020,-17.578,1.000,1.000
1626295117416823.000,2.441,-6.836,-35.645,1.000,1.000
1626295117420729.250,-89.355,-24.902,-40.527,1.000,1.000
1626295117424635.500,-83.008,-46.875,-42.969,1.000,1.000
1626295117428541.750,-3.906,-68.359,-44.922,1.000,1.000
1626295117432448.000,10.742,-5.371,-45.410,1.000,1.000
1626295117436354.250,-65.430,-0.488,-63.965,1.000,1.000
1626295117440260.500,-84.961,3.418,-57.617,1.000,1.000
1626295117444166.750,0.488,-24.414,-26.367,1.000,1.000
1626295117448073.000,34.180,-60.059,-38.086,1.000,1.000
1626295117451979.250,-57.617,-3.906,-58.105,1.000,1.000
1626295117455885.500,-111.816,15.137,-56.152,1.000,1.000
1626295117459791.750,-19.043,13.672,-44.922,1.000,1.000
1626295117463698.000,51.758,-81.055,-19.531,1.000,1.000
1626295117467604.250,-10.254,-87.891,-11.719,1.000,1.000
1626295117471510.500,-100.098,-21.973,-24.902,1.000,1.000
1626295117475416.750,-79.590,-9.766,-32.227,1.000,1.000
1626295117479323.000,14.648,2.930,-16.113,1.000,1.000
1626295117483229.250,0.977,-86.426,-14.648,1.000,1.000
1626295117487135.500,-104.980,-77.637,-26.367,1.000,1.000
1626295117491041.750,-99.121,-33.691,-11.230,1.000,1.000
1626295117494948.000,8.301,-9.277,12.695,1.000,1.000
1626295117498854.250,14.648,-22.461,0.000,1.000,1.000
1626295117502760.500,-79.590,-114.746,-25.879,1.000,1.000
1626295117506666.750,-111.328,-63.965,-16.602,1.000,1.000
1626295117510573.000,-20.020,-36.621,0.000,1.000,1.000
1626295117514479.250,37.598,-53.223,-12.207,1.000,1.000
1626295117518385.500,-51.758,-55.176,-38.086,1.000,1.000
1626295117522291.750,-131.348,-99.121,-40.039,1.000,1.000
1626295117526198.000,-61.523,-51.270,-16.602,1.000,1.000
1626295117530104.250,26.367,-11.230,-0.977,106.934,1.000
1626295117534010.500,-22.949,-5.371,-16.602,-21.484,1.000
1626295117537916.750,-104.980,-32.227,-22.949,-180.176,1.000
1626295117541823.000,-68.848,-54.199,-21.973,-79.590,1.000
1626295117545729.250,28.320,-37.109,-33.203,105.957,1.000
1626295117549635.500,12.207,-42.480,-34.668,44.434,1.000
1626295117553541.750,-84.961,-28.320,-32.715,-153.809,1.000
1626295117557448.000,-92.285,-88.379,-27.832,-140.625,1.000
1626295117561354.250,-5.371,-68.359,-20.020,50.293,1.000
1626295117565260.500,18.555,-9.766,-18.066,73.242,1.000
1626295117569166.750,-66.406,-24.414,-14.648,-111.816,1.000
1626295117573073.000,-108.398,-44.922,-21.484,-167.480,1.000
1626295117576979.250,-89.355,-16.113,-25.879,-156.738,1.000
1626295117580885.500,5.371,39.551,-15.625,42.480,1.000
1626295117584791.750,26.367,-5.859,-38.086,74.219,1.000
1626295117588698.000,-70.312,-86.426,-57.617,-117.676,1.000
1626295117592604.250,-98.633,-31.738,-30.762,-170.898,1.000
1626295117596510.500,-24.902,1.465,-26.855,2.930,1.000
1626295117600416.750,29.785,15.625,-20.508,106.445,1.000
1626295117604323.000,-24.902,-50.293,-13.672,-31.250,1.000
1626295117608229.250,-107.422,-82.031,-35.156,-169.434,1.000
1626295117612135.500,-61.523,-44.922,-29.297,-52.734,1.000
1626295117616041.750,29.297,-25.879,-18.066,111.816,1.000
1626295117619948.000,10.742,-28.809,-17.578,37.598,1.000
1626295117623854.250,-106.445,-153.320,-42.480,1.000,1.000
1626295117627760.500,-97.168,-79.102,-42.480,1.000,1.000
1626295117631666.750,23.926,39.551,-17.578,1.000,1.000
1626295117635573.000,27.344,21.973,-28.809,1.000,1.000
1626295117639479.250,-72.266,-31.250,-52.246,1.000,1.000
1626295117643385.500,-97.656,-106.934,-55.664,1.000,1.000
1626295117647291.750,4.395,-36.621,-30.273,1.000,1.000
1626295117651198.000,54.688,-10.742,-18.555,1.000,1.000
1626295117655104.250,-22.949,-40.039,-38.574,1.000,1.000
1626295117659010.500,-82.031,-62.012,-52.734,1.000,1.000
1626295117662916.750,-23.926,-76.660,-27.832,1.000,1.000
1626295117666823.000,39.062,17.578,-7.324,1.000,1.000
1626295117670729.250,-15.625,34.668,-22.949,1.000,1.000
1626295117674635.500,-93.262,18.066,-32.227,1.000,1.000
1626295117678541.750,-56.152,-20.020,-39.551,1.000,1.000
1626295117682448.000,20.508,-68.359,-38.086,1.000,1.000
1626295117686354.250,17.578,-25.879,-22.461,1.000,1.000
1626295117690260.500,-58.105,-12.695,-23.438,1.000,1.000
1626295117694166.750,-67.383,-17.578,-30.273,1.000,1.000
1626295117698073.000,0.000,-89.355,-37.598,1.000,1.000
1626295117701979.250,15.625,-65.430,-29.297,1.000,1.000
1626295117705885.500,-62.988,-15.625,-26.367,1.000,1.000
1626295117709791.750,-105.469,-36.133,-45.898,1.000,1.000
1626295117713698.000,-17.578,-31.738,-41.504,1.000,1.000
1626295117717604.250,11.230,5.859,-22.461,68.848,1.000
1626295117721510.500,29.297,-7.812,-32.715,79.102,1.000
1626295117725416.750,-56.152,-62.500,-57.129,-112.793,1.000
1626295117729323.000,-81.543,-82.031,-56.152,-152.344,1.000
1626295117733229.250,0.977,-17.090,-20.508,31.250,1.000
1626295117737135.500,51.270,-9.277,-7.324,120.117,1.000
1626295117741041.750,-17.578,-7.812,-19.043,-39.062,1.000
1626295117744948.000,-120.117,-86.426,-44.922,-186.035,1.000
1626295117748854.250,-64.453,-86.426,-34.668,-45.410,1.000
1626295117752760.500,31.250,2.930,-7.812,118.164,1.000
1626295117756666.750,-9.277,14.648,-24.414,3.906,1.000
1626295117760573.000,-86.914,0.000,-48.340,-161.133,1.000
1626295117764479.250,-104.492,-9.277,-43.945,-106.445,1.000
1626295117768385.500,-67.383,-3.906,-33.691,87.402,1.000
1626295117772291.750,16.113,-29.785,-34.180,66.895,1.000
1626295117776198.000,-25.391,-70.801,-53.223,-130.371,1.000
1626295117780104.250,-102.051,-43.945,-32.715,-131.348,1.000
1626295117784010.500,-84.961,-23.926,-10.742,58.105,1.000
1626295117787916.750,11.719,2.441,-14.160,104.004,1.000
1626295117791823.000,23.438,-45.898,-16.113,-88.379,1.000
1626295117795729.250,-63.477,-52.734,-26.367,-150.391,1.000
1626295117799635.500,-89.355,-5.371,-32.715,15.137,1.000
1626295117803541.750,0.488,23.926,-25.391,91.797,1.000
1626295117807448.000,49.316,45.410,-18.555,-35.156,1.000
1626295117811354.250,-56.641,-83.008,-65.430,1.000,1.000
1626295117815260.500,-112.305,-39.551,-69.824,1.000,1.000
1626295117819166.750,-35.645,42.969,-46.387,1.000,1.000
1626295117823073.000,27.344,23.926,-49.316,1.000,1.000
1626295117826979.250,-13.672,-13.184,-48.340,1.000,1.000
1626295117830885.500,-98.145,-64.941,-67.871,1.000,1.000
1626295117834791.750,-66.895,-1.953,-74.219,1.000,1.000
1626295117838698.000,34.668,16.113,-57.617,1.000,1.000
1626295117842604.250,22.949,6.348,-60.059,1.000,1.000
1626295117846510.500,-91.797,-13.672,-54.688,1.000,1.000
1626295117850416.750,-99.609,-59.570,-28.809,1.000,1.000
1626295117854323.000,13.672,15.625,-12.207,1.000,1.000
1626295117858229.250,20.508,37.109,-30.273,54.688,1.000
1626295117862135.500,-72.266,2.930,-43.457,-143.555,1.000
1626295117866041.750,-94.238,-41.016,-50.293,-176.270,1.000
1626295117869948.000,-18.066,-54.688,-51.758,8.301,1.000
1626295117873854.250,36.133,18.555,-36.621,96.680,1.000
1626295117877760.500,-41.992,13.672,-39.551,-83.008,1.000
1626295117881666.750,-109.375,-11.230,-40.039,-188.965,1.000
1626295117885573.000,-43.945,-46.387,-42.969,-25.879,1.000
1626295117889479.250,31.738,-26.855,-38.086,106.934,1.000
1626295117893385.500,1.465,-3.906,-25.879,-11.719,1.000
1626295117897291.750,-77.148,-13.184,-25.879,-165.527,1.000
1626295117901198.000,-43.945,-12.695,-12.207,-67.383,1.000
1626295117905104.250,-36.133,12.695,-22.461,-33.203,1.000
1626295117909010.500,41.992,21.484,-22.949,107.422,1.000
1626295117912916.750,-17.090,-33.691,-45.898,-19.043,1.000
1626295117916823.000,-94.727,-78.125,-47.363,-177.246,1.000
1626295117920729.250,-43.945,-11.719,-13.184,-74.707,1.000
1626295117924635.500,39.551,-18.066,-2.930,104.980,1.000
1626295117928541.750,24.902,-23.438,-18.555,64.941,1.000
1626295117932448.000,-97.168,-74.707,-47.852,-148.438,1.000
1626295117936354.250,-122.559,-60.547,-58.105,-152.344,1.000
1626295117940260.500,-3.906,0.000,-30.273,62.988,1.000
1626295117944166.750,34.180,-14.160,-16.113,99.609,1.000
1626295117948073.000,-58.594,-31.250,-45.898,-93.750,1.000
1626295117951979.250,-117.676,-96.680,-61.523,1.000,1.000
1626295117955885.500,-31.250,-46.875,-24.414,1.000,1.000
1626295117959791.750,36.621,7.324,-10.742,1.000,1.000
1626295117963698.000,-28.809,-8.301,-28.809,1.000,1.000
1626295117967604.250,-104.980,-48.828,-38.574,1.000,1.000
1626295117971510.500,-55.664,-105.957,-28.809,1.000,1.000
1626295117975416.750,47.852,-37.598,-17.090,1.000,1.000
1626295117979323.000,8.301,-12.695,-33.203,1.000,1.000
1626295117983229.250,-87.891,-22.461,-49.316,1.000,1.000
1626295117987135.500,-64.453,-16.602,-34.180,1.000,1.000
1626295117991041.750,32.715,-60.547,-17.090,1.000,1.000
1626295117994948.000,36.621,-43.457,-27.832,1.000,1.000
1626295117998854.250,-57.617,-30.762,-38.086,-117.188,1.000
1626295118002760.500,-83.008,-9.766,-25.391,-142.578,1.000
1626295118006666.750,-3.906,-32.715,-18.066,37.598,1.000
1626295118010573.000,36.621,-90.820,-28.809,93.262,1.000
1626295118014479.250,-41.992,-43.945,-39.551,-85.938,1.000
1626295118018385.500,-106.445,-0.977,-48.340,-177.246,1.000
1626295118022291.750,-30.762,10.742,-42.480,-2.441,1.000
1626295118026198.000,28.320,-71.289,-45.898,109.863,1.000
1626295118030104.250,-12.207,-82.520,-47.363,-15.625,1.000
1626295118034010.500,-83.984,-48.828,-38.086,-155.762,1.000
1626295118037916.750,-53.223,-20.020,-14.160,-52.246,1.000
1626295118041823.000,47.363,16.113,4.395,126.465,1.000
1626295118045729.250,10.742,-75.195,-6.836,1.000,1.000
1626295118049635.500,-100.098,-51.758,-23.926,1.000,1.000
1626295118053541.750,-105.469,-4.395,-36.621,1.000,1.000
1626295118057448.000,-9.277,-8.301,-35.645,1.000,1.000
1626295118061354.250,17.090,-38.086,-28.320,1.000,1.000
1626295118065260.500,-58.594,-95.215,-66.895,1.000,1.000
1626295118069166.750,-79.590,-46.387,-90.332,1.000,1.000
1626295118073073.000,-7.324,-25.879,-18.066,1.000,1.000
1626295118076979.250,22.461,-6.348,13.672,1.000,1.000
1626295118080885.500,-45.410,-38.086,-4.883,1.000,1.000
1626295118084791.750,-101.074,-97.656,-5.859,1.000,1.000
1626295118088698.000,-44.434,-21.973,-1.465,1.000,1.000
1626295118092604.250,35.156,10.742,-4.883,111.816,1.000
1626295118096510.500,-6.348,5.859,-10.742,-4.395,1.000
1626295118100416.750,-103.516,-45.410,-25.879,-175.293,1.000
1626295118104323.000,-66.406,-84.473,-54.688,-83.496,1.000
1626295118108229.250,46.875,-22.461,-25.879,120.605,1.000
1626295118112135.500,5.859,-15.137,-16.602,48.340,1.000
1626295118116041.750,-110.352,-20.996,-39.062,-158.691,1.000
1626295118119948.000,-128.418,-82.031,-20.508,-153.809,1.000
1626295118123854.250,-29.785,-64.941,13.184,46.875,1.000
1626295118127760.500,26.367,19.043,26.367,102.051,1.000
1626295118131666.750,-83.984,-8.789,-7.324,-108.887,1.000
1626295118135573.000,-175.293,-67.871,-25.879,-212.891,1.000
1626295118139479.250,-116.211,0.977,-25.391,-157.227,1.000
1626295118143385.500,-19.043,6.348,-25.391,47.363,1.000
1626295118147291.750,24.414,-25.391,-43.945,98.633,1.000
1626295118151198.000,-46.875,-92.773,-36.621,-74.707,1.000
1626295118155104.250,-94.727,-49.316,-4.883,-159.180,1.000
1626295118159010.500,-34.668,-27.832,8.301,1.465,1.000
1626295118162916.750,25.879,-12.207,5.859,111.328,1.000
1626295118166823.000,-37.109,-87.402,-19.531,-46.875,1.000
1626295118170729.250,-102.539,-107.910,-38.574,-171.875,1.000
1626295118174635.500,-34.180,-19.531,-20.020,-22.461,1.000
1626295118178541.750,41.992,17.578,-7.324,130.371,1.000
1626295118182448.000,-11.719,-5.371,-31.250,12.695,1.000
1626295118186354.250,-112.793,-121.582,-50.293,1.000,1.000
1626295118190260.500,-82.031,-74.219,-32.227,1.000,1.000
1626295118194166.750,25.391,-9.766,-31.250,1.000,1.000
1626295118198073.000,41.992,-13.184,-35.645,1.000,1.000
1626295118201979.250,-57.129,-46.387,-47.363,1.000,1.000
1626295118205885.500,-85.938,-107.422,-35.156,1.000,1.000
1626295118209791.750,19.531,-15.625,2.930,1.000,1.000
1626295118213698.000,42.480,14.160,-14.160,1.000,1.000
1626295118217604.250,-46.875,-22.461,-40.527,1.000,1.000
1626295118221510.500,-90.332,-77.637,-44.434,1.000,1.000
1626295118225416.750,-31.738,-112.305,-33.203,1.000,1.000
1626295118229323.000,39.062,-24.414,-13.672,1.000,1.000
1626295118233229.250,-1.465,-11.230,-12.695,-9.766,1.000
1626295118237135.500,-70.801,-8.789,-20.508,-148.926,1.000
1626295118241041.750,-15.625,-20.508,-38.086,-30.273,1.000
1626295118244948.000,60.547,-55.664,-35.645,127.441,1.000
1626295118248854.250,-3.906,-11.230,-27.832,14.648,1.000
1626295118252760.500,-90.332,-20.020,-22.949,-149.902,1.000
1626295118256666.750,-70.801,-30.762,-7.812,-85.449,1.000
1626295118260573.000,-7.812,-94.727,-23.438,64.453,1.000
1626295118264479.250,9.277,-83.496,-41.016,57.129,1.000
1626295118268385.500,-62.012,-18.066,-51.270,-112.793,1.000
1626295118272291.750,-100.586,-15.625,-44.434,-151.367,1.000
1626295118276198.000,-1.953,7.324,-8.789,48.828,1.000
1626295118280104.250,-2.930,10.742,-12.695,51.270,1.000
1626295118284010.500,23.926,12.207,-2.930,76.172,1.000
1626295118287916.750,-66.895,-54.688,-17.090,-111.816,1.000
1626295118291823.000,-106.445,-84.473,-32.715,-166.016,1.000
1626295118295729.250,-6.348,-5.859,-17.578,33.203,1.000
1626295118299635.500,49.316,-7.324,-13.184,124.512,1.000
1626295118303541.750,-23.438,-33.691,-42.969,-45.410,1.000
1626295118307448.000,-113.770,-89.844,-63.477,-189.453,1.000
1626295118311354.250,-62.988,-58.105,-34.180,-53.223,1.000
1626295118315260.500,40.039,3.418,-14.160,115.234,1.000
1626295118319166.750,9.766,-0.977,-26.855,17.578,1.000
1626295118323073.000,-82.031,-2.930,-29.297,-156.250,1.000
1626295118326979.250,-63.965,12.695,-7.812,-101.074,1.000
1626295118330885.500,-33.203,13.672,0.488,83.008,1.000
1626295118334791.750,14.648,-24.902,-29.297,57.129,1.000
1626295118338698.000,-23.926,-81.543,-41.992,-105.957,1.000
1626295118342604.250,-104.980,-54.199,-34.668,-93.262,1.000
1626295118346510.500,-78.125,-21.484,-18.555,55.176,1.000
1626295118350416.750,22.461,22.461,-24.902,47.852,1.000
1626295118354323.000,23.926,-34.668,-36.621,-122.070,1.000
1626295118358229.250,-72.266,-56.641,-26.367,-181.152,1.000
1626295118362135.500,-95.215,-5.371,-18.555,-13.672,1.000
1626295118366041.750,-9.277,8.789,-15.625,102.539,1.000
1626295118369948.000,45.898,0.000,-12.695,-22.949,1.000
1626295118373854.250,-35.156,-122.559,-37.109,1.000,1.000
1626295118377760.500,-109.863,-89.844,-47.363,1.000,1.000
1626295118381666.750,-34.180,-6.836,-21.484,1.000,1.000
1626295118385573.000,44.922,-8.789,-8.301,1.000,1.000
1626295118389479.250,-16.602,-27.344,-20.508,1.000,1.000
1626295118393385.500,-107.910,-55.664,-29.785,1.000,1.000
1626295118397291.750,-61.523,-15.137,-31.738,1.000,1.000
1626295118401198.000,38.574,-15.137,-19.531,1.000,1.000
1626295118405104.250,29.785,4.395,-4.395,1.000,1.000
1626295118409010.500,-73.242,-24.414,-25.879,1.000,1.000
1626295118412916.750,-88.379,-107.910,-46.387,1.000,1.000
1626295118416823.000,16.113,-40.527,-30.762,1.000,1.000
1626295118420729.250,33.691,0.000,-27.832,85.938,1.000
1626295118424635.500,-59.570,-10.254,-30.762,-114.258,1.000
1626295118428541.750,-110.352,-60.059,-40.527,-170.410,1.000
1626295118432448.000,-35.156,-60.547,-33.691,10.254,1.000
1626295118436354.250,34.180,23.438,-13.672,99.609,1.000
1626295118440260.500,-38.086,9.766,-26.367,-68.359,1.000
1626295118444166.750,-103.027,-17.578,-28.809,-174.805,1.000
1626295118448073.000,-25.879,-84.961,-28.320,-15.625,1.000
1626295118451979.250,55.176,-75.195,-36.621,122.070,1.000
1626295118455885.500,1.953,-15.137,-30.273,-1.465,1.000
1626295118459791.750,-92.773,-32.227,-27.344,-167.480,1.000
1626295118463698.000,-67.871,-34.180,-22.949,-81.055,1.000
1626295118467604.250,-27.344,13.184,-20.020,-28.320,1.000
1626295118471510.500,62.988,19.531,-23.438,126.465,1.000
1626295118475416.750,21.484,-19.531,-26.855,18.555,1.000
1626295118479323.000,-69.824,-62.500,-10.742,-152.832,1.000
1626295118483229.250,-61.035,-17.578,-18.555,-74.707,1.000
1626295118487135.500,14.160,-5.859,-34.180,88.379,1.000
1626295118491041.750,22.949,-3.906,-20.996,52.734,1.000
1626295118494948.000,-72.754,-79.590,-28.809,-141.602,1.000
1626295118498854.250,-97.656,-83.984,-53.711,-147.949,1.000
1626295118502760.500,1.465,-4.883,-32.227,60.547,1.000
1626295118506666.750,45.898,17.090,-9.766,106.934,1.000
1626295118510573.000,-33.203,12.695,-31.738,-76.172,1.000
1626295118514479.250,-70.801,-91.309,-44.434,1.000,1.000
1626295118518385.500,1.465,-44.434,-22.949,1.000,1.000
1626295118522291.750,44.434,20.020,-20.020,1.000,1.000
1626295118526198.000,-38.574,2.441,-45.898,1.000,1.000
1626295118530104.250,-118.652,-43.945,-57.129,1.000,1.000
1626295118534010.500,-49.316,-111.816,-26.855,1.000,1.000
1626295118537916.750,41.016,-32.715,-2.441,1.000,1.000
1626295118541823.000,3.418,-17.090,-20.020,1.000,1.000
1626295118545729.250,-79.102,-15.625,-46.387,1.000,1.000
1626295118549635.500,-50.293,3.906,-41.992,1.000,1.000
1626295118553541.750,43.945,-26.855,0.977,1.000,1.000
1626295118557448.000,22.461,3.906,-19.043,1.000,1.000
1626295118561354.250,-67.383,-1.465,-47.852,1.000,1.000
1626295118565260.500,-89.355,-8.789,-34.180,1.000,1.000
1626295118569166.750,7.812,-26.367,-8.789,1.000,1.000
1626295118573073.000,57.617,-72.266,-0.488,1.000,1.000
1626295118576979.250,-32.227,-61.523,-31.738,1.000,1.000
1626295118580885.500,-86.426,-20.020,-44.434,1.000,1.000
1626295118584791.750,-2.441,41.992,-12.695,1.000,1.000
1626295118588698.000,62.012,-14.648,-5.859,1.000,1.000
1626295118592604.250,-12.695,-41.016,-26.855,1.000,1.000
1626295118596510.500,-103.516,-4.883,-39.551,1.000,1.000
1626295118600416.750,-55.176,6.348,-39.551,1.000,1.000
1626295118604323.000,41.016,15.137,-15.625,1.000,1.000
1626295118608229.250,11.230,-120.605,-26.855,1.000,1.000
1626295118612135.500,-94.238,-91.797,-49.316,1.000,1.000
1626295118616041.750,-87.402,0.488,-42.969,1.000,1.000
1626295118619948.000,20.020,12.207,-27.832,1.000,1.000
1626295118623854.250,46.387,-16.602,-27.344,1.000,1.000
1626295118627760.500,-43.945,-110.352,-38.086,1.000,1.000
1626295118631666.750,-94.238,-31.738,-29.785,1.000,1.000
1626295118635573.000,-18.555,27.344,-24.902,1.000,1.000
1626295118639479.250,30.762,10.254,-37.109,1.000,1.000
1626295118643385.500,-30.273,-34.668,-40.527,1.000,1.000
1626295118647291.750,-89.844,-100.586,-26.855,1.000,1.000
1626295118651198.000,-45.410,-28.320,-20.508,1.000,1.000
1626295118655104.250,22.949,7.324,-15.137,91.797,1.000
1626295118659010.500,-17.090,-5.371,-23.438,-26.367,1.000
1626295118662916.750,-93.262,-53.223,-31.250,-178.711,1.000
1626295118666823.000,-57.617,-81.055,-17.578,-76.660,1.000
1626295118670729.250,28.809,-4.395,-20.020,95.703,1.000
1626295118674635.500,23.438,17.090,-36.621,49.805,1.000
1626295118678541.750,-69.824,14.648,-45.410,-138.672,1.000
1626295118682448.000,-83.008,-81.543,-31.250,-125.488,1.000
1626295118686354.250,15.625,-89.844,-10.742,79.102,1.000
1626295118690260.500,28.320,-18.555,-47.852,70.801,1.000
1626295118694166.750,-66.895,-19.531,-62.012,-131.348,1.000
1626295118698073.000,-89.844,-5.859,-30.762,-152.344,1.000
1626295118701979.250,-90.332,-13.672,-40.039,39.551,1.000
1626295118705885.500,-16.113,-19.531,-36.133,116.211,1.000
1626295118709791.750,24.414,-25.879,-32.227,-46.875,1.000
1626295118713698.000,-28.320,-35.645,-32.715,-164.551,1.000
1626295118717604.250,-82.031,4.883,-39.551,-41.504,1.000
1626295118721510.500,-20.020,16.602,-37.109,98.145,1.000
1626295118725416.750,46.387,9.766,-23.438,-10.742,1.000
1626295118729323.000,-27.832,-71.289,-42.480,-194.336,1.000
1626295118733229.250,-110.840,-85.938,-52.246,-94.238,1.000
1626295118737135.500,-62.988,-20.996,-31.738,109.863,1.000
1626295118741041.750,21.484,7.324,-15.625,45.898,1.000
1626295118744948.000,12.207,10.254,-15.625,-146.484,1.000
1626295118748854.250,-77.148,-105.469,-30.762,1.000,1.000
1626295118752760.500,-77.148,-70.801,-37.109,1.000,1.000
1626295118756666.750,23.926,7.324,-21.484,1.000,1.000
1626295118760573.000,31.738,19.531,-20.020,1.000,1.000
1626295118764479.250,-76.172,-29.785,-37.598,1.000,1.000
1626295118768385.500,-107.422,-129.395,-44.922,1.000,1.000
1626295118772291.750,-6.836,-35.645,-37.598,1.000,1.000
1626295118776198.000,50.781,15.625,-42.969,1.000,1.000
1626295118780104.250,-33.203,-24.902,-38.086,1.000,1.000
1626295118784010.500,-108.398,-47.363,-27.344,1.000,1.000
1626295118787916.750,-35.645,-54.199,-28.320,1.000,1.000
1626295118791823.000,36.621,9.277,-26.367,1.000,1.000
1626295118795729.250,-15.137,8.301,-36.133,-34.180,1.000
1626295118799635.500,-86.426,-17.090,-45.898,-175.293,1.000
1626295118803541.750,-48.340,-49.805,-35.645,-59.570,1.000
1626295118807448.000,47.363,-42.480,-9.277,114.258,1.000
1626295118811354.250,21.484,20.020,-18.555,36.621,1.000
1626295118815260.500,-73.242,11.230,-55.176,-142.578,1.000
1626295118819166.750,-70.801,-2.930,-51.758,-100.586,1.000
1626295118823073.000,7.812,-75.195,-35.645,78.125,1.000
1626295118826979.250,24.414,-65.918,-14.160,79.590,1.000
1626295118830885.500,-72.266,-7.812,-34.180,-114.258,1.000
1626295118834791.750,-112.793,-4.883,-54.688,-154.297,1.000
1626295118838698.000,-23.926,2.930,-33.203,37.109,1.000
1626295118842604.250,0.977,11.719,-48.340,52.246,1.000
1626295118846510.500,38.574,14.648,-20.996,81.543,1.000
1626295118850416.750,-34.668,-36.621,-24.414,-101.074,1.000
1626295118854323.000,-91.309,-86.426,-69.824,-169.434,1.000
1626295118858229.250,-14.160,-8.301,-46.875,18.066,1.000
1626295118862135.500,51.270,0.000,2.930,110.840,1.000
1626295118866041.750,-31.250,-28.809,-14.160,-71.777,1.000
1626295118869948.000,-119.141,-110.840,-48.340,-203.613,1.000
1626295118873854.250,-37.109,-69.336,-24.414,-37.598,1.000
1626295118877760.500,39.551,23.438,-7.324,109.375,1.000
1626295118881666.750,-36.133,7.812,-46.387,-37.109,1.000
1626295118885573.000,-114.746,-9.766,-52.734,-195.312,1.000
1626295118889479.250,-99.609,-19.531,-39.062,-94.238,1.000
1626295118893385.500,-46.387,14.648,-22.461,94.238,1.000
1626295118897291.750,32.227,-12.207,-16.602,45.898,1.000
1626295118901198.000,7.324,-45.410,-13.184,-135.254,1.000
1626295118905104.250,-83.496,-4.883,-24.902,-127.930,1.000
1626295118909010.500,-80.566,-17.090,-20.020,56.641,1.000
1626295118912916.750,23.438,-0.488,-6.348,80.566,1.000
1626295118916823.000,31.738,-48.340,-30.273,-112.793,1.000
1626295118920729.250,-75.684,-70.312,-46.387,-174.316,1.000
1626295118924635.500,-101.074,-0.488,-31.738,5.859,1.000
1626295118928541.750,-3.906,16.113,-27.344,108.398,1.000
1626295118932448.000,32.715,-12.207,-26.367,-36.621,1.000
1626295118936354.250,-56.641,-124.512,-16.113,-73.242,1.000
1626295118940260.500,-110.352,-81.543,-23.926,-164.062,1.000
1626295118944166.750,-31.738,2.441,-16.602,0.488,1.000
1626295118948073.000,36.621,20.508,-16.602,118.652,1.000
1626295118951979.250,-27.344,-8.301,-45.898,-18.555,1.000
1626295118955885.500,-119.629,-108.398,-59.570,-178.711,1.000
1626295118959791.750,-81.543,-49.316,-52.734,-77.148,1.000
1626295118963698.000,32.227,22.461,-16.602,116.699,1.000
1626295118967604.250,27.832,16.113,-1.465,57.617,1.000
1626295118971510.500,-74.219,-26.367,-15.625,-141.113,1.000
1626295118975416.750,-79.590,-88.379,-19.043,-117.676,1.000
1626295118979323.000,12.207,-21.484,-19.043,76.172,1.000
1626295118983229.250,28.320,33.203,-21.973,74.707,1.000
1626295118987135.500,-56.152,26.367,-30.273,-118.164,1.000
1626295118991041.750,-94.727,-34.668,-43.457,-158.203,1.000
1626295118994948.000,-24.902,-79.590,-57.617,17.090,1.000
1626295118998854.250,18.555,-4.883,-45.410,73.730,1.000
1626295119002760.500,-46.387,7.324,-35.645,-80.078,1.000
1626295119006666.750,-104.004,-12.695,-31.738,-172.363,1.000
1626295119010573.000,-40.039,-79.102,-22.461,-24.902,1.000
1626295119014479.250,53.223,-83.496,-21.484,125.488,1.000
1626295119018385.500,25.391,-12.207,-21.484,6.836,1.000
1626295119022291.750,-75.195,-10.254,-27.832,-163.574,1.000
1626295119026198.000,-68.359,-24.414,-25.879,-81.543,1.000
1626295119030104.250,-41.992,-3.418,-47.852,-40.039,1.000
1626295119034010.500,42.969,9.766,-8.789,116.211,1.000
1626295119037916.750,0.488,-20.996,-24.902,4.395,1.000
1626295119041823.000,-98.145,-57.617,-52.734,-179.688,1.000
1626295119045729.250,-64.941,-13.672,-13.672,-93.262,1.000
1626295119049635.500,22.461,9.766,-3.906,84.961,1.000
1626295119053541.750,12.695,11.230,-30.762,45.410,1.000
1626295119057448.000,-78.125,-49.316,-48.340,-148.438,1.000
1626295119061354.250,-85.449,-28.320,-44.434,-144.043,1.000
1626295119065260.500,19.043,31.738,-16.602,65.918,1.000
1626295119069166.750,52.734,13.672,-5.371,107.910,1.000
1626295119073073.000,-47.852,-38.086,-30.273,-94.727,1.000
1626295119076979.250,-120.117,-134.277,-51.270,1.000,1.000
1626295119080885.500,-38.086,-66.895,-39.062,1.000,1.000
1626295119084791.750,56.152,1.953,-29.785,1.000,1.000
1626295119088698.000,0.000,-18.066,-44.922,1.000,1.000
1626295119092604.250,-102.051,-44.922,-47.363,1.000,1.000
1626295119096510.500,-64.453,-114.258,-41.504,1.000,1.000
1626295119100416.750,43.945,-19.531,-29.785,1.000,1.000
1626295119104323.000,4.395,11.719,-32.715,1.000,1.000
1626295119108229.250,-110.840,-26.855,-52.734,1.000,1.000
1626295119112135.500,-83.984,-29.297,-39.062,1.000,1.000
1626295119116041.750,16.113,-64.453,-20.508,1.000,1.000
1626295119119948.000,11.230,-44.434,-25.879,1.000,1.000
1626295119123854.250,-76.172,-32.715,-47.852,1.000,1.000
1626295119127760.500,-90.332,-11.230,-39.062,1.000,1.000
1626295119131666.750,-13.672,-15.137,-20.996,1.000,1.000
1626295119135573.000,25.391,-32.227,-28.320,1.000,1.000
1626295119139479.250,-45.410,2.930,-25.879,1.000,1.000
1626295119143385.500,-100.098,-11.230,-21.973,1.000,1.000
1626295119147291.750,-24.414,-18.066,-14.160,1.000,1.000
1626295119151198.000,47.852,-63.477,-12.695,1.000,1.000
1626295119155104.250,-13.672,-89.355,-37.598,1.000,1.000
1626295119159010.500,-92.773,-59.082,-57.617,1.000,1.000
1626295119162916.750,-51.758,-25.879,-55.664,1.000,1.000
1626295119166823.000,23.926,11.719,-32.227,1.000,1.000
1626295119170729.250,-4.883,-56.152,-12.695,1.000,1.000
1626295119174635.500,-96.680,-52.246,-24.414,1.000,1.000
1626295119178541.750,-80.078,-22.949,-28.809,1.000,1.000
1626295119182448.000,32.715,-11.230,5.371,1.000,1.000
1626295119186354.250,29.297,-9.766,-1.953,1.000,1.000
1626295119190260.500,-73.730,-95.703,-35.645,1.000,1.000
1626295119194166.750,-72.754,-51.758,-35.156,1.000,1.000
1626295119198073.000,20.996,19.531,-19.531,1.000,1.000
1626295119201979.250,44.434,16.602,-24.414,1.000,1.000
1626295119205885.500,-33.691,-30.273,-37.598,1.000,1.000
1626295119209791.750,-107.422,-69.336,-37.109,1.000,1.000
1626295119213698.000,-55.176,-4.395,-42.480,1.000,1.000
1626295119217604.250,41.504,19.043,-25.391,109.863,1.000
1626295119221510.500,-4.883,-23.926,-20.996,-18.555,1.000
1626295119225416.750,-100.098,-64.941,-33.691,-193.359,1.000
1626295119229323.000,-57.617,-62.988,-28.320,-89.844,1.000
1626295119233229.250,40.527,-9.766,-33.691,92.285,1.000
1626295119237135.500,24.902,5.371,-26.855,38.086,1.000
1626295119241041.750,-81.055,2.441,-41.016,-153.809,1.000
1626295119244948.000,-91.797,-60.547,-42.969,-139.648,1.000
1626295119248854.250,-2.930,-65.430,-42.969,51.758,1.000
1626295119252760.500,17.578,-10.254,-59.570,67.383,1.000
1626295119256666.750,-57.129,-26.855,-27.832,-111.328,1.000
1626295119260573.000,-98.633,-29.785,-14.160,-158.203,1.000
1626295119264479.250,-78.125,-8.301,-20.996,-117.188,1.000
1626295119268385.500,0.488,-5.859,-21.973,62.988,1.000
1626295119272291.750,41.992,-22.949,-49.316,98.145,1.000
1626295119276198.000,-29.297,-68.848,-62.988,-77.637,1.000
1626295119280104.250,-89.355,-58.594,-35.156,-151.855,1.000
1626295119284010.500,-23.438,-15.137,-8.789,20.020,1.000
1626295119287916.750,43.945,28.809,5.371,122.070,1.000
1626295119291823.000,-18.066,-51.758,-16.602,-34.180,1.000
1626295119295729.250,-89.355,-72.754,-33.691,-163.574,1.000
1626295119299635.500,-49.316,-18.555,-24.902,-47.852,1.000
1626295119303541.750,14.160,-3.418,-31.738,96.680,1.000
1626295119307448.000,-14.648,-5.371,-47.852,1.465,1.000
1626295119311354.250,-92.285,-102.539,-47.852,1.000,1.000
1626295119315260.500,-84.961,-70.801,-38.086,1.000,1.000
1626295119319166.750,9.766,-40.039,-34.668,1.000,1.000
1626295119323073.000,32.715,-43.945,-13.672,1.000,1.000
1626295119326979.250,-55.176,-23.438,-4.395,1.000,1.000
1626295119330885.500,-96.191,-86.914,-21.973,1.000,1.000
1626295119334791.750,-36.133,-38.574,-38.574,1.000,1.000
1626295119338698.000,3.418,-2.930,-53.711,1.000,1.000
1626295119342604.250,-40.527,-15.625,-61.035,1.000,1.000
1626295119346510.500,-98.145,-32.715,-45.410,1.000,1.000
1626295119350416.750,-38.574,-72.754,-14.160,1.000,1.000
1626295119354323.000,31.250,-16.113,-5.859,1.000,1.000
1626295119358229.250,-25.391,-21.484,-30.273,-42.480,1.000
1626295119362135.500,-86.914,-25.391,-27.832,-171.875,1.000
1626295119366041.750,-35.156,-30.273,-8.789,-41.504,1.000
1626295119369948.000,30.762,-64.941,-21.973,102.051,1.000
1626295119373854.250,-10.742,-13.672,-50.781,-0.977,1.000
1626295119377760.500,-97.656,8.301,-72.754,-171.387,1.000
1626295119381666.750,-85.449,17.578,-50.781,-115.723,1.000
1626295119385573.000,33.203,-63.477,-11.719,101.074,1.000
1626295119389479.250,62.500,-85.449,-17.090,122.559,1.000
1626295119393385.500,-49.805,-7.812,-46.875,-99.121,1.000
1626295119397291.750,-95.215,8.301,-49.316,-157.227,1.000
1626295119401198.000,3.906,21.973,-12.207,41.504,1.000
1626295119405104.250,13.184,-7.324,-32.227,77.148,1.000
1626295119409010.500,28.809,0.000,-15.625,84.961,1.000
1626295119412916.750,-70.312,-15.625,-29.297,-121.094,1.000
1626295119416823.000,-114.746,-67.383,-44.434,-179.199,1.000
1626295119420729.250,-35.645,-17.578,-46.387,-2.441,1.000
1626295119424635.500,9.277,6.348,-45.410,81.055,1.000
1626295119428541.750,-62.988,10.254,-47.363,-84.961,1.000
1626295119432448.000,-120.605,-71.777,-42.480,-195.801,1.000
1626295119436354.250,-52.734,-93.750,-31.738,-37.598,1.000
1626295119440260.500,42.969,-8.789,-22.949,128.418,1.000
1626295119444166.750,-5.859,-6.836,-25.879,13.184,1.000
1626295119448073.000,-110.352,-12.207,-41.504,-174.805,1.000
1626295119451979.250,-86.426,-91.309,-45.898,1.000,1.000
1626295119455885.500,14.648,-46.387,-22.461,1.000,1.000
1626295119459791.750,15.137,15.625,-19.531,1.000,1.000
1626295119463698.000,-79.590,-1.953,-32.715,1.000,1.000
1626295119467604.250,-86.914,-10.254,-32.715,1.000,1.000
1626295119471510.500,0.000,-94.238,-29.785,1.000,1.000
1626295119475416.750,22.949,-59.082,-27.344,1.000,1.000
1626295119479323.000,-43.457,-11.230,-24.414,1.000,1.000
1626295119483229.250,-87.891,-8.301,-30.273,1.000,1.000
1626295119487135.500,-34.668,-27.344,-23.926,1.000,1.000
1626295119491041.750,25.879,-69.824,-22.461,1.000,1.000
1626295119494948.000,-23.438,-28.809,-36.621,1.000,1.000
1626295119498854.250,-103.027,-14.648,-37.109,1.000,1.000
1626295119502760.500,-58.105,-2.441,-24.414,1.000,1.000
1626295119506666.750,39.551,-5.859,-26.367,1.000,1.000
1626295119510573.000,14.160,-49.805,-39.551,1.000,1.000
1626295119514479.250,-91.309,-45.410,-48.340,1.000,1.000
1626295119518385.500,-77.637,-7.812,-36.133,1.000,1.000
1626295119522291.750,24.902,9.766,-17.090,1.000,1.000
1626295119526198.000,24.414,-59.082,-20.996,1.000,1.000
1626295119530104.250,-72.754,-72.754,-37.598,1.000,1.000
1626295119534010.500,-92.773,-28.809,-37.598,1.000,1.000
1626295119537916.750,-7.324,-2.930,-28.320,1.000,1.000
1626295119541823.000,26.367,6.836,-35.645,1.000,1.000
1626295119545729.250,-42.480,-101.074,-33.691,1.000,1.000
1626295119549635.500,-101.562,-87.891,-34.668,1.000,1.000
1626295119553541.750,-25.879,-27.832,-42.969,1.000,1.000
1626295119557448.000,55.664,-27.832,-40.039,1.000,1.000
1626295119561354.250,-9.766,-43.945,-35.645,1.000,1.000
1626295119565260.500,-89.844,-118.652,-20.996,1.000,1.000
1626295119569166.750,-62.500,-46.875,-19.043,1.000,1.000
1626295119573073.000,24.414,18.555,-11.719,1.000,1.000
1626295119576979.250,16.113,28.320,-2.441,1.000,1.000
1626295119580885.500,-92.773,-8.789,-34.180,1.000,1.000
1626295119584791.750,-88.867,-83.984,-32.715,1.000,1.000
1626295119588698.000,15.625,-20.020,-6.836,1.000,1.000
1626295119592604.250,25.391,10.742,-21.973,75.684,1.000
1626295119596510.500,-69.336,-25.879,-42.480,-122.559,1.000
1626295119600416.750,-83.984,-73.730,-34.668,-136.230,1.000
1626295119604323.000,5.859,-73.730,-27.344,63.965,1.000
1626295119608229.250,39.551,10.254,-28.320,116.211,1.000
1626295119612135.500,-37.598,9.766,-47.363,-62.988,1.000
1626295119616041.750,-118.164,-11.719,-69.824,-185.059,1.000
1626295119619948.000,-40.527,-57.617,-24.902,-16.113,1.000
1626295119623854.250,51.758,-66.406,-6.348,127.930,1.000
1626295119627760.500,-8.789,-0.977,-37.598,-23.926,1.000
1626295119631666.750,-94.727,-5.371,-29.785,-175.781,1.000
1626295119635573.000,-41.992,-40.527,-16.113,-57.129,1.000
1626295119639479.250,-34.180,-12.207,-55.176,-10.254,1.000
1626295119643385.500,51.270,8.301,-31.250,137.207,1.000
1626295119647291.750,-3.906,-14.648,-24.902,2.930,1.000
1626295119651198.000,-84.473,-70.801,-42.480,-163.574,1.000
1626295119655104.250,-53.223,-40.527,-27.344,-73.242,1.000
1626295119659010.500,34.180,-0.977,-16.113,113.281,1.000
1626295119662916.750,24.414,27.832,-24.902,57.129,1.000
1626295119666823.000,-52.734,-40.527,-19.531,-126.465,1.000
1626295119670729.250,-73.242,-62.012,-32.715,-124.512,1.000
1626295119674635.500,-7.812,7.812,-62.012,39.062,1.000
1626295119678541.750,24.902,16.602,-54.199,67.871,1.000
1626295119682448.000,-52.734,-9.277,-32.715,-117.676,1.000
1626295119686354.250,-93.750,-104.492,-22.949,1.000,1.000
1626295119690260.500,-10.254,-71.777,-10.254,1.000,1.000
1626295119694166.750,41.504,-9.277,-35.156,1.000,1.000
1626295119698073.000,-34.668,-15.137,-67.871,1.000,1.000
1626295119701979.250,-92.773,-20.508,-33.691,1.000,1.000
1626295119705885.500,-38.086,-76.660,-14.160,1.000,1.000
1626295119709791.750,29.785,-24.902,-30.273,1.000,1.000
1626295119713698.000,-20.996,-9.766,-60.059,1.000,1.000
1626295119717604.250,-105.957,-36.133,-60.547,1.000,1.000
1626295119721510.500,-67.871,-30.273,-26.855,1.000,1.000
1626295119725416.750,33.203,-42.969,-9.766,1.000,1.000
1626295119729323.000,33.203,-4.883,-17.578,1.000,1.000
1626295119733229.250,-53.711,-8.301,-21.973,1.000,1.000
1626295119737135.500,-81.055,-21.484,-29.785,1.000,1.000
1626295119741041.750,-14.160,-26.855,-51.270,1.000,1.000
1626295119744948.000,30.273,-44.434,-54.199,1.000,1.000
1626295119748854.250,-18.066,-9.277,-34.180,1.000,1.000
1626295119752760.500,-79.590,-15.137,-35.156,1.000,1.000
1626295119756666.750,-28.809,-25.391,-38.086,1.000,1.000
1626295119760573.000,61.035,-52.734,-21.973,1.000,1.000
1626295119764479.250,-5.371,-51.758,-44.434,1.000,1.000
1626295119768385.500,-122.559,-11.719,-62.988,1.000,1.000
1626295119772291.750,-84.473,7.324,-43.945,1.000,1.000
1626295119776198.000,6.836,2.930,-33.203,1.000,1.000
1626295119780104.250,47.852,-51.270,-22.461,133.301,1.000
1626295119784010.500,-0.488,-31.738,-43.457,13.184,1.000
1626295119787916.750,-113.281,-26.855,-46.387,-159.180,1.000
1626295119791823.000,-92.773,-51.758,-26.855,-76.172,1.000
1626295119795729.250,-0.977,-1.465,-26.367,94.727,1.000
1626295119799635.500,7.324,19.531,-19.531,46.387,1.000
1626295119803541.750,-72.754,2.441,-22.461,-132.324,1.000
1626295119807448.000,-61.035,-64.453,-10.742,-95.703,1.000
1626295119811354.250,48.340,-71.289,-0.977,109.863,1.000
1626295119815260.500,46.875,-37.109,-15.137,107.422,1.000
1626295119819166.750,-56.641,-19.531,-41.504,-92.773,1.000
1626295119823073.000,-97.656,5.859,-65.430,-149.902,1.000
1626295119826979.250,-87.891,-15.137,-38.086,38.086,1.000
1626295119830885.500,3.418,-1.953,-32.715,121.582,1.000
1626295119834791.750,41.992,-1.953,-31.738,-56.641,1.000
1626295119838698.000,-45.410,-61.523,-34.668,-172.852,1.000
1626295119842604.250,-95.703,-38.086,-27.832,-8.789,1.000
1626295119846510.500,-24.414,-11.230,-17.090,156.250,1.000
1626295119850416.750,41.504,-7.324,-14.648,3.906,1.000
1626295119854323.000,-20.996,-67.383,-29.785,-187.500,1.000
1626295119858229.250,-104.980,-64.453,-47.852,-106.445,1.000
1626295119862135.500,-42.969,2.930,-33.691,75.195,1.000
1626295119866041.750,42.969,8.301,-27.344,47.363,1.000
1626295119869948.000,4.395,-0.977,-39.551,-149.902,1.000
1626295119873854.250,-83.496,-76.660,-42.480,1.000,1.000
1626295119877760.500,-69.336,-67.871,-52.246,1.000,1.000
1626295119881666.750,30.273,-41.504,-38.086,1.000,1.000
1626295119885573.000,44.434,-15.625,-26.855,1.000,1.000
1626295119889479.250,-38.574,-6.348,-27.344,1.000,1.000
1626295119893385.500,-75.195,-93.750,-11.719,1.000,1.000
1626295119897291.750,-18.555,-61.035,-22.461,1.000,1.000
1626295119901198.000,12.207,-8.301,-33.203,1.000,1.000
1626295119905104.250,-52.246,9.277,-32.227,1.000,1.000
1626295119909010.500,-103.516,-17.578,-45.898,1.000,1.000
1626295119912916.750,-32.227,-73.242,-41.504,1.000,1.000
1626295119916823.000,40.527,-33.203,-10.254,1.000,1.000
1626295119920729.250,-29.785,-20.020,-23.438,-21.484,1.000
1626295119924635.500,-120.117,-15.625,-32.227,-179.688,1.000
1626295119928541.750,-64.941,-26.855,-5.859,-55.176,1.000
1626295119932448.000,30.762,-67.383,-1.953,120.605,1.000
1626295119936354.250,-7.812,-26.855,-28.320,27.832,1.000
1626295119940260.500,-102.051,4.395,-37.109,-149.902,1.000
1626295119944166.750,-82.520,1.465,-18.066,-87.891,1.000
1626295119948073.000,7.812,-47.852,-16.602,102.539,1.000
1626295119951979.250,9.277,-55.176,-27.832,80.078,1.000
1626295119955885.500,-72.754,-22.461,-27.344,-112.305,1.000
1626295119959791.750,-93.750,-26.367,-20.508,-137.207,1.000
1626295119963698.000,-8.789,-26.367,-26.855,44.922,1.000
1626295119967604.250,-34.668,-30.273,-17.090,53.223,1.000
1626295119971510.500,-4.883,-12.695,-14.648,69.824,1.000
1626295119975416.750,-75.684,-23.438,-23.438,-116.211,1.000
1626295119979323.000,-108.398,-60.059,-6.836,-157.227,1.000
1626295119983229.250,-37.598,-22.949,-11.230,16.602,1.000
1626295119987135.500,37.109,-5.371,-22.949,110.352,1.000
1626295119991041.750,-12.207,-22.461,-35.645,-42.969,1.000
1626295119994948.000,-92.285,-71.777,-62.500,-180.176,1.000
1626295119998854.250,-59.082,-54.199,-54.199,-68.359,1.000
1626295120002760.500,18.555,9.277,-26.855,79.590,1.000
1626295120006666.750,-12.695,-6.348,-27.832,-19.043,1.000
1626295120010573.000,-100.586,-18.066,-35.645,-186.523,1.000
1626295120014479.250,-60.547,-53.711,-12.207,1.000,1.000
1626295120018385.500,41.504,-13.184,3.906,1.000,1.000
1626295120022291.750,29.785,9.766,-9.277,1.000,1.000
1626295120026198.000,-82.520,-32.227,-39.551,1.000,1.000
1626295120030104.250,-102.051,-57.617,-38.574,1.000,1.000
1626295120034010.500,-5.371,-114.258,-23.926,1.000,1.000
1626295120037916.750,15.137,-38.574,-40.527,1.000,1.000
1626295120041823.000,-56.641,12.207,-46.875,1.000,1.000
1626295120045729.250,-98.145,12.695,-36.133,1.000,1.000
1626295120049635.500,-40.039,-0.488,-22.461,1.000,1.000
1626295120053541.750,29.297,-46.875,-9.277,1.000,1.000
1626295120057448.000,-44.922,-33.203,-41.016,1.000,1.000
1626295120061354.250,-139.648,-48.340,-72.266,1.000,1.000
1626295120065260.500,-69.824,-28.320,-18.066,1.000,1.000
1626295120069166.750,29.297,-19.531,22.949,1.000,1.000
1626295120073073.000,-13.184,-39.551,-4.883,1.000,1.000
1626295120076979.250,-89.844,-0.488,-25.879,1.000,1.000
1626295120080885.500,-56.152,16.113,-13.672,1.000,1.000
1626295120084791.750,16.602,5.859,-37.598,1.000,1.000
1626295120088698.000,11.230,-47.852,-58.105,1.000,1.000
1626295120092604.250,-66.895,-55.176,-31.738,1.000,1.000
1626295120096510.500,-79.590,-1.953,-18.066,1.000,1.000
1626295120100416.750,16.113,5.371,-4.883,1.000,1.000
1626295120104323.000,59.082,-14.160,-9.766,1.000,1.000
1626295120108229.250,-23.438,-106.934,-30.762,1.000,1.000
1626295120112135.500,-94.727,-71.777,-51.270,1.000,1.000
1626295120116041.750,-24.414,1.953,-49.805,1.000,1.000
1626295120119948.000,57.129,22.461,-39.551,1.000,1.000
1626295120123854.250,17.578,5.371,-27.344,1.000,1.000
1626295120127760.500,-68.848,-106.934,-28.809,1.000,1.000
1626295120131666.750,-65.918,-67.871,-61.523,1.000,1.000
1626295120135573.000,16.602,-9.766,-47.852,1.000,1.000
1626295120139479.250,4.395,-11.719,-22.461,1.000,1.000
1626295120143385.500,-79.590,-40.527,-31.738,1.000,1.000
1626295120147291.750,-57.617,-94.727,-34.668,1.000,1.000
1626295120151198.000,33.203,-46.875,-37.109,1.000,1.000
1626295120155104.250,35.645,-16.113,-39.062,80.078,1.000
1626295120159010.500,-57.129,-13.184,-31.738,-114.746,1.000
1626295120162916.750,-79.590,-21.973,-23.438,-136.230,1.000
1626295120166823.000,20.508,-41.992,-19.043,64.941,1.000
1626295120170729.250,60.059,-2.441,-33.203,125.488,1.000
1626295120174635.500,-30.273,-3.418,-55.664,-66.895,1.000
1626295120178541.750,-85.938,-0.488,-35.645,-166.504,1.000
1626295120182448.000,-27.344,-78.613,-6.836,-7.324,1.000
1626295120186354.250,33.691,-93.262,-29.785,112.305,1.000
1626295120190260.500,-18.066,-2.930,-64.453,-21.484,1.000
1626295120194166.750,-100.586,-2.930,-53.223,-173.340,1.000
1626295120198073.000,-63.965,-17.578,-32.227,-83.008,1.000
1626295120201979.250,-34.668,-14.648,-21.973,-34.180,1.000
1626295120205885.500,55.664,-2.930,-20.996,115.234,1.000
1626295120209791.750,7.812,-35.156,-38.086,-7.324,1.000
1626295120213698.000,-84.961,-66.895,-29.297,-167.969,1.000
1626295120217604.250,-72.266,-23.438,-27.832,-95.215,1.000
1626295120221510.500,26.367,4.395,-27.832,93.262,1.000
1626295120225416.750,48.340,0.488,-11.230,73.242,1.000
1626295120229323.000,-47.852,-56.641,-22.949,-116.699,1.000
1626295120233229.250,-92.773,-52.246,-50.781,-140.625,1.000
1626295120237135.500,-13.184,-9.277,-29.297,41.016,1.000
1626295120241041.750,25.879,-16.113,-17.578,83.008,1.000
1626295120244948.000,-58.594,-25.879,-36.133,-107.422,1.000
1626295120248854.250,-90.820,-82.520,-24.414,-152.832,1.000
1626295120252760.500,-8.301,-50.781,-6.348,35.645,1.000
1626295120256666.750,49.805,-8.301,-11.230,125.977,1.000
1626295120260573.000,-13.184,-23.926,-45.410,-35.645,1.000
1626295120264479.250,-94.727,-24.414,-56.152,-165.527,1.000
1626295120268385.500,-49.316,-54.199,-33.691,-39.062,1.000
1626295120272291.750,33.691,-8.301,-4.395,114.746,1.000
1626295120276198.000,-9.766,-0.977,-5.371,5.859,1.000
1626295120280104.250,-110.840,-32.227,-36.621,-181.152,1.000
1626295120284010.500,-83.984,-28.320,-28.320,-103.027,1.000
1626295120287916.750,27.832,-52.246,-16.113,105.957,1.000
1626295120291823.000,19.531,-55.664,-36.621,71.777,1.000
1626295120295729.250,-82.520,-35.645,-54.688,-132.324,1.000
1626295120299635.500,-91.797,6.836,-39.062,-134.277,1.000
1626295120303541.750,-6.348,-15.625,-14.648,59.570,1.000
1626295120307448.000,19.531,-62.988,-19.043,90.820,1.000
1626295120311354.250,-58.594,-21.973,-28.809,-99.609,1.000
1626295120315260.500,-104.004,-6.348,-28.809,-168.457,1.000
1626295120319166.750,-18.555,-20.508,-21.484,20.508,1.000
1626295120323073.000,50.781,-49.805,-21.484,133.301,1.000
1626295120326979.250,-6.836,-55.176,-38.574,-7.812,1.000
1626295120330885.500,-96.191,-35.645,-37.109,-158.691,1.000
1626295120334791.750,-62.500,-20.996,-29.785,-54.199,1.000
1626295120338698.000,34.180,-8.301,-22.461,117.676,1.000
1626295120342604.250,63.477,12.695,-5.859,127.930,1.000
1626295120346510.500,10.742,12.695,-20.020,0.488,1.000
1626295120350416.750,-77.148,-7.324,-28.809,-157.227,1.000
1626295120354323.000,-31.250,-44.434,-12.207,-53.711,1.000
1626295120358229.250,60.547,9.766,-5.859,119.629,1.000
1626295120362135.500,19.531,23.926,-35.156,33.691,1.000
1626295120366041.750,-91.797,-0.488,-64.453,-169.434,1.000
1626295120369948.000,-84.473,-59.570,-50.293,-127.930,1.000
1626295120373854.250,7.324,-77.637,-14.160,67.871,1.000
1626295120377760.500,34.668,-27.344,3.418,80.078,1.000
1626295120381666.750,-42.480,-13.184,-20.020,-86.426,1.000
1626295120385573.000,-90.820,-15.137,-48.340,-140.625,1.000
1626295120389479.250,-102.539,-4.883,-52.734,4.395,1.000
1626295120393385.500,-6.836,-7.324,-34.180,61.523,1.000
1626295120397291.750,5.859,-47.363,-35.156,-92.773,1.000
1626295120401198.000,-76.660,-62.012,-54.688,-200.195,1.000
1626295120405104.250,-116.699,-18.555,-67.383,-58.105,1.000
1626295120409010.500,-33.203,-25.391,-46.387,101.562,1.000
1626295120412916.750,44.434,-35.156,-27.344,-29.297,1.000
1626295120416823.000,-7.324,-50.293,-44.434,-207.520,1.000
1626295120420729.250,-87.891,-38.086,-56.641,-116.699,1.000
1626295120424635.500,-42.969,4.395,-50.781,76.172,1.000
1626295120428541.750,53.711,9.277,-35.156,26.855,1.000
1626295120432448.000,24.902,-7.324,-28.320,-179.199,1.000
1626295120436354.250,-70.312,-90.332,-39.551,1.000,1.000
1626295120440260.500,-47.852,-60.547,-34.668,1.000,1.000
1626295120444166.750,48.340,9.277,-15.625,1.000,1.000
1626295120448073.000,33.203,-10.742,-34.180,1.000,1.000
1626295120451979.250,-66.895,-44.922,-64.453,1.000,1.000
1626295120455885.500,-67.871,-72.754,-56.152,1.000,1.000
1626295120459791.750,23.438,1.465,-38.574,1.000,1.000
1626295120463698.000,58.105,22.949,-17.578,1.000,1.000
1626295120467604.250,-32.715,-16.113,-13.184,1.000,1.000
1626295120471510.500,-97.656,-41.016,-29.297,1.000,1.000
1626295120475416.750,-13.184,-50.293,-31.738,1.000,1.000
1626295120479323.000,59.570,17.090,-16.602,1.000,1.000
1626295120483229.250,-18.555,-3.906,-31.738,-33.691,1.000
1626295120487135.500,-114.258,-21.973,-64.941,-196.777,1.000
1626295120491041.750,-62.012,-9.277,-61.523,-63.965,1.000
1626295120494948.000,27.344,-35.156,-19.043,109.375,1.000
1626295120498854.250,-13.672,-19.531,6.348,1.953,1.000
1626295120502760.500,-103.027,-13.184,-21.973,-179.199,1.000
1626295120506666.750,-70.312,-7.324,-16.602,-101.562,1.000
1626295120510573.000,36.133,-35.645,10.254,109.863,1.000
1626295120514479.250,28.320,-41.016,-19.531,83.008,1.000
1626295120518385.500,-75.195,-26.855,-33.691,-129.883,1.000
1626295120522291.750,-104.980,-24.902,-24.414,-155.273,1.000
1626295120526198.000,-9.766,2.930,-21.973,39.551,1.000
1626295120530104.250,-66.895,-71.289,-12.207,70.312,1.000
1626295120534010.500,45.410,-56.152,0.000,94.727,1.000
1626295120537916.750,37.598,2.930,-14.160,-100.098,1.000
1626295120541823.000,-73.730,-3.418,-41.016,-157.715,1.000
1626295120545729.250,-79.590,-17.090,-40.039,36.133,1.000
1626295120549635.500,19.531,-32.227,-19.043,122.070,1.000
1626295120553541.750,40.527,-11.230,-18.555,-60.059,1.000
1626295120557448.000,-49.805,-23.926,-20.508,-166.504,1.000
1626295120561354.250,-94.238,-36.621,-25.879,-12.207,1.000
1626295120565260.500,-16.113,-52.734,-27.832,126.465,1.000
1626295120569166.750,49.316,-70.801,-21.484,15.625,1.000
1626295120573073.000,-24.414,-28.809,-41.992,-164.551,1.000
1626295120576979.250,-99.121,-28.320,-37.598,1.000,1.000
1626295120580885.500,-35.645,-2.930,-11.230,1.000,1.000
1626295120584791.750,62.988,-4.395,3.418,1.000,1.000
1626295120588698.000,16.113,-62.500,-17.578,1.000,1.000
1626295120592604.250,-86.914,-38.574,-45.410,1.000,1.000
1626295120596510.500,-64.453,-5.371,-32.715,1.000,1.000
1626295120600416.750,26.855,-2.930,-33.691,1.000,1.000
1626295120604323.000,28.809,-83.984,-43.457,1.000,1.000
1626295120608229.250,-56.641,-87.891,-34.180,1.000,1.000
1626295120612135.500,-83.008,-13.672,-43.945,1.000,1.000
1626295120616041.750,-11.719,7.812,-45.410,1.000,1.000
1626295120619948.000,22.949,19.043,-16.113,1.000,1.000
1626295120623854.250,-48.828,-62.012,-12.207,1.000,1.000
1626295120627760.500,-95.703,-68.848,-26.367,1.000,1.000
1626295120631666.750,-16.113,-21.484,-26.367,1.000,1.000
1626295120635573.000,54.199,13.184,-16.602,1.000,1.000
1626295120639479.250,-14.160,-17.578,-20.508,1.000,1.000
1626295120643385.500,-87.402,-120.605,-18.066,1.000,1.000
1626295120647291.750,-42.480,-57.129,-22.949,1.000,1.000
1626295120651198.000,47.363,1.465,-33.691,1.000,1.000
1626295120655104.250,26.367,14.648,-47.852,1.000,1.000
1626295120659010.500,-81.055,-32.227,-39.062,1.000,1.000
1626295120662916.750,-76.172,-108.398,-19.531,1.000,1.000
1626295120666823.000,19.043,-29.297,-20.508,1.000,1.000
1626295120670729.250,22.949,-12.207,-32.715,65.918,1.000
1626295120674635.500,-69.336,-12.207,-45.410,-128.906,1.000
1626295120678541.750,-99.121,-5.371,-52.246,-155.762,1.000
1626295120682448.000,-17.090,-35.156,-41.504,30.273,1.000
1626295120686354.250,41.016,-0.977,-36.133,112.793,1.000
1626295120690260.500,-24.902,-2.930,-26.855,-50.781,1.000
1626295120694166.750,-91.309,5.371,-30.762,-160.645,1.000
1626295120698073.000,-13.184,-41.016,-26.367,8.301,1.000
1626295120701979.250,42.480,-77.637,-22.949,121.094,1.000
1626295120705885.500,-20.020,-29.785,-26.367,-31.738,1.000
1626295120709791.750,-102.051,-31.250,-41.992,-182.129,1.000
1626295120713698.000,-77.148,-8.789,-44.922,-89.355,1.000
1626295120717604.250,-77.637,-44.922,-18.555,99.121,1.000
1626295120721510.500,10.254,-45.898,-9.277,40.527,1.000
1626295120725416.750,0.488,-27.344,-10.254,-147.461,1.000
1626295120729323.000,-92.285,-49.316,-23.438,-117.188,1.000
1626295120733229.250,-100.586,-25.391,-46.875,79.102,1.000
1626295120737135.500,-10.254,-18.555,-33.691,111.816,1.000
1626295120741041.750,-8.789,-17.090,-32.715,-96.680,1.000
1626295120744948.000,-99.609,-48.340,-51.758,-178.223,1.000
1626295120748854.250,-113.770,-58.105,-69.336,4.395,1.000
1626295120752760.500,-25.879,-20.996,-55.664,99.609,1.000
1626295120756666.750,18.066,-21.973,-17.578,-58.105,1.000
1626295120760573.000,-64.453,-30.762,-25.391,-187.500,1.000
1626295120764479.250,-110.352,-107.422,-33.203,1.000,1.000
1626295120768385.500,-20.020,-62.988,-14.648,1.000,1.000
1626295120772291.750,30.273,-0.977,-16.602,1.000,1.000
1626295120776198.000,-47.852,-16.113,-42.480,1.000,1.000
1626295120780104.250,-108.398,-29.297,-42.480,1.000,1.000
1626295120784010.500,-48.828,-101.562,-25.391,1.000,1.000
1626295120787916.750,39.551,-56.152,-26.855,1.000,1.000
1626295120791823.000,-0.488,-16.113,-50.781,1.000,1.000
1626295120795729.250,-94.727,-5.371,-33.203,1.000,1.000
1626295120799635.500,-78.125,-35.645,-14.160,1.000,1.000
1626295120803541.750,13.672,-87.402,-26.855,1.000,1.000
1626295120807448.000,18.555,-17.578,-15.625,1.000,1.000
1626295120811354.250,-63.477,8.789,-10.742,-126.465,1.000
1626295120815260.500,-67.871,4.395,-13.672,-108.887,1.000
1626295120819166.750,14.160,-18.555,-4.883,78.613,1.000
1626295120823073.000,27.832,-70.801,-27.832,89.844,1.000
1626295120826979.250,-59.082,-31.250,-51.758,-101.562,1.000
1626295120830885.500,-90.332,-18.066,-35.645,-157.227,1.000
1626295120834791.750,4.395,-12.695,-12.695,38.086,1.000
1626295120838698.000,56.152,-61.035,-27.344,138.672,1.000
1626295120842604.250,-19.531,-83.984,-52.246,-25.879,1.000
1626295120846510.500,-86.426,-14.160,-35.645,-159.668,1.000
1626295120850416.750,-30.273,20.020,5.859,-28.809,1.000
1626295120854323.000,51.270,30.762,-5.371,133.301,1.000
1626295120858229.250,41.016,8.301,-5.371,116.211,1.000
1626295120862135.500,0.488,2.441,-9.277,-5.371,1.000
1626295120866041.750,-83.496,-12.207,-32.227,-159.180,1.000
1626295120869948.000,-53.711,-45.410,-29.785,-63.477,1.000
1626295120873854.250,30.273,-21.973,-22.949,103.027,1.000
1626295120877760.500,16.113,-34.180,-23.926,43.457,1.000
1626295120881666.750,-77.148,-37.109,-40.527,-143.555,1.000
1626295120885573.000,-77.148,-62.012,-40.039,-117.676,1.000
1626295120889479.250,23.926,-47.852,-4.395,82.520,1.000
1626295120893385.500,30.273,-1.465,-3.418,82.520,1.000
1626295120897291.750,-75.195,-17.090,-25.879,-120.117,1.000
1626295120901198.000,-111.816,-5.859,-42.480,-162.109,1.000
1626295120905104.250,-94.727,1.953,-21.973,40.039,1.000
1626295120909010.500,15.625,10.742,-1.953,103.516,1.000
1626295120912916.750,29.785,-32.715,-16.113,-75.195,1.000
1626295120916823.000,-58.105,-103.027,-22.461,-161.133,1.000
1626295120920729.250,-78.613,-49.316,-31.250,-20.020,1.000
1626295120924635.500,-4.395,-5.859,-20.508,104.004,1.000
1626295120928541.750,19.531,-9.277,-24.414,-7.324,1.000
1626295120932448.000,-64.941,-38.086,-36.621,-171.875,1.000
1626295120936354.250,-128.418,-45.410,-32.715,-83.008,1.000
1626295120940260.500,-56.152,-14.648,-34.668,100.098,1.000
1626295120944166.750,41.992,-9.766,-14.160,36.621,1.000
1626295120948073.000,-8.789,-13.672,-11.230,-164.551,1.000
1626295120951979.250,-96.191,-61.035,-22.461,1.000,1.000
1626295120955885.500,-71.777,-45.410,-12.207,1.000,1.000
1626295120959791.750,20.508,-16.113,-3.418,1.000,1.000
1626295120963698.000,27.344,-31.738,-1.465,1.000,1.000
1626295120967604.250,-67.871,-33.203,-20.020,1.000,1.000
1626295120971510.500,-72.754,-60.059,-23.438,1.000,1.000
1626295120975416.750,3.906,-25.391,-13.672,1.000,1.000
1626295120979323.000,20.020,2.441,-16.113,1.000,1.000
1626295120983229.250,-49.805,-1.953,-26.367,1.000,1.000
1626295120987135.500,-96.191,-18.555,-27.832,1.000,1.000
1626295120991041.750,-35.645,-70.312,-25.391,1.000,1.000
1626295120994948.000,44.434,-67.871,-24.902,1.000,1.000
1626295120998854.250,5.371,-89.355,-26.855,-20.020,1.000
1626295121002760.500,-85.449,-41.992,-25.391,-166.504,1.000
1626295121006666.750,-56.641,-0.488,-16.113,-56.641,1.000
1626295121010573.000,32.715,-10.742,-15.625,106.445,1.000
1626295121014479.250,0.000,16.602,-21.973,15.137,1.000
1626295121018385.500,-95.215,-8.789,-41.504,-168.945,1.000
1626295121022291.750,-74.219,-10.742,-48.828,-112.793,1.000
1626295121026198.000,26.367,-32.227,-20.996,85.449,1.000
1626295121030104.250,43.457,-57.617,-7.324,80.078,1.000
1626295121034010.500,-41.016,-62.012,-17.090,-105.469,1.000
1626295121037916.750,-71.777,-67.871,-30.273,-130.371,1.000
1626295121041823.000,7.324,-20.996,-32.227,49.805,1.000
1626295121045729.250,11.719,4.883,-36.621,57.617,1.000
1626295121049635.500,21.973,-7.812,-29.785,59.570,1.000
1626295121053541.750,-65.430,-40.527,-35.156,-122.070,1.000
1626295121057448.000,-95.215,-64.941,-29.297,-149.414,1.000
1626295121061354.250,-20.996,-12.695,-37.109,27.344,1.000
1626295121065260.500,32.715,-1.953,-42.969,103.027,1.000
1626295121069166.750,-23.438,-15.137,-36.133,-48.340,1.000
1626295121073073.000,-91.309,-64.453,-20.020,-157.227,1.000
1626295121076979.250,-56.152,-75.684,-28.320,-38.086,1.000
1626295121080885.500,7.324,-10.254,-33.691,85.449,1.000
1626295121084791.750,-20.020,-11.230,-28.809,-15.625,1.000
1626295121088698.000,-89.355,-20.020,-43.457,-160.156,1.000
1626295121092604.250,-76.660,-46.875,-26.855,1.000,1.000
1626295121096510.500,1.953,-11.719,-5.371,1.000,1.000
1626295121100416.750,-6.348,10.254,-37.598,1.000,1.000
1626295121104323.000,-97.656,-11.719,-47.363,1.000,1.000
1626295121108229.250,-85.938,-37.109,-7.324,1.000,1.000
1626295121112135.500,14.160,-96.680,11.719,1.000,1.000
1626295121116041.750,18.066,-43.945,-22.461,1.000,1.000
1626295121119948.000,-76.660,-6.836,-42.969,1.000,1.000
1626295121123854.250,-111.328,-2.441,-32.715,1.000,1.000
1626295121127760.500,-26.855,-3.906,-26.855,1.000,1.000
1626295121131666.750,51.758,-42.969,-18.555,1.000,1.000
1626295121135573.000,-19.043,-27.832,-14.160,1.000,1.000
1626295121139479.250,-96.191,-15.625,-23.926,-155.273,1.000
1626295121143385.500,-56.152,-4.883,-32.715,-29.785,1.000
1626295121147291.750,22.461,-37.598,-7.812,111.816,1.000
1626295121151198.000,-6.348,-70.312,-9.277,6.836,1.000
1626295121155104.250,-106.445,-38.086,-43.457,-168.945,1.000
1626295121159010.500,-70.312,-4.883,-35.645,-85.938,1.000
1626295121162916.750,44.922,32.715,-10.254,112.793,1.000
1626295121166823.000,37.598,-13.184,-7.812,74.707,1.000
1626295121170729.250,-54.688,-44.922,-32.227,-115.723,1.000
1626295121174635.500,-92.285,-22.949,-59.570,-136.230,1.000
1626295121178541.750,-26.855,-11.230,-50.293,34.180,1.000
1626295121182448.000,22.461,-7.324,-28.320,83.984,1.000
1626295121186354.250,-49.805,-93.262,-14.648,1.000,1.000
1626295121190260.500,-104.492,-72.754,-15.625,1.000,1.000
1626295121194166.750,-30.762,8.301,-29.297,1.000,1.000
1626295121198073.000,34.180,28.809,-37.598,1.000,1.000
1626295121201979.250,-13.184,-1.465,-57.129,1.000,1.000
1626295121205885.500,-73.242,-90.332,-76.660,1.000,1.000
1626295121209791.750,-53.711,-41.016,-67.871,1.000,1.000
1626295121213698.000,0.488,3.418,-25.391,1.000,1.000
1626295121217604.250,-25.879,-7.324,-7.324,1.000,1.000
1626295121221510.500,-105.957,-28.809,-19.531,1.000,1.000
1626295121225416.750,-76.660,-61.523,-22.461,1.000,1.000
1626295121229323.000,21.973,-18.555,-21.484,1.000,1.000
1626295121233229.250,26.855,-20.996,-36.133,61.035,1.000
1626295121237135.500,-64.453,-11.230,-43.457,-132.324,1.000
1626295121241041.750,-101.074,-11.719,-49.805,-163.574,1.000
1626295121244948.000,-8.301,-30.762,-50.293,28.809,1.000
1626295121248854.250,31.250,-5.859,-41.016,90.820,1.000
1626295121252760.500,-56.641,-13.184,-59.082,-90.332,1.000
1626295121256666.750,-104.492,-11.719,-57.129,-168.945,1.000
1626295121260573.000,-27.344,-47.363,-24.414,4.883,1.000
1626295121264479.250,39.062,-54.688,-17.090,119.629,1.000
1626295121268385.500,-25.879,-12.207,-50.293,-33.691,1.000
1626295121272291.750,-97.656,-24.902,-75.195,-174.316,1.000
1626295121276198.000,-43.457,-15.137,-57.129,-49.316,1.000
1626295121280104.250,-41.992,-6.836,-31.250,136.230,1.000
1626295121284010.500,34.180,-2.930,-16.113,47.363,1.000
1626295121287916.750,6.836,-12.207,-22.461,-166.992,1.000
1626295121291823.000,-77.148,-60.059,-59.082,-140.625,1.000
1626295121295729.250,-76.660,-42.969,-41.992,69.824,1.000
1626295121299635.500,5.859,-30.762,-8.301,97.168,1.000
1626295121303541.750,-0.488,-45.410,-25.879,-103.516,1.000
1626295121307448.000,-79.102,-70.312,-34.180,-158.203,1.000
1626295121311354.250,-90.332,-65.430,-33.203,26.855,1.000
1626295121315260.500,-13.184,-28.320,-32.227,116.699,1.000
1626295121319166.750,23.926,-1.953,-21.973,-61.523,1.000
1626295121323073.000,-50.293,-5.371,-25.879,-184.570,1.000
1626295121326979.250,-82.520,-76.660,-8.301,1.000,1.000
1626295121330885.500,-6.836,-43.457,9.766,1.000,1.000
1626295121334791.750,33.203,-2.930,-7.812,1.000,1.000
1626295121338698.000,-38.086,-43.457,-47.852,1.000,1.000
1626295121342604.250,-116.211,-63.477,-71.289,1.000,1.000
1626295121346510.500,-62.500,-74.707,-34.668,1.000,1.000
1626295121350416.750,12.695,-16.113,0.000,1.000,1.000
1626295121354323.000,-20.508,-11.719,-17.090,1.000,1.000
1626295121358229.250,-93.750,-36.133,-25.391,1.000,1.000
1626295121362135.500,-81.055,-44.434,-17.090,1.000,1.000
1626295121366041.750,21.973,-83.496,-20.508,1.000,1.000
1626295121369948.000,24.414,-31.250,-25.879,1.000,1.000
1626295121373854.250,-83.496,-7.324,-35.156,-137.695,1.000
1626295121377760.500,-104.004,-16.602,-41.016,-148.926,1.000
1626295121381666.750,-1.953,-32.715,-11.230,51.270,1.000
1626295121385573.000,25.879,-76.172,-9.277,92.285,1.000
1626295121389479.250,-75.195,-80.566,-55.664,-109.863,1.000
1626295121393385.500,-113.281,-35.645,-33.203,-173.340,1.000
1626295121397291.750,-26.855,4.883,8.789,10.742,1.000
1626295121401198.000,26.855,-27.832,-1.953,103.027,1.000
1626295121405104.250,-32.227,-41.992,-28.320,-47.363,1.000
1626295121409010.500,-114.746,-27.832,-37.109,-179.688,1.000
1626295121412916.750,-64.941,-19.531,-21.973,-56.152,1.000
1626295121416823.000,34.180,-16.113,-27.832,109.863,1.000
1626295121420729.250,41.016,-13.672,-13.672,114.258,1.000
1626295121424635.500,-20.020,-25.879,-31.250,-26.855,1.000
1626295121428541.750,-108.887,-75.195,-48.828,-185.059,1.000
1626295121432448.000,-67.871,-94.238,-35.156,-76.660,1.000
1626295121436354.250,17.090,-20.996,-32.715,97.656,1.000
1626295121440260.500,-4.395,10.254,-52.734,25.391,1.000
1626295121444166.750,-94.238,3.418,-57.129,-152.832,1.000
1626295121448073.000,-72.754,-26.367,-29.297,-92.773,1.000
1626295121451979.250,34.180,-42.969,-5.371,97.168,1.000
1626295121455885.500,40.527,-45.898,-7.324,87.402,1.000
1626295121459791.750,-53.711,-39.551,-23.926,-97.656,1.000
1626295121463698.000,-92.773,-5.371,-26.855,-141.602,1.000
1626295121467604.250,-10.742,-60.059,-10.742,40.527,1.000
1626295121471510.500,18.555,-60.059,-29.785,85.938,1.000
1626295121475416.750,-56.641,-29.297,-55.664,-83.008,1.000
1626295121479323.000,-93.750,-13.672,-32.715,-162.109,1.000
1626295121483229.250,-34.180,-14.160,-12.695,-23.438,1.000
1626295121487135.500,31.738,-85.449,-21.973,107.910,1.000
1626295121491041.750,-19.531,-26.855,-35.156,-21.484,1.000
1626295121494948.000,-104.492,-9.277,-52.246,-190.918,1.000
1626295121498854.250,-70.312,-19.531,-50.293,-94.727,1.000
1626295121502760.500,45.410,-2.441,-17.578,114.258,1.000
1626295121506666.750,24.902,-68.359,-12.207,61.035,1.000
1626295121510573.000,-99.609,-64.941,-27.344,-159.668,1.000
1626295121514479.250,-97.168,-21.973,-13.184,1.000,1.000
1626295121518385.500,1.465,5.371,-12.207,1.000,1.000
1626295121522291.750,38.086,-8.301,-13.184,1.000,1.000
1626295121526198.000,-39.062,-49.316,-9.277,1.000,1.000
1626295121530104.250,-100.098,-16.113,-36.133,1.000,1.000
1626295121534010.500,-15.625,-6.348,-36.133,1.000,1.000
1626295121537916.750,46.875,-26.367,-20.020,1.000,1.000
1626295121541823.000,-16.113,-54.199,-20.020,1.000,1.000
1626295121545729.250,-87.891,-42.969,-20.020,1.000,1.000
1626295121549635.500,-51.270,-20.508,-22.949,1.000,1.000
1626295121553541.750,23.926,-22.461,-34.180,1.000,1.000
1626295121557448.000,-9.766,5.859,-32.715,1.000,1.000
1626295121561354.250,-92.773,-62.988,-34.180,1.000,1.000
1626295121565260.500,-73.242,-58.594,-26.855,1.000,1.000
1626295121569166.750,25.879,-0.977,-11.719,1.000,1.000
1626295121573073.000,22.461,5.859,-38.574,1.000,1.000
1626295121576979.250,-73.242,-35.156,-40.527,1.000,1.000
1626295121580885.500,-83.496,-112.793,-16.113,1.000,1.000
1626295121584791.750,1.465,-58.105,-26.367,1.000,1.000
1626295121588698.000,20.020,-15.137,-35.645,1.000,1.000
1626295121592604.250,-67.383,-12.207,-31.738,1.000,1.000
1626295121596510.500,-113.770,-18.066,-35.156,1.000,1.000
1626295121600416.750,-28.809,-56.152,-21.484,1.000,1.000
1626295121604323.000,40.039,-5.859,-15.137,1.000,1.000
1626295121608229.250,-18.066,-8.789,-30.273,-38.086,1.000
1626295121612135.500,-86.914,-27.344,-29.297,-170.410,1.000
1626295121616041.750,-29.297,-20.020,-19.531,-31.738,1.000
1626295121619948.000,68.359,-50.293,-19.531,142.090,1.000
1626295121623854.250,58.594,-37.598,-20.508,61.035,1.000
1626295121627760.500,-42.969,-42.969,-20.508,-118.652,1.000
1626295121631666.750,-76.660,-26.367,-43.945,-95.215,1.000
1626295121635573.000,-5.371,-32.227,-39.062,65.918,1.000
1626295121639479.250,13.184,-54.199,-29.297,54.688,1.000
1626295121643385.500,-62.500,-11.230,-37.598,-130.371,1.000
1626295121647291.750,-103.027,-3.906,-35.645,-166.016,1.000
1626295121651198.000,-31.250,-1.465,-33.691,16.602,1.000
1626295121655104.250,24.414,0.977,-25.391,84.961,1.000
1626295121659010.500,53.711,-20.020,-23.438,99.609,1.000
1626295121662916.750,-36.621,-48.828,-35.645,-99.121,1.000
1626295121666823.000,-70.801,-60.547,-22.949,-131.348,1.000
1626295121670729.250,0.977,-7.324,-27.832,46.875,1.000
1626295121674635.500,26.367,-3.418,-34.668,92.285,1.000
1626295121678541.750,-60.059,-17.090,-33.203,-98.633,1.000
1626295121682448.000,-128.418,-30.273,-33.691,-205.078,1.000
1626295121686354.250,-63.965,-21.484,-27.344,-50.293,1.000
1626295121690260.500,24.414,-11.230,-9.766,95.703,1.000
1626295121694166.750,-7.812,-23.438,-9.277,-11.230,1.000
1626295121698073.000,-99.609,-35.645,-36.621,-182.129,1.000
1626295121701979.250,-62.012,-87.402,-32.227,1.000,1.000
1626295121705885.500,29.297,-53.223,-34.180,1.000,1.000
1626295121709791.750,-0.488,-20.020,-54.199,1.000,1.000
1626295121713698.000,-96.680,-16.113,-50.781,1.000,1.000
1626295121717604.250,-83.496,-3.418,-12.695,1.000,1.000
1626295121721510.500,11.719,-70.312,-6.348,1.000,1.000
1626295121725416.750,16.602,-35.156,-31.738,1.000,1.000
1626295121729323.000,-76.660,-2.930,-40.527,1.000,1.000
1626295121733229.250,-106.934,-9.766,-34.668,1.000,1.000
1626295121737135.500,-6.836,-23.926,-10.742,1.000,1.000
1626295121741041.750,50.781,-88.867,-10.254,1.000,1.000
1626295121744948.000,-31.250,-54.199,-38.574,1.000,1.000
1626295121748854.250,-96.191,11.230,-49.805,1.000,1.000
1626295121752760.500,-36.621,38.086,-37.598,1.000,1.000
1626295121756666.750,37.109,4.395,-30.762,1.000,1.000
1626295121760573.000,1.953,-56.152,-20.020,1.000,1.000
1626295121764479.250,-90.820,-43.457,-21.973,1.000,1.000
1626295121768385.500,-90.820,-8.301,-27.344,1.000,1.000
1626295121772291.750,-3.906,7.812,-27.344,1.000,1.000
1626295121776198.000,-2.441,-46.387,-25.391,1.000,1.000
1626295121780104.250,-86.914,-91.797,-17.090,1.000,1.000
1626295121784010.500,-87.891,-46.387,-23.926,1.000,1.000
1626295121787916.750,-9.277,-4.395,-43.457,1.000,1.000
1626295121791823.000,13.184,17.578,-40.039,1.000,1.000
1626295121795729.250,-69.336,-27.344,-38.574,1.000,1.000
1626295121799635.500,-132.812,-30.762,-44.434,1.000,1.000
1626295121803541.750,-49.316,-3.906,-24.902,1.000,1.000
1626295121807448.000,27.832,0.977,-12.207,1.000,1.000
1626295121811354.250,-19.043,-7.324,-20.996,1.000,1.000
1626295121815260.500,-84.473,-68.848,-27.344,1.000,1.000
1626295121819166.750,-51.270,-62.012,-35.645,1.000,1.000
1626295121823073.000,27.344,-46.387,-36.621,1.000,1.000
1626295121826979.250,4.395,-33.691,-41.016,1.000,1.000
1626295121830885.500,-85.449,-37.109,-32.227,1.000,1.000
1626295121834791.750,-81.543,-65.918,-28.320,1.000,1.000
1626295121838698.000,0.488,-6.348,-32.715,1.000,1.000
1626295121842604.250,19.043,28.809,-19.531,81.543,1.000
1626295121846510.500,-69.336,-0.488,-20.508,-116.211,1.000
1626295121850416.750,-115.234,-38.574,-31.738,-156.738,1.000
1626295121854323.000,-27.344,-62.500,-13.184,27.832,1.000
1626295121858229.250,28.809,-29.785,-10.742,94.238,1.000
1626295121862135.500,-34.180,-1.465,-41.992,-68.848,1.000
1626295121866041.750,-83.496,-1.465,-39.551,-148.926,1.000
1626295121869948.000,-18.555,-52.246,-12.207,10.742,1.000
1626295121873854.250,40.039,-61.035,-15.625,104.980,1.000
1626295121877760.500,-7.324,2.930,-34.668,-37.109,1.000
1626295121881666.750,-80.566,13.184,-36.621,-166.992,1.000
1626295121885573.000,-57.617,-6.836,-24.902,-72.754,1.000
1626295121889479.250,-41.504,-4.883,-20.996,90.820,1.000
1626295121893385.500,24.414,-4.395,-17.090,19.531,1.000
1626295121897291.750,-16.113,-11.719,-20.020,-173.828,1.000
1626295121901198.000,-88.379,-39.551,-20.020,-126.953,1.000
1626295121905104.250,-52.734,-25.391,-9.766,72.266,1.000
1626295121909010.500,39.551,-16.602,-1.953,82.031,1.000
1626295121912916.750,30.762,-11.230,-16.602,-106.445,1.000
1626295121916823.000,-72.266,-60.059,-66.895,-146.484,1.000
1626295121920729.250,-88.379,-55.664,-66.406,39.551,1.000
1626295121924635.500,15.137,14.648,-9.766,111.816,1.000
1626295121928541.750,23.926,0.000,-7.812,-66.406,1.000
1626295121932448.000,-73.730,-15.137,-30.273,-181.152,1.000
1626295121936354.250,-86.914,-57.617,-15.625,1.000,1.000
1626295121940260.500,-20.508,-51.758,-12.207,1.000,1.000
1626295121944166.750,24.902,-25.391,-20.020,1.000,1.000
1626295121948073.000,-27.344,-21.484,-29.785,1.000,1.000
1626295121951979.250,-106.934,-26.855,-27.344,1.000,1.000
1626295121955885.500,-37.109,-57.129,-1.953,1.000,1.000
1626295121959791.750,27.344,-33.203,-19.043,1.000,1.000
1626295121963698.000,-26.367,-24.414,-39.062,1.000,1.000
1626295121967604.250,-106.934,-20.508,-45.410,1.000,1.000
1626295121971510.500,-88.867,-31.738,-33.691,1.000,1.000
1626295121975416.750,12.695,-62.988,-17.090,1.000,1.000
1626295121979323.000,20.020,-28.320,-3.418,1.000,1.000
1626295121983229.250,-71.777,-26.367,-3.418,-123.047,1.000
1626295121987135.500,-108.398,-34.668,-40.039,-139.648,1.000
1626295121991041.750,-31.250,-58.594,-57.617,41.992,1.000
1626295121994948.000,16.602,-85.938,-28.809,87.891,1.000
1626295121998854.250,-71.289,-62.500,-26.855,-104.980,1.000
1626295122002760.500,-123.047,-42.480,-40.039,-181.641,1.000
1626295122006666.750,-25.391,10.254,-22.949,11.719,1.000
1626295122010573.000,44.434,5.859,-31.738,122.070,1.000
1626295122014479.250,-22.461,-38.086,-64.453,-40.527,1.000
1626295122018385.500,-116.211,-47.363,-61.035,-194.824,1.000
1626295122022291.750,-70.801,-44.922,-31.250,-69.336,1.000
1626295122026198.000,36.133,-26.855,-9.277,100.098,1.000
1626295122030104.250,34.180,14.160,-40.039,110.840,1.000
1626295122034010.500,-15.137,2.441,-48.340,-28.320,1.000
1626295122037916.750,-80.078,-23.438,-44.922,-163.574,1.000
1626295122041823.000,-48.828,-65.430,-33.203,-67.871,1.000
1626295122045729.250,26.855,-56.152,-28.320,93.262,1.000
1626295122049635.500,22.949,-20.996,-35.156,37.598,1.000
1626295122053541.750,-65.430,3.418,-37.109,-150.391,1.000
1626295122057448.000,-82.031,-24.414,-33.203,-122.559,1.000
1626295122061354.250,-4.395,-41.016,-34.180,68.359,1.000
1626295122065260.500,10.742,-11.719,-21.484,63.477,1.000
1626295122069166.750,-70.801,-17.578,-7.812,-123.535,1.000
1626295122073073.000,-111.328,-30.762,-35.156,-166.016,1.000
1626295122076979.250,-10.254,-63.477,-27.832,1.000,1.000
1626295122080885.500,43.457,-46.875,-17.578,1.000,1.000
1626295122084791.750,-39.062,-30.762,-43.945,1.000,1.000
1626295122088698.000,-90.332,-29.785,-50.293,1.000,1.000
1626295122092604.250,-4.883,5.371,-22.461,1.000,1.000
1626295122096510.500,69.824,-35.156,-14.160,1.000,1.000
1626295122100416.750,-6.836,-28.320,-34.180,1.000,1.000
1626295122104323.000,-94.238,-3.906,-41.016,1.000,1.000
1626295122108229.250,-64.453,-10.254,-27.832,1.000,1.000
1626295122112135.500,30.762,-13.672,-4.883,1.000,1.000
1626295122116041.750,40.039,-36.621,-1.465,1.000,1.000
1626295122119948.000,-64.453,-32.227,-24.414,1.000,1.000
1626295122123854.250,-80.566,-33.691,-27.832,1.000,1.000
1626295122127760.500,22.461,-1.953,-22.949,1.000,1.000
1626295122131666.750,39.551,-11.230,-20.508,1.000,1.000
1626295122135573.000,-45.410,-48.828,-27.832,1.000,1.000
1626295122139479.250,-83.496,-14.648,-43.945,1.000,1.000
1626295122143385.500,-29.297,0.000,-41.992,1.000,1.000
1626295122147291.750,33.691,6.348,-20.020,1.000,1.000
1626295122151198.000,-4.883,-24.414,-3.418,1.000,1.000
1626295122155104.250,-85.449,-51.270,-25.391,1.000,1.000
1626295122159010.500,-44.922,-26.367,-28.320,1.000,1.000
1626295122162916.750,34.668,-32.227,-5.859,1.000,1.000
1626295122166823.000,-15.137,-38.574,-21.484,1.000,1.000
1626295122170729.250,-95.703,-95.703,-29.785,-165.039,1.000
1626295122174635.500,-65.430,-59.082,-20.508,-80.566,1.000
1626295122178541.750,15.625,12.207,-10.742,97.168,1.000
1626295122182448.000,0.000,-4.395,-20.996,52.246,1.000
1626295122186354.250,-89.844,-36.621,-37.598,-137.207,1.000
1626295122190260.500,-96.680,-99.609,-36.133,-127.930,1.000
1626295122194166.750,-11.719,-57.129,-34.180,54.688,1.000
1626295122198073.000,21.973,-15.625,-33.203,83.984,1.000
1626295122201979.250,-54.199,-18.066,-39.062,-97.656,1.000
1626295122205885.500,-104.004,-44.434,-44.434,-170.898,1.000
1626295122209791.750,-24.902,-81.055,-18.555,6.348,1.000
1626295122213698.000,36.621,-30.762,-7.324,108.887,1.000
1626295122217604.250,-34.668,-30.762,-41.992,-46.875,1.000
1626295122221510.500,-108.887,-25.879,-60.547,-183.105,1.000
1626295122225416.750,-49.316,-15.625,-35.156,-51.758,1.000
1626295122229323.000,30.273,-47.852,-16.602,105.469,1.000
1626295122233229.250,-6.836,-19.531,-23.926,11.230,1.000
1626295122237135.500,-98.633,-14.160,-43.945,-159.180,1.000
1626295122241041.750,-87.891,-10.254,-45.410,-101.562,1.000
1626295122244948.000,22.949,-13.184,-29.785,100.586,1.000
1626295122248854.250,39.551,-36.621,-31.738,88.379,1.000
1626295122252760.500,-70.801,-47.852,-58.105,-132.812,1.000
1626295122256666.750,-97.656,-36.621,-46.875,-151.855,1.000
1626295122260573.000,-6.836,-7.812,-14.160,58.594,1.000
1626295122264479.250,29.785,28.320,-25.391,82.031,1.000
1626295122268385.500,37.109,16.602,-53.223,76.172,1.000
1626295122272291.750,-62.988,-26.367,-60.059,-127.441,1.000
1626295122276198.000,-106.934,-77.148,-41.992,-169.434,1.000
1626295122280104.250,-20.996,-20.020,-14.648,22.461,1.000
1626295122284010.500,35.645,3.418,-4.883,96.191,1.000
1626295122287916.750,-20.020,-22.461,-13.184,-66.406,1.000
1626295122291823.000,-91.797,-44.922,-20.996,-174.805,1.000
1626295122295729.250,-54.688,-30.273,-31.250,-41.504,1.000
1626295122299635.500,20.996,7.812,-32.227,94.727,1.000
1626295122303541.750,-17.090,-14.160,-34.668,-27.344,1.000
1626295122307448.000,-99.121,-32.227,-43.457,-188.965,1.000
1626295122311354.250,-56.152,-73.242,-42.480,1.000,1.000
1626295122315260.500,50.781,-46.875,-35.645,1.000,1.000
1626295122319166.750,20.508,-11.230,-44.922,1.000,1.000
1626295122323073.000,-83.008,-18.555,-37.598,1.000,1.000
1626295122326979.250,-74.707,-14.160,-17.578,1.000,1.000
1626295122330885.500,10.742,-63.477,-18.066,1.000,1.000
1626295122334791.750,28.809,-21.484,-15.137,1.000,1.000
1626295122338698.000,-52.734,-1.953,-19.531,1.000,1.000
1626295122342604.250,-96.680,-18.066,-27.832,1.000,1.000
1626295122346510.500,-24.902,-36.133,-32.715,1.000,1.000
1626295122350416.750,36.621,-91.797,-39.062,1.000,1.000
1626295122354323.000,-30.762,-37.598,-47.852,1.000,1.000
1626295122358229.250,-83.984,-8.789,-16.602,-155.762,1.000
1626295122362135.500,-13.672,-13.672,8.789,-10.254,1.000
1626295122366041.750,32.715,-27.832,-21.973,102.539,1.000
1626295122369948.000,-20.508,-51.758,-46.875,-17.578,1.000
1626295122373854.250,-95.215,-11.230,-38.086,-174.805,1.000
1626295122377760.500,-66.406,-21.484,-20.996,-89.844,1.000
1626295122381666.750,32.715,-3.418,-28.320,108.398,1.000
1626295122385573.000,23.926,-19.531,-32.715,64.941,1.000
1626295122389479.250,-79.590,-59.570,-24.902,-144.043,1.000
1626295122393385.500,-75.684,-13.672,-19.043,-128.418,1.000
1626295122397291.750,20.996,9.766,-21.973,67.383,1.000
1626295122401198.000,39.062,-13.672,-22.949,85.938,1.000
1626295122405104.250,-43.457,-104.004,-27.832,-93.750,1.000
1626295122409010.500,-86.426,-73.242,-22.949,-158.203,1.000
1626295122412916.750,-9.766,12.695,-16.113,17.578,1.000
1626295122416823.000,50.293,22.461,-25.879,119.629,1.000
1626295122420729.250,-17.578,-20.020,-30.762,-41.016,1.000
1626295122424635.500,-91.797,-95.215,-34.180,-174.316,1.000
1626295122428541.750,-51.758,-35.645,-31.738,-47.363,1.000
1626295122432448.000,24.414,-0.977,-27.832,109.863,1.000
1626295122436354.250,12.695,0.977,-33.691,29.297,1.000
1626295122440260.500,-80.078,-16.602,-45.898,-148.438,1.000
1626295122444166.750,-81.543,-76.172,-39.062,-100.098,1.000
1626295122448073.000,22.949,-21.973,-15.137,92.773,1.000
1626295122451979.250,41.992,-12.207,-8.789,83.008,1.000
1626295122455885.500,-47.363,-41.992,-13.184,-107.910,1.000
1626295122459791.750,-83.496,-49.805,-17.578,-140.137,1.000
1626295122463698.000,-3.906,-44.922,-16.602,42.480,1.000
1626295122467604.250,39.062,6.836,-12.207,102.051,1.000
1626295122471510.500,-38.086,2.441,-27.832,-74.219,1.000
1626295122475416.750,-107.422,-31.250,-39.062,-184.082,1.000
1626295122479323.000,-42.480,-54.688,-30.762,-24.414,1.000
1626295122483229.250,28.809,-47.852,-48.828,103.516,1.000
1626295122487135.500,-29.297,-28.809,-63.477,-40.039,1.000
1626295122491041.750,-109.863,-41.016,-43.457,-183.105,1.000
1626295122494948.000,-77.637,-16.113,-26.367,-75.684,1.000
1626295122498854.250,-67.871,-0.488,-43.945,-44.434,1.000
1626295122502760.500,38.086,9.277,-27.832,116.699,1.000
1626295122506666.750,4.395,-28.809,-18.555,-6.836,1.000
1626295122510573.000,-95.703,-77.148,-33.203,-180.176,1.000
1626295122514479.250,-67.871,-12.695,-35.156,-80.078,1.000
1626295122518385.500,35.156,18.066,-21.484,117.188,1.000
1626295122522291.750,30.762,17.578,-21.973,66.406,1.000
1626295122526198.000,-54.199,-40.527,-26.855,-120.605,1.000
1626295122530104.250,-56.641,-61.035,-26.855,-98.633,1.000
1626295122534010.500,15.137,-1.465,-32.227,76.172,1.000
1626295122537916.750,28.320,6.836,-31.738,80.078,1.000
1626295122541823.000,-58.594,-0.977,-38.086,-113.281,1.000
1626295122545729.250,-103.027,-71.289,-34.180,1.000,1.000
1626295122549635.500,-22.949,-66.895,-25.879,1.000,1.000
1626295122553541.750,28.809,0.000,-30.273,1.000,1.000
1626295122557448.000,-31.250,-2.441,-35.645,1.000,1.000
1626295122561354.250,-83.984,-20.508,-43.457,1.000,1.000
1626295122565260.500,-12.695,-56.641,-17.578,1.000,1.000
1626295122569166.750,61.035,-16.113,2.930,1.000,1.000
1626295122573073.000,3.906,-5.859,-20.508,1.000,1.000
1626295122576979.250,-97.168,-27.832,-37.598,1.000,1.000
1626295122580885.500,-59.570,-34.180,-25.879,1.000,1.000
1626295122584791.750,44.922,-68.359,-15.137,1.000,1.000
1626295122588698.000,31.250,-23.926,-15.625,1.000,1.000
1626295122592604.250,-84.961,-12.695,-44.922,-152.832,1.000
1626295122596510.500,-119.141,-15.625,-55.664,-168.945,1.000
1626295122600416.750,-28.320,-10.742,-36.621,23.926,1.000
1626295122604323.000,9.766,-44.922,-34.668,64.453,1.000
1626295122608229.250,-71.289,-34.180,-47.852,-120.117,1.000
1626295122612135.500,-109.863,-18.066,-37.109,-180.176,1.000
1626295122616041.750,-15.625,4.883,-14.648,11.719,1.000
1626295122619948.000,44.922,-20.996,-27.832,112.305,1.000
1626295122623854.250,-30.762,-57.129,-55.664,-49.316,1.000
1626295122627760.500,-120.605,-55.664,-58.594,-196.289,1.000
1626295122631666.750,-67.871,-41.992,-18.555,-68.359,1.000
1626295122635573.000,27.344,-8.789,-3.906,92.285,1.000
1626295122639479.250,36.621,13.672,11.719,113.770,1.000
1626295122643385.500,-27.832,-2.930,-3.906,-37.109,1.000
1626295122647291.750,-100.098,-27.832,-30.273,-179.199,1.000
1626295122651198.000,-53.711,-22.949,-29.297,-61.523,1.000
1626295122655104.250,37.109,-1.953,-20.020,115.234,1.000
1626295122659010.500,26.367,-34.668,-38.086,56.152,1.000
1626295122662916.750,-68.848,-44.434,-39.551,-126.953,1.000
1626295122666823.000,-77.148,-61.035,-15.137,-99.121,1.000
1626295122670729.250,11.719,-58.594,-5.371,83.496,1.000
1626295122674635.500,33.203,-4.395,-5.371,79.590,1.000
1626295122678541.750,-41.504,8.301,-15.625,-102.539,1.000
1626295122682448.000,-59.082,6.348,-14.160,-125.977,1.000
1626295122686354.250,10.254,-41.992,-7.812,1.000,1.000
1626295122690260.500,50.781,-7.812,-24.414,1.000,1.000
1626295122694166.750,-23.926,-1.465,-42.480,1.000,1.000
1626295122698073.000,-82.520,-38.086,-52.734,1.000,1.000
1626295122701979.250,0.977,-31.250,-35.645,1.000,1.000
1626295122705885.500,75.684,-74.707,2.441,1.000,1.000
1626295122709791.750,-8.789,-44.434,-9.277,1.000,1.000
1626295122713698.000,-101.562,-16.602,-29.785,1.000,1.000
1626295122717604.250,-55.176,-5.371,-16.113,1.000,1.000
1626295122721510.500,36.621,-15.625,-7.812,1.000,1.000
1626295122725416.750,36.133,-68.359,-15.625,1.000,1.000
1626295122729323.000,-46.875,-38.086,-27.344,1.000,1.000
1626295122733229.250,-51.758,-26.367,-24.414,1.000,1.000
1626295122737135.500,39.551,-7.324,-7.324,1.000,1.000
1626295122741041.750,49.316,-17.578,-20.020,1.000,1.000
1626295122744948.000,-42.969,-89.844,-62.988,1.000,1.000
1626295122748854.250,-90.820,-83.496,-66.406,1.000,1.000
1626295122752760.500,-13.672,-35.156,-34.668,1.000,1.000
1626295122756666.750,54.199,16.113,-27.832,1.000,1.000
1626295122760573.000,-20.508,-7.812,-25.391,1.000,1.000
1626295122764479.250,-115.723,-60.547,-27.832,1.000,1.000
1626295122768385.500,-73.242,-45.898,-29.297,1.000,1.000
1626295122772291.750,30.762,-8.789,-5.371,1.000,1.000
1626295122776198.000,-1.953,10.742,-19.531,1.000,1.000
1626295122780104.250,-102.539,-81.055,-41.016,1.000,1.000
1626295122784010.500,-73.242,-68.359,-29.785,1.000,1.000
1626295122787916.750,29.785,2.441,-22.949,1.000,1.000
1626295122791823.000,21.484,-17.578,-24.902,1.000,1.000
1626295122795729.250,-75.195,-44.434,-37.109,1.000,1.000
1626295122799635.500,-89.844,-100.098,-41.016,1.000,1.000
1626295122803541.750,-7.324,-42.480,-35.156,1.000,1.000
1626295122807448.000,21.484,4.395,-43.457,1.000,1.000
1626295122811354.250,-54.688,-5.859,-38.086,1.000,1.000
1626295122815260.500,-100.586,-20.508,-27.832,1.000,1.000
1626295122819166.750,-19.531,-68.848,-19.043,1.000,1.000
1626295122823073.000,44.434,-35.156,-18.066,1.000,1.000
1626295122826979.250,-5.371,-19.043,-27.832,-14.648,1.000
1626295122830885.500,-70.312,-24.414,-27.832,-145.020,1.000
1626295122834791.750,-22.949,-25.879,-20.996,-23.926,1.000
1626295122838698.000,62.012,-19.531,-12.695,136.719,1.000
1626295122842604.250,30.762,11.230,-32.227,46.875,1.000
1626295122846510.500,-57.129,7.324,-58.594,-123.535,1.000
1626295122850416.750,-61.523,-2.930,-47.363,-79.102,1.000
1626295122854323.000,28.320,-32.227,-10.254,107.422,1.000
1626295122858229.250,29.297,-51.270,-5.859,77.637,1.000
1626295122862135.500,-80.078,-18.066,-28.809,-145.020,1.000
1626295122866041.750,-93.262,5.371,-37.598,-149.414,1.000
1626295122869948.000,14.160,13.672,-13.184,61.523,1.000
1626295122873854.250,-2.930,3.906,-8.789,1.000,1.000
1626295122877760.500,20.508,-3.906,-3.418,1.000,1.000
1626295122881666.750,-70.312,-51.758,-23.438,1.000,1.000
1626295122885573.000,-112.793,-100.098,-42.480,1.000,1.000
1626295122889479.250,-15.625,-33.691,-16.602,1.000,1.000
1626295122893385.500,40.039,0.000,-6.348,1.000,1.000
1626295122897291.750,-32.227,-17.090,-34.668,1.000,1.000
1626295122901198.000,-93.750,-53.223,-46.387,1.000,1.000
1626295122905104.250,-46.387,-60.059,-45.898,1.000,1.000
1626295122909010.500,16.602,-10.254,-41.992,1.000,1.000
1626295122912916.750,-30.762,-20.996,-43.945,1.000,1.000
1626295122916823.000,-113.281,-35.645,-40.039,1.000,1.000
1626295122920729.250,-84.473,-70.801,-36.133,1.000,1.000
1626295122924635.500,19.531,-43.457,-25.879,1.000,1.000
1626295122928541.750,22.949,2.441,-26.367,1.000,1.000
1626295122932448.000,-69.824,-9.766,-34.668,1.000,1.000
1626295122936354.250,-84.961,-37.109,-39.062,1.000,1.000
1626295122940260.500,13.184,-102.539,-28.320,1.000,1.000
1626295122944166.750,49.805,-28.320,-7.324,1.000,1.000
1626295122948073.000,-43.945,-4.395,-18.066,1.000,1.000
1626295122951979.250,-96.680,-49.805,-34.668,1.000,1.000
1626295122955885.500,-22.949,-62.500,-34.180,1.000,1.000
1626295122959791.750,36.133,-75.684,-32.715,1.000,1.000
1626295122963698.000,-32.715,-10.742,-40.039,1.000,1.000
1626295122967604.250,-110.840,4.395,-51.758,-192.383,1.000
1626295122971510.500,-45.410,-3.906,-41.016,-40.527,1.000
1626295122975416.750,51.758,-0.977,-12.207,122.559,1.000
1626295122979323.000,10.742,-34.668,-9.766,13.672,1.000
1626295122983229.250,-81.055,-32.715,-32.227,-156.250,1.000
1626295122987135.500,-55.176,-12.695,-25.879,-77.148,1.000
1626295122991041.750,20.020,-8.301,-17.090,86.426,1.000
1626295122994948.000,8.789,-58.105,-33.203,35.645,1.000
1626295122998854.250,-64.941,-76.172,-55.176,-141.602,1.000
1626295123002760.500,-81.543,-20.508,-43.945,-143.555,1.000
1626295123006666.750,1.465,7.812,-20.508,40.039,1.000
1626295123010573.000,38.086,11.719,-30.273,85.938,1.000
1626295123014479.250,16.113,1.465,-1.465,63.965,1.000
1626295123018385.500,-63.965,-19.043,-18.066,-117.188,1.000
1626295123022291.750,-73.730,-46.875,-15.137,-113.281,1.000
1626295123026198.000,23.926,-62.988,0.488,83.008,1.000
1626295123030104.250,53.711,-10.254,3.906,121.582,1.000
1626295123034010.500,-58.594,-17.578,-20.508,-87.891,1.000
1626295123037916.750,-118.652,-39.551,-33.691,-182.129,1.000
1626295123041823.000,-22.461,-49.316,-10.254,6.348,1.000
1626295123045729.250,50.781,-41.992,-25.879,131.348,1.000
1626295123049635.500,-25.879,-5.859,-50.781,-28.809,1.000
1626295123053541.750,-114.746,-9.277,-28.809,-189.453,1.000
1626295123057448.000,-64.453,-5.859,-5.859,-65.430,1.000
1626295123061354.250,-27.344,0.488,-12.207,123.535,1.000
1626295123065260.500,47.852,-14.648,2.930,50.293,1.000
1626295123069166.750,-25.391,-50.293,-29.297,-152.832,1.000
1626295123073073.000,-114.258,-70.801,-43.457,-126.953,1.000
1626295123076979.250,-76.172,-18.555,-28.809,65.918,1.000
1626295123080885.500,20.508,-2.930,-26.367,58.594,1.000
1626295123084791.750,12.207,0.488,-47.852,-131.348,1.000
1626295123088698.000,-72.754,-41.504,-60.547,-156.250,1.000
1626295123092604.250,-72.754,-69.336,-36.621,31.738,1.000
1626295123096510.500,11.230,-25.879,0.488,91.309,1.000
1626295123100416.750,27.832,-14.648,-0.488,-85.938,1.000
1626295123104323.000,-56.641,0.000,-19.043,-182.129,1.000
1626295123108229.250,-99.121,-49.805,-29.297,1.000,1.000
1626295123112135.500,-28.320,-41.992,-34.180,1.000,1.000
1626295123116041.750,22.461,-16.113,-22.461,1.000,1.000
1626295123119948.000,-36.621,-45.410,-21.484,1.000,1.000
1626295123123854.250,-94.727,-49.805,-39.062,1.000,1.000
1626295123127760.500,-38.086,-79.102,-50.781,1.000,1.000
1626295123131666.750,28.809,-23.438,-48.340,1.000,1.000
1626295123135573.000,-18.066,24.902,-46.387,1.000,1.000
1626295123139479.250,-98.633,9.277,-46.875,1.000,1.000
1626295123143385.500,-61.035,-14.160,-21.973,1.000,1.000
1626295123147291.750,34.180,-38.086,-4.395,1.000,1.000
1626295123151198.000,2.441,-9.277,-29.297,1.000,1.000
1626295123155104.250,-98.145,-27.832,-46.875,-166.992,1.000
1626295123159010.500,-92.773,-29.297,-41.992,-144.043,1.000
1626295123162916.750,5.859,-20.996,-35.645,51.270,1.000
1626295123166823.000,23.926,-62.500,-37.109,75.684,1.000
1626295123170729.250,-52.246,-31.250,-27.344,-101.562,1.000
1626295123174635.500,-95.215,-26.367,-28.320,-169.434,1.000
1626295123178541.750,-24.414,-15.625,-43.945,2.441,1.000
1626295123182448.000,25.391,-23.438,-41.504,101.074,1.000
1626295123186354.250,-39.551,-37.109,-31.738,-52.246,1.000
1626295123190260.500,-99.121,-2.441,-23.438,-174.805,1.000
1626295123194166.750,-44.922,4.883,-13.672,-43.457,1.000
1626295123198073.000,40.527,7.324,-26.367,113.770,1.000
1626295123201979.250,47.363,-1.465,-25.879,120.117,1.000
1626295123205885.500,-40.039,-36.133,-42.480,-50.781,1.000
1626295123209791.750,-111.816,-44.434,-36.133,-189.941,1.000
1626295123213698.000,-57.129,-56.152,-24.902,-64.453,1.000
1626295123217604.250,25.879,-11.230,-36.133,91.309,1.000
1626295123221510.500,7.324,-9.766,-45.410,19.043,1.000
1626295123225416.750,-80.078,-22.461,-45.898,-154.297,1.000
1626295123229323.000,-69.336,-27.832,-20.996,-104.492,1.000
1626295123233229.250,31.738,-18.555,7.812,99.609,1.000
1626295123237135.500,34.180,0.977,-10.254,86.426,1.000
1626295123241041.750,-67.871,-29.297,-41.992,-121.094,1.000
1626295123244948.000,-86.426,-22.949,-34.180,-148.926,1.000
1626295123248854.250,-3.418,-83.984,-20.508,1.000,1.000
1626295123252760.500,26.367,-74.219,-20.508,1.000,1.000
1626295123256666.750,-46.875,-22.461,-33.691,1.000,1.000
1626295123260573.000,-105.469,-19.531,-56.152,1.000,1.000
1626295123264479.250,-39.551,-15.137,-39.551,1.000,1.000
1626295123268385.500,47.852,-63.477,-3.906,1.000,1.000
1626295123272291.750,-13.672,-27.344,-15.137,1.000,1.000
1626295123276198.000,-111.328,-26.855,-26.855,1.000,1.000
1626295123280104.250,-68.359,-25.879,-41.504,1.000,1.000
1626295123284010.500,40.527,-8.789,-28.809,1.000,1.000
1626295123287916.750,14.160,-81.543,-12.207,1.000,1.000
1626295123291823.000,-92.285,-37.598,-29.785,1.000,1.000
1626295123295729.250,-90.332,-2.441,-27.344,1.000,1.000
1626295123299635.500,17.090,-16.602,-5.859,1.000,1.000
1626295123303541.750,44.434,-39.062,-5.859,1.000,1.000
1626295123307448.000,-56.641,-63.965,-27.832,1.000,1.000
1626295123311354.250,-104.004,-9.766,-43.457,1.000,1.000
1626295123315260.500,-24.414,-4.395,-54.688,1.000,1.000
1626295123319166.750,38.086,-6.836,-51.270,1.000,1.000
1626295123323073.000,-14.160,-32.715,-34.180,1.000,1.000
1626295123326979.250,-82.520,-60.059,-10.254,1.000,1.000
1626295123330885.500,-24.902,-1.465,12.207,1.000,1.000
1626295123334791.750,42.480,-2.930,4.395,1.000,1.000
1626295123338698.000,-29.297,-29.297,-36.621,1.000,1.000
1626295123342604.250,-101.562,-87.891,-37.598,1.000,1.000
1626295123346510.500,-56.641,-75.684,-27.832,1.000,1.000
1626295123350416.750,22.949,-11.719,-25.391,1.000,1.000
1626295123354323.000,-2.930,-16.602,-36.133,1.000,1.000
1626295123358229.250,-88.867,-26.855,-53.711,1.000,1.000
1626295123362135.500,-69.824,-76.172,-34.180,1.000,1.000
1626295123366041.750,18.066,-33.691,-24.902,1.000,1.000
1626295123369948.000,44.922,6.836,-18.066,1.000,1.000
1626295123373854.250,-37.598,1.465,-20.996,1.000,1.000
1626295123377760.500,-86.426,-28.320,-17.090,1.000,1.000
1626295123381666.750,-20.020,-88.379,-5.859,1.000,1.000
1626295123385573.000,36.621,-25.879,-17.090,1.000,1.000
1626295123389479.250,-23.926,-7.324,-36.133,-50.293,1.000
1626295123393385.500,-105.469,-30.273,-49.805,-177.734,1.000
1626295123397291.750,-52.246,-34.180,-29.785,-46.875,1.000
1626295123401198.000,27.832,-50.293,-32.715,106.445,1.000
1626295123405104.250,-10.742,-16.602,-51.270,-0.488,1.000
1626295123409010.500,-89.355,-23.438,-39.062,-159.180,1.000
1626295123412916.750,-62.500,-23.926,-26.367,-78.125,1.000
1626295123416823.000,39.551,-20.996,-14.160,108.887,1.000
1626295123420729.250,41.016,-31.250,-1.465,77.148,1.000
1626295123424635.500,-70.801,-13.672,-18.555,-130.371,1.000
1626295123428541.750,-104.004,-10.742,-23.926,-152.344,1.000
1626295123432448.000,-14.160,-8.301,-19.531,37.109,1.000
1626295123436354.250,15.625,-0.977,-30.762,99.121,1.000
1626295123440260.500,20.996,-22.949,-36.621,-84.961,1.000
1626295123444166.750,-65.918,-54.688,-55.176,-171.875,1.000
1626295123448073.000,-92.773,-80.078,-48.828,11.719,1.000
1626295123451979.250,-11.230,-15.137,-41.504,127.930,1.000
1626295123455885.500,37.109,13.672,-43.945,-30.762,1.000
1626295123459791.750,-32.715,-9.766,-38.574,-168.945,1.000
1626295123463698.000,-83.496,-36.621,-31.738,-45.898,1.000
1626295123467604.250,-16.113,-23.926,-22.949,109.375,1.000
1626295123471510.500,48.340,22.461,-24.414,22.949,1.000
1626295123475416.750,-3.906,3.418,-38.086,-160.645,1.000
1626295123479323.000,-89.844,-19.043,-47.363,-122.559,1.000
1626295123483229.250,-47.852,-69.824,-32.715,-65.430,1.000
1626295123487135.500,37.598,-59.570,-16.602,104.980,1.000
1626295123491041.750,20.508,-8.301,-30.762,29.785,1.000
1626295123494948.000,-57.129,-8.789,-40.527,-145.020,1.000
1626295123498854.250,-66.895,-34.180,-39.062,-120.605,1.000
1626295123502760.500,26.855,-76.172,-23.926,79.102,1.000
1626295123506666.750,23.438,-35.156,-43.945,58.594,1.000
1626295123510573.000,-69.824,-7.324,-56.152,-126.465,1.000
1626295123514479.250,-88.867,-6.836,-36.133,-147.949,1.000
1626295123518385.500,-11.719,-16.602,-21.973,29.297,1.000
1626295123522291.750,42.480,-50.293,-9.766,114.258,1.000
1626295123526198.000,-35.645,-25.879,-29.785,-61.523,1.000
1626295123530104.250,-108.398,-37.598,-41.016,-178.711,1.000
1626295123534010.500,-35.156,-26.855,-25.391,-20.508,1.000
1626295123537916.750,55.176,-16.113,-31.250,131.836,1.000
1626295123541823.000,8.789,-63.477,-30.762,15.625,1.000
1626295123545729.250,-92.285,-17.090,-29.297,-159.180,1.000
1626295123549635.500,-80.566,10.742,-43.457,-91.309,1.000
1626295123553541.750,16.602,7.324,-43.945,90.820,1.000
1626295123557448.000,19.043,-18.066,-40.039,56.152,1.000
1626295123561354.250,-72.754,-62.012,-43.457,-132.324,1.000
1626295123565260.500,-72.266,-19.043,-13.672,-112.793,1.000
1626295123569166.750,22.949,24.902,4.883,85.449,1.000
1626295123573073.000,34.668,20.020,-20.508,89.844,1.000
1626295123576979.250,13.672,-18.555,-21.973,49.316,1.000
1626295123580885.500,-69.336,-20.508,-39.551,-134.277,1.000
1626295123584791.750,-83.496,-42.969,-36.621,-133.789,1.000
1626295123588698.000,8.789,-78.613,-10.254,61.523,1.000
1626295123592604.250,41.992,-20.508,-5.859,106.445,1.000
1626295123596510.500,-49.316,-17.578,-36.621,-88.379,1.000
1626295123600416.750,-116.699,-19.043,-51.270,-186.523,1.000
1626295123604323.000,-31.738,-31.738,-39.062,-1.953,1.000
1626295123608229.250,51.270,-41.016,-60.547,127.930,1.000
1626295123612135.500,-19.043,5.371,-57.617,-32.227,1.000
1626295123616041.750,-118.652,-9.277,-37.109,-199.219,1.000
1626295123619948.000,-81.543,-12.207,-27.832,-84.473,1.000
1626295123623854.250,-51.758,-31.738,-42.969,95.215,1.000
1626295123627760.500,27.832,8.301,-16.602,24.414,1.000
1626295123631666.750,-12.207,0.488,-30.762,-151.367,1.000
1626295123635573.000,-92.773,-63.965,-56.641,-102.051,1.000
1626295123639479.250,-63.965,-45.410,-48.340,97.656,1.000
1626295123643385.500,27.344,-26.855,-33.691,86.914,1.000
1626295123647291.750,16.602,1.953,-21.484,-131.836,1.000
1626295123651198.000,-90.332,-41.992,-29.297,-167.480,1.000
1626295123655104.250,-105.469,-66.406,-29.297,32.715,1.000
1626295123659010.500,0.000,-6.836,-2.930,98.633,1.000
1626295123662916.750,28.320,-11.719,-10.254,-66.895,1.000
1626295123666823.000,-64.941,-15.625,-33.203,-175.781,1.000
1626295123670729.250,-106.445,-83.984,-26.367,1.000,1.000
1626295123674635.500,-34.180,-66.895,-28.320,1.000,1.000
1626295123678541.750,28.320,-2.441,-32.715,1.000,1.000
1626295123682448.000,-27.344,-20.508,-27.832,1.000,1.000
1626295123686354.250,-95.703,-30.273,-38.086,1.000,1.000
1626295123690260.500,-41.992,-82.031,-46.875,1.000,1.000
1626295123694166.750,37.109,-17.090,-45.410,1.000,1.000
1626295123698073.000,-6.836,-3.906,-51.270,1.000,1.000
1626295123701979.250,-93.750,-36.621,-41.504,1.000,1.000
1626295123705885.500,-71.289,-41.992,-19.043,1.000,1.000
1626295123709791.750,26.367,-79.102,-11.719,1.000,1.000
1626295123713698.000,32.715,-5.859,-18.066,1.000,1.000
1626295123717604.250,-75.195,-6.348,-40.039,-145.996,1.000
1626295123721510.500,-118.164,-41.992,-61.035,-167.480,1.000
1626295123725416.750,-14.160,-40.527,-38.086,40.039,1.000
1626295123729323.000,41.016,-66.895,-17.578,95.703,1.000
1626295123733229.250,-65.430,-24.902,-39.062,-111.328,1.000
1626295123737135.500,-121.094,-7.812,-54.688,-178.223,1.000
1626295123741041.750,-33.691,-5.859,-40.527,9.277,1.000
1626295123744948.000,37.109,-44.922,-18.066,118.652,1.000
1626295123748854.250,-11.230,-69.824,-17.578,-24.414,1.000
1626295123752760.500,-87.402,-16.113,-32.227,-162.109,1.000
1626295123756666.750,-41.016,-2.441,-20.020,-34.668,1.000
1626295123760573.000,38.086,-1.953,-6.836,117.676,1.000
1626295123764479.250,-16.113,-71.777,-19.531,106.934,1.000
1626295123768385.500,46.387,-36.133,-19.531,-42.480,1.000
1626295123772291.750,-24.902,13.184,-34.180,-180.664,1.000
1626295123776198.000,-80.566,18.555,-36.621,-61.035,1.000
1626295123780104.250,-7.812,-5.371,-26.367,117.676,1.000
1626295123784010.500,65.918,-93.262,-12.695,38.086,1.000
1626295123787916.750,-13.184,-46.875,-30.273,-160.645,1.000
1626295123791823.000,-103.516,3.906,-32.227,-98.145,1.000
1626295123795729.250,-66.895,-2.930,-27.344,99.121,1.000
1626295123799635.500,9.277,-28.809,-28.809,73.730,1.000
1626295123803541.750,1.465,-83.008,-29.785,-125.488,1.000
1626295123807448.000,-85.449,-50.293,-49.316,-158.203,1.000
1626295123811354.250,-92.285,-34.180,-53.223,1.000,1.000
1626295123815260.500,0.977,-20.020,-34.668,1.000,1.000
1626295123819166.750,43.457,-16.602,-10.742,1.000,1.000
1626295123823073.000,-39.551,-63.965,-30.273,1.000,1.000
1626295123826979.250,-91.797,-26.367,-69.336,1.000,1.000
1626295123830885.500,-21.484,17.578,-43.945,1.000,1.000
1626295123834791.750,29.297,23.926,-20.508,1.000,1.000
1626295123838698.000,-28.809,-34.180,-25.391,1.000,1.000
1626295123842604.250,-87.891,-65.918,-14.648,1.000,1.000
1626295123846510.500,-34.668,-2.930,-22.461,1.000,1.000
1626295123850416.750,34.668,16.113,-26.855,1.000,1.000
1626295123854323.000,-0.488,17.578,-7.812,1.000,1.000
1626295123858229.250,-88.379,-52.734,-25.391,1.000,1.000
1626295123862135.500,-81.543,-82.520,-53.223,1.000,1.000
1626295123866041.750,10.742,-37.598,-39.551,1.000,1.000
1626295123869948.000,12.207,-10.742,-41.016,1.000,1.000
1626295123873854.250,-76.660,-1.465,-41.992,1.000,1.000
1626295123877760.500,-73.730,-65.918,-14.648,1.000,1.000
1626295123881666.750,21.973,-46.875,-6.836,1.000,1.000
1626295123885573.000,46.387,-19.043,-19.043,1.000,1.000
1626295123889479.250,-55.176,-15.137,-40.039,1.000,1.000
1626295123893385.500,-108.887,-23.438,-31.250,1.000,1.000
1626295123897291.750,-25.879,-65.430,4.395,1.000,1.000
1626295123901198.000,23.926,-15.625,-23.926,1.000,1.000
1626295123905104.250,-35.645,-0.488,-58.105,-59.570,1.000
1626295123909010.500,-106.934,-17.090,-40.039,-183.105,1.000
1626295123912916.750,-67.383,-29.297,-32.715,-59.570,1.000
1626295123916823.000,21.484,-41.992,-48.828,109.863,1.000
1626295123920729.250,-0.977,-2.441,-36.133,23.926,1.000
1626295123924635.500,-90.820,-10.254,-24.414,-155.762,1.000
1626295123928541.750,-83.496,-26.367,-36.133,-107.422,1.000
1626295123932448.000,33.691,-50.293,-18.066,101.562,1.000
1626295123936354.250,55.664,-71.289,-11.719,94.727,1.000
1626295123940260.500,-60.547,-33.203,-35.645,-122.559,1.000
1626295123944166.750,-83.984,-4.395,-35.156,-130.859,1.000
1626295123948073.000,-2.930,-2.441,-38.574,54.688,1.000
1626295123951979.250,3.418,-0.488,-44.434,80.078,1.000
1626295123955885.500,8.789,-30.273,-35.645,-107.422,1.000
1626295123959791.750,-74.707,-55.664,-24.902,-183.105,1.000
1626295123963698.000,-83.496,-74.219,-12.695,-17.578,1.000
1626295123967604.250,27.344,1.465,-17.090,92.285,1.000
1626295123971510.500,54.688,27.832,-41.016,-15.137,1.000
1626295123975416.750,-46.387,9.277,-41.504,-146.484,1.000
1626295123979323.000,-104.492,-22.949,-24.414,-49.805,1.000
1626295123983229.250,-45.898,-69.336,-12.207,87.891,1.000
1626295123987135.500,20.508,-58.594,-22.461,-19.531,1.000
1626295123991041.750,-6.348,-19.531,-38.086,-175.781,1.000
1626295123994948.000,-91.309,2.441,-54.688,-106.445,1.000
1626295123998854.250,-73.730,-73.730,-38.086,1.000,1.000
1626295124002760.500,22.949,-75.195,-9.766,1.000,1.000
1626295124006666.750,9.766,-2.930,-15.137,1.000,1.000
1626295124010573.000,-70.801,-0.488,-24.414,1.000,1.000
1626295124014479.250,-69.824,-39.062,-38.574,1.000,1.000
1626295124018385.500,0.977,-135.742,-39.062,1.000,1.000
1626295124022291.750,24.902,-64.453,-17.578,1.000,1.000
1626295124026198.000,-39.062,25.391,-8.789,1.000,1.000
1626295124030104.250,-107.422,-5.371,-37.109,1.000,1.000
1626295124034010.500,-43.457,-44.922,-49.316,1.000,1.000
1626295124037916.750,26.855,-96.680,-37.109,1.000,1.000
1626295124041823.000,-39.062,-32.715,-31.738,1.000,1.000
1626295124045729.250,-105.957,3.906,-29.297,-168.945,1.000
1626295124049635.500,-48.340,4.883,-13.184,-17.090,1.000
1626295124053541.750,29.297,-14.160,-13.672,113.770,1.000
1626295124057448.000,-12.207,-69.824,-32.715,-8.789,1.000
1626295124061354.250,-101.562,-33.691,-41.992,-178.711,1.000
1626295124065260.500,-79.590,4.395,-37.109,-103.027,1.000
1626295124069166.750,16.602,20.996,-17.578,89.355,1.000
1626295124073073.000,22.461,-19.531,-8.789,57.617,1.000
1626295124076979.250,-67.871,-70.801,-20.508,-138.672,1.000
1626295124080885.500,-93.750,-31.738,-47.852,-144.043,1.000
1626295124084791.750,10.254,-14.160,-31.250,62.500,1.000
1626295124088698.000,56.641,-16.602,-4.395,111.328,1.000
1626295124092604.250,23.438,-9.277,-21.484,71.289,1.000
1626295124096510.500,-62.988,3.906,-21.484,-112.305,1.000
1626295124100416.750,-96.191,-28.320,-36.133,-136.230,1.000
1626295124104323.000,-29.785,-95.215,-47.852,30.762,1.000
1626295124108229.250,13.184,-24.902,-29.297,79.590,1.000
1626295124112135.500,-62.500,1.465,-30.762,-97.656,1.000
1626295124116041.750,-107.910,-8.789,-28.809,-172.852,1.000
1626295124119948.000,-10.742,-29.785,-0.977,19.043,1.000
1626295124123854.250,75.684,-70.801,4.395,151.367,1.000
1626295124127760.500,1.465,-39.551,-20.996,-6.348,1.000
1626295124131666.750,-91.309,-21.973,-25.391,-165.527,1.000
1626295124135573.000,-41.992,-6.348,-20.508,-53.223,1.000
1626295124139479.250,30.762,-69.336,-37.109,1.000,1.000
1626295124143385.500,-15.137,-78.125,-59.082,1.000,1.000
1626295124147291.750,-104.980,-31.738,-55.664,1.000,1.000
1626295124151198.000,-88.867,-21.973,-27.344,1.000,1.000
1626295124155104.250,10.254,-1.465,-24.414,1.000,1.000
1626295124159010.500,37.109,-69.336,-30.273,1.000,1.000
1626295124162916.750,-49.316,-60.547,-28.809,1.000,1.000
1626295124166823.000,-70.312,-20.020,-19.531,1.000,1.000
1626295124170729.250,16.113,-1.953,-12.695,1.000,1.000
1626295124174635.500,46.387,-6.836,-20.996,1.000,1.000
1626295124178541.750,-38.086,-106.934,-38.086,1.000,1.000
1626295124182448.000,-110.352,-106.445,-52.734,1.000,1.000
1626295124186354.250,-51.270,-24.414,-47.363,1.000,1.000
1626295124190260.500,21.973,27.344,-32.227,1.000,1.000
1626295124194166.750,-21.484,4.395,-30.273,1.000,1.000
1626295124198073.000,-95.703,-50.781,-53.223,1.000,1.000
1626295124201979.250,-55.176,-11.230,-37.109,1.000,1.000
1626295124205885.500,42.480,13.184,-9.277,1.000,1.000
1626295124209791.750,20.508,-8.301,-15.137,1.000,1.000
1626295124213698.000,-91.797,-67.383,-25.879,1.000,1.000
1626295124217604.250,-103.516,-97.656,-39.551,1.000,1.000
1626295124221510.500,-8.301,-59.570,-21.973,1.000,1.000
1626295124225416.750,23.926,-45.898,-11.230,1.000,1.000
1626295124229323.000,-52.734,5.371,-33.203,1.000,1.000
1626295124233229.250,-76.660,-23.926,-41.992,1.000,1.000
1626295124237135.500,-10.254,-44.434,-36.133,1.000,1.000
1626295124241041.750,38.574,-2.930,-17.090,1.000,1.000
1626295124244948.000,-23.926,-8.789,-28.320,1.000,1.000
1626295124248854.250,-105.957,-31.738,-36.621,1.000,1.000
1626295124252760.500,-61.035,-103.516,-28.809,1.000,1.000
1626295124256666.750,3.906,-57.617,-35.645,1.000,1.000
1626295124260573.000,-28.320,-15.137,-35.645,1.000,1.000
1626295124264479.250,-96.191,-14.648,-43.457,1.000,1.000
1626295124268385.500,-61.523,-18.555,-42.969,1.000,1.000
1626295124272291.750,40.527,-108.398,-17.090,1.000,1.000
1626295124276198.000,19.043,-59.082,-25.391,1.000,1.000
1626295124280104.250,-88.379,-5.859,-55.176,-163.574,1.000
1626295124284010.500,-86.426,3.906,-47.852,-132.812,1.000
1626295124287916.750,17.090,-21.484,-24.902,72.266,1.000
1626295124291823.000,42.969,-75.684,-21.973,100.098,1.000
1626295124295729.250,-41.504,-23.926,-26.855,-87.402,1.000
1626295124299635.500,-94.727,-6.348,-38.574,-166.016,1.000
1626295124303541.750,-23.438,-2.441,-42.480,6.348,1.000
1626295124307448.000,62.012,-26.367,-13.672,121.582,1.000
1626295124311354.250,-2.930,-66.406,-13.184,-32.227,1.000
1626295124315260.500,-114.258,-39.551,-48.340,-191.406,1.000
1626295124319166.750,-64.453,-11.719,-43.945,-66.406,1.000
1626295124323073.000,29.785,14.648,-29.785,95.215,1.000
1626295124326979.250,46.875,-17.578,-7.324,115.723,1.000
1626295124330885.500,-11.230,7.324,-30.762,-23.926,1.000
1626295124334791.750,-101.562,-9.277,-34.668,-170.410,1.000
1626295124338698.000,-57.129,-69.336,-29.297,-55.664,1.000
1626295124342604.250,35.645,-32.227,-39.551,105.469,1.000
1626295124346510.500,4.395,-21.973,-45.898,15.137,1.000
1626295124350416.750,-91.797,-17.578,-42.969,-162.598,1.000
1626295124354323.000,-78.613,-29.297,-35.645,-103.516,1.000
1626295124358229.250,22.461,-46.875,-28.809,95.703,1.000
1626295124362135.500,40.039,-1.465,-16.602,83.984,1.000
1626295124366041.750,-50.293,0.488,-13.184,-115.234,1.000
1626295124369948.000,-86.426,-0.977,-14.160,-140.137,1.000
1626295124373854.250,-5.371,-64.941,-8.789,1.000,1.000
1626295124377760.500,28.809,-63.477,-24.414,1.000,1.000
1626295124381666.750,-53.223,-22.949,-42.969,1.000,1.000
1626295124385573.000,-101.562,-28.320,-38.574,1.000,1.000
1626295124389479.250,-29.785,-13.184,-49.805,1.000,1.000
1626295124393385.500,47.363,-83.984,-32.227,1.000,1.000
1626295124397291.750,-5.371,-41.504,-16.113,1.000,1.000
1626295124401198.000,-93.750,-0.488,-26.367,1.000,1.000
1626295124405104.250,-63.965,-17.578,-28.320,1.000,1.000
1626295124409010.500,26.367,-22.461,-22.461,1.000,1.000
1626295124412916.750,23.438,-87.891,-28.320,1.000,1.000
1626295124416823.000,-85.449,-71.289,-50.293,1.000,1.000
1626295124420729.250,-96.191,-32.227,-56.152,-128.906,1.000
1626295124424635.500,12.695,15.625,-28.809,74.707,1.000
1626295124428541.750,28.320,15.625,-20.508,76.172,1.000
1626295124432448.000,-54.199,-43.457,-19.531,-113.770,1.000
1626295124436354.250,-71.777,-8.789,-32.715,-145.996,1.000
1626295124440260.500,18.066,9.766,-41.016,48.828,1.000
1626295124444166.750,55.664,1.465,-22.461,117.188,1.000
1626295124448073.000,-33.203,-40.039,-17.578,-62.500,1.000
1626295124451979.250,-110.840,-69.824,-29.297,-180.176,1.000
1626295124455885.500,-47.363,-21.973,-21.973,-36.621,1.000
1626295124459791.750,36.621,-4.883,-6.348,108.398,1.000
1626295124463698.000,-1.953,-5.371,-13.672,-2.441,1.000
1626295124467604.250,-99.609,-79.590,-28.809,1.000,1.000
1626295124471510.500,-88.379,-80.078,-40.039,1.000,1.000
1626295124475416.750,8.301,2.930,-32.227,1.000,1.000
1626295124479323.000,27.832,20.508,-37.598,1.000,1.000
1626295124483229.250,-62.500,-32.227,-64.453,1.000,1.000
1626295124487135.500,-70.801,-102.539,-26.855,1.000,1.000
1626295124491041.750,-0.977,-55.664,-1.953,1.000,1.000
1626295124494948.000,4.395,-13.184,-14.648,1.000,1.000
1626295124498854.250,-78.125,0.000,-27.832,1.000,1.000
1626295124502760.500,-107.910,-7.812,-29.297,1.000,1.000
1626295124506666.750,-15.625,-84.961,-19.531,1.000,1.000
1626295124510573.000,35.645,-65.918,-13.184,1.000,1.000
1626295124514479.250,-33.691,-37.598,-26.367,-49.805,1.000
1626295124518385.500,-114.258,-22.461,-41.992,-186.035,1.000
1626295124522291.750,-41.992,4.883,-10.742,-25.391,1.000
1626295124526198.000,61.035,-17.578,11.719,148.438,1.000
1626295124530104.250,1.953,-26.855,-21.973,14.160,1.000
1626295124534010.500,-101.074,-45.898,-42.480,-167.969,1.000
1626295124537916.750,-79.590,-35.645,-22.461,-96.680,1.000
1626295124541823.000,39.062,-19.043,-9.766,109.863,1.000
1626295124545729.250,47.363,-33.691,-21.484,86.426,1.000
1626295124549635.500,-77.148,-30.273,-44.922,-144.531,1.000
1626295124553541.750,-111.328,-12.207,-52.734,-162.598,1.000
1626295124557448.000,-8.789,-0.488,-33.691,55.176,1.000
1626295124561354.250,7.812,-23.438,-5.859,120.117,1.000
1626295124565260.500,35.645,1.465,-8.789,-67.871,1.000
1626295124569166.750,-49.316,-8.301,-24.902,-165.527,1.000
1626295124573073.000,-86.426,-52.734,-36.133,-13.184,1.000
1626295124576979.250,-33.203,-20.996,-37.109,86.426,1.000
1626295124580885.500,7.812,-34.668,-31.250,-43.945,1.000
1626295124584791.750,-51.758,-43.457,-47.852,-150.391,1.000
1626295124588698.000,-104.980,-48.340,-43.457,-18.555,1.000
1626295124592604.250,-39.551,-48.828,-30.273,141.113,1.000
1626295124596510.500,25.879,1.465,-28.809,43.457,1.000
1626295124600416.750,-25.879,-16.602,-40.527,-163.574,1.000
1626295124604323.000,-101.074,-31.738,-43.457,-122.070,1.000
1626295124608229.250,-52.734,-76.660,-18.066,1.000,1.000
1626295124612135.500,54.199,-46.875,9.277,1.000,1.000
1626295124616041.750,45.410,-3.418,-4.395,1.000,1.000
1626295124619948.000,-68.848,-40.039,-37.598,1.000,1.000
1626295124623854.250,-81.055,-44.434,-39.551,1.000,1.000
1626295124627760.500,22.949,-93.750,-3.906,1.000,1.000
1626295124631666.750,26.367,-35.645,-16.602,1.000,1.000
1626295124635573.000,-72.266,17.090,-44.922,1.000,1.000
1626295124639479.250,-108.887,0.488,-37.598,1.000,1.000
1626295124643385.500,-16.602,-32.715,3.906,1.000,1.000
1626295124647291.750,54.688,-106.445,17.090,1.000,1.000
1626295124651198.000,-20.020,-51.270,-24.414,1.000,1.000
1626295124655104.250,-95.215,-7.812,-37.598,-170.410,1.000
1626295124659010.500,-32.715,1.953,-22.949,-22.949,1.000
1626295124662916.750,60.059,-3.906,-20.996,128.906,1.000
1626295124666823.000,9.766,-58.105,-34.180,0.977,1.000
1626295124670729.250,-99.121,-36.621,-41.992,-191.406,1.000
1626295124674635.500,-72.754,-11.719,-29.297,-103.027,1.000
1626295124678541.750,16.602,8.789,-29.785,75.195,1.000
1626295124682448.000,7.812,-23.926,-49.316,19.531,1.000
1626295124686354.250,-68.848,-65.918,-47.363,-152.344,1.000
1626295124690260.500,-69.336,-20.996,-28.809,-123.535,1.000
1626295124694166.750,22.949,1.465,-7.812,76.172,1.000
1626295124698073.000,44.922,-7.324,-14.648,99.121,1.000
1626295124701979.250,29.785,-14.648,-10.254,66.406,1.000
1626295124705885.500,-58.105,0.000,-21.973,-123.535,1.000
1626295124709791.750,-88.867,-20.020,-42.480,-134.766,1.000
1626295124713698.000,-9.277,-85.449,-33.203,57.617,1.000
1626295124717604.250,31.250,-23.926,-13.184,102.539,1.000
1626295124721510.500,-55.176,2.441,-27.344,-91.309,1.000
1626295124725416.750,-106.445,-15.137,-44.922,-171.875,1.000
1626295124729323.000,-37.109,-29.785,-29.785,-4.883,1.000
1626295124733229.250,16.113,-49.805,-25.391,90.820,1.000
1626295124737135.500,-42.480,-28.809,-46.875,-61.523,1.000
1626295124741041.750,-97.656,-20.020,-44.434,-180.664,1.000
1626295124744948.000,-35.156,-4.395,-10.254,-38.086,1.000
1626295124748854.250,28.809,-66.895,-11.230,104.492,1.000
1626295124752760.500,-18.066,-82.031,-37.598,1.953,1.000
1626295124756666.750,-105.469,-42.969,-40.527,-168.945,1.000
1626295124760573.000,-83.496,-8.301,-30.273,-105.957,1.000
1626295124764479.250,13.672,11.719,-17.090,86.914,1.000
1626295124768385.500,21.973,-108.887,-18.555,67.383,1.000
1626295124772291.750,-53.223,-83.496,-24.902,-114.258,1.000
1626295124776198.000,-72.754,-21.973,-20.508,-130.859,1.000
1626295124780104.250,3.906,-4.395,-27.832,45.410,1.000
1626295124784010.500,41.992,7.812,-31.250,95.215,1.000
1626295124787916.750,-38.086,-61.523,-35.156,-89.844,1.000
1626295124791823.000,-116.211,-42.480,-70.801,-201.172,1.000
1626295124795729.250,-48.828,-22.949,-59.082,1.000,1.000
1626295124799635.500,26.855,-26.855,-22.949,1.000,1.000
1626295124803541.750,-26.855,-50.293,-17.578,1.000,1.000
1626295124807448.000,-97.168,-85.449,-11.230,1.000,1.000
1626295124811354.250,-56.641,-38.574,-17.090,1.000,1.000
1626295124815260.500,30.762,-8.301,-20.020,1.000,1.000
1626295124819166.750,2.441,-2.930,-30.762,1.000,1.000
1626295124823073.000,-88.379,-41.016,-32.715,1.000,1.000
1626295124826979.250,-77.148,-83.984,-20.508,1.000,1.000
1626295124830885.500,32.715,-42.480,-7.812,1.000,1.000
1626295124834791.750,51.270,-20.020,-22.949,1.000,1.000
1626295124838698.000,-49.316,19.531,-43.457,1.000,1.000
1626295124842604.250,-99.121,-42.480,-45.410,1.000,1.000
1626295124846510.500,-33.203,-64.941,-42.969,1.000,1.000
1626295124850416.750,19.043,-18.066,-30.762,1.000,1.000
1626295124854323.000,-42.969,-23.438,-24.414,1.000,1.000
1626295124858229.250,-95.215,-15.137,-39.551,1.000,1.000
1626295124862135.500,-31.738,-99.121,-39.062,1.000,1.000
1626295124866041.750,32.227,-48.340,-21.973,1.000,1.000
1626295124869948.000,-10.254,3.418,-15.625,1.000,1.000
1626295124873854.250,-90.820,-18.555,-24.902,1.000,1.000
1626295124877760.500,-63.477,-34.668,-34.668,1.000,1.000
1626295124881666.750,12.207,-122.070,-33.203,1.000,1.000
1626295124885573.000,-0.977,-49.805,-38.086,1.000,1.000
1626295124889479.250,-96.191,-2.441,-47.852,-160.645,1.000
1626295124893385.500,-100.586,-23.926,-31.738,-137.207,1.000
1626295124897291.750,12.207,-39.551,-12.207,81.055,1.000
1626295124901198.000,26.367,-80.566,-11.719,99.121,1.000
1626295124905104.250,-67.871,-40.039,-43.945,-108.398,1.000
1626295124909010.500,-97.168,-9.277,-48.828,-166.504,1.000
1626295124912916.750,-17.578,20.996,-29.785,15.625,1.000
1626295124916823.000,53.223,-31.250,-26.855,126.465,1.000
1626295124920729.250,-3.418,-78.613,-16.602,-17.090,1.000
1626295124924635.500,-102.539,-24.414,-30.762,-166.992,1.000
1626295124928541.750,-68.359,0.977,-42.480,-45.410,1.000
1626295124932448.000,21.973,19.043,-33.203,118.652,1.000
1626295124936354.250,51.270,25.391,-20.996,115.723,1.000
1626295124940260.500,-16.602,-1.465,-34.668,-38.086,1.000
1626295124944166.750,-108.887,-34.668,-39.062,-186.035,1.000
1626295124948073.000,-47.363,-40.527,-25.879,-56.152,1.000
1626295124951979.250,40.039,-6.348,-33.203,111.328,1.000
1626295124955885.500,8.301,10.254,-21.484,33.203,1.000
1626295124959791.750,-76.660,-2.441,-20.508,-144.043,1.000
1626295124963698.000,-66.895,-38.086,-31.738,-96.191,1.000
1626295124967604.250,19.531,-53.711,-17.578,89.844,1.000
1626295124971510.500,21.973,-36.133,-19.043,65.918,1.000
1626295124975416.750,-57.129,-26.855,-21.484,-115.234,1.000
1626295124979323.000,-80.566,1.465,-19.531,-129.395,1.000
1626295124983229.250,0.488,-50.293,-17.578,1.000,1.000
1626295124987135.500,43.457,-54.688,-17.090,1.000,1.000
1626295124991041.750,-29.785,3.418,-52.734,1.000,1.000
1626295124994948.000,-97.168,-2.441,-51.758,1.000,1.000
1626295124998854.250,-53.223,-12.207,-16.113,1.000,1.000
1626295125002760.500,23.926,-78.125,-9.766,1.000,1.000
1626295125006666.750,-20.996,-58.594,-26.367,1.000,1.000
1626295125010573.000,-102.539,-35.156,-33.691,1.000,1.000
1626295125014479.250,-54.688,-9.277,-25.879,1.000,1.000
1626295125018385.500,41.504,-17.578,-16.602,1.000,1.000
1626295125022291.750,6.348,-112.305,-21.973,1.000,1.000
1626295125026198.000,-85.938,-46.875,-22.461,1.000,1.000
1626295125030104.250,-76.660,-3.906,-17.578,-107.910,1.000
1626295125034010.500,17.578,-14.648,-6.348,79.590,1.000
1626295125037916.750,25.391,-20.020,-8.301,71.777,1.000
1626295125041823.000,-85.938,-70.312,-56.152,-139.648,1.000
1626295125045729.250,-103.027,-18.066,-62.012,-160.156,1.000
1626295125049635.500,-4.883,14.160,-25.391,43.945,1.000
1626295125053541.750,37.598,7.324,-23.926,110.840,1.000
1626295125057448.000,-30.762,-25.879,-24.902,-60.059,1.000
1626295125061354.250,-98.145,-82.031,-26.855,-169.434,1.000
1626295125065260.500,-39.062,-70.312,-25.391,-25.879,1.000
1626295125069166.750,32.227,-45.898,-11.719,100.098,1.000
1626295125073073.000,-31.738,-5.859,-35.645,-37.598,1.000
1626295125076979.250,-54.199,1.953,-27.832,-71.289,1.000
1626295125080885.500,-121.094,-3.906,-22.461,-189.941,1.000
1626295125084791.750,-53.223,-2.930,-10.742,-47.363,1.000
1626295125088698.000,27.832,-44.922,-12.695,102.539,1.000
1626295125092604.250,4.395,-9.766,-20.020,3.418,1.000
1626295125096510.500,-81.055,3.906,-28.320,-162.598,1.000
1626295125100416.750,-83.008,-24.414,-27.344,-104.980,1.000
1626295125104323.000,5.859,-55.176,-18.555,68.359,1.000
1626295125108229.250,6.348,-72.754,-31.250,36.133,1.000
1626295125112135.500,-83.008,-39.062,-53.711,-151.855,1.000
1626295125116041.750,-82.520,-29.297,-35.645,-130.371,1.000
1626295125119948.000,-4.883,-9.277,-20.020,60.059,1.000
1626295125123854.250,21.484,20.996,-27.344,92.773,1.000
1626295125127760.500,17.090,7.324,-48.340,-81.055,1.000
1626295125131666.750,-85.449,-25.391,-49.316,-162.109,1.000
1626295125135573.000,-100.098,-68.359,-29.785,8.301,1.000
1626295125139479.250,1.953,-32.715,5.371,136.719,1.000
1626295125143385.500,44.434,-15.625,12.207,-27.832,1.000
1626295125147291.750,-42.480,-49.316,-31.250,-198.242,1.000
1626295125151198.000,-105.957,-75.684,-54.199,-76.172,1.000
1626295125155104.250,-27.344,-42.969,-41.992,97.168,1.000
1626295125159010.500,39.062,15.137,-34.180,16.602,1.000
1626295125162916.750,-19.043,9.766,-33.691,-159.180,1.000
1626295125166823.000,-94.238,9.277,-45.410,-100.586,1.000
1626295125170729.250,-62.988,-65.430,-42.969,1.000,1.000
1626295125174635.500,23.926,-71.777,-34.668,1.000,1.000
1626295125178541.750,19.043,-26.855,-42.969,1.000,1.000
1626295125182448.000,-71.777,-36.133,-28.809,1.000,1.000
1626295125186354.250,-68.359,-6.836,-8.789,1.000,1.000
1626295125190260.500,26.367,-37.109,-8.301,1.000,1.000
1626295125194166.750,32.715,-15.137,-24.414,1.000,1.000
1626295125198073.000,-49.316,14.160,-29.785,1.000,1.000
1626295125201979.250,-91.309,-12.695,-27.832,1.000,1.000
1626295125205885.500,-28.809,-34.180,-33.691,1.000,1.000
1626295125209791.750,23.926,-81.543,-33.203,1.000,1.000
1626295125213698.000,-41.016,-53.223,-30.762,1.000,1.000
1626295125217604.250,-94.238,-46.875,-34.180,-171.387,1.000
1626295125221510.500,-20.508,-17.578,-19.531,-7.812,1.000
1626295125225416.750,43.945,4.883,-21.973,117.676,1.000
1626295125229323.000,-16.113,-38.086,-43.945,-13.672,1.000
1626295125233229.250,-100.586,-7.812,-48.828,-167.969,1.000
1626295125237135.500,-68.848,2.441,-35.156,-74.219,1.000
1626295125241041.750,24.414,5.371,-24.414,101.562,1.000
1626295125244948.000,4.883,-29.785,-23.438,29.297,1.000
1626295125248854.250,-84.473,-79.102,-21.484,-158.691,1.000
1626295125252760.500,-81.543,-35.156,-26.855,-132.812,1.000
1626295125256666.750,11.230,-22.461,-23.438,56.152,1.000
1626295125260573.000,32.715,-10.254,-20.508,84.473,1.000
1626295125264479.250,44.922,-8.301,-14.160,62.012,1.000
1626295125268385.500,-49.316,-12.207,-15.137,-121.094,1.000
1626295125272291.750,-55.176,-9.277,-9.766,-104.980,1.000
1626295125276198.000,28.320,-54.688,-26.855,81.543,1.000
1626295125280104.250,19.531,-30.762,-50.781,59.082,1.000
1626295125284010.500,-69.336,-13.672,-43.945,-127.930,1.000
1626295125287916.750,-106.445,4.883,-38.086,-173.828,1.000
1626295125291823.000,-30.273,-18.066,-24.414,-5.859,1.000
1626295125295729.250,53.711,-54.199,-17.090,116.699,1.000
1626295125299635.500,2.930,-12.695,-29.297,-19.531,1.000
1626295125303541.750,-87.891,-31.250,-42.480,-166.504,1.000
1626295125307448.000,-37.109,-11.230,-29.785,-41.016,1.000
1626295125311354.250,47.852,-29.297,-22.461,1.000,1.000
1626295125315260.500,7.812,-49.805,-34.668,1.000,1.000
1626295125319166.750,-73.730,-14.648,-31.738,1.000,1.000
1626295125323073.000,-74.707,-12.695,-24.902,1.000,1.000
1626295125326979.250,0.000,-22.949,-26.367,1.000,1.000
1626295125330885.500,15.625,-108.887,-31.738,1.000,1.000
1626295125334791.750,-52.734,-62.500,-33.691,1.000,1.000
1626295125338698.000,-70.801,5.859,-33.203,1.000,1.000
1626295125342604.250,0.977,4.395,-38.086,1.000,1.000
1626295125346510.500,38.574,-32.227,-35.156,1.000,1.000
1626295125350416.750,-36.133,-101.074,-24.414,1.000,1.000
1626295125354323.000,-97.168,-45.898,-19.043,1.000,1.000
1626295125358229.250,-38.574,-0.977,-21.484,1.000,1.000
1626295125362135.500,24.414,13.672,-30.273,1.000,1.000
1626295125366041.750,-25.391,-17.090,-39.062,1.000,1.000
1626295125369948.000,-101.074,-90.332,-34.180,1.000,1.000
1626295125373854.250,-59.082,-38.086,-20.996,1.000,1.000
1626295125377760.500,36.133,4.395,-20.508,1.000,1.000
1626295125381666.750,6.836,4.395,-33.203,1.000,1.000
1626295125385573.000,-83.984,-41.016,-41.992,1.000,1.000
1626295125389479.250,-59.082,-77.637,-47.363,1.000,1.000
1626295125393385.500,33.203,-23.438,-39.062,1.000,1.000
1626295125397291.750,30.762,6.348,-35.645,1.000,1.000
1626295125401198.000,-71.777,-6.836,-59.570,1.000,1.000
1626295125405104.250,-85.449,-62.988,-34.668,-135.742,1.000
1626295125409010.500,5.371,-34.180,-14.160,57.129,1.000
1626295125412916.750,17.090,8.789,-33.691,97.656,1.000
1626295125416823.000,-59.570,-14.648,-39.551,-78.613,1.000
1626295125420729.250,-105.469,-41.016,-23.438,-164.062,1.000
1626295125424635.500,-34.668,-107.422,-2.930,1.465,1.000
1626295125428541.750,39.551,-61.035,-12.695,130.371,1.000
1626295125432448.000,0.488,-8.301,-30.762,2.441,1.000
1626295125436354.250,-87.402,-10.254,-43.945,-158.203,1.000
1626295125440260.500,-52.246,-17.090,-37.109,-62.500,1.000
1626295125444166.750,20.996,-100.586,-33.691,95.215,1.000
1626295125448073.000,-3.906,-51.758,-40.527,31.250,1.000
1626295125451979.250,-90.332,-7.324,-49.805,-150.879,1.000
1626295125455885.500,-86.426,-7.324,-36.621,-125.000,1.000
1626295125459791.750,20.020,-25.879,-13.184,81.055,1.000
1626295125463698.000,43.945,-84.961,-15.625,101.562,1.000
1626295125467604.250,-57.129,-48.340,-39.062,-103.516,1.000
1626295125471510.500,-114.258,-7.324,-59.082,-176.758,1.000
1626295125475416.750,-27.832,23.926,-38.086,5.859,1.000
1626295125479323.000,41.504,4.395,-13.184,105.469,1.000
1626295125483229.250,-25.879,-55.176,-25.879,-49.805,1.000
1626295125487135.500,-104.004,-34.180,-45.410,-175.293,1.000
1626295125491041.750,-61.035,-12.207,-33.691,-42.969,1.000
1626295125494948.000,12.207,2.441,-11.719,104.004,1.000
1626295125498854.250,19.531,-20.020,-24.902,-7.324,1.000
1626295125502760.500,-34.180,-25.391,-19.531,-174.316,1.000
1626295125506666.750,-112.793,-48.340,-36.621,-97.656,1.000
1626295125510573.000,-65.918,-71.777,-27.832,91.797,1.000
