timestamps,TP9,AF7,AF8,TP10,Right AUX
1626295004561354.250,-32.715,-9.277,-23.438,-70.801,1.000
1626295004565260.500,-107.422,-25.879,-37.598,-178.711,1.000
1626295004569166.750,-50.781,-31.738,-53.223,-33.691,1.000
1626295004573073.000,31.250,-44.434,-70.312,103.027,1.000
1626295004576979.250,23.438,26.855,-44.434,14.160,1.000
1626295004580885.500,-56.152,25.391,-35.645,-136.230,1.000
1626295004584791.750,-60.547,-36.133,-36.133,-77.148,1.000
1626295004588698.000,19.043,-91.309,-9.277,91.797,1.000
1626295004592604.250,15.625,-55.664,-12.207,42.480,1.000
1626295004596510.500,-76.172,-2.930,-44.922,-149.902,1.000
1626295004600416.750,-82.520,-0.488,-42.969,-135.254,1.000
1626295004604323.000,7.812,-2.930,-28.320,52.246,1.000
1626295004608229.250,26.367,-7.324,-18.555,1.000,1.000
1626295004612135.500,7.812,2.441,-13.184,1.000,1.000
1626295004616041.750,-84.961,-30.762,-26.367,1.000,1.000
1626295004619948.000,-96.680,-74.219,-35.156,1.000,1.000
1626295004623854.250,-6.348,-38.574,-31.738,1.000,1.000
1626295004627760.500,35.156,-23.926,-9.766,1.000,1.000
1626295004631666.750,-22.461,-6.348,-13.672,1.000,1.000
1626295004635573.000,-84.473,-65.430,-45.410,1.000,1.000
1626295004639479.250,-38.086,-57.617,-36.621,1.000,1.000
1626295004643385.500,19.043,-2.930,-26.855,1.000,1.000
1626295004647291.750,-60.059,-19.531,-54.199,1.000,1.000
1626295004651198.000,-137.695,-28.809,-63.965,1.000,1.000
1626295004655104.250,-74.219,-43.945,-4.883,-132.812,1.000
1626295004659010.500,-28.320,-32.227,-15.625,1.465,1.000
1626295004662916.750,31.250,-30.273,-28.809,109.863,1.000
1626295004666823.000,-16.113,-68.848,-24.414,-16.602,1.000
1626295004670729.250,-107.910,-23.438,-41.992,-168.945,1.000
1626295004674635.500,-87.402,-5.859,-61.035,-80.078,1.000
1626295004678541.750,-2.441,-2.930,-55.664,77.148,1.000
1626295004682448.000,4.395,-74.707,-40.527,23.926,1.000
1626295004686354.250,-72.754,-101.074,-32.715,-142.090,1.000
1626295004690260.500,-76.660,-28.320,-36.133,-102.539,1.000
1626295004694166.750,14.160,-8.789,-22.461,85.449,1.000
1626295004698073.000,42.969,-20.508,-9.766,94.238,1.000
1626295004701979.250,21.973,24.902,-45.898,43.945,1.000
1626295004705885.500,-51.758,-4.395,-58.594,-129.883,1.000
1626295004709791.750,-71.289,-48.340,-34.668,-113.770,1.000
1626295004713698.000,-15.625,-58.594,-25.879,47.363,1.000
1626295004717604.250,-3.418,-13.672,-52.734,47.363,1.000
1626295004721510.500,-72.266,-18.555,-53.223,-130.371,1.000
1626295004725416.750,-104.980,-24.414,-50.293,-177.734,1.000
1626295004729323.000,-22.461,-89.355,-31.738,4.395,1.000
1626295004733229.250,36.621,-75.195,-10.742,97.656,1.000
1626295004737135.500,-28.320,-4.883,-23.926,-59.570,1.000
1626295004741041.750,-84.473,0.000,-29.785,-168.945,1.000
1626295004744948.000,-33.203,-9.277,-26.367,-32.715,1.000
1626295004748854.250,-42.480,4.883,-18.555,1.000,1.000
1626295004752760.500,22.949,17.578,-16.113,1.000,1.000
1626295004756666.750,-16.113,-24.902,-43.945,1.000,1.000
1626295004760573.000,-70.801,-89.844,-68.848,1.000,1.000
1626295004764479.250,-40.527,-37.598,-53.711,1.000,1.000
1626295004768385.500,17.090,16.602,-31.250,1.000,1.000
1626295004772291.750,-12.695,24.902,-50.293,1.000,1.000
1626295004776198.000,-81.055,-44.922,-31.250,1.000,1.000
1626295004780104.250,-64.941,-47.363,3.418,1.000,1.000
1626295004784010.500,1.953,15.625,-6.348,1.000,1.000
1626295004787916.750,2.441,13.184,-13.184,1.000,1.000
1626295004791823.000,-81.055,-22.461,-24.414,1.000,1.000
1626295004795729.250,-68.848,-32.227,-19.043,-142.578,1.000
1626295004799635.500,-72.266,-15.625,-23.438,-113.281,1.000
1626295004803541.750,8.789,-16.113,-18.066,66.406,1.000
1626295004807448.000,22.461,-52.246,-22.949,68.359,1.000
1626295004811354.250,-76.660,-36.621,-56.152,-132.324,1.000
1626295004815260.500,-115.234,-35.645,-51.270,-169.434,1.000
1626295004819166.750,-25.391,11.230,-16.602,18.066,1.000
1626295004823073.000,20.508,-44.434,-11.719,87.402,1.000
1626295004826979.250,-39.062,-57.129,-39.062,-78.613,1.000
1626295004830885.500,-81.055,-1.953,-27.344,-166.016,1.000
1626295004834791.750,-14.648,-9.766,-6.348,-5.371,1.000
1626295004838698.000,44.434,-13.672,-47.363,109.863,1.000
1626295004842604.250,43.945,-24.414,-14.648,106.934,1.000
1626295004846510.500,-23.926,-3.906,-35.645,-51.758,1.000
1626295004850416.750,-76.172,-28.809,-41.504,-154.785,1.000
1626295004854323.000,-23.438,-69.824,-28.809,-23.926,1.000
1626295004858229.250,29.785,2.441,-18.555,101.562,1.000
1626295004862135.500,-7.324,21.973,-35.645,1.465,1.000
1626295004866041.750,-70.801,10.742,-41.504,-144.043,1.000
1626295004869948.000,-57.129,-55.176,-18.066,-78.125,1.000
1626295004873854.250,8.301,-66.406,-15.137,83.984,1.000
1626295004877760.500,21.973,-21.973,-36.621,56.152,1.000
1626295004881666.750,-53.223,-52.246,-63.477,-120.605,1.000
1626295004885573.000,-74.219,-55.664,-53.223,-123.047,1.000
1626295004889479.250,-71.289,-6.348,-10.254,69.824,1.000
1626295004893385.500,-4.395,15.625,-9.766,109.375,1.000
1626295004897291.750,4.883,-11.230,-20.020,-94.727,1.000
1626295004901198.000,-64.941,-57.617,-32.227,-190.430,1.000
1626295004905104.250,-74.707,-17.578,-20.020,-9.766,1.000
1626295004909010.500,5.859,6.836,-9.766,117.676,1.000
1626295004912916.750,37.109,1.465,-34.180,-36.133,1.000
1626295004916823.000,-19.531,-75.684,-55.664,-183.594,1.000
1626295004920729.250,-68.848,-83.984,-28.320,-53.223,1.000
1626295004924635.500,-19.531,-7.812,-8.789,122.559,1.000
1626295004928541.750,29.785,11.719,-23.926,45.410,1.000
1626295004932448.000,-21.484,-0.977,-32.715,-122.559,1.000
1626295004936354.250,-38.086,13.672,-34.180,-66.895,1.000
1626295004940260.500,-79.102,0.977,-23.926,-147.949,1.000
1626295004944166.750,-21.484,-16.113,-21.484,-3.906,1.000
1626295004948073.000,54.199,-21.973,-6.348,129.395,1.000
1626295004951979.250,9.277,-19.043,-18.066,4.395,1.000
1626295004955885.500,-79.102,-37.598,-41.504,-148.926,1.000
1626295004959791.750,-54.688,0.488,-33.203,-69.824,1.000
1626295004963698.000,35.645,-16.602,0.488,98.633,1.000
1626295004967604.250,28.320,-34.668,3.418,53.223,1.000
1626295004971510.500,-66.895,-13.672,-19.043,-138.672,1.000
1626295004975416.750,-90.820,-9.766,-24.414,-131.348,1.000
1626295004979323.000,-11.719,-13.184,-17.578,51.758,1.000
1626295004983229.250,7.812,-19.043,-24.414,1.000,1.000
1626295004987135.500,13.184,-23.926,-42.480,1.000,1.000
1626295004991041.750,-64.453,-27.344,-52.734,1.000,1.000
1626295004994948.000,-84.473,-64.453,-48.340,1.000,1.000
1626295004998854.250,-4.883,-22.949,-30.273,1.000,1.000
1626295005002760.500,29.785,5.371,-8.301,1.000,1.000
1626295005006666.750,-44.434,13.184,-6.836,1.000,1.000
1626295005010573.000,-81.543,-35.645,-18.555,1.000,1.000
1626295005014479.250,-4.883,-53.711,-27.832,1.000,1.000
1626295005018385.500,62.500,-19.531,-20.508,1.000,1.000
1626295005022291.750,-1.465,-24.414,-14.648,1.000,1.000
1626295005026198.000,-89.844,-44.434,-36.621,1.000,1.000
1626295005030104.250,8.301,-2.441,-32.715,33.203,1.000
1626295005034010.500,-63.965,-33.691,-34.180,-138.184,1.000
1626295005037916.750,-75.195,-41.992,-33.203,-119.629,1.000
1626295005041823.000,2.930,-30.762,-20.996,62.988,1.000
1626295005045729.250,30.762,-6.836,-26.367,84.961,1.000
1626295005049635.500,-41.504,-15.625,-29.785,-94.238,1.000
1626295005053541.750,-85.449,-31.250,-41.992,-156.738,1.000
1626295005057448.000,-17.090,-69.336,-50.293,8.789,1.000
1626295005061354.250,42.969,-54.688,-28.320,104.980,1.000
1626295005065260.500,-24.414,-23.926,-22.949,-50.293,1.000
1626295005069166.750,-95.703,-27.344,-25.391,-168.945,1.000
1626295005073073.000,-38.086,-4.883,-22.461,-25.391,1.000
1626295005076979.250,-19.043,-8.301,-0.977,1.000,1.000
1626295005080885.500,46.387,0.488,-6.348,1.000,1.000
1626295005084791.750,-13.672,-36.621,-42.969,1.000,1.000
1626295005088698.000,-84.961,-74.707,-52.734,1.000,1.000
1626295005092604.250,-46.387,-39.551,-39.551,1.000,1.000
1626295005096510.500,24.902,0.000,-36.133,1.000,1.000
1626295005100416.750,-1.953,12.207,-45.410,1.000,1.000
1626295005104323.000,-84.961,-33.203,-43.945,1.000,1.000
1626295005108229.250,-77.637,-49.805,-27.344,1.000,1.000
1626295005112135.500,-6.836,-29.785,-26.367,1.000,1.000
1626295005116041.750,28.320,-6.836,-35.156,1.000,1.000
1626295005119948.000,-28.320,1.465,-38.574,1.000,1.000
1626295005123854.250,-90.820,-3.418,-27.344,-149.414,1.000
1626295005127760.500,-79.102,9.277,-13.184,-95.703,1.000
1626295005131666.750,11.230,-12.207,-6.836,87.402,1.000
1626295005135573.000,9.766,-57.617,-18.066,61.523,1.000
1626295005139479.250,-76.172,-42.969,-46.387,-125.488,1.000
1626295005143385.500,-93.750,-36.621,-48.828,-154.785,1.000
1626295005147291.750,-5.859,-20.508,-16.602,36.133,1.000
1626295005151198.000,53.711,-36.621,-2.930,124.023,1.000
1626295005155104.250,-13.184,-64.941,-16.113,-39.062,1.000
1626295005159010.500,-87.402,-53.711,-33.691,-150.391,1.000
1626295005162916.750,-46.387,-34.180,-40.039,-20.996,1.000
1626295005166823.000,14.160,-13.184,-39.062,97.656,1.000
1626295005170729.250,8.789,11.230,5.371,84.473,1.000
1626295005174635.500,-48.828,-20.508,-21.484,-65.430,1.000
1626295005178541.750,-117.188,-48.340,-51.758,-185.059,1.000
1626295005182448.000,-57.617,-59.082,-21.973,-46.387,1.000
1626295005186354.250,13.184,-18.555,-8.789,95.215,1.000
1626295005190260.500,-16.602,-6.836,-26.367,-6.836,1.000
1626295005194166.750,-106.934,-43.945,-41.992,-181.152,1.000
1626295005198073.000,-88.867,-91.309,-18.066,-110.840,1.000
1626295005201979.250,26.367,-52.734,19.531,97.656,1.000
1626295005205885.500,15.625,-23.438,-11.719,53.711,1.000
1626295005209791.750,-85.449,-22.949,-56.641,-145.508,1.000
1626295005213698.000,-108.398,-17.578,-52.246,-146.484,1.000
1626295005217604.250,-63.477,-31.250,-23.926,39.062,1.000
1626295005221510.500,9.277,-18.555,-9.766,79.102,1.000
1626295005225416.750,5.859,-21.484,-33.691,-104.492,1.000
1626295005229323.000,-62.012,-56.152,-57.617,-172.363,1.000
1626295005233229.250,-66.406,-8.789,-38.574,-0.488,1.000
1626295005237135.500,6.836,13.184,-5.859,96.191,1.000
1626295005241041.750,23.926,-19.043,-6.348,-43.457,1.000
1626295005244948.000,-40.039,-40.039,-15.625,-164.062,1.000
1626295005248854.250,-99.609,-51.758,-32.715,-53.223,1.000
1626295005252760.500,-37.109,-37.598,-30.762,92.285,1.000
1626295005256666.750,50.781,-27.344,-21.973,-4.395,1.000
1626295005260573.000,-6.348,-36.133,-37.598,-163.086,1.000
1626295005264479.250,-45.898,-21.973,-60.059,-83.984,1.000
1626295005268385.500,-98.633,-29.297,-71.289,-180.664,1.000
1626295005272291.750,-48.340,-25.879,-74.707,-46.387,1.000
1626295005276198.000,5.371,-44.922,-51.270,63.965,1.000
1626295005280104.250,-32.227,-10.742,-36.133,-50.781,1.000
1626295005284010.500,-100.586,6.348,-33.691,-182.129,1.000
1626295005287916.750,-67.383,7.324,-17.578,-92.285,1.000
1626295005291823.000,10.742,-30.273,-26.855,71.289,1.000
1626295005295729.250,-6.836,-56.641,-44.434,10.742,1.000
1626295005299635.500,-93.262,-51.758,-56.152,-171.387,1.000
1626295005303541.750,-106.445,-38.086,-73.242,-152.344,1.000
1626295005307448.000,-12.695,0.000,-44.922,38.086,1.000
1626295005311354.250,25.879,-4.883,-17.090,1.000,1.000
1626295005315260.500,39.551,-23.438,-3.906,1.000,1.000
1626295005319166.750,-41.504,-37.598,-43.457,1.000,1.000
1626295005323073.000,-80.566,-50.781,-56.152,1.000,1.000
1626295005326979.250,3.906,8.301,-15.137,1.000,1.000
1626295005330885.500,51.758,24.414,-2.441,1.000,1.000
1626295005334791.750,-13.184,0.000,-28.320,1.000,1.000
1626295005338698.000,-74.707,-53.711,-49.805,1.000,1.000
1626295005342604.250,-22.461,-54.199,-30.273,1.000,1.000
1626295005346510.500,37.109,-15.137,-4.395,1.000,1.000
1626295005350416.750,-18.555,-34.668,-17.578,1.000,1.000
1626295005354323.000,-83.984,-51.758,-26.367,1.000,1.000
1626295005358229.250,-64.453,0.000,-19.043,-128.906,1.000
1626295005362135.500,4.883,28.809,-35.156,31.250,1.000
1626295005366041.750,73.730,-1.465,-18.066,151.367,1.000
1626295005369948.000,-3.418,-66.895,-5.859,-7.324,1.000
1626295005373854.250,-104.492,-27.832,-22.949,-173.828,1.000
1626295005377760.500,-86.914,-11.719,-33.691,-89.844,1.000
1626295005381666.750,-2.930,-1.953,-32.227,77.148,1.000
1626295005385573.000,-6.348,-60.547,-41.504,24.902,1.000
1626295005389479.250,-74.707,-92.285,-43.457,-138.184,1.000
1626295005393385.500,-60.059,-24.902,-17.090,-88.379,1.000
1626295005397291.750,33.203,0.488,-7.812,103.027,1.000
1626295005401198.000,52.734,6.348,-25.879,106.445,1.000
1626295005405104.250,51.270,2.930,-2.441,83.008,1.000
1626295005409010.500,-60.547,-26.855,-42.480,-129.883,1.000
1626295005412916.750,-98.145,-46.387,-55.176,-148.926,1.000
1626295005416823.000,-29.785,-52.734,-39.062,27.344,1.000
1626295005420729.250,18.066,0.977,-32.715,70.312,1.000
1626295005424635.500,-36.621,6.348,-50.781,-89.844,1.000
1626295005428541.750,-89.355,-10.742,-59.082,-150.879,1.000
1626295005432448.000,-36.133,-53.223,-46.387,2.441,1.000
1626295005436354.250,31.250,-60.059,-18.066,101.562,1.000
1626295005440260.500,-9.766,-13.672,-13.184,-28.809,1.000
1626295005444166.750,-76.172,-21.973,-29.297,-148.438,1.000
1626295005448073.000,-36.133,-29.785,-19.531,-23.926,1.000
1626295005451979.250,-11.719,1.953,-43.457,11.719,1.000
1626295005455885.500,43.945,0.000,-26.367,104.980,1.000
1626295005459791.750,-7.812,-48.828,-23.926,-28.320,1.000
1626295005463698.000,-83.496,-67.871,-9.277,-156.250,1.000
1626295005467604.250,-43.945,-7.324,-2.441,-42.480,1.000
1626295005471510.500,27.344,-6.836,-16.113,101.562,1.000
1626295005475416.750,-3.906,-36.133,-26.855,5.371,1.000
1626295005479323.000,-90.332,-74.219,-42.480,-167.480,1.000
1626295005483229.250,-81.543,-47.852,-44.434,-112.305,1.000
1626295005487135.500,9.277,11.230,-31.738,76.660,1.000
1626295005491041.750,24.902,18.555,-17.578,68.848,1.000
1626295005494948.000,-37.598,8.789,-21.973,-94.727,1.000
1626295005498854.250,-92.773,-5.371,-23.926,-162.598,1.000
1626295005502760.500,-84.473,-6.348,-17.578,-117.188,1.000
1626295005506666.750,14.648,-35.156,-2.441,84.961,1.000
1626295005510573.000,38.574,-74.707,4.395,92.773,1.000
1626295005514479.250,-47.363,-29.785,-16.113,-94.238,1.000
1626295005518385.500,-81.543,0.000,-21.973,-134.277,1.000
1626295005522291.750,-14.160,4.883,-20.996,32.715,1.000
1626295005526198.000,15.137,-44.434,-28.809,88.379,1.000
1626295005530104.250,-57.129,-66.895,-38.574,-81.055,1.000
1626295005534010.500,-111.328,-22.949,-59.082,-179.688,1.000
1626295005537916.750,-54.688,-4.883,-52.734,-32.227,1.000
1626295005541823.000,20.996,-21.973,-21.484,109.863,1.000
1626295005545729.250,23.438,-5.371,-18.066,100.586,1.000
1626295005549635.500,-18.066,10.254,-22.461,-42.969,1.000
1626295005553541.750,-78.125,0.000,-29.297,-162.598,1.000
1626295005557448.000,-43.945,-40.039,-29.297,-44.434,1.000
1626295005561354.250,15.137,-20.996,-29.297,88.867,1.000
1626295005565260.500,-5.859,-28.320,-32.227,3.906,1.000
1626295005569166.750,-80.078,-29.785,-35.645,-152.344,1.000
1626295005573073.000,-67.383,-62.988,-36.133,-88.379,1.000
1626295005576979.250,4.883,-61.035,-41.016,81.543,1.000
1626295005580885.500,11.230,11.719,-32.227,50.781,1.000
1626295005584791.750,-67.383,4.395,-24.902,-133.789,1.000
1626295005588698.000,-101.562,-21.484,-29.297,-152.344,1.000
1626295005592604.250,-93.262,-22.949,-29.785,40.039,1.000
1626295005596510.500,12.207,-20.996,-12.207,93.262,1.000
1626295005600416.750,31.250,-32.715,-28.320,-88.867,1.000
1626295005604323.000,-65.430,-60.059,-36.621,-167.969,1.000
1626295005608229.250,-89.844,-19.043,-31.738,2.930,1.000
1626295005612135.500,-11.719,15.625,-35.156,110.840,1.000
1626295005616041.750,29.297,23.926,-20.996,-38.086,1.000
1626295005619948.000,-34.668,-54.688,-6.348,-183.594,1.000
1626295005623854.250,-100.586,-91.797,-15.625,-70.801,1.000
1626295005627760.500,-45.410,-21.973,-28.320,91.309,1.000
1626295005631666.750,31.250,-3.418,-41.504,20.020,1.000
1626295005635573.000,-16.602,-26.855,-59.570,-152.832,1.000
1626295005639479.250,-35.156,6.836,-27.832,-70.801,1.000
1626295005643385.500,-85.449,3.418,-42.480,-172.852,1.000
1626295005647291.750,-33.691,-16.113,-34.668,-40.039,1.000
1626295005651198.000,33.691,-70.312,-24.902,90.332,1.000
1626295005655104.250,9.766,-39.062,-19.043,-5.859,1.000
1626295005659010.500,-53.711,-12.695,-22.461,-146.973,1.000
1626295005662916.750,-49.805,2.930,-54.199,-81.543,1.000
1626295005666823.000,9.277,-19.043,-60.059,70.801,1.000
1626295005670729.250,2.930,-49.805,-45.898,22.949,1.000
1626295005674635.500,-78.613,-32.227,-46.875,-153.809,1.000
1626295005678541.750,-78.125,-5.371,-26.367,-129.395,1.000
1626295005682448.000,17.090,11.230,-14.648,63.477,1.000
1626295005686354.250,32.715,25.391,6.836,1.000,1.000
1626295005690260.500,26.855,13.672,-5.859,1.000,1.000
1626295005694166.750,-68.848,-41.016,-25.879,1.000,1.000
1626295005698073.000,-85.449,-72.266,-41.504,1.000,1.000
1626295005701979.250,-12.207,-14.648,-43.457,1.000,1.000
1626295005705885.500,20.020,13.184,-25.879,1.000,1.000
1626295005709791.750,-42.969,4.883,-37.109,1.000,1.000
1626295005713698.000,-77.637,-56.152,-55.664,1.000,1.000
1626295005717604.250,-12.695,-60.547,-26.367,1.000,1.000
1626295005721510.500,30.762,-15.137,5.371,1.000,1.000
1626295005725416.750,-32.715,-20.508,-11.230,1.000,1.000
1626295005729323.000,-102.051,-19.531,-26.855,1.000,1.000
1626295005733229.250,-108.398,-13.184,-47.363,-164.062,1.000
1626295005737135.500,-41.992,0.977,-21.484,-6.348,1.000
1626295005741041.750,28.809,-13.184,-16.602,109.375,1.000
1626295005744948.000,-8.301,-56.152,-27.832,-9.766,1.000
1626295005748854.250,-77.148,-34.180,-34.180,-152.344,1.000
1626295005752760.500,-44.434,-22.461,-45.898,-56.641,1.000
1626295005756666.750,34.180,-3.906,-45.898,105.469,1.000
1626295005760573.000,23.438,-41.016,-15.137,45.898,1.000
1626295005764479.250,-58.105,-87.402,-10.254,-129.395,1.000
1626295005768385.500,-53.223,-36.133,-21.973,-96.680,1.000
1626295005772291.750,19.043,6.836,-16.113,80.566,1.000
1626295005776198.000,21.973,-7.812,-22.949,68.848,1.000
1626295005780104.250,22.461,22.949,-8.789,45.898,1.000
1626295005784010.500,-57.129,19.531,-30.273,-124.023,1.000
1626295005787916.750,-74.707,-32.715,-34.180,-128.418,1.000
1626295005791823.000,13.184,-60.059,-14.160,58.594,1.000
1626295005795729.250,59.082,12.695,-4.883,113.281,1.000
1626295005799635.500,-29.785,3.418,-24.414,-70.801,1.000
1626295005803541.750,-104.980,-5.371,-52.734,-160.645,1.000
1626295005807448.000,-46.387,-38.574,-44.434,-8.789,1.000
1626295005811354.250,27.832,-63.477,-27.344,100.586,1.000
1626295005815260.500,-27.832,-35.645,-41.504,-45.898,1.000
1626295005819166.750,-97.168,-17.578,-50.781,-174.805,1.000
1626295005823073.000,-36.133,13.672,-25.879,-43.457,1.000
1626295005826979.250,-9.766,7.812,-30.762,95.215,1.000
1626295005830885.500,25.391,6.348,-41.504,3.418,1.000
1626295005834791.750,-29.785,-16.113,-48.828,-140.137,1.000
1626295005838698.000,-108.398,-60.547,-50.781,-82.520,1.000
1626295005842604.250,-80.078,-11.230,-35.156,62.012,1.000
1626295005846510.500,13.184,19.531,-13.184,27.832,1.000
1626295005850416.750,0.000,9.766,-25.879,-136.230,1.000
1626295005854323.000,-79.590,-74.707,-37.598,-139.160,1.000
1626295005858229.250,-59.082,-103.027,-18.066,49.805,1.000
1626295005862135.500,25.879,-25.879,-22.949,94.727,1.000
1626295005866041.750,30.762,22.461,-36.133,-75.684,1.000
1626295005869948.000,-55.176,11.230,-47.852,-130.859,1.000
1626295005873854.250,-92.773,-25.879,-45.410,-159.180,1.000
1626295005877760.500,-89.844,-19.531,-39.062,-122.070,1.000
1626295005881666.750,-10.742,-15.137,-20.996,57.617,1.000
1626295005885573.000,0.488,-69.336,-27.832,54.688,1.000
1626295005889479.250,-54.199,-37.598,-34.668,-105.957,1.000
1626295005893385.500,-54.199,-8.789,-18.066,-117.188,1.000
1626295005897291.750,9.766,-11.230,-9.277,51.270,1.000
1626295005901198.000,35.645,-48.828,-31.250,104.980,1.000
1626295005905104.250,-36.133,-48.340,-71.777,-66.895,1.000
1626295005909010.500,-101.074,-9.277,-71.289,-171.875,1.000
1626295005912916.750,-35.156,2.930,-22.461,-23.438,1.000
1626295005916823.000,49.805,2.930,-3.418,125.000,1.000
1626295005920729.250,46.875,-1.953,-11.719,117.188,1.000
1626295005924635.500,-14.160,0.977,-12.207,-34.668,1.000
1626295005928541.750,-73.730,-31.250,-22.461,-147.461,1.000
1626295005932448.000,-37.598,-70.312,-30.273,-35.156,1.000
1626295005936354.250,24.414,-24.414,-27.344,94.727,1.000
1626295005940260.500,-5.859,-16.113,-20.996,-0.977,1.000
1626295005944166.750,-92.285,-27.344,-36.133,-168.945,1.000
1626295005948073.000,-85.449,-59.570,-58.105,-111.816,1.000
1626295005951979.250,9.766,-47.852,-48.828,74.707,1.000
1626295005955885.500,47.852,14.648,-29.297,81.543,1.000
1626295005959791.750,-42.480,8.789,-25.879,-108.887,1.000
1626295005963698.000,-97.656,-22.949,-22.461,-153.320,1.000
1626295005967604.250,-87.402,-38.086,-14.160,-117.676,1.000
1626295005971510.500,3.418,-4.395,-13.184,66.406,1.000
1626295005975416.750,20.508,-14.160,-29.297,62.500,1.000
1626295005979323.000,-72.266,-67.871,-38.086,-128.418,1.000
1626295005983229.250,-108.887,-32.227,-41.504,-158.691,1.000
1626295005987135.500,-20.996,5.371,-19.043,38.574,1.000
1626295005991041.750,30.273,-0.488,-8.301,104.980,1.000
1626295005994948.000,-39.551,-55.176,-34.180,-70.801,1.000
1626295005998854.250,-86.426,-58.594,-33.203,-151.367,1.000
1626295006002760.500,-23.438,-5.371,-29.297,8.301,1.000
1626295006006666.750,43.945,-3.906,-32.227,124.512,1.000
1626295006010573.000,7.812,-0.488,-9.277,2.930,1.000
1626295006014479.250,-28.320,-3.906,-13.672,-57.617,1.000
1626295006018385.500,-107.422,-34.668,-44.434,-181.152,1.000
1626295006022291.750,-59.570,-67.871,-43.457,-47.363,1.000
1626295006026198.000,13.672,-94.727,-25.391,89.844,1.000
1626295006030104.250,-25.879,-31.738,-30.762,-29.785,1.000
1626295006034010.500,-96.191,-6.348,-57.129,-179.199,1.000
1626295006037916.750,-59.570,-8.301,-52.246,-76.660,1.000
1626295006041823.000,30.273,-17.578,-32.715,105.469,1.000
1626295006045729.250,17.578,-32.715,-47.363,50.293,1.000
1626295006049635.500,-73.730,-23.438,-35.645,-144.531,1.000
1626295006053541.750,-85.938,-20.020,-18.066,-134.766,1.000
1626295006057448.000,-19.043,-13.184,-40.039,35.156,1.000
1626295006061354.250,38.574,3.906,-14.648,1.000,1.000
1626295006065260.500,31.738,11.230,-21.973,1.000,1.000
1626295006069166.750,-71.289,-41.992,-19.531,1.000,1.000
1626295006073073.000,-103.027,-95.703,-14.160,1.000,1.000
1626295006076979.250,-9.766,-11.719,-4.883,1.000,1.000
1626295006080885.500,37.598,32.715,-15.137,1.000,1.000
1626295006084791.750,-59.570,-7.324,-43.457,1.000,1.000
1626295006088698.000,-119.141,-72.266,-34.180,1.000,1.000
1626295006092604.250,-34.180,-53.223,-11.719,1.000,1.000
1626295006096510.500,49.316,15.137,-19.531,1.000,1.000
1626295006100416.750,-12.207,5.859,-38.574,1.000,1.000
1626295006104323.000,-94.238,-25.391,-40.039,1.000,1.000
1626295006108229.250,-67.871,-37.598,-47.852,-133.789,1.000
1626295006112135.500,-12.207,-53.223,-15.625,11.719,1.000
1626295006116041.750,42.480,-27.832,-11.230,117.676,1.000
1626295006119948.000,-2.930,-37.598,-19.043,-7.812,1.000
1626295006123854.250,-81.055,0.000,-33.691,-154.297,1.000
1626295006127760.500,-61.035,1.953,-50.781,-71.777,1.000
1626295006131666.750,18.555,-4.395,-41.504,90.332,1.000
1626295006135573.000,11.230,-68.359,-11.719,36.133,1.000
1626295006139479.250,-69.824,-81.543,-6.836,-136.230,1.000
1626295006143385.500,-73.730,-10.254,-16.113,-106.934,1.000
1626295006147291.750,0.488,-15.137,-30.273,63.965,1.000
1626295006151198.000,26.855,-15.625,-27.832,73.242,1.000
1626295006155104.250,19.531,-10.742,-29.785,51.270,1.000
1626295006159010.500,-59.570,3.906,-16.113,-127.441,1.000
1626295006162916.750,-74.707,-7.324,-16.113,-122.070,1.000
1626295006166823.000,6.348,-37.109,-16.113,58.105,1.000
1626295006170729.250,36.621,-6.348,-5.859,93.750,1.000
1626295006174635.500,-55.176,-26.367,-32.715,-96.680,1.000
1626295006178541.750,-94.727,-8.301,-35.156,-156.738,1.000
1626295006182448.000,-10.742,-26.367,-17.090,27.344,1.000
1626295006186354.250,41.992,-45.410,-22.949,114.746,1.000
1626295006190260.500,-20.020,-0.488,-36.133,-45.898,1.000
1626295006194166.750,-72.754,12.207,-28.320,-154.297,1.000
1626295006198073.000,-20.508,23.926,-11.719,-21.973,1.000
1626295006201979.250,-36.133,-6.836,-52.246,89.844,1.000
1626295006205885.500,38.086,24.902,-10.742,-3.906,1.000
1626295006209791.750,-11.230,-4.883,-5.371,-145.508,1.000
1626295006213698.000,-87.891,-71.777,-24.902,-84.473,1.000
1626295006217604.250,-35.645,-15.137,-17.090,71.777,1.000
1626295006221510.500,41.504,14.160,-18.066,34.668,1.000
1626295006225416.750,-1.953,-3.906,-37.598,-129.883,1.000
1626295006229323.000,-66.895,-62.988,-34.180,-130.859,1.000
1626295006233229.250,-67.383,-80.078,-32.715,63.965,1.000
1626295006237135.500,-12.695,-14.648,-41.016,119.629,1.000
1626295006241041.750,15.625,9.766,-26.855,-63.965,1.000
1626295006244948.000,-42.969,1.953,-45.410,-157.227,1.000
1626295006248854.250,-71.289,-24.902,-31.738,-130.859,1.000
1626295006252760.500,-60.547,-17.090,-5.859,-84.961,1.000
1626295006256666.750,16.602,-21.973,-3.906,88.379,1.000
1626295006260573.000,18.066,-66.406,-24.414,80.566,1.000
1626295006264479.250,-48.828,-8.301,-35.156,-88.379,1.000
1626295006268385.500,-93.750,-0.488,-32.715,-143.555,1.000
1626295006272291.750,-33.691,-25.879,-29.785,16.113,1.000
1626295006276198.000,29.785,-75.195,-37.598,103.027,1.000
1626295006280104.250,-27.344,-80.566,-43.945,-58.594,1.000
1626295006284010.500,-85.938,-11.230,-41.016,-160.156,1.000
1626295006287916.750,-36.621,20.508,-37.598,-27.344,1.000
1626295006291823.000,35.156,16.113,-25.391,94.238,1.000
1626295006295729.250,29.297,0.000,-41.504,95.215,1.000
1626295006299635.500,-15.137,2.441,-44.922,-44.434,1.000
1626295006303541.750,-67.871,-21.973,-41.992,-158.203,1.000
1626295006307448.000,-39.062,-74.219,-33.203,-48.828,1.000
1626295006311354.250,33.691,-13.672,-35.156,100.098,1.000
1626295006315260.500,22.461,23.926,-37.598,26.855,1.000
1626295006319166.750,-57.129,23.438,-34.668,-141.602,1.000
1626295006323073.000,-71.777,-28.320,-48.828,-108.398,1.000
1626295006326979.250,2.441,-42.969,-41.504,67.383,1.000
1626295006330885.500,20.996,14.160,-26.367,52.246,1.000
1626295006334791.750,-59.570,12.695,-35.645,-133.789,1.000
1626295006338698.000,-83.008,2.441,-31.250,-144.531,1.000
1626295006342604.250,-74.219,-17.090,-53.711,-114.746,1.000
1626295006346510.500,15.625,7.812,-36.133,69.336,1.000
1626295006350416.750,24.414,-17.578,-30.762,63.477,1.000
1626295006354323.000,-58.594,-84.473,-36.133,-119.629,1.000
1626295006358229.250,-63.477,-7.812,-12.207,-112.305,1.000
1626295006362135.500,8.789,29.297,-3.418,62.988,1.000
1626295006366041.750,31.738,24.414,-16.602,96.680,1.000
1626295006369948.000,-42.480,-49.805,-43.945,-80.566,1.000
1626295006373854.250,-72.754,-79.590,-49.316,-145.996,1.000
1626295006377760.500,-8.301,-11.230,-45.410,8.301,1.000
1626295006381666.750,37.109,2.441,-51.270,103.027,1.000
1626295006385573.000,-14.160,-6.836,-35.156,-20.020,1.000
1626295006389479.250,-36.621,-1.953,-54.199,-63.477,1.000
1626295006393385.500,-96.191,-11.230,-55.176,-171.875,1.000
1626295006397291.750,-52.734,-20.508,-37.109,-42.480,1.000
1626295006401198.000,11.719,-57.617,-32.715,86.426,1.000
1626295006405104.250,-4.883,-30.273,-18.555,-7.324,1.000
1626295006409010.500,-67.383,-11.230,-17.090,-154.297,1.000
1626295006412916.750,-46.387,-0.977,-11.230,-75.195,1.000
1626295006416823.000,13.672,-48.340,-19.531,77.148,1.000
1626295006420729.250,13.672,-72.754,-24.902,39.062,1.000
1626295006424635.500,-56.152,-51.758,-25.879,-122.559,1.000
1626295006428541.750,-67.871,-44.922,-21.484,-117.188,1.000
1626295006432448.000,22.461,4.395,-7.812,72.754,1.000
1626295006436354.250,17.578,-1.953,-42.480,1.000,1.000
1626295006440260.500,16.113,-24.902,-40.039,1.000,1.000
1626295006444166.750,-81.543,-54.199,-41.504,1.000,1.000
1626295006448073.000,-111.816,-86.914,-38.086,1.000,1.000
1626295006451979.250,-21.484,-8.301,-19.043,1.000,1.000
1626295006455885.500,18.066,12.207,-20.020,1.000,1.000
1626295006459791.750,-42.969,0.488,-25.879,1.000,1.000
1626295006463698.000,-96.680,-57.129,-39.062,1.000,1.000
1626295006467604.250,-37.598,-79.102,-42.969,1.000,1.000
1626295006471510.500,41.016,-12.695,-23.438,1.000,1.000
1626295006475416.750,-14.648,-7.812,-25.391,1.000,1.000
1626295006479323.000,-71.289,-3.418,-20.020,1.000,1.000
1626295006483229.250,-82.031,-24.902,-40.527,-160.645,1.000
1626295006487135.500,-23.438,-6.836,-31.250,-11.230,1.000
1626295006491041.750,23.438,-24.902,-46.387,91.797,1.000
1626295006494948.000,-21.484,-76.172,-52.246,-37.109,1.000
1626295006498854.250,-76.172,-19.531,-39.551,-165.039,1.000
1626295006502760.500,-29.785,-12.695,-23.438,-48.828,1.000
1626295006506666.750,44.922,-18.555,-28.809,112.793,1.000
1626295006510573.000,8.301,-45.410,-54.688,24.414,1.000
1626295006514479.250,-70.312,-51.758,-43.457,-155.273,1.000
1626295006518385.500,-73.730,17.578,-21.484,-124.023,1.000
1626295006522291.750,-8.789,20.020,-24.902,48.828,1.000
1626295006526198.000,7.812,0.977,-35.156,62.012,1.000
1626295006530104.250,12.207,-3.906,-21.484,47.852,1.000
1626295006534010.500,-77.637,-22.949,-34.180,-135.254,1.000
1626295006537916.750,-94.727,-43.457,-37.109,-130.371,1.000
1626295006541823.000,-12.207,-64.453,-38.574,52.734,1.000
1626295006545729.250,29.297,-16.602,-28.320,94.238,1.000
1626295006549635.500,-47.852,-19.043,-24.414,-83.496,1.000
1626295006553541.750,-81.055,6.836,-24.414,-139.648,1.000
1626295006557448.000,-27.344,-40.039,-30.762,17.578,1.000
1626295006561354.250,13.184,-60.547,-31.250,96.191,1.000
1626295006565260.500,-22.461,8.789,-33.203,-31.738,1.000
1626295006569166.750,-91.309,-3.418,-35.156,-149.414,1.000
1626295006573073.000,-58.105,-6.348,-13.184,-39.551,1.000
1626295006576979.250,-13.184,-8.301,-10.254,75.195,1.000
1626295006580885.500,10.742,-33.203,-37.598,-13.184,1.000
1626295006584791.750,-34.668,-46.387,-40.039,-147.949,1.000
1626295006588698.000,-102.539,-78.613,-50.781,-78.125,1.000
1626295006592604.250,-67.383,-23.926,-52.246,92.285,1.000
1626295006596510.500,20.508,7.812,-32.715,48.340,1.000
1626295006600416.750,9.766,5.371,-29.297,-127.441,1.000
1626295006604323.000,-85.449,-48.340,-42.969,-144.531,1.000
1626295006608229.250,-82.520,-68.848,-24.902,32.715,1.000
1626295006612135.500,5.859,-12.695,-14.160,72.754,1.000
1626295006616041.750,4.395,-2.930,-32.227,-110.840,1.000
1626295006619948.000,-75.684,-10.742,-53.223,-150.391,1.000
1626295006623854.250,-65.918,-27.832,-31.738,-131.836,1.000
1626295006627760.500,-86.426,10.742,-34.180,-125.977,1.000
1626295006631666.750,-10.742,7.812,-26.367,52.734,1.000
1626295006635573.000,10.254,-38.574,-36.133,62.988,1.000
1626295006639479.250,-56.641,-15.625,-27.832,-103.516,1.000
1626295006643385.500,-87.891,-18.066,-18.555,-148.926,1.000
1626295006647291.750,-13.672,-20.996,-19.531,18.555,1.000
1626295006651198.000,23.926,-43.945,-28.809,89.844,1.000
1626295006655104.250,-39.062,-73.730,-46.387,-64.453,1.000
1626295006659010.500,-90.820,-47.363,-39.551,-162.109,1.000
1626295006662916.750,-50.293,-12.695,-31.250,-32.715,1.000
1626295006666823.000,3.906,9.277,-24.902,82.520,1.000
1626295006670729.250,39.062,2.441,-19.531,1.000,1.000
1626295006674635.500,15.625,13.184,-13.184,1.000,1.000
1626295006678541.750,-73.242,-35.156,-16.113,1.000,1.000
1626295006682448.000,-69.824,-93.750,-54.688,1.000,1.000
1626295006686354.250,23.438,-19.043,-48.828,1.000,1.000
1626295006690260.500,1.465,-18.555,-23.926,1.000,1.000
1626295006694166.750,-95.703,-20.020,-44.434,1.000,1.000
1626295006698073.000,-86.426,-20.020,-61.523,1.000,1.000
1626295006701979.250,14.648,-34.180,-27.344,1.000,1.000
1626295006705885.500,39.062,-0.977,1.465,1.000,1.000
1626295006709791.750,-45.410,-4.883,-17.090,1.000,1.000
1626295006713698.000,-78.613,0.977,-27.344,1.000,1.000
1626295006717604.250,-58.594,0.000,-42.969,-93.262,1.000
1626295006721510.500,33.691,16.113,-9.277,90.332,1.000
1626295006725416.750,44.434,-7.324,-20.996,83.496,1.000
1626295006729323.000,-63.965,-74.219,-51.270,-122.070,1.000
1626295006733229.250,-96.191,-39.551,-39.551,-152.832,1.000
1626295006737135.500,4.883,-9.277,-17.090,47.363,1.000
1626295006741041.750,57.617,4.395,-1.465,108.398,1.000
1626295006744948.000,-12.207,-74.707,-5.371,-60.547,1.000
1626295006748854.250,-69.336,-104.980,-17.090,-150.879,1.000
1626295006752760.500,-22.949,-16.602,-24.902,-15.625,1.000
1626295006756666.750,41.992,-4.395,-26.367,108.398,1.000
1626295006760573.000,6.836,1.953,-33.691,-2.441,1.000
1626295006764479.250,-37.598,-4.883,-29.297,-61.035,1.000
1626295006768385.500,-98.145,-9.766,-38.574,-163.086,1.000
1626295006772291.750,-43.945,-18.066,-20.508,-23.926,1.000
1626295006776198.000,19.531,-67.383,-30.273,98.633,1.000
1626295006780104.250,9.277,-20.508,-28.809,11.230,1.000
1626295006784010.500,-66.406,2.441,-24.414,-135.742,1.000
1626295006787916.750,-67.383,-28.809,-21.973,-71.777,1.000
1626295006791823.000,9.766,-73.242,-6.836,97.656,1.000
1626295006795729.250,21.484,-61.035,0.977,72.754,1.000
1626295006799635.500,-60.547,-11.719,-1.465,-96.191,1.000
1626295006803541.750,-89.355,-16.113,-9.277,-100.098,1.000
1626295006807448.000,-21.973,-23.438,-9.766,58.594,1.000
1626295006811354.250,-16.113,-34.180,-26.367,67.383,1.000
1626295006815260.500,9.277,-24.414,-17.090,-96.191,1.000
1626295006819166.750,-63.965,-43.945,-40.527,-135.742,1.000
1626295006823073.000,-88.379,-81.055,-39.062,31.250,1.000
1626295006826979.250,-11.719,-27.832,-11.719,120.117,1.000
1626295006830885.500,24.902,6.836,-12.695,-36.621,1.000
1626295006834791.750,-40.527,15.137,0.000,-152.832,1.000
1626295006838698.000,-116.699,-36.621,-23.438,-29.785,1.000
1626295006842604.250,-67.383,-58.594,-36.621,110.840,1.000
1626295006846510.500,16.113,-4.395,-17.578,30.273,1.000
1626295006850416.750,-26.367,-10.742,-34.180,-144.043,1.000
1626295006854323.000,-88.867,-36.621,-32.227,-115.234,1.000
1626295006858229.250,-94.727,-15.137,-40.039,-157.715,1.000
1626295006862135.500,-36.133,-1.465,-5.859,-13.184,1.000
1626295006866041.750,32.715,-35.645,-0.488,112.305,1.000
1626295006869948.000,-18.555,-104.004,-26.367,-18.066,1.000
1626295006873854.250,-101.074,-56.152,-48.828,-176.270,1.000
1626295006877760.500,-49.805,-8.789,-37.598,-27.344,1.000
1626295006881666.750,19.531,-11.719,-29.785,93.262,1.000
1626295006885573.000,-45.898,-60.059,-47.363,-70.312,1.000
1626295006889479.250,-106.445,-22.461,-49.316,-167.480,1.000
1626295006893385.500,-41.992,20.996,-21.484,-17.578,1.000
1626295006897291.750,52.246,40.039,-1.953,129.395,1.000
1626295006901198.000,19.043,-14.648,-16.113,13.672,1.000
1626295006905104.250,-17.090,-40.527,-21.484,-40.039,1.000
1626295006909010.500,-77.637,-7.812,-29.785,-139.648,1.000
1626295006912916.750,-51.270,-58.105,-49.805,-33.203,1.000
1626295006916823.000,12.207,-56.641,-43.457,93.262,1.000
1626295006920729.250,2.441,12.695,-24.902,16.602,1.000
1626295006924635.500,-86.426,5.859,-38.574,-152.832,1.000
1626295006928541.750,-82.520,-7.324,-43.945,-100.586,1.000
1626295006932448.000,3.418,-65.430,-28.320,77.637,1.000
1626295006936354.250,20.020,-47.852,-21.973,58.105,1.000
1626295006940260.500,-58.594,6.836,-35.156,-114.258,1.000
1626295006944166.750,-79.590,15.137,-33.203,-116.211,1.000
1626295006948073.000,-8.301,-47.852,-24.414,46.875,1.000
1626295006951979.250,13.184,-6.348,-31.250,61.523,1.000
1626295006955885.500,11.719,-11.719,-43.945,-90.820,1.000
1626295006959791.750,-69.336,-51.758,-43.945,-154.785,1.000
1626295006963698.000,-81.543,-41.992,-28.320,0.488,1.000
1626295006967604.250,-8.789,-0.977,-16.602,82.520,1.000
1626295006971510.500,27.832,0.977,-30.273,-58.594,1.000
1626295006975416.750,-27.344,-18.066,-36.621,-169.434,1.000
1626295006979323.000,-83.984,-71.777,-25.879,-56.152,1.000
1626295006983229.250,-12.695,-41.016,-16.602,104.980,1.000
1626295006987135.500,60.547,-3.418,-21.973,20.996,1.000
1626295006991041.750,5.859,4.395,-34.668,-142.578,1.000
1626295006994948.000,-86.426,-58.105,-60.547,-84.961,1.000
1626295006998854.250,-86.426,-25.879,-23.926,-157.715,1.000
1626295007002760.500,-38.086,19.043,-17.578,-17.090,1.000
1626295007006666.750,-3.906,-48.828,-26.367,83.984,1.000
1626295007010573.000,-22.461,-56.152,-6.348,-13.184,1.000
1626295007014479.250,-74.219,-1.465,-15.137,-146.973,1.000
1626295007018385.500,-72.266,-11.230,-38.086,-83.496,1.000
1626295007022291.750,-2.441,-24.414,-28.809,81.543,1.000
1626295007026198.000,5.859,-43.945,-32.227,42.480,1.000
1626295007030104.250,-62.012,-28.320,-49.316,-130.859,1.000
1626295007034010.500,-86.426,-24.414,-45.410,-129.395,1.000
1626295007037916.750,-2.930,-13.184,-10.254,61.523,1.000
1626295007041823.000,13.184,-56.641,-18.555,72.754,1.000
1626295007045729.250,23.926,-19.531,-22.461,1.000,1.000
1626295007049635.500,-48.340,-0.977,-28.809,1.000,1.000
1626295007053541.750,-85.449,-36.621,-49.316,1.000,1.000
1626295007057448.000,-14.648,-44.434,-38.086,1.000,1.000
1626295007061354.250,29.785,5.859,-37.109,1.000,1.000
1626295007065260.500,-33.691,0.000,-35.645,1.000,1.000
1626295007069166.750,-66.895,-27.832,-23.926,1.000,1.000
1626295007073073.000,-20.996,-73.242,-37.109,1.000,1.000
1626295007076979.250,24.414,-43.945,-16.602,1.000,1.000
1626295007080885.500,-26.367,-35.645,-20.020,1.000,1.000
1626295007084791.750,-86.426,-9.766,-35.156,1.000,1.000
1626295007088698.000,-48.828,-27.344,-40.039,1.000,1.000
1626295007092604.250,-35.645,-31.250,-31.738,-1.465,1.000
1626295007096510.500,27.832,-19.043,-34.180,112.793,1.000
1626295007100416.750,-22.461,-77.637,-53.711,-23.438,1.000
1626295007104323.000,-98.633,-66.406,-59.570,-171.875,1.000
1626295007108229.250,-67.383,-5.859,-33.203,-68.359,1.000
1626295007112135.500,20.996,12.207,-11.719,103.027,1.000
1626295007116041.750,16.602,-3.418,-15.137,40.527,1.000
1626295007119948.000,-83.984,-101.562,-44.922,-152.832,1.000
1626295007123854.250,-88.867,-70.312,-42.480,-120.117,1.000
1626295007127760.500,12.207,-10.254,-22.461,75.195,1.000
1626295007131666.750,45.410,27.344,-16.113,90.820,1.000
1626295007135573.000,-52.246,-24.414,-54.199,-113.770,1.000
1626295007139479.250,-52.734,-10.742,-31.250,-118.164,1.000
1626295007143385.500,-89.355,-19.043,-35.156,-120.605,1.000
1626295007147291.750,-22.949,-61.035,-37.109,42.969,1.000
1626295007151198.000,5.859,-45.898,-32.715,64.941,1.000
1626295007155104.250,-58.594,-5.371,-38.086,-96.191,1.000
1626295007159010.500,-79.102,-18.066,-26.367,-134.766,1.000
1626295007162916.750,9.766,-20.020,-4.883,47.852,1.000
1626295007166823.000,42.969,-54.688,-23.926,114.258,1.000
1626295007170729.250,-27.344,-15.625,-14.648,-47.852,1.000
1626295007174635.500,-91.309,12.207,-13.672,-155.273,1.000
1626295007178541.750,-45.410,15.625,-27.344,-31.250,1.000
1626295007182448.000,8.789,-46.875,-26.855,84.473,1.000
1626295007186354.250,27.832,7.812,-11.719,-25.879,1.000
1626295007190260.500,-28.320,2.441,-16.602,-169.922,1.000
1626295007194166.750,-105.469,-54.688,-29.785,-92.285,1.000
1626295007198073.000,-68.848,-54.199,-21.484,79.102,1.000
1626295007201979.250,27.832,-1.465,-18.555,24.902,1.000
1626295007205885.500,29.785,15.625,-37.109,-137.695,1.000
1626295007209791.750,-41.992,-2.441,-22.461,-105.469,1.000
1626295007213698.000,-67.383,-57.617,-27.344,72.754,1.000
1626295007217604.250,-10.254,-29.297,-43.945,109.375,1.000
1626295007221510.500,-3.906,-4.883,-51.270,-93.262,1.000
1626295007225416.750,-77.148,-10.742,-37.598,-172.852,1.000
1626295007229323.000,-92.773,-58.105,-27.344,0.977,1.000
1626295007233229.250,-60.059,-8.301,-25.879,-104.004,1.000
1626295007237135.500,37.109,-14.648,-24.414,95.703,1.000
1626295007241041.750,52.734,-57.617,-42.480,98.145,1.000
1626295007244948.000,-32.715,-54.688,-45.898,-91.309,1.000
1626295007248854.250,-58.594,8.789,-17.578,-116.211,1.000
1626295007252760.500,26.367,46.387,2.930,75.684,1.000
1626295007256666.750,64.453,18.555,-5.859,131.836,1.000
1626295007260573.000,-31.738,-73.242,-25.391,-54.688,1.000
1626295007264479.250,-95.703,-44.922,-23.926,-159.180,1.000
1626295007268385.500,-29.297,-11.230,-7.324,-12.695,1.000
1626295007272291.750,48.340,-3.418,-5.859,122.559,1.000
1626295007276198.000,20.020,-39.062,-18.066,21.973,1.000
1626295007280104.250,-26.367,-20.020,-51.758,-44.434,1.000
1626295007284010.500,-72.266,-16.113,-25.879,-141.113,1.000
1626295007287916.750,-34.180,-60.547,-2.441,-20.020,1.000
1626295007291823.000,3.418,-62.012,-20.508,93.262,1.000
1626295007295729.250,-27.344,-20.020,-36.621,-5.859,1.000
1626295007299635.500,-88.867,-19.043,-42.969,-158.203,1.000
1626295007303541.750,-75.684,-13.184,-45.410,-96.191,1.000
1626295007307448.000,-0.977,-63.477,-38.574,65.918,1.000
1626295007311354.250,21.484,-41.016,-30.762,54.688,1.000
1626295007315260.500,-49.805,-29.785,-24.902,-109.863,1.000
1626295007319166.750,-63.477,-6.348,-6.836,-109.863,1.000
1626295007323073.000,1.953,-10.742,-17.578,54.199,1.000
1626295007326979.250,10.254,9.766,-4.883,68.848,1.000
1626295007330885.500,6.348,-13.184,-24.414,-90.332,1.000
1626295007334791.750,-87.402,-57.617,-53.711,-176.270,1.000
1626295007338698.000,-91.797,-16.113,-54.688,-28.320,1.000
1626295007342604.250,-16.113,-8.789,-57.129,84.961,1.000
1626295007346510.500,12.207,-24.414,-41.016,-38.574,1.000
1626295007350416.750,-27.344,-20.508,-16.113,-151.367,1.000
1626295007354323.000,-93.750,-75.195,-27.832,-48.340,1.000
1626295007358229.250,-54.199,-27.832,-27.832,107.422,1.000
1626295007362135.500,22.461,19.531,-18.066,39.062,1.000
1626295007366041.750,-11.230,-11.230,-22.461,-147.949,1.000
1626295007369948.000,-90.820,-71.289,-40.039,-120.605,1.000
1626295007373854.250,-75.195,-19.043,-15.137,-145.508,1.000
1626295007377760.500,-18.066,-33.203,-1.953,-2.441,1.000
1626295007381666.750,23.438,-45.410,-19.531,104.980,1.000
1626295007385573.000,-8.301,-32.227,-30.762,2.441,1.000
1626295007389479.250,-85.938,-17.578,-34.668,-155.273,1.000
1626295007393385.500,-75.195,5.859,-25.879,-80.566,1.000
1626295007397291.750,7.324,14.648,-39.062,93.262,1.000
1626295007401198.000,-4.883,-58.105,-72.266,29.785,1.000
1626295007405104.250,-68.848,-53.711,-51.270,-135.254,1.000
1626295007409010.500,-75.195,-34.180,-19.043,-114.258,1.000
1626295007412916.750,-6.836,-16.113,-11.719,54.199,1.000
1626295007416823.000,33.691,-27.344,-28.320,87.402,1.000
1626295007420729.250,24.902,33.691,-31.250,1.000,1.000
1626295007424635.500,-60.547,16.113,-25.391,1.000,1.000
1626295007428541.750,-101.074,-81.055,-42.969,1.000,1.000
1626295007432448.000,-25.391,-99.121,-47.363,1.000,1.000
1626295007436354.250,20.020,-32.715,-43.457,1.000,1.000
1626295007440260.500,-54.199,-9.766,-44.434,1.000,1.000
1626295007444166.750,-104.004,-2.930,-36.621,1.000,1.000
1626295007448073.000,-44.434,-46.875,-33.203,1.000,1.000
1626295007451979.250,33.691,-17.578,-33.203,1.000,1.000
1626295007455885.500,7.812,23.438,-17.578,1.000,1.000
1626295007459791.750,-54.688,17.578,-8.301,1.000,1.000
1626295007463698.000,-47.852,-61.523,-32.227,1.000,1.000
1626295007467604.250,-22.949,-3.418,-32.715,-17.090,1.000
1626295007471510.500,45.410,18.555,-18.555,104.004,1.000
1626295007475416.750,-5.371,-18.555,-28.320,-20.508,1.000
1626295007479323.000,-88.379,-3.418,-49.805,-171.875,1.000
1626295007483229.250,-62.500,36.621,-64.941,-76.660,1.000
1626295007487135.500,35.645,20.996,-39.062,105.469,1.000
1626295007491041.750,30.762,-16.113,-30.762,48.828,1.000
1626295007494948.000,-68.848,-61.523,-45.410,-144.531,1.000
1626295007498854.250,-67.871,-30.273,-19.531,-111.328,1.000
1626295007502760.500,3.906,0.000,-9.766,59.082,1.000
1626295007506666.750,23.438,9.277,-22.949,57.617,1.000
1626295007510573.000,-46.875,-20.508,-51.758,-111.816,1.000
1626295007514479.250,-62.500,-44.922,-20.020,-119.141,1.000
1626295007518385.500,-92.285,-43.457,-26.855,-120.117,1.000
1626295007522291.750,-25.391,-52.734,-33.691,45.898,1.000
1626295007526198.000,9.277,-30.762,-26.367,70.801,1.000
1626295007530104.250,-43.945,-15.625,-27.344,-87.402,1.000
1626295007534010.500,-101.074,-24.414,-48.340,-161.621,1.000
1626295007537916.750,-57.617,-25.391,-37.598,-23.438,1.000
1626295007541823.000,9.277,-51.270,-7.812,86.426,1.000
1626295007545729.250,-26.367,-25.391,-9.277,-38.574,1.000
1626295007549635.500,-90.332,-33.203,-26.367,-159.668,1.000
1626295007553541.750,-51.758,-51.270,-36.621,-42.969,1.000
1626295007557448.000,19.531,-43.945,-31.738,100.586,1.000
1626295007561354.250,31.250,-11.719,-19.043,114.258,1.000
1626295007565260.500,-31.738,-5.859,-29.297,-44.922,1.000
1626295007569166.750,-124.512,-42.480,-56.152,-199.219,1.000
1626295007573073.000,-83.496,-30.762,-36.621,-74.707,1.000
1626295007576979.250,9.766,-8.301,0.000,88.867,1.000
1626295007580885.500,7.812,-15.137,-1.465,17.578,1.000
1626295007584791.750,-70.801,-36.133,-25.391,-144.043,1.000
1626295007588698.000,-76.172,-85.449,-38.574,-96.680,1.000
1626295007592604.250,4.883,-37.598,-38.086,74.707,1.000
1626295007596510.500,8.301,0.000,-20.508,47.852,1.000
1626295007600416.750,-70.801,-10.254,-26.855,-126.953,1.000
1626295007604323.000,-99.609,-67.871,-43.457,-149.414,1.000
1626295007608229.250,-86.426,-37.109,-71.289,-124.023,1.000
1626295007612135.500,1.465,15.625,-20.020,56.152,1.000
1626295007616041.750,8.301,-40.039,-25.391,41.992,1.000
1626295007619948.000,-66.406,-52.246,-37.109,-127.930,1.000
1626295007623854.250,-85.449,-8.789,-23.438,-142.578,1.000
1626295007627760.500,4.883,-15.137,-7.812,51.758,1.000
1626295007631666.750,56.641,-20.020,-14.160,122.070,1.000
1626295007635573.000,-40.039,-70.801,-45.898,-69.824,1.000
1626295007639479.250,-108.398,-44.434,-36.133,-177.734,1.000
1626295007643385.500,-44.922,-4.883,-21.973,-32.715,1.000
1626295007647291.750,35.156,30.762,-17.578,104.980,1.000
1626295007651198.000,12.207,10.742,-22.461,4.395,1.000
1626295007655104.250,-24.414,-1.465,-44.434,-62.988,1.000
1626295007659010.500,-88.867,-6.836,-58.105,-179.688,1.000
1626295007662916.750,-34.180,-38.574,-47.852,-40.527,1.000
1626295007666823.000,39.551,-32.227,-29.785,102.539,1.000
1626295007670729.250,-0.977,-3.906,-31.738,0.977,1.000
1626295007674635.500,-87.402,4.395,-52.246,-162.598,1.000
1626295007678541.750,-71.777,17.090,-47.363,-96.680,1.000
1626295007682448.000,11.719,-35.156,-27.344,78.125,1.000
1626295007686354.250,23.926,-24.902,-8.301,64.453,1.000
1626295007690260.500,-44.922,-5.859,-13.672,-101.074,1.000
1626295007694166.750,-76.172,-6.348,-27.832,-120.117,1.000
1626295007698073.000,-24.902,-32.227,-25.879,34.180,1.000
1626295007701979.250,10.254,-0.977,-15.625,81.055,1.000
1626295007705885.500,37.109,-0.488,-12.695,79.102,1.000
1626295007709791.750,-54.688,-66.895,-37.109,-117.188,1.000
1626295007713698.000,-82.031,-52.246,-37.598,-138.672,1.000
1626295007717604.250,2.441,12.207,-16.113,55.664,1.000
1626295007721510.500,50.781,9.277,-15.137,117.188,1.000
1626295007725416.750,-25.879,-13.672,-40.527,-59.082,1.000
1626295007729323.000,-97.656,-79.102,-50.293,-163.086,1.000
1626295007733229.250,-25.879,-42.480,-24.902,-1.953,1.000
1626295007737135.500,46.875,-7.324,-14.648,125.000,1.000
1626295007741041.750,-7.812,-2.930,-21.973,-10.742,1.000
1626295007744948.000,-103.516,-21.484,-32.227,-174.316,1.000
1626295007748854.250,-102.051,-34.180,-36.621,-179.688,1.000
1626295007752760.500,-53.711,-32.715,-26.855,-42.480,1.000
1626295007756666.750,2.441,-65.430,-36.133,78.125,1.000
1626295007760573.000,-31.250,-64.941,-41.504,-35.645,1.000
1626295007764479.250,-102.051,-22.461,-35.156,-182.617,1.000
1626295007768385.500,-61.035,13.672,-20.508,-83.496,1.000
1626295007772291.750,32.227,38.086,-5.371,100.586,1.000
1626295007776198.000,0.488,-36.133,-34.668,24.414,1.000
1626295007780104.250,-93.750,-61.035,-67.383,-168.945,1.000
1626295007784010.500,-96.191,-37.598,-49.316,-142.578,1.000
1626295007787916.750,-7.812,-21.973,-39.551,40.527,1.000
1626295007791823.000,26.367,-37.109,-42.969,72.266,1.000
1626295007795729.250,43.945,-19.043,-22.949,1.000,1.000
1626295007799635.500,-45.898,-32.715,-33.691,1.000,1.000
1626295007803541.750,-79.590,-54.688,-24.902,1.000,1.000
1626295007807448.000,-7.324,-24.902,-20.020,1.000,1.000
1626295007811354.250,20.508,11.719,-24.902,1.000,1.000
1626295007815260.500,-44.434,-14.160,-45.410,1.000,1.000
1626295007819166.750,-91.797,-21.973,-40.527,1.000,1.000
1626295007823073.000,-35.156,-42.969,-5.371,1.000,1.000
1626295007826979.250,33.203,-30.273,-1.953,1.000,1.000
1626295007830885.500,-20.020,-31.250,-42.480,1.000,1.000
1626295007834791.750,-93.750,-37.109,-48.340,1.000,1.000
1626295007838698.000,-53.711,-49.805,-15.625,1.000,1.000
1626295007842604.250,-26.367,-8.301,-20.508,-2.930,1.000
1626295007846510.500,39.062,3.418,-25.879,111.328,1.000
1626295007850416.750,6.348,-40.039,-15.625,0.488,1.000
1626295007854323.000,-78.613,-56.152,-50.293,-154.785,1.000
1626295007858229.250,-79.102,-16.602,-69.824,-88.867,1.000
1626295007862135.500,0.488,4.883,-37.109,81.055,1.000
1626295007866041.750,-0.977,-9.277,-22.949,29.297,1.000
1626295007869948.000,-104.004,-53.711,-37.109,-157.227,1.000
1626295007873854.250,-104.980,-32.227,-34.180,-124.512,1.000
1626295007877760.500,-0.977,-21.484,-2.930,72.754,1.000
1626295007881666.750,37.109,-40.039,5.859,87.402,1.000
1626295007885573.000,-44.434,-37.109,-16.602,-96.191,1.000
1626295007889479.250,-60.547,-41.992,-49.316,-143.555,1.000
1626295007893385.500,-66.895,-38.574,-41.016,-127.930,1.000
1626295007897291.750,8.301,-15.625,-29.785,46.387,1.000
1626295007901198.000,16.113,-5.371,-32.715,56.641,1.000
1626295007905104.250,-63.477,-11.719,-34.180,-119.141,1.000
1626295007909010.500,-86.426,-23.438,-23.926,-160.156,1.000
1626295007912916.750,-1.953,-39.551,-15.137,21.484,1.000
1626295007916823.000,34.180,-50.781,-18.066,98.145,1.000
1626295007920729.250,-26.367,-8.789,-25.879,-54.199,1.000
1626295007924635.500,-83.984,-10.254,-55.176,-167.969,1.000
1626295007928541.750,-57.129,-19.043,-59.082,-66.895,1.000
1626295007932448.000,2.930,-45.898,-23.438,58.105,1.000
1626295007936354.250,29.785,-29.785,-2.930,-30.762,1.000
1626295007940260.500,13.184,-11.719,2.930,-182.617,1.000
1626295007944166.750,-62.988,-51.758,-22.461,-101.074,1.000
1626295007948073.000,-51.758,-39.551,-27.344,102.051,1.000
1626295007951979.250,10.742,1.465,-21.973,74.707,1.000
1626295007955885.500,-14.648,-5.371,-27.344,-134.766,1.000
1626295007959791.750,-80.566,-25.391,-21.484,-157.227,1.000
1626295007963698.000,-65.918,-87.891,-30.273,16.113,1.000
1626295007967604.250,17.578,-44.922,-57.617,66.895,1.000
1626295007971510.500,29.785,-20.996,-58.105,-104.492,1.000
1626295007975416.750,-61.523,-22.949,-27.832,-193.848,1.000
1626295007979323.000,-85.449,-28.809,-14.160,-35.645,1.000
1626295007983229.250,-69.824,-30.273,-46.875,-104.492,1.000
1626295007987135.500,7.812,13.672,-28.320,66.895,1.000
1626295007991041.750,25.391,-39.551,-15.137,71.777,1.000
1626295007994948.000,-62.012,-58.594,-42.969,-121.582,1.000
1626295007998854.250,-81.055,1.465,-35.156,-153.809,1.000
1626295008002760.500,-8.789,-1.953,-14.648,20.508,1.000
1626295008006666.750,23.438,-10.254,-33.691,83.496,1.000
1626295008010573.000,-32.715,-56.152,-45.410,-63.965,1.000
1626295008014479.250,-78.613,-49.805,-46.387,-154.297,1.000
1626295008018385.500,-22.461,-11.230,-37.598,-12.695,1.000
1626295008022291.750,40.039,18.066,-20.508,122.070,1.000
1626295008026198.000,-3.906,-20.996,-21.484,2.441,1.000
1626295008030104.250,-2.930,3.906,-24.902,1.000,1.000
1626295008034010.500,-83.008,-14.160,-44.434,1.000,1.000
1626295008037916.750,-72.754,-72.754,-40.039,1.000,1.000
1626295008041823.000,6.348,-52.246,-37.598,1.000,1.000
1626295008045729.250,-8.301,-3.418,-39.062,1.000,1.000
1626295008049635.500,-89.844,-10.742,-27.832,1.000,1.000
1626295008053541.750,-82.031,-11.719,-29.785,1.000,1.000
1626295008057448.000,-3.418,-65.430,-45.898,1.000,1.000
1626295008061354.250,26.855,-37.598,-32.227,1.000,1.000
1626295008065260.500,-41.016,-10.254,-20.020,1.000,1.000
1626295008069166.750,-76.172,-12.207,-23.926,1.000,1.000
1626295008073073.000,-13.184,-27.344,-32.715,1.000,1.000
1626295008076979.250,-27.344,-24.414,-21.484,56.641,1.000
1626295008080885.500,-19.531,-24.902,-22.949,40.527,1.000
1626295008084791.750,-75.195,-64.941,-38.574,-116.699,1.000
1626295008088698.000,-103.027,-63.965,-36.621,-135.742,1.000
1626295008092604.250,-32.715,-14.160,-17.090,34.668,1.000
1626295008096510.500,19.043,-38.086,-9.766,98.145,1.000
1626295008100416.750,-44.922,-69.336,-20.996,-66.406,1.000
1626295008104323.000,-99.121,-112.305,-38.086,-160.645,1.000
1626295008108229.250,-30.762,-38.086,-13.184,-1.465,1.000
1626295008112135.500,28.320,25.391,-21.973,107.910,1.000
1626295008116041.750,-19.531,13.184,-50.781,-27.344,1.000
1626295008119948.000,-83.496,-20.996,-45.898,-163.574,1.000
1626295008123854.250,-97.656,-34.668,-30.762,-172.852,1.000
1626295008127760.500,-54.688,1.953,-17.578,-41.016,1.000
1626295008131666.750,15.137,-61.523,-25.879,85.938,1.000
1626295008135573.000,-7.324,-96.191,-29.297,-17.090,1.000
1626295008139479.250,-87.891,-29.297,-42.480,-168.457,1.000
1626295008143385.500,-75.684,9.277,-52.734,-98.633,1.000
1626295008147291.750,10.254,12.695,-35.645,69.336,1.000
1626295008151198.000,11.719,-32.227,-22.949,32.715,1.000
1626295008155104.250,-76.172,-18.555,-54.199,-145.996,1.000
1626295008159010.500,-82.031,-5.371,-57.129,-135.254,1.000
1626295008162916.750,4.883,-4.395,-24.902,51.270,1.000
1626295008166823.000,14.648,-29.297,-18.555,67.871,1.000
1626295008170729.250,2.441,-20.508,-12.695,1.000,1.000
1626295008174635.500,-74.707,-11.719,-27.344,1.000,1.000
1626295008178541.750,-101.562,-68.359,-42.480,1.000,1.000
1626295008182448.000,-17.578,-38.086,-45.898,1.000,1.000
1626295008186354.250,32.715,30.273,-38.574,1.000,1.000
1626295008190260.500,-51.270,0.488,-38.574,1.000,1.000
1626295008194166.750,-107.422,-23.438,-19.531,1.000,1.000
1626295008198073.000,-32.715,-51.270,5.859,1.000,1.000
1626295008201979.250,38.086,-26.367,-4.883,1.000,1.000
1626295008205885.500,-10.254,-17.090,-28.809,1.000,1.000
1626295008209791.750,-83.008,-3.418,-31.250,1.000,1.000
1626295008213698.000,-53.711,-20.020,-31.738,1.000,1.000
1626295008217604.250,-36.621,-18.066,-41.016,-21.484,1.000
1626295008221510.500,16.602,-20.020,-19.531,91.797,1.000
1626295008225416.750,-16.602,-53.711,-27.344,-21.973,1.000
1626295008229323.000,-80.566,-49.316,-29.785,-162.109,1.000
1626295008233229.250,-66.406,-13.184,-39.551,-81.543,1.000
1626295008237135.500,26.855,-4.395,-29.785,93.750,1.000
1626295008241041.750,25.879,-3.906,-26.855,39.551,1.000
1626295008244948.000,-68.359,-54.688,-48.340,-148.438,1.000
1626295008248854.250,-69.824,-33.691,-33.203,-116.699,1.000
1626295008252760.500,13.672,-9.277,-26.855,66.406,1.000
1626295008256666.750,33.203,-2.441,-37.598,81.055,1.000
1626295008260573.000,-40.527,-9.277,-50.781,-87.402,1.000
1626295008264479.250,-83.496,-31.738,-51.758,-142.090,1.000
1626295008268385.500,-81.543,-33.203,-60.059,-120.605,1.000
1626295008272291.750,17.578,-69.824,-40.527,78.125,1.000
1626295008276198.000,43.457,-47.363,-3.418,105.957,1.000
1626295008280104.250,-37.598,0.977,-3.906,-78.125,1.000
1626295008284010.500,-73.242,-20.020,-11.719,-136.230,1.000
1626295008287916.750,-4.395,-1.465,-4.883,26.855,1.000
1626295008291823.000,24.414,-27.344,-17.578,100.098,1.000
1626295008295729.250,-30.273,-22.949,-16.602,-41.504,1.000
1626295008299635.500,-101.562,-13.672,-33.691,-171.875,1.000
1626295008303541.750,-66.895,5.859,-51.270,-63.477,1.000
1626295008307448.000,11.719,1.465,-34.180,92.285,1.000
1626295008311354.250,69.336,2.930,-20.020,4.883,1.000
1626295008315260.500,14.648,-19.531,-23.926,-156.250,1.000
1626295008319166.750,-77.637,-55.176,-38.574,-83.008,1.000
1626295008323073.000,-60.059,-50.293,-41.016,95.703,1.000
1626295008326979.250,21.484,-16.602,-26.367,40.039,1.000
1626295008330885.500,1.465,-0.488,-23.438,-160.645,1.000
1626295008334791.750,-88.379,3.906,-34.180,-151.855,1.000
1626295008338698.000,-86.914,-28.809,-41.016,39.551,1.000
1626295008342604.250,15.137,3.418,-25.391,100.098,1.000
1626295008346510.500,35.645,21.484,-31.738,-79.102,1.000
1626295008350416.750,-45.410,-21.484,-35.645,-165.527,1.000
1626295008354323.000,-66.895,-53.711,-12.207,14.648,1.000
1626295008358229.250,-96.191,-20.996,-47.852,-128.906,1.000
1626295008362135.500,-13.184,-13.184,-43.945,48.828,1.000
1626295008366041.750,12.207,-42.480,-29.785,62.012,1.000
1626295008369948.000,-39.062,-37.109,-38.574,-94.727,1.000
1626295008373854.250,-54.688,-1.953,-20.020,-123.047,1.000
1626295008377760.500,-0.488,-33.691,6.836,33.691,1.000
1626295008381666.750,46.387,-35.156,-5.859,114.258,1.000
1626295008385573.000,-25.879,-52.734,-28.320,-56.641,1.000
1626295008389479.250,-87.891,-37.598,-36.133,-165.039,1.000
1626295008393385.500,-30.273,-16.113,-22.949,-15.625,1.000
1626295008397291.750,29.785,-2.441,-19.531,109.863,1.000
1626295008401198.000,-4.395,-7.324,-39.551,2.441,1.000
1626295008405104.250,-6.836,-1.953,-30.762,-41.992,1.000
1626295008409010.500,-81.543,-17.578,-36.621,-168.945,1.000
1626295008412916.750,-37.598,-73.730,-25.879,-47.852,1.000
1626295008416823.000,42.969,-66.895,-9.766,98.633,1.000
1626295008420729.250,5.371,-10.254,-41.992,0.977,1.000
1626295008424635.500,-79.102,-3.906,-56.152,-161.621,1.000
1626295008428541.750,-72.266,-11.230,-37.598,-103.027,1.000
1626295008432448.000,1.465,-59.082,-30.273,63.477,1.000
1626295008436354.250,9.766,-23.438,-24.414,36.621,1.000
1626295008440260.500,-72.754,-13.184,-48.828,-146.484,1.000
1626295008444166.750,-88.379,-26.855,-47.363,-145.020,1.000
1626295008448073.000,-0.977,-41.992,-27.344,47.363,1.000
1626295008451979.250,-4.395,-5.371,0.000,62.012,1.000
1626295008455885.500,4.883,-7.324,-9.766,58.594,1.000
1626295008459791.750,-92.773,-76.172,-36.621,-134.277,1.000
1626295008463698.000,-118.164,-62.012,-54.688,-157.715,1.000
1626295008467604.250,-21.973,19.043,-42.480,34.668,1.000
1626295008471510.500,21.973,2.441,-23.926,91.797,1.000
1626295008475416.750,-53.223,-30.273,-32.227,-80.078,1.000
1626295008479323.000,-127.441,-82.520,-43.945,-192.383,1.000
1626295008483229.250,-64.453,-35.645,-22.949,-39.062,1.000
1626295008487135.500,29.785,20.508,3.418,110.840,1.000
1626295008491041.750,0.000,3.906,-6.348,-0.488,1.000
1626295008494948.000,-82.031,-50.781,-21.484,-154.297,1.000
1626295008498854.250,-88.379,-19.043,-41.992,-159.180,1.000
1626295008502760.500,-41.504,-7.812,-36.133,-33.691,1.000
1626295008506666.750,10.742,-42.480,-35.156,81.543,1.000
1626295008510573.000,-23.926,-41.016,-39.551,-25.879,1.000
1626295008514479.250,-93.750,-14.160,-44.434,-174.316,1.000
1626295008518385.500,-79.102,-17.090,-52.734,-107.910,1.000
1626295008522291.750,10.254,4.395,-40.527,73.242,1.000
1626295008526198.000,11.719,-43.945,-27.832,35.156,1.000
1626295008530104.250,-68.848,-52.246,-19.043,-142.090,1.000
1626295008534010.500,-65.918,-17.578,0.977,-116.211,1.000
1626295008537916.750,20.996,-13.184,0.488,71.289,1.000
1626295008541823.000,42.480,-34.180,-37.598,99.121,1.000
1626295008545729.250,21.484,-7.324,-2.441,1.000,1.000
1626295008549635.500,-74.707,-5.371,-33.691,1.000,1.000
1626295008553541.750,-106.445,-55.176,-55.664,1.000,1.000
1626295008557448.000,-11.230,-30.762,-40.527,1.000,1.000
1626295008561354.250,40.527,10.254,-16.602,1.000,1.000
1626295008565260.500,-30.273,-35.156,-20.020,1.000,1.000
1626295008569166.750,-90.332,-31.250,-24.414,1.000,1.000
1626295008573073.000,-43.945,-31.738,-21.484,1.000,1.000
1626295008576979.250,31.250,-6.348,-39.062,1.000,1.000
1626295008580885.500,0.488,-17.578,-43.945,1.000,1.000
1626295008584791.750,-68.359,-36.621,-32.227,1.000,1.000
1626295008588698.000,-47.363,-36.621,-40.527,1.000,1.000
1626295008592604.250,-33.691,11.719,-29.785,-9.277,1.000
1626295008596510.500,25.879,-3.418,-21.484,111.328,1.000
1626295008600416.750,-21.484,-62.988,-23.438,-31.738,1.000
1626295008604323.000,-99.609,-76.660,-18.066,-183.105,1.000
1626295008608229.250,-59.082,-10.742,-16.602,-66.406,1.000
1626295008612135.500,25.391,0.488,-10.742,109.375,1.000
1626295008616041.750,14.648,-12.695,-7.324,46.387,1.000
1626295008619948.000,-61.035,-49.316,-29.785,-130.859,1.000
1626295008623854.250,-76.172,-29.785,-20.996,-111.328,1.000
1626295008627760.500,-5.859,-11.719,3.418,62.012,1.000
1626295008631666.750,29.297,-6.348,-4.395,86.914,1.000
1626295008635573.000,-53.223,-46.387,-22.461,-94.238,1.000
1626295008639479.250,-82.031,-22.461,-29.785,-129.883,1.000
1626295008643385.500,-81.543,-23.438,-0.977,-114.746,1.000
1626295008647291.750,5.371,-28.809,11.230,67.383,1.000
1626295008651198.000,15.625,-37.109,-8.789,73.242,1.000
1626295008655104.250,-53.711,-25.391,-22.461,-98.145,1.000
1626295008659010.500,-85.938,-34.180,-48.340,-145.996,1.000
1626295008662916.750,-24.902,-19.531,-68.848,9.277,1.000
1626295008666823.000,19.531,-48.340,-39.062,92.285,1.000
1626295008670729.250,-34.668,-44.434,-17.578,-53.223,1.000
1626295008674635.500,-103.027,-26.855,-20.508,-176.270,1.000
1626295008678541.750,-69.336,-23.926,-14.160,-61.035,1.000
1626295008682448.000,13.672,-20.996,-14.160,88.379,1.000
1626295008686354.250,51.758,-16.113,-18.066,11.230,1.000
1626295008690260.500,-10.742,-11.719,-5.859,-140.625,1.000
1626295008694166.750,-102.051,-41.504,-32.715,-83.984,1.000
1626295008698073.000,-73.242,-41.016,-51.758,82.520,1.000
1626295008701979.250,21.973,8.301,-14.648,59.082,1.000
1626295008705885.500,5.371,5.859,-20.996,-105.957,1.000
1626295008709791.750,-86.426,-15.625,-55.176,-120.605,1.000
1626295008713698.000,-80.078,-52.246,-40.039,42.969,1.000
1626295008717604.250,7.812,-41.992,-17.090,91.797,1.000
1626295008721510.500,17.578,-20.996,-7.812,-72.266,1.000
1626295008725416.750,-62.012,-32.227,-17.090,-156.738,1.000
1626295008729323.000,-98.145,-63.477,-32.715,2.930,1.000
1626295008733229.250,-81.055,-8.301,-36.133,-126.465,1.000
1626295008737135.500,12.695,17.090,-32.227,69.336,1.000
1626295008741041.750,22.461,-27.344,-32.715,65.918,1.000
1626295008744948.000,-60.547,-74.219,-48.340,-120.605,1.000
1626295008748854.250,-99.121,-51.758,-50.293,-156.250,1.000
1626295008752760.500,-29.785,-25.391,-23.926,14.648,1.000
1626295008756666.750,19.043,-3.418,-24.902,86.914,1.000
1626295008760573.000,-62.012,-46.387,-61.035,-86.914,1.000
1626295008764479.250,-106.445,-26.855,-53.711,-185.059,1.000
1626295008768385.500,-35.645,1.953,-32.715,-32.715,1.000
1626295008772291.750,29.297,6.348,-16.113,104.980,1.000
1626295008776198.000,4.395,-15.137,-16.113,10.742,1.000
1626295008780104.250,-19.531,-3.906,-44.922,1.000,1.000
1626295008784010.500,-73.730,-4.883,-29.785,1.000,1.000
1626295008787916.750,-44.922,-68.848,-16.113,1.000,1.000
1626295008791823.000,4.883,-80.078,-17.578,1.000,1.000
1626295008795729.250,-3.906,-0.977,-14.648,1.000,1.000
1626295008799635.500,-67.871,8.301,-15.625,1.000,1.000
1626295008803541.750,-80.078,-23.438,-29.785,1.000,1.000
1626295008807448.000,-9.277,-65.918,-27.832,1.000,1.000
1626295008811354.250,13.672,-38.574,-26.855,1.000,1.000
1626295008815260.500,-65.918,-5.859,-59.082,1.000,1.000
1626295008819166.750,-89.844,-10.254,-54.688,1.000,1.000
1626295008823073.000,0.000,-29.785,-18.555,1.000,1.000
1626295008826979.250,19.531,-6.836,-6.348,79.590,1.000
1626295008830885.500,38.574,-10.742,-1.953,78.613,1.000
1626295008834791.750,-50.293,-68.359,-37.598,-114.258,1.000
1626295008838698.000,-101.562,-68.359,-52.246,-163.574,1.000
1626295008842604.250,-8.789,-27.344,-12.695,21.484,1.000
1626295008846510.500,63.965,-24.414,12.695,112.793,1.000
1626295008850416.750,-7.324,-0.977,-27.344,-55.176,1.000
1626295008854323.000,-111.816,-58.594,-81.055,-195.312,1.000
1626295008858229.250,-49.316,-24.902,-50.293,-35.156,1.000
1626295008862135.500,36.133,19.043,-20.508,104.980,1.000
1626295008866041.750,-13.184,-13.184,-37.109,-30.762,1.000
1626295008869948.000,-80.078,-66.406,-44.922,-168.945,1.000
1626295008873854.250,-85.449,-7.324,-27.832,-150.391,1.000
1626295008877760.500,-27.344,23.438,-5.371,-7.812,1.000
1626295008881666.750,27.344,-24.902,-20.996,107.422,1.000
1626295008885573.000,-4.395,-36.621,-39.062,0.488,1.000
1626295008889479.250,-80.566,0.488,-43.457,-156.250,1.000
1626295008893385.500,-73.730,-3.418,-35.645,-84.961,1.000
1626295008897291.750,13.672,5.859,-16.602,93.750,1.000
1626295008901198.000,24.902,-6.836,-3.418,66.895,1.000
1626295008905104.250,-42.480,-25.879,-5.859,-105.469,1.000
1626295008909010.500,-71.777,-41.016,-20.508,-119.629,1.000
1626295008912916.750,-3.418,-15.137,-30.762,50.293,1.000
1626295008916823.000,31.250,-9.766,-29.297,82.520,1.000
1626295008920729.250,24.414,13.184,-28.320,-101.562,1.000
1626295008924635.500,-76.660,11.230,-60.059,-156.250,1.000
1626295008928541.750,-102.051,-34.668,-55.664,25.391,1.000
1626295008932448.000,-18.066,-45.898,-25.879,126.465,1.000
1626295008936354.250,38.086,-16.113,-16.113,-32.227,1.000
1626295008940260.500,-36.621,-18.066,-29.785,-168.945,1.000
1626295008944166.750,-99.609,-10.742,-39.551,-44.922,1.000
1626295008948073.000,-36.621,-39.062,-41.016,86.426,1.000
1626295008951979.250,48.340,-8.789,-26.367,-10.742,1.000
1626295008955885.500,11.230,8.789,-21.484,-165.527,1.000
1626295008959791.750,-75.195,-2.441,-22.461,-90.820,1.000
1626295008963698.000,-44.922,-17.090,-5.859,100.586,1.000
1626295008967604.250,-57.129,-11.230,-6.348,-35.645,1.000
1626295008971510.500,19.043,-3.418,-3.418,95.703,1.000
1626295008975416.750,-26.855,-51.270,-25.879,-19.531,1.000
1626295008979323.000,-83.984,-51.270,-22.949,-152.344,1.000
1626295008983229.250,-36.133,2.930,-14.648,-41.016,1.000
1626295008987135.500,42.480,-10.742,-31.738,115.234,1.000
1626295008991041.750,40.527,-32.227,-31.250,62.988,1.000
1626295008994948.000,-40.527,-44.922,-20.996,-109.375,1.000
1626295008998854.250,-57.129,-20.020,-10.742,-102.539,1.000
1626295009002760.500,7.324,-3.418,-21.973,66.406,1.000
1626295009006666.750,29.785,-19.043,-19.531,90.332,1.000
1626295009010573.000,-48.340,-40.527,-9.277,-83.008,1.000
1626295009014479.250,-63.965,-20.996,-37.598,-137.695,1.000
1626295009018385.500,-73.242,-16.113,-26.855,-128.906,1.000
1626295009022291.750,21.973,-35.156,-16.602,70.801,1.000
1626295009026198.000,45.898,-34.180,-29.297,103.027,1.000
1626295009030104.250,-51.758,-22.461,-38.574,-91.309,1.000
1626295009034010.500,-103.027,-28.320,-32.715,-166.504,1.000
1626295009037916.750,-33.203,-14.160,-24.902,-1.465,1.000
1626295009041823.000,30.273,-40.527,-28.320,98.633,1.000
1626295009045729.250,-22.461,-53.711,-26.367,-37.109,1.000
1626295009049635.500,-102.539,-41.504,-30.762,-172.363,1.000
1626295009053541.750,-61.035,-15.625,-24.902,-60.547,1.000
1626295009057448.000,23.438,-20.996,-13.672,95.703,1.000
1626295009061354.250,9.766,0.488,-22.461,77.637,1.000
1626295009065260.500,-41.992,-9.277,-41.992,-60.547,1.000
1626295009069166.750,-117.676,-55.664,-51.270,-191.895,1.000
1626295009073073.000,-62.988,-66.406,-17.090,-67.383,1.000
1626295009076979.250,24.902,-20.508,-5.371,99.609,1.000
1626295009080885.500,5.859,1.465,-27.344,28.320,1.000
1626295009084791.750,-75.195,-5.859,-44.922,-142.578,1.000
1626295009088698.000,-74.707,-41.992,-31.250,-101.074,1.000
1626295009092604.250,14.160,-41.992,-9.277,80.566,1.000
1626295009096510.500,35.156,-29.785,-29.297,80.566,1.000
1626295009100416.750,-49.805,-25.879,-43.945,-100.098,1.000
1626295009104323.000,-100.586,-39.551,-40.527,-145.020,1.000
1626295009108229.250,-71.777,-48.828,-17.090,-97.656,1.000
1626295009112135.500,-3.418,-32.227,-37.109,58.594,1.000
1626295009116041.750,10.254,-50.781,-29.785,58.594,1.000
1626295009119948.000,-61.523,-44.922,-21.973,-111.816,1.000
1626295009123854.250,-101.074,0.977,-39.062,-161.133,1.000
1626295009127760.500,-7.812,3.906,-24.414,23.438,1.000
1626295009131666.750,64.453,19.531,-6.836,126.465,1.000
1626295009135573.000,-13.184,-20.020,-13.184,-35.156,1.000
1626295009139479.250,-88.867,-31.738,-15.137,-159.668,1.000
1626295009143385.500,-31.250,-23.438,-6.836,-19.043,1.000
1626295009147291.750,33.691,-37.109,-15.625,106.934,1.000
1626295009151198.000,-21.973,-40.039,-44.922,-16.602,1.000
1626295009155104.250,-16.113,-15.625,-33.691,1.000,1.000
1626295009159010.500,-76.172,-35.156,-17.578,1.000,1.000
1626295009162916.750,-42.480,-39.062,-21.484,1.000,1.000
1626295009166823.000,22.461,-24.414,-13.672,1.000,1.000
1626295009170729.250,0.000,-17.090,-15.137,1.000,1.000
1626295009174635.500,-62.500,-47.852,-27.832,1.000,1.000
1626295009178541.750,-59.082,-49.316,-21.973,1.000,1.000
1626295009182448.000,11.230,-29.785,-42.969,1.000,1.000
1626295009186354.250,31.738,-6.836,-62.500,1.000,1.000
1626295009190260.500,-61.523,-17.090,-61.523,1.000,1.000
1626295009194166.750,-96.680,-11.230,-44.434,1.000,1.000
1626295009198073.000,-9.277,-12.207,-14.648,1.000,1.000
1626295009201979.250,-6.836,-15.625,-10.742,58.594,1.000
1626295009205885.500,16.602,-2.441,-25.391,59.570,1.000
1626295009209791.750,-63.965,-62.500,-40.039,-123.535,1.000
1626295009213698.000,-112.305,-96.680,-76.660,-174.805,1.000
1626295009217604.250,-43.945,-30.273,-81.543,-2.441,1.000
1626295009221510.500,4.395,-9.277,-54.688,74.219,1.000
1626295009225416.750,-47.363,-20.020,-30.273,-70.801,1.000
1626295009229323.000,-97.656,-75.684,-13.672,-160.645,1.000
1626295009233229.250,-39.551,-53.711,-15.625,-21.973,1.000
1626295009237135.500,13.672,-4.395,-30.762,90.332,1.000
1626295009241041.750,-29.785,9.277,-31.250,-22.949,1.000
1626295009244948.000,-90.332,-13.672,-23.438,-163.086,1.000
1626295009248854.250,-85.938,7.324,-33.203,-150.391,1.000
1626295009252760.500,-56.152,-1.953,-12.207,-40.039,1.000
1626295009256666.750,17.090,-16.602,-8.301,96.680,1.000
1626295009260573.000,2.441,-25.391,-27.344,4.883,1.000
1626295009264479.250,-65.430,-34.668,-58.594,-145.508,1.000
1626295009268385.500,-53.711,-37.598,-42.480,-74.707,1.000
1626295009272291.750,22.949,-23.926,-14.160,84.961,1.000
1626295009276198.000,20.996,-36.133,-16.113,44.922,1.000
1626295009280104.250,-61.523,-17.578,-35.156,-127.441,1.000
1626295009284010.500,-75.195,6.836,-36.621,-125.977,1.000
1626295009287916.750,-4.883,22.949,-32.227,43.945,1.000
1626295009291823.000,14.160,-9.277,-47.852,60.547,1.000
1626295009295729.250,20.996,-8.301,-31.738,-105.957,1.000
1626295009299635.500,-68.359,-21.973,-51.270,-172.852,1.000
1626295009303541.750,-105.957,-60.059,-50.293,-33.203,1.000
1626295009307448.000,-35.156,-46.875,-31.738,88.379,1.000
1626295009311354.250,22.949,-10.254,-5.859,-48.828,1.000
1626295009315260.500,-22.949,-18.555,-22.461,-175.293,1.000
1626295009319166.750,-68.359,-10.742,-41.992,-30.273,1.000
1626295009323073.000,-7.324,-51.758,-30.762,106.445,1.000
1626295009326979.250,60.547,-47.363,-14.160,11.719,1.000
1626295009330885.500,1.953,-8.301,-13.184,-155.273,1.000
1626295009334791.750,-79.590,17.090,-19.043,-102.051,1.000
1626295009338698.000,-43.457,1.953,-11.719,85.938,1.000
1626295009342604.250,-26.855,-18.066,-35.156,-22.949,1.000
1626295009346510.500,43.945,-5.859,-9.766,113.281,1.000
1626295009350416.750,-14.648,-37.109,-23.926,-18.066,1.000
1626295009354323.000,-83.496,-36.133,-32.227,-161.133,1.000
1626295009358229.250,-32.715,-3.418,-21.484,-48.828,1.000
1626295009362135.500,43.945,9.277,-2.441,111.328,1.000
1626295009366041.750,26.367,3.906,-0.977,49.316,1.000
1626295009369948.000,-72.266,-68.359,-25.879,-142.578,1.000
1626295009373854.250,-75.195,-65.918,-13.184,-119.629,1.000
1626295009377760.500,19.531,-12.695,-2.930,81.055,1.000
1626295009381666.750,28.320,0.000,-20.020,90.820,1.000
1626295009385573.000,-70.801,-34.180,-33.691,-106.934,1.000
1626295009389479.250,-78.125,-26.855,-22.461,1.000,1.000
1626295009393385.500,-81.543,-14.160,-33.691,1.000,1.000
1626295009397291.750,12.695,-39.062,-14.160,1.000,1.000
1626295009401198.000,49.805,-34.668,-12.695,1.000,1.000
1626295009405104.250,-41.992,-13.672,-50.293,1.000,1.000
1626295009409010.500,-119.141,-41.992,-60.059,1.000,1.000
1626295009412916.750,-44.434,-17.090,-13.672,1.000,1.000
1626295009416823.000,24.414,-40.527,-4.883,1.000,1.000
1626295009420729.250,-38.574,-42.480,-39.062,1.000,1.000
1626295009424635.500,-95.215,-11.230,-28.320,1.000,1.000
1626295009428541.750,-41.016,-16.602,-3.906,1.000,1.000
1626295009432448.000,32.715,-38.086,-20.996,1.000,1.000
1626295009436354.250,36.133,-5.859,-14.160,113.281,1.000
1626295009440260.500,1.465,6.348,-16.113,-16.602,1.000
1626295009444166.750,-86.914,-38.086,-42.480,-169.922,1.000
1626295009448073.000,-88.379,-82.031,-60.059,-88.867,1.000
1626295009451979.250,4.883,-29.785,-47.363,78.613,1.000
1626295009455885.500,11.230,3.418,-50.293,26.855,1.000
1626295009459791.750,-66.895,-0.488,-47.363,-145.996,1.000
1626295009463698.000,-67.871,-50.293,-13.184,-109.863,1.000
1626295009467604.250,6.348,-21.973,-6.836,73.242,1.000
1626295009471510.500,18.555,9.277,-23.926,68.359,1.000
1626295009475416.750,-47.363,-2.441,-30.762,-102.539,1.000
1626295009479323.000,-73.730,-32.227,-26.855,-127.441,1.000
1626295009483229.250,-79.590,-16.602,-24.902,-111.328,1.000
1626295009487135.500,4.395,4.395,-14.648,73.730,1.000
1626295009491041.750,31.738,-28.809,-21.484,86.914,1.000
1626295009494948.000,-44.922,-48.828,-49.316,-96.680,1.000
1626295009498854.250,-79.590,-22.461,-34.180,-138.672,1.000
1626295009502760.500,-4.395,-11.719,-12.207,33.203,1.000
1626295009506666.750,21.484,0.977,-46.875,94.727,1.000
1626295009510573.000,-47.852,-31.250,-45.898,-68.359,1.000
1626295009514479.250,-100.098,-31.250,-23.926,-180.664,1.000
1626295009518385.500,-46.387,-14.160,-15.625,-42.480,1.000
1626295009522291.750,37.598,-28.809,-18.555,108.887,1.000
1626295009526198.000,-1.465,-63.965,-36.621,1.953,1.000
1626295009530104.250,-10.254,8.301,-17.578,1.000,1.000
1626295009534010.500,-80.078,13.184,-7.812,1.000,1.000
1626295009537916.750,-43.945,-30.273,-13.184,1.000,1.000
1626295009541823.000,35.645,-40.527,-8.789,1.000,1.000
1626295009545729.250,4.883,-12.695,-22.461,1.000,1.000
1626295009549635.500,-85.938,-28.809,-38.086,1.000,1.000
1626295009553541.750,-81.543,-23.438,-25.879,1.000,1.000
1626295009557448.000,5.859,-33.203,-10.742,1.000,1.000
1626295009561354.250,25.391,-24.902,-20.020,1.000,1.000
1626295009565260.500,-46.387,3.906,-37.109,1.000,1.000
1626295009569166.750,-82.031,-1.465,-40.527,1.000,1.000
1626295009573073.000,-7.812,-16.113,-21.973,1.000,1.000
1626295009576979.250,12.207,-17.578,-20.508,80.078,1.000
1626295009580885.500,25.391,-3.418,-20.508,72.266,1.000
1626295009584791.750,-51.270,-46.387,-11.230,-108.887,1.000
1626295009588698.000,-88.867,-59.570,-40.527,-151.855,1.000
1626295009592604.250,-12.207,-2.930,-53.223,26.367,1.000
1626295009596510.500,43.945,-3.418,-20.020,104.492,1.000
1626295009600416.750,-41.504,-29.297,-46.387,-78.613,1.000
1626295009604323.000,-115.234,-80.078,-61.035,-186.523,1.000
1626295009608229.250,-45.898,-49.316,-20.508,-30.762,1.000
1626295009612135.500,34.668,12.207,-7.324,108.398,1.000
1626295009616041.750,-8.301,0.000,-13.672,-11.230,1.000
1626295009619948.000,-82.031,-35.156,-21.484,-168.457,1.000
1626295009623854.250,-106.445,-17.090,-45.410,-173.340,1.000
1626295009627760.500,-53.223,-13.672,-26.367,-33.203,1.000
1626295009631666.750,8.301,-74.707,-25.879,96.191,1.000
1626295009635573.000,-15.137,-100.586,-31.738,2.930,1.000
1626295009639479.250,-84.961,-52.734,-43.457,-148.926,1.000
1626295009643385.500,-82.031,-27.832,-31.250,-93.750,1.000
1626295009647291.750,3.906,9.277,-25.879,82.520,1.000
1626295009651198.000,-3.418,-47.363,-46.387,39.551,1.000
1626295009655104.250,-75.195,-55.664,-23.438,-134.766,1.000
1626295009659010.500,-74.707,3.418,-16.113,-124.023,1.000
1626295009662916.750,-10.742,9.277,-24.414,37.109,1.000
1626295009666823.000,14.648,-23.926,-31.250,67.383,1.000
1626295009670729.250,20.508,-21.973,-17.090,65.918,1.000
1626295009674635.500,-60.547,-13.184,-26.855,-121.582,1.000
1626295009678541.750,-82.520,-40.039,-31.738,-142.090,1.000
1626295009682448.000,-4.883,-36.621,-17.090,41.504,1.000
1626295009686354.250,28.809,-5.859,-14.160,89.355,1.000
1626295009690260.500,-45.898,-2.441,-37.598,-85.938,1.000
1626295009694166.750,-96.680,0.000,-46.387,-164.062,1.000
1626295009698073.000,-32.227,-54.199,-32.715,-11.230,1.000
1626295009701979.250,38.086,-34.180,-13.672,108.887,1.000
1626295009705885.500,-12.207,5.859,-23.926,-20.020,1.000
1626295009709791.750,-76.660,-5.371,-27.344,-151.855,1.000
1626295009713698.000,-42.969,-41.504,-23.438,-49.316,1.000
1626295009717604.250,-22.461,0.000,-22.461,-11.719,1.000
1626295009721510.500,41.016,13.184,-28.809,105.469,1.000
1626295009725416.750,-3.906,-50.781,-23.926,-10.742,1.000
1626295009729323.000,-83.008,-72.754,-18.555,-154.785,1.000
1626295009733229.250,-71.777,-30.273,-20.996,-82.031,1.000
1626295009737135.500,-2.441,-7.324,-31.250,75.195,1.000
1626295009741041.750,-0.977,14.648,-31.250,32.715,1.000
1626295009744948.000,-83.008,-47.852,-15.137,-143.555,1.000
1626295009748854.250,-72.266,-52.734,-0.977,-104.980,1.000
1626295009752760.500,24.902,-13.672,10.742,88.867,1.000
1626295009756666.750,27.832,-6.836,-13.672,80.566,1.000
1626295009760573.000,-40.039,-18.555,-51.758,-95.215,1.000
1626295009764479.250,-63.477,-16.113,-27.344,1.000,1.000
1626295009768385.500,-83.008,-34.668,-24.902,1.000,1.000
1626295009772291.750,-27.832,-65.918,-39.551,1.000,1.000
1626295009776198.000,9.277,-41.016,-37.598,1.000,1.000
1626295009780104.250,-49.316,-20.508,-49.805,1.000,1.000
1626295009784010.500,-83.984,-32.227,-69.824,1.000,1.000
1626295009787916.750,-21.484,-0.977,-47.363,1.000,1.000
1626295009791823.000,21.973,-12.695,-2.930,1.000,1.000
1626295009795729.250,-40.527,-33.691,-0.977,1.000,1.000
1626295009799635.500,-114.258,-31.250,-11.230,1.000,1.000
1626295009803541.750,-84.473,-22.949,-1.953,1.000,1.000
1626295009807448.000,-2.930,-36.133,3.906,1.000,1.000
1626295009811354.250,28.320,-11.230,-15.625,101.562,1.000
1626295009815260.500,-15.625,-17.090,-40.527,-37.598,1.000
1626295009819166.750,-81.055,-74.707,-39.551,-166.504,1.000
1626295009823073.000,-36.621,-53.223,-17.090,-45.898,1.000
1626295009826979.250,34.180,7.324,-12.695,114.746,1.000
1626295009830885.500,18.066,-20.996,-19.043,40.039,1.000
1626295009834791.750,-56.641,-46.387,-25.879,-130.859,1.000
1626295009838698.000,-62.012,-83.008,-32.227,-91.797,1.000
1626295009842604.250,5.371,-34.668,-38.574,80.078,1.000
1626295009846510.500,24.902,-1.465,-37.598,80.078,1.000
1626295009850416.750,-33.691,-17.578,-41.016,-87.402,1.000
1626295009854323.000,-64.453,-40.527,-26.855,-122.559,1.000
1626295009858229.250,-49.805,-13.672,-14.648,-95.215,1.000
1626295009862135.500,24.414,7.324,-24.414,85.449,1.000
1626295009866041.750,16.113,-60.059,-30.273,80.078,1.000
1626295009869948.000,-77.637,-77.637,-41.992,-109.863,1.000
1626295009873854.250,-105.957,-14.160,-33.691,-153.320,1.000
1626295009877760.500,-31.250,-32.227,-4.883,21.484,1.000
1626295009881666.750,15.625,-29.297,-6.836,95.215,1.000
1626295009885573.000,-26.855,-49.805,-17.578,-46.387,1.000
1626295009889479.250,-80.078,-27.832,-24.902,-141.113,1.000
1626295009893385.500,-55.664,-3.418,-23.926,-29.785,1.000
1626295009897291.750,0.000,-14.648,-27.832,93.750,1.000
1626295009901198.000,-22.949,-27.832,-42.969,0.488,1.000
1626295009905104.250,-3.418,-8.789,-60.059,1.000,1.000
1626295009909010.500,-82.031,-21.973,-46.875,1.000,1.000
1626295009912916.750,-59.082,-102.051,-34.180,1.000,1.000
1626295009916823.000,24.414,-77.637,-18.555,1.000,1.000
1626295009920729.250,4.883,13.672,-17.578,1.000,1.000
1626295009924635.500,-80.078,-3.418,-26.855,1.000,1.000
1626295009928541.750,-65.430,-8.301,-19.531,1.000,1.000
1626295009932448.000,8.789,-65.918,-25.879,1.000,1.000
1626295009936354.250,8.301,-56.641,-40.039,1.000,1.000
1626295009940260.500,-60.547,-10.254,-50.781,1.000,1.000
1626295009944166.750,-80.566,-4.395,-47.852,1.000,1.000
1626295009948073.000,-5.859,-3.906,-25.879,1.000,1.000
1626295009951979.250,12.695,12.695,5.859,78.125,1.000
1626295009955885.500,22.461,8.301,-22.949,70.801,1.000
1626295009959791.750,-67.871,-66.406,-50.781,-125.977,1.000
1626295009963698.000,-84.473,-54.688,-32.715,-144.531,1.000
1626295009967604.250,2.930,10.254,-22.949,42.969,1.000
1626295009971510.500,50.781,0.488,-19.043,112.793,1.000
1626295009975416.750,-15.137,-15.137,-29.297,-48.828,1.000
1626295009979323.000,-92.285,-92.773,-61.523,-166.992,1.000
1626295009983229.250,-44.434,-59.082,-56.152,-34.668,1.000
1626295009987135.500,28.809,24.414,-25.879,101.074,1.000
1626295009991041.750,-17.578,20.020,-17.090,-16.602,1.000
1626295009994948.000,-95.215,-10.742,-24.902,-173.340,1.000
1626295009998854.250,-81.543,0.488,-36.621,-165.527,1.000
1626295010002760.500,-52.246,-19.043,-48.828,-41.504,1.000
1626295010006666.750,4.883,-73.730,-35.156,81.543,1.000
1626295010010573.000,-23.926,-83.984,-37.109,-21.484,1.000
1626295010014479.250,-83.496,-21.484,-53.223,-155.762,1.000
1626295010018385.500,-55.176,-2.441,-28.320,-75.195,1.000
1626295010022291.750,24.902,11.719,-9.277,94.727,1.000
1626295010026198.000,8.301,-59.570,-38.574,45.898,1.000
1626295010030104.250,-75.684,-58.105,-41.992,-134.277,1.000
1626295010034010.500,-82.520,-7.324,-29.785,-120.117,1.000
1626295010037916.750,8.789,-4.883,-19.043,66.895,1.000
1626295010041823.000,54.199,-8.301,-18.555,113.770,1.000
1626295010045729.250,31.250,-11.719,-13.184,-77.637,1.000
1626295010049635.500,-72.754,-23.438,-36.621,-160.645,1.000
1626295010053541.750,-106.445,-75.195,-36.133,17.090,1.000
1626295010057448.000,-23.926,-60.059,-34.668,126.465,1.000
1626295010061354.250,34.668,6.836,-39.062,-22.949,1.000
1626295010065260.500,-15.625,-12.207,-33.691,-158.691,1.000
1626295010069166.750,-59.570,-11.719,-29.297,-42.480,1.000
1626295010073073.000,-40.527,-52.246,-44.922,111.816,1.000
1626295010076979.250,12.207,-23.926,-32.715,32.715,1.000
1626295010080885.500,-17.578,12.695,-21.973,-145.508,1.000
1626295010084791.750,-84.961,0.000,-23.926,-70.801,1.000
1626295010088698.000,-33.691,-19.531,-7.812,138.184,1.000
1626295010092604.250,-8.301,-17.578,-49.805,-0.977,1.000
1626295010096510.500,36.133,5.859,-37.598,103.027,1.000
1626295010100416.750,-22.461,-68.848,-53.223,-32.715,1.000
1626295010104323.000,-98.145,-62.500,-51.270,-180.176,1.000
1626295010108229.250,-60.059,17.090,-13.672,-82.520,1.000
1626295010112135.500,31.250,7.324,-22.461,96.191,1.000
1626295010116041.750,19.043,-2.441,-56.152,38.574,1.000
1626295010119948.000,-69.336,-32.227,-33.691,-143.555,1.000
1626295010123854.250,-79.590,-20.996,-6.836,-126.465,1.000
1626295010127760.500,6.836,10.254,-5.371,55.664,1.000
1626295010131666.750,26.367,-4.883,-20.508,75.684,1.000
1626295010135573.000,-46.875,-54.199,-30.273,-96.191,1.000
1626295010139479.250,-81.543,-9.277,-40.527,1.000,1.000
1626295010143385.500,-92.285,-9.766,-37.109,1.000,1.000
1626295010147291.750,-11.719,-61.523,-35.645,1.000,1.000
1626295010151198.000,12.207,-49.316,-40.527,1.000,1.000
1626295010155104.250,-46.875,3.418,-40.039,1.000,1.000
1626295010159010.500,-82.520,-3.418,-27.344,1.000,1.000
1626295010162916.750,-21.484,0.488,-29.785,1.000,1.000
1626295010166823.000,39.062,-53.711,-27.344,1.000,1.000
1626295010170729.250,-18.555,-53.223,-17.578,1.000,1.000
1626295010174635.500,-104.004,-41.016,-13.672,1.000,1.000
1626295010178541.750,-79.590,-36.133,-17.578,1.000,1.000
1626295010182448.000,4.395,-14.160,-24.414,1.000,1.000
1626295010186354.250,34.668,-5.859,-35.645,105.469,1.000
1626295010190260.500,-14.648,-17.578,-50.781,-30.273,1.000
1626295010194166.750,-89.844,-67.871,-48.828,-171.387,1.000
1626295010198073.000,-45.410,-49.805,-26.367,-52.734,1.000
1626295010201979.250,43.945,-1.465,-1.465,115.234,1.000
1626295010205885.500,23.926,-27.344,-13.672,42.480,1.000
1626295010209791.750,-52.246,4.883,-25.879,-125.977,1.000
1626295010213698.000,-56.641,-42.480,-23.926,-93.262,1.000
1626295010217604.250,10.254,-50.781,-34.180,69.824,1.000
1626295010221510.500,14.648,4.883,-33.203,53.223,1.000
1626295010225416.750,-73.730,-15.625,-34.668,-136.230,1.000
1626295010229323.000,-94.727,-41.504,-30.762,-165.039,1.000
1626295010233229.250,-68.848,6.836,-50.781,-115.234,1.000
1626295010237135.500,19.043,20.020,-24.414,68.848,1.000
1626295010241041.750,26.855,-70.312,-31.738,73.242,1.000
1626295010244948.000,-65.918,-116.699,-60.059,-117.188,1.000
1626295010248854.250,-81.543,-46.875,-42.969,-150.879,1.000
1626295010252760.500,-8.301,-10.742,-35.645,19.043,1.000
1626295010256666.750,32.715,20.508,-36.133,93.262,1.000
1626295010260573.000,-12.695,-8.301,-30.762,-39.551,1.000
1626295010264479.250,-78.125,-17.578,-46.387,-154.785,1.000
1626295010268385.500,-36.621,12.695,-27.832,-27.832,1.000
1626295010272291.750,32.715,22.461,-20.508,114.746,1.000
1626295010276198.000,0.488,-9.766,-33.691,9.766,1.000
1626295010280104.250,-16.602,0.977,-18.066,-153.320,1.000
1626295010284010.500,-100.586,-20.020,-38.086,-95.215,1.000
1626295010287916.750,-62.500,-87.402,-39.062,83.984,1.000
1626295010291823.000,20.508,-66.895,-23.926,47.852,1.000
1626295010295729.250,1.465,11.719,-31.250,-134.766,1.000
1626295010299635.500,-73.730,-1.465,-38.574,-114.258,1.000
1626295010303541.750,-57.617,-4.883,-39.062,66.406,1.000
1626295010307448.000,14.160,-41.504,-43.457,87.891,1.000
1626295010311354.250,20.020,-48.340,-40.527,-77.148,1.000
1626295010315260.500,-52.734,-24.414,-40.039,-153.320,1.000
1626295010319166.750,-88.379,0.000,-40.527,-9.766,1.000
1626295010323073.000,-25.879,-1.465,-37.109,102.539,1.000
1626295010326979.250,0.977,-18.066,-29.785,65.918,1.000
1626295010330885.500,18.555,-34.668,-36.621,62.988,1.000
1626295010334791.750,-62.500,-87.402,-45.410,-109.375,1.000
1626295010338698.000,-93.262,-75.195,-39.062,-144.531,1.000
1626295010342604.250,-22.949,5.859,-36.621,21.973,1.000
1626295010346510.500,30.762,17.578,-33.691,99.609,1.000
1626295010350416.750,-19.531,-2.930,-18.066,-42.969,1.000
1626295010354323.000,-96.191,-69.824,-26.855,-166.016,1.000
1626295010358229.250,-57.617,-46.387,-32.715,-44.434,1.000
1626295010362135.500,20.508,5.859,-22.461,95.703,1.000
1626295010366041.750,-6.348,-4.395,-30.762,-14.160,1.000
1626295010369948.000,-76.172,-45.410,-48.340,-155.762,1.000
1626295010373854.250,-77.148,-30.273,-29.785,-142.090,1.000
1626295010377760.500,-24.414,20.996,-26.367,0.977,1.000
1626295010381666.750,27.344,-45.898,-37.598,121.094,1.000
1626295010385573.000,-17.090,-73.242,-36.621,-1.953,1.000
1626295010389479.250,-78.613,-12.695,-13.672,-151.855,1.000
1626295010393385.500,-62.012,-4.883,-14.160,-87.402,1.000
1626295010397291.750,18.555,-2.441,-27.344,83.984,1.000
1626295010401198.000,10.254,-65.430,-44.434,43.457,1.000
1626295010405104.250,-66.895,-51.758,-55.664,-135.742,1.000
1626295010409010.500,-74.707,3.418,-36.133,-129.395,1.000
1626295010412916.750,-8.789,1.953,-7.812,42.480,1.000
1626295010416823.000,21.484,-34.180,-13.184,71.777,1.000
1626295010420729.250,25.391,-29.785,-10.254,-97.656,1.000
1626295010424635.500,-77.148,-17.090,-32.227,-157.715,1.000
1626295010428541.750,-104.980,-51.758,-24.902,5.371,1.000
1626295010432448.000,-24.414,-33.203,-17.578,85.449,1.000
1626295010436354.250,25.391,12.695,-32.715,-70.312,1.000
1626295010440260.500,-32.227,-22.461,-39.551,-170.898,1.000
1626295010444166.750,-93.750,-18.066,-39.551,-44.434,1.000
1626295010448073.000,-45.898,-32.227,-34.180,95.703,1.000
1626295010451979.250,41.504,-19.043,-6.348,4.395,1.000
1626295010455885.500,5.371,-14.160,-10.742,-169.434,1.000
1626295010459791.750,-94.238,-33.691,-32.715,-107.422,1.000
1626295010463698.000,-50.781,-53.711,-10.742,88.379,1.000
1626295010467604.250,-18.066,-9.277,-33.691,-15.625,1.000
1626295010471510.500,41.992,8.789,-28.809,106.445,1.000
1626295010475416.750,-18.066,-78.613,-40.039,-27.344,1.000
1626295010479323.000,-100.586,-86.426,-45.898,-178.711,1.000
1626295010483229.250,-57.129,2.441,-17.578,-71.777,1.000
1626295010487135.500,15.137,4.883,-14.160,85.938,1.000
1626295010491041.750,-4.395,-7.324,-25.879,22.461,1.000
1626295010494948.000,-79.102,-58.594,-36.133,-148.438,1.000
1626295010498854.250,-68.359,-40.039,-31.250,-119.629,1.000
1626295010502760.500,24.414,2.930,-3.418,70.801,1.000
1626295010506666.750,42.480,0.977,-5.859,84.961,1.000
1626295010510573.000,-47.852,-24.902,-30.273,-109.375,1.000
1626295010514479.250,-58.594,-20.508,-8.301,-131.348,1.000
1626295010518385.500,-94.238,9.766,-35.156,-143.555,1.000
1626295010522291.750,-33.203,-32.227,-46.875,23.926,1.000
1626295010526198.000,8.789,-49.316,-39.551,68.359,1.000
1626295010530104.250,-47.852,-4.395,-50.293,-87.891,1.000
1626295010534010.500,-80.566,-11.230,-54.199,-141.602,1.000
1626295010537916.750,-16.602,0.000,-28.809,14.160,1.000
1626295010541823.000,24.902,-59.082,-28.809,98.145,1.000
1626295010545729.250,-33.203,-72.266,-40.039,-42.480,1.000
1626295010549635.500,-100.098,-31.250,-52.734,-166.504,1.000
1626295010553541.750,-57.617,-21.973,-69.824,-54.199,1.000
1626295010557448.000,26.367,-27.832,-35.156,104.980,1.000
1626295010561354.250,24.902,8.301,-10.742,98.145,1.000
1626295010565260.500,-25.879,23.926,-22.949,-38.086,1.000
1626295010569166.750,-94.727,-58.105,-34.668,-178.711,1.000
1626295010573073.000,-63.477,-83.008,-38.574,-75.195,1.000
1626295010576979.250,15.625,-11.230,-37.598,87.402,1.000
1626295010580885.500,3.418,-0.977,-35.645,17.578,1.000
1626295010584791.750,-84.961,1.465,-34.180,-156.738,1.000
1626295010588698.000,-102.051,-69.824,-36.621,-134.766,1.000
1626295010592604.250,-15.625,-56.641,-20.020,47.363,1.000
1626295010596510.500,12.207,-9.277,-25.879,66.406,1.000
1626295010600416.750,-49.316,-26.855,-56.152,-95.703,1.000
1626295010604323.000,-73.730,-43.457,-30.762,-134.277,1.000
1626295010608229.250,-89.355,-16.602,-28.809,-125.977,1.000
1626295010612135.500,-15.137,-4.883,-42.969,45.410,1.000
1626295010616041.750,0.000,-69.824,-55.176,53.223,1.000
1626295010619948.000,-62.988,-71.777,-42.969,-106.445,1.000
1626295010623854.250,-70.801,10.254,-16.602,-123.535,1.000
1626295010627760.500,-1.465,5.859,-24.414,45.898,1.000
1626295010631666.750,52.246,5.859,-28.320,129.883,1.000
1626295010635573.000,-5.859,-51.758,-22.949,-24.414,1.000
1626295010639479.250,-81.543,-48.828,-19.531,-152.344,1.000
1626295010643385.500,-50.293,-2.930,-19.043,-39.551,1.000
1626295010647291.750,2.930,-2.930,-18.555,81.543,1.000
1626295010651198.000,-22.949,-18.555,-14.160,-10.254,1.000
1626295010655104.250,-33.691,-64.941,-37.109,-160.645,1.000
1626295010659010.500,-95.703,-30.762,-48.340,-79.102,1.000
1626295010662916.750,-38.574,-47.852,-36.133,104.004,1.000
1626295010666823.000,41.992,-38.574,-35.645,53.711,1.000
1626295010670729.250,4.883,19.043,-42.969,-127.930,1.000
1626295010674635.500,-78.125,3.418,-42.480,-121.582,1.000
1626295010678541.750,-60.059,-3.906,-38.574,73.730,1.000
1626295010682448.000,17.578,-38.086,-24.902,102.539,1.000
1626295010686354.250,18.066,-33.203,-15.625,-104.492,1.000
1626295010690260.500,-67.383,-36.133,-31.738,-173.828,1.000
1626295010694166.750,-76.172,-42.969,-43.457,-7.324,1.000
1626295010698073.000,12.207,-23.438,-34.668,78.125,1.000
1626295010701979.250,8.301,-6.836,-30.762,84.961,1.000
1626295010705885.500,20.996,0.000,-47.852,75.195,1.000
1626295010709791.750,-68.848,-61.523,-50.293,-111.816,1.000
1626295010713698.000,-100.586,-80.078,-42.480,-142.578,1.000
1626295010717604.250,-14.648,2.441,-24.414,37.109,1.000
1626295010721510.500,32.715,13.672,-8.301,110.840,1.000
1626295010725416.750,-31.738,-1.953,-27.344,-47.363,1.000
1626295010729323.000,-98.633,-48.340,-44.434,-154.785,1.000
1626295010733229.250,-49.805,-77.637,-46.387,-21.973,1.000
1626295010737135.500,19.531,-34.668,-40.527,106.445,1.000
1626295010741041.750,-21.973,-2.930,-26.855,-8.301,1.000
1626295010744948.000,-108.887,-42.480,-27.344,-170.410,1.000
1626295010748854.250,-104.492,-24.414,-50.293,-184.570,1.000
1626295010752760.500,-60.059,-18.555,-26.855,-54.688,1.000
1626295010756666.750,31.250,-60.547,5.371,106.445,1.000
1626295010760573.000,3.906,-73.730,-9.766,7.812,1.000
1626295010764479.250,-82.520,-24.414,-41.992,-164.551,1.000
1626295010768385.500,-64.941,-22.949,-36.133,-90.332,1.000
1626295010772291.750,25.879,1.953,-2.930,90.332,1.000
1626295010776198.000,20.996,-46.387,-28.809,46.387,1.000
1626295010780104.250,-68.848,-62.500,-75.195,-140.625,1.000
1626295010784010.500,-86.914,-22.949,-57.129,-138.184,1.000
1626295010787916.750,-9.277,-15.137,-17.578,46.387,1.000
1626295010791823.000,22.461,-22.949,-16.602,75.195,1.000
1626295010795729.250,27.832,-15.137,-8.301,80.566,1.000
1626295010799635.500,-70.801,-27.344,-36.133,-112.793,1.000
1626295010803541.750,-115.234,-88.867,-58.594,-154.785,1.000
1626295010807448.000,-42.969,-68.848,-45.898,10.254,1.000
1626295010811354.250,21.484,-3.418,-36.621,81.055,1.000
1626295010815260.500,-28.809,-20.020,-44.434,-68.848,1.000
1626295010819166.750,-88.867,-17.578,-34.668,-161.133,1.000
1626295010823073.000,-41.992,-15.137,-19.531,-19.531,1.000
1626295010826979.250,10.742,-8.789,-23.926,92.773,1.000
1626295010830885.500,-36.621,-34.180,-41.504,-43.945,1.000
1626295010834791.750,-103.027,-38.086,-43.457,-189.941,1.000
1626295010838698.000,-74.219,-25.391,-30.273,-85.938,1.000
1626295010842604.250,-40.527,-16.602,-15.137,-25.391,1.000
1626295010846510.500,36.621,10.254,-5.859,109.863,1.000
1626295010850416.750,-0.488,-44.434,-29.297,-3.418,1.000
1626295010854323.000,-78.125,-72.754,-34.180,-150.879,1.000
1626295010858229.250,-56.152,-22.461,-19.043,-68.359,1.000
1626295010862135.500,12.207,-19.043,-31.738,79.102,1.000
1626295010866041.750,-1.953,-9.766,-35.645,22.949,1.000
1626295010869948.000,-84.473,-80.078,-36.621,-153.320,1.000
1626295010873854.250,-87.402,-63.477,-47.852,-132.324,1.000
1626295010877760.500,-3.906,15.137,-57.617,51.270,1.000
1626295010881666.750,32.227,18.066,-53.711,80.078,1.000
1626295010885573.000,-35.156,-8.789,-50.293,-86.426,1.000
1626295010889479.250,-56.152,3.418,-55.664,1.000,1.000
1626295010893385.500,-75.195,10.742,-28.320,1.000,1.000
1626295010897291.750,2.930,-55.176,4.395,1.000,1.000
1626295010901198.000,43.945,-67.871,6.836,1.000,1.000
1626295010905104.250,-51.758,-30.762,-31.250,1.000,1.000
1626295010909010.500,-105.469,-43.945,-37.598,1.000,1.000
1626295010912916.750,-24.414,-21.484,-34.180,1.000,1.000
1626295010916823.000,27.832,-7.324,-56.641,1.000,1.000
1626295010920729.250,-35.645,3.906,-47.852,1.000,1.000
1626295010924635.500,-104.004,-1.953,-19.043,1.000,1.000
1626295010928541.750,-57.129,-16.602,-11.230,1.000,1.000
1626295010932448.000,26.367,-22.949,-14.648,1.000,1.000
1626295010936354.250,30.273,6.348,-24.414,104.004,1.000
1626295010940260.500,-15.137,-9.766,-29.785,-20.508,1.000
1626295010944166.750,-89.844,-92.773,-44.922,-165.527,1.000
1626295010948073.000,-57.617,-83.008,-28.809,-63.477,1.000
1626295010951979.250,33.691,9.766,-14.160,106.934,1.000
1626295010955885.500,19.043,16.602,-39.551,36.133,1.000
1626295010959791.750,-72.266,1.953,-29.297,-142.090,1.000
1626295010963698.000,-75.684,-47.852,-6.836,-107.422,1.000
1626295010967604.250,9.277,-39.551,-17.090,68.848,1.000
1626295010971510.500,32.715,-11.719,-23.926,75.684,1.000
1626295010975416.750,-38.086,-31.250,-17.090,-90.820,1.000
1626295010979323.000,-77.637,-20.020,-21.484,-133.789,1.000
1626295010983229.250,-74.219,-48.828,-25.391,-116.211,1.000
1626295010987135.500,-4.395,-39.551,-34.668,54.688,1.000
1626295010991041.750,27.344,-48.828,-54.199,79.102,1.000
1626295010994948.000,-37.598,-43.945,-30.273,-83.008,1.000
1626295010998854.250,-76.172,-5.371,-13.672,-139.648,1.000
1626295011002760.500,-10.742,14.160,-30.273,20.508,1.000
1626295011006666.750,45.898,21.973,-33.203,114.746,1.000
1626295011010573.000,-20.020,-36.133,-39.062,-39.062,1.000
1626295011014479.250,-93.262,-62.012,-45.410,-150.391,1.000
1626295011018385.500,-46.875,-37.598,-24.414,-22.461,1.000
1626295011022291.750,19.043,-32.715,-20.508,104.004,1.000
1626295011026198.000,-8.789,-30.762,-31.250,2.930,1.000
1626295011030104.250,-14.648,-0.977,-12.207,-151.367,1.000
1626295011034010.500,-88.379,-6.836,-15.625,-69.824,1.000
1626295011037916.750,-73.242,-71.289,-27.832,124.512,1.000
1626295011041823.000,2.441,-67.383,-28.809,93.750,1.000
1626295011045729.250,4.883,-11.719,-19.531,-102.051,1.000
1626295011049635.500,-89.355,-57.617,-39.062,-121.094,1.000
1626295011053541.750,-95.215,-60.059,-33.691,52.246,1.000
1626295011057448.000,9.766,-42.969,-1.953,86.426,1.000
1626295011061354.250,29.785,-25.391,3.418,-62.988,1.000
1626295011065260.500,-59.082,-22.461,-22.949,-139.160,1.000
1626295011069166.750,-100.586,-14.648,-49.316,-2.441,1.000
1626295011073073.000,-33.203,-14.160,-55.664,108.398,1.000
1626295011076979.250,36.133,3.906,-33.203,89.844,1.000
1626295011080885.500,58.594,4.883,-29.785,104.004,1.000
1626295011084791.750,-59.570,-79.102,-33.691,-118.652,1.000
1626295011088698.000,-120.117,-84.473,-33.203,-185.547,1.000
1626295011092604.250,-41.992,5.371,-30.762,-3.906,1.000
1626295011096510.500,20.508,2.930,-36.621,80.078,1.000
1626295011100416.750,-37.109,-17.578,-41.992,-71.289,1.000
1626295011104323.000,-99.609,-83.496,-37.598,-175.781,1.000
1626295011108229.250,-53.711,-61.035,-41.016,-41.992,1.000
1626295011112135.500,25.879,11.719,-46.387,94.727,1.000
1626295011116041.750,-2.441,13.184,-36.621,-7.812,1.000
1626295011119948.000,-88.379,-2.930,-29.297,-162.109,1.000
1626295011123854.250,-86.914,-8.301,-26.855,1.000,1.000
1626295011127760.500,-53.711,6.348,-39.551,1.000,1.000
1626295011131666.750,2.930,-52.734,-52.734,1.000,1.000
1626295011135573.000,-24.902,-57.129,-41.992,1.000,1.000
1626295011139479.250,-99.121,-2.930,-50.293,1.000,1.000
1626295011143385.500,-69.336,3.418,-35.645,1.000,1.000
1626295011147291.750,22.461,1.465,-18.066,1.000,1.000
1626295011151198.000,19.531,-64.941,-38.086,1.000,1.000
1626295011155104.250,-62.988,-70.312,-43.945,1.000,1.000
1626295011159010.500,-77.148,-20.996,-25.391,1.000,1.000
1626295011162916.750,0.977,-2.930,-19.531,1.000,1.000
1626295011166823.000,51.270,-21.973,-12.207,1.000,1.000
1626295011170729.250,25.391,-27.832,-18.555,77.637,1.000
1626295011174635.500,-52.246,-13.184,-26.367,-106.934,1.000
1626295011178541.750,-95.215,-62.500,-37.109,-144.531,1.000
1626295011182448.000,-26.367,-52.734,-43.457,24.902,1.000
1626295011186354.250,34.180,12.207,-41.504,94.727,1.000
1626295011190260.500,-37.598,-9.277,-47.852,-75.684,1.000
1626295011194166.750,-97.168,-9.277,-42.969,-166.992,1.000
1626295011198073.000,-42.480,-56.641,-30.762,-20.020,1.000
1626295011201979.250,29.785,-60.059,-22.461,103.027,1.000
1626295011205885.500,-9.277,-35.645,-28.320,-15.137,1.000
1626295011209791.750,-82.520,-43.945,-28.809,-154.297,1.000
1626295011213698.000,-49.805,-15.625,-13.184,-51.270,1.000
1626295011217604.250,-36.621,-17.090,-19.531,-12.695,1.000
1626295011221510.500,50.781,-5.859,-5.859,125.977,1.000
1626295011225416.750,4.883,-59.082,-42.969,6.348,1.000
1626295011229323.000,-92.285,-57.617,-61.035,-165.527,1.000
1626295011233229.250,-64.453,10.742,-33.691,-73.730,1.000
1626295011237135.500,20.996,3.418,-39.551,91.309,1.000
1626295011241041.750,4.883,-32.227,-51.758,26.855,1.000
1626295011244948.000,-78.613,-77.637,-42.969,-137.695,1.000
1626295011248854.250,-89.844,-52.246,-14.648,-124.023,1.000
1626295011252760.500,-0.488,-11.230,-4.395,61.523,1.000
1626295011256666.750,33.691,-22.461,-8.301,92.773,1.000
1626295011260573.000,-61.523,-47.852,-43.457,-112.305,1.000
1626295011264479.250,-48.828,-15.625,-41.992,1.000,1.000
1626295011268385.500,-75.195,-24.414,-52.734,1.000,1.000
1626295011272291.750,-8.301,-91.797,-53.711,1.000,1.000
1626295011276198.000,22.461,-68.848,-36.621,1.000,1.000
1626295011280104.250,-53.223,-6.348,-35.156,1.000,1.000
1626295011284010.500,-101.074,-27.832,-36.621,1.000,1.000
1626295011287916.750,-25.391,-1.953,-5.859,1.000,1.000
1626295011291823.000,22.949,-42.969,-6.836,1.000,1.000
1626295011295729.250,-16.113,-44.922,-31.250,1.000,1.000
1626295011299635.500,-76.660,-2.930,-43.457,1.000,1.000
1626295011303541.750,-48.340,2.930,-25.879,1.000,1.000
1626295011307448.000,29.297,-19.531,-23.926,1.000,1.000
1626295011311354.250,31.250,-23.926,-44.434,104.004,1.000
1626295011315260.500,-22.461,-6.836,-47.852,-37.109,1.000
1626295011319166.750,-91.309,-78.125,-28.809,-168.457,1.000
1626295011323073.000,-61.035,-65.430,-20.020,-59.570,1.000
1626295011326979.250,20.508,17.090,-21.484,99.121,1.000
1626295011330885.500,22.461,-1.953,-5.371,47.363,1.000
1626295011334791.750,-52.246,-1.465,-14.160,-115.234,1.000
1626295011338698.000,-75.684,-56.641,-38.086,-106.934,1.000
1626295011342604.250,11.230,-46.875,-26.367,75.195,1.000
1626295011346510.500,43.457,10.254,-8.301,93.750,1.000
1626295011350416.750,-45.410,-1.953,-36.133,-91.797,1.000
1626295011354323.000,-79.590,-14.160,-47.852,-133.301,1.000
1626295011358229.250,-56.152,-22.949,-15.137,-93.262,1.000
1626295011362135.500,16.602,-10.254,-14.648,71.289,1.000
1626295011366041.750,16.113,-47.363,-26.855,63.477,1.000
1626295011369948.000,-55.176,-60.547,-32.715,-104.004,1.000
1626295011373854.250,-81.543,-6.836,-32.227,-141.602,1.000
1626295011377760.500,-23.438,-20.996,-36.133,13.184,1.000
1626295011381666.750,28.320,-22.461,-30.273,103.027,1.000
1626295011385573.000,-24.902,-58.594,-34.180,-41.992,1.000
1626295011389479.250,-79.590,-42.969,-30.762,-153.320,1.000
1626295011393385.500,-31.738,-1.953,-27.832,-21.484,1.000
1626295011397291.750,38.086,18.066,-26.855,116.211,1.000
1626295011401198.000,-4.395,3.906,-43.945,2.441,1.000
1626295011405104.250,2.441,12.695,-17.578,-172.852,1.000
1626295011409010.500,-84.961,-20.508,-32.715,-104.980,1.000
1626295011412916.750,-51.270,-82.520,-43.457,72.266,1.000
1626295011416823.000,45.410,-62.012,-20.996,54.688,1.000
1626295011420729.250,25.391,-3.418,-12.207,-140.625,1.000
1626295011424635.500,-67.383,-18.066,-40.039,-144.531,1.000
1626295011428541.750,-49.316,13.672,-25.879,49.805,1.000
1626295011432448.000,37.598,-49.316,-3.418,79.590,1.000
1626295011436354.250,21.973,-63.965,-33.203,-87.402,1.000
1626295011440260.500,-63.965,-10.254,-63.477,-165.527,1.000
1626295011444166.750,-67.383,-5.371,-45.898,-6.836,1.000
1626295011448073.000,23.438,13.184,-11.719,114.746,1.000
1626295011451979.250,12.695,2.930,-7.324,79.590,1.000
1626295011455885.500,29.297,23.438,-18.066,73.242,1.000
1626295011459791.750,-60.547,-77.637,-48.340,-123.535,1.000
1626295011463698.000,-83.496,-90.332,-42.969,-149.414,1.000
1626295011467604.250,14.648,3.906,-3.906,45.898,1.000
1626295011471510.500,46.875,0.488,-11.230,104.492,1.000
1626295011475416.750,-26.367,1.465,-24.414,-57.129,1.000
1626295011479323.000,-88.867,-44.434,-50.293,-163.086,1.000
1626295011483229.250,-23.926,-33.691,-50.781,-15.625,1.000
1626295011487135.500,45.898,1.953,-18.066,120.117,1.000
1626295011491041.750,-4.395,-11.719,-16.113,-4.395,1.000
1626295011494948.000,-76.172,-20.508,-21.973,-154.297,1.000
1626295011498854.250,-107.422,-2.930,-24.414,1.000,1.000
1626295011502760.500,-58.594,22.461,-10.742,1.000,1.000
1626295011506666.750,18.066,-31.738,-11.719,1.000,1.000
1626295011510573.000,-4.883,-52.734,-27.832,1.000,1.000
1626295011514479.250,-73.242,-10.254,-40.039,1.000,1.000
1626295011518385.500,-59.570,-14.160,-32.715,1.000,1.000
1626295011522291.750,28.809,0.488,-21.973,1.000,1.000
1626295011526198.000,28.809,-50.293,-38.086,1.000,1.000
1626295011530104.250,-56.641,-81.055,-42.969,1.000,1.000
1626295011534010.500,-68.359,-28.320,-15.625,1.000,1.000
1626295011537916.750,-2.930,-2.441,-16.113,1.000,1.000
1626295011541823.000,0.977,-6.348,-50.293,1.000,1.000
1626295011545729.250,-7.812,-6.348,-53.711,43.457,1.000
1626295011549635.500,-76.172,-20.508,-21.484,-131.836,1.000
1626295011553541.750,-83.008,-70.801,-16.113,-137.207,1.000
1626295011557448.000,-6.836,-74.707,-21.973,39.551,1.000
1626295011561354.250,18.066,-26.855,-38.574,78.613,1.000
1626295011565260.500,-59.082,-28.320,-61.523,-84.961,1.000
1626295011569166.750,-94.727,-29.785,-32.227,-154.297,1.000
1626295011573073.000,-50.293,-73.242,-12.695,-24.902,1.000
1626295011576979.250,-5.859,-30.273,-19.043,77.148,1.000
1626295011580885.500,-33.203,19.531,-26.367,-27.832,1.000
1626295011584791.750,-87.402,-4.883,-16.602,-157.227,1.000
1626295011588698.000,-63.965,-24.902,-15.625,-64.453,1.000
1626295011592604.250,-50.781,-4.395,-31.250,-34.668,1.000
1626295011596510.500,27.832,-2.930,-8.789,101.562,1.000
1626295011600416.750,-24.902,-86.426,-34.668,-27.832,1.000
1626295011604323.000,-98.145,-88.379,-44.434,-170.410,1.000
1626295011608229.250,-43.457,-7.324,-20.020,-56.152,1.000
1626295011612135.500,36.621,-1.465,-15.137,110.840,1.000
1626295011616041.750,28.809,11.230,-22.949,60.059,1.000
1626295011619948.000,-68.359,-43.945,-42.969,-132.812,1.000
1626295011623854.250,-80.078,-42.480,-33.203,-117.676,1.000
1626295011627760.500,9.277,1.465,-7.812,72.266,1.000
1626295011631666.750,26.367,-8.301,-20.508,86.426,1.000
1626295011635573.000,-55.176,-19.531,-52.246,-91.797,1.000
1626295011639479.250,-46.875,-23.926,-26.367,1.000,1.000
1626295011643385.500,-77.148,-9.277,-33.203,1.000,1.000
1626295011647291.750,-27.344,-75.684,-35.645,1.000,1.000
1626295011651198.000,20.508,-46.387,-23.926,1.000,1.000
1626295011655104.250,-31.250,18.555,-28.320,1.000,1.000
1626295011659010.500,-96.680,-6.348,-54.199,1.000,1.000
1626295011662916.750,-46.387,-8.789,-44.922,1.000,1.000
1626295011666823.000,3.906,-46.387,-35.156,1.000,1.000
1626295011670729.250,-31.738,-54.199,-46.387,1.000,1.000
1626295011674635.500,-82.031,-40.039,-45.410,1.000,1.000
1626295011678541.750,-38.086,-26.855,-25.391,1.000,1.000
1626295011682448.000,35.156,-13.184,-16.113,1.000,1.000
1626295011686354.250,-2.441,-21.484,-24.414,63.965,1.000
1626295011690260.500,-30.273,-13.184,-28.809,-45.410,1.000
1626295011694166.750,-108.887,-86.914,-39.551,-191.406,1.000
1626295011698073.000,-70.312,-95.703,-20.508,-78.613,1.000
1626295011701979.250,18.066,-24.414,-10.254,88.379,1.000
1626295011705885.500,2.441,-23.926,-29.785,17.578,1.000
1626295011709791.750,-65.918,4.395,-48.340,-130.859,1.000
1626295011713698.000,-81.055,-57.129,-38.574,-113.770,1.000
1626295011717604.250,-7.324,-42.969,-20.508,50.293,1.000
1626295011721510.500,2.930,6.836,-36.621,41.992,1.000
1626295011725416.750,-81.543,-20.996,-41.016,-143.066,1.000
1626295011729323.000,-103.516,-24.902,-27.344,-165.039,1.000
1626295011733229.250,-82.520,-26.855,-42.480,-135.742,1.000
1626295011737135.500,9.277,4.395,-28.320,53.711,1.000
1626295011741041.750,16.602,-74.219,-44.434,65.918,1.000
1626295011744948.000,-47.852,-78.613,-35.645,-96.680,1.000
1626295011748854.250,-66.895,-6.348,-19.043,-128.906,1.000
1626295011752760.500,-17.090,-0.488,-31.250,20.996,1.000
1626295011756666.750,41.992,23.926,-0.977,110.840,1.000
1626295011760573.000,-23.926,-65.430,-17.090,-44.434,1.000
1626295011764479.250,-120.117,-76.660,-64.941,-183.594,1.000
1626295011768385.500,-82.520,-10.742,-51.270,-66.406,1.000
1626295011772291.750,7.324,1.465,-24.902,88.379,1.000
1626295011776198.000,-5.859,-12.207,-16.602,6.836,1.000
1626295011780104.250,-8.301,-1.465,-37.598,-34.668,1.000
1626295011784010.500,-86.426,8.301,-42.969,-164.062,1.000
1626295011787916.750,-77.148,-60.059,-41.504,-72.754,1.000
1626295011791823.000,12.207,-68.848,-32.715,91.797,1.000
1626295011795729.250,12.207,10.254,-11.719,33.203,1.000
1626295011799635.500,-77.637,-8.301,-14.648,-145.508,1.000
1626295011803541.750,-79.590,-2.441,-16.113,-97.656,1.000
1626295011807448.000,-2.441,-48.340,-27.344,70.801,1.000
1626295011811354.250,19.043,-79.102,-37.598,57.129,1.000
1626295011815260.500,-52.734,-51.758,-39.551,-111.816,1.000
1626295011819166.750,-78.125,-27.832,-45.898,-133.789,1.000
1626295011823073.000,-9.766,-19.531,-41.992,29.785,1.000
1626295011826979.250,0.488,18.066,-36.133,53.711,1.000
1626295011830885.500,15.625,37.598,-40.527,52.246,1.000
1626295011834791.750,-67.871,-68.359,-46.387,-134.766,1.000
1626295011838698.000,-87.402,-119.629,-32.715,-158.203,1.000
1626295011842604.250,-1.465,-3.418,-10.254,32.715,1.000
1626295011846510.500,40.039,27.832,-8.301,100.586,1.000
1626295011850416.750,-20.020,21.973,-16.113,-52.246,1.000
1626295011854323.000,-89.844,-39.551,-43.457,-168.457,1.000
1626295011858229.250,-30.762,-44.922,-36.621,-26.855,1.000
1626295011862135.500,50.781,2.441,-20.508,115.234,1.000
1626295011866041.750,6.836,4.883,-37.109,-10.254,1.000
1626295011869948.000,-72.266,-20.996,-66.895,-169.922,1.000
1626295011873854.250,-79.590,-8.301,-36.133,1.000,1.000
1626295011877760.500,-30.762,12.695,-10.742,1.000,1.000
1626295011881666.750,23.438,-79.102,-8.789,1.000,1.000
1626295011885573.000,-29.297,-118.652,-41.016,1.000,1.000
1626295011889479.250,-90.332,-14.648,-54.688,1.000,1.000
1626295011893385.500,-75.195,-15.625,-47.852,1.000,1.000
1626295011897291.750,7.812,-9.277,-20.020,1.000,1.000
1626295011901198.000,6.836,-54.199,-36.133,1.000,1.000
1626295011905104.250,-92.285,-71.289,-67.383,1.000,1.000
1626295011909010.500,-98.145,-16.113,-38.574,1.000,1.000
1626295011912916.750,0.488,6.836,-3.906,1.000,1.000
1626295011916823.000,41.992,7.812,-3.906,1.000,1.000
1626295011920729.250,19.043,-26.855,-14.648,59.570,1.000
1626295011924635.500,-75.195,-13.184,-31.250,-130.371,1.000
1626295011928541.750,-103.027,-71.289,-47.363,-155.762,1.000
1626295011932448.000,-16.602,-96.191,-33.691,25.391,1.000
1626295011936354.250,41.992,3.906,2.441,94.727,1.000
1626295011940260.500,-28.809,17.578,-15.137,-74.707,1.000
1626295011944166.750,-76.660,2.930,-35.645,-150.391,1.000
1626295011948073.000,-24.414,-48.340,-31.250,1.465,1.000
1626295011951979.250,30.273,-47.363,-28.809,108.398,1.000
1626295011955885.500,-15.625,-16.113,-48.340,-18.555,1.000
1626295011959791.750,-98.633,-20.020,-55.176,-166.016,1.000
1626295011963698.000,-71.289,-7.812,-30.762,-68.848,1.000
1626295011967604.250,-45.898,-11.719,-2.930,-41.504,1.000
1626295011971510.500,32.715,-11.719,8.301,89.844,1.000
1626295011975416.750,-3.906,-60.059,-20.020,-26.855,1.000
1626295011979323.000,-85.938,-76.172,-31.738,-176.270,1.000
1626295011983229.250,-40.039,-10.254,-18.555,-62.012,1.000
1626295011987135.500,50.293,6.348,-10.254,116.699,1.000
1626295011991041.750,22.949,13.672,-17.578,43.945,1.000
1626295011994948.000,-80.078,-71.777,-48.340,-152.344,1.000
1626295011998854.250,-84.473,-72.754,-48.828,-127.930,1.000
1626295012002760.500,-0.488,12.207,-20.508,52.734,1.000
1626295012006666.750,35.156,15.137,-12.695,86.426,1.000
1626295012010573.000,-20.508,-12.695,-21.973,-70.801,1.000
1626295012014479.250,-64.453,1.465,-18.066,-120.605,1.000
1626295012018385.500,-85.938,0.000,-8.789,30.762,1.000
1626295012022291.750,0.488,-77.637,-11.719,92.285,1.000
1626295012026198.000,37.598,-73.730,-15.625,-63.477,1.000
1626295012030104.250,-27.832,3.906,-16.113,-173.828,1.000
1626295012034010.500,-79.102,-20.508,-29.785,-50.293,1.000
1626295012037916.750,-22.461,-18.066,-29.297,89.355,1.000
1626295012041823.000,25.879,-52.734,-28.809,-6.348,1.000
1626295012045729.250,-26.367,-41.504,-30.762,-156.738,1.000
1626295012049635.500,-92.285,-15.137,-43.457,-81.543,1.000
1626295012053541.750,-56.641,-3.906,-57.617,83.496,1.000
1626295012057448.000,9.277,7.324,-39.062,49.805,1.000
1626295012061354.250,38.086,15.625,-16.113,110.352,1.000
1626295012065260.500,2.441,20.508,-25.879,-11.719,1.000
1626295012069166.750,-87.402,-88.867,-46.875,-175.293,1.000
1626295012073073.000,-59.082,-125.488,-40.039,-70.312,1.000
1626295012076979.250,32.227,-36.133,-13.672,104.004,1.000
1626295012080885.500,11.719,-16.602,-23.926,23.926,1.000
1626295012084791.750,-81.055,-7.324,-61.035,-166.016,1.000
1626295012088698.000,-98.145,-71.289,-63.965,-144.043,1.000
1626295012092604.250,-18.066,-35.156,-41.016,39.062,1.000
1626295012096510.500,13.184,36.621,-27.832,52.246,1.000
1626295012100416.750,-54.199,23.926,-29.297,-114.746,1.000
1626295012104323.000,-74.219,6.348,-12.207,-129.395,1.000
1626295012108229.250,-93.262,-17.578,-32.715,-130.859,1.000
1626295012112135.500,6.348,-13.184,-20.020,63.477,1.000
1626295012116041.750,42.969,-54.199,-23.926,83.496,1.000
1626295012119948.000,-40.039,-59.082,-55.664,-97.168,1.000
1626295012123854.250,-99.609,-12.207,-55.176,-161.621,1.000
1626295012127760.500,-31.250,-14.648,-20.020,3.906,1.000
1626295012131666.750,35.156,5.371,-12.695,98.145,1.000
1626295012135573.000,-27.344,-76.660,-35.156,-57.617,1.000
1626295012139479.250,-73.242,-77.148,-36.621,-153.809,1.000
1626295012143385.500,-31.250,-13.672,-21.973,-32.715,1.000
1626295012147291.750,7.324,-20.508,-33.203,72.754,1.000
1626295012151198.000,-25.391,-3.906,-42.969,-25.879,1.000
1626295012155104.250,-23.926,9.277,-37.109,-37.598,1.000
1626295012159010.500,-82.520,2.930,-26.855,-154.785,1.000
1626295012162916.750,-42.480,-81.543,-40.527,-41.992,1.000
1626295012166823.000,34.180,-106.934,-18.066,103.516,1.000
1626295012170729.250,38.086,-18.066,-0.977,40.527,1.000
1626295012174635.500,-62.500,-10.254,-26.855,-138.184,1.000
1626295012178541.750,-84.961,6.348,-36.621,-113.770,1.000
1626295012182448.000,-7.324,-47.852,-29.785,54.688,1.000
1626295012186354.250,7.812,-50.293,-44.434,48.828,1.000
1626295012190260.500,-64.941,-2.441,-50.781,-123.535,1.000
1626295012194166.750,-93.262,1.953,-28.809,-142.090,1.000
1626295012198073.000,-26.367,9.277,-22.461,26.855,1.000
1626295012201979.250,46.875,5.371,0.000,97.656,1.000
1626295012205885.500,49.316,12.207,-5.371,83.984,1.000
1626295012209791.750,-66.895,-87.402,-55.176,-125.977,1.000
1626295012213698.000,-105.957,-100.586,-71.777,-175.781,1.000
1626295012217604.250,-19.531,0.977,-27.832,7.324,1.000
1626295012221510.500,14.160,3.418,-29.785,70.801,1.000
1626295012225416.750,-43.457,-3.418,-41.992,-77.637,1.000
1626295012229323.000,-83.008,-61.035,-43.945,-166.016,1.000
1626295012233229.250,-11.719,-49.805,-45.410,-13.672,1.000
1626295012237135.500,60.059,-18.555,-40.527,123.047,1.000
1626295012241041.750,20.996,-22.949,-18.555,13.672,1.000
1626295012244948.000,-45.410,13.672,5.859,-125.000,1.000
1626295012248854.250,-87.891,6.348,-36.133,1.000,1.000
1626295012252760.500,-63.965,-10.254,-15.625,1.000,1.000
1626295012256666.750,-9.277,-74.219,-20.020,1.000,1.000
1626295012260573.000,-26.855,-75.684,-30.273,1.000,1.000
1626295012264479.250,-82.031,-5.859,-28.809,1.000,1.000
1626295012268385.500,-58.105,-21.973,-12.207,1.000,1.000
1626295012272291.750,22.949,-11.230,-12.207,1.000,1.000
1626295012276198.000,14.648,-45.898,-41.016,1.000,1.000
1626295012280104.250,-57.129,-38.086,-38.574,1.000,1.000
1626295012284010.500,-60.059,23.926,-29.297,1.000,1.000
1626295012287916.750,-1.465,15.625,-35.156,1.000,1.000
1626295012291823.000,17.090,-17.578,-50.781,1.000,1.000
1626295012295729.250,29.297,-13.672,-54.688,77.637,1.000
1626295012299635.500,-69.336,-8.301,-40.527,-124.023,1.000
1626295012303541.750,-112.305,-90.332,-31.738,-158.203,1.000
1626295012307448.000,-29.785,-78.613,-24.902,17.578,1.000
1626295012311354.250,33.691,23.438,-11.230,83.984,1.000
1626295012315260.500,-45.410,2.930,-33.691,-87.402,1.000
1626295012319166.750,-103.516,0.488,-45.898,-177.246,1.000
1626295012323073.000,-44.922,-50.293,-45.898,-33.203,1.000
1626295012326979.250,19.531,-52.246,-38.574,77.637,1.000
1626295012330885.500,-14.648,-25.879,-30.273,-36.133,1.000
1626295012334791.750,-72.754,-39.551,-46.875,-156.738,1.000
1626295012338698.000,-32.715,-3.906,-35.645,-48.340,1.000
1626295012342604.250,-59.082,0.488,-39.551,-39.062,1.000
1626295012346510.500,18.555,-14.648,-11.719,95.215,1.000
1626295012350416.750,-10.742,-83.008,-11.719,-12.207,1.000
1626295012354323.000,-98.145,-78.613,-23.926,-167.480,1.000
1626295012358229.250,-58.105,7.324,-17.578,-66.895,1.000
1626295012362135.500,13.184,-5.371,-27.832,81.543,1.000
1626295012366041.750,9.277,-34.668,-36.621,30.273,1.000
1626295012369948.000,-74.707,-93.262,-52.246,-141.602,1.000
1626295012373854.250,-92.773,-55.664,-45.410,-132.812,1.000
1626295012377760.500,1.465,28.809,-16.113,55.664,1.000
1626295012381666.750,40.039,48.828,-16.113,83.496,1.000
1626295012385573.000,-32.715,20.996,-29.297,-87.891,1.000
1626295012389479.250,-74.219,4.883,-47.363,-167.480,1.000
1626295012393385.500,-78.125,14.160,-18.555,-10.742,1.000
1626295012397291.750,-4.395,-47.852,-2.930,99.121,1.000
1626295012401198.000,25.879,-72.266,-4.883,-50.781,1.000
1626295012405104.250,-17.578,-10.254,-16.113,-184.570,1.000
1626295012409010.500,-55.176,-14.160,-20.508,-56.641,1.000
1626295012412916.750,-10.254,-13.184,-15.625,97.168,1.000
1626295012416823.000,29.785,-70.801,-25.879,-9.277,1.000
1626295012420729.250,-17.578,-72.266,-29.297,-154.785,1.000
1626295012424635.500,-79.590,-29.785,-52.246,-68.848,1.000
1626295012428541.750,-38.574,-1.953,-49.805,87.402,1.000
1626295012432448.000,31.738,16.602,-18.555,41.504,1.000
1626295012436354.250,39.551,7.324,-6.348,115.723,1.000
1626295012440260.500,10.742,-7.324,-8.789,6.836,1.000
1626295012444166.750,-70.312,-94.727,-20.020,-146.973,1.000
1626295012448073.000,-62.500,-69.336,-23.438,-66.406,1.000
1626295012451979.250,27.344,43.457,-17.578,99.609,1.000
1626295012455885.500,10.254,12.695,-34.180,24.414,1.000
1626295012459791.750,-60.547,-11.230,-29.297,-131.836,1.000
1626295012463698.000,-73.242,-62.500,-40.527,-108.887,1.000
1626295012467604.250,-2.930,-31.250,-51.758,58.594,1.000
1626295012471510.500,33.691,25.391,-34.180,77.637,1.000
1626295012475416.750,-44.434,-6.836,-15.625,-100.098,1.000
1626295012479323.000,-86.914,-12.695,-12.695,-150.391,1.000
1626295012483229.250,-83.496,12.207,-19.043,1.000,1.000
1626295012487135.500,-4.395,18.555,-11.719,1.000,1.000
1626295012491041.750,12.207,-47.852,-42.969,1.000,1.000
1626295012494948.000,-51.758,-89.844,-41.504,1.000,1.000
1626295012498854.250,-57.129,-39.551,-24.414,1.000,1.000
1626295012502760.500,0.977,-20.020,-34.180,1.000,1.000
1626295012506666.750,19.531,10.254,-28.809,1.000,1.000
1626295012510573.000,-42.480,-29.785,-36.133,1.000,1.000
1626295012514479.250,-85.938,-41.016,-36.133,1.000,1.000
1626295012518385.500,-42.480,1.465,-26.367,1.000,1.000
1626295012522291.750,18.555,8.789,-20.508,1.000,1.000
1626295012526198.000,-9.766,1.465,-18.555,1.000,1.000
1626295012530104.250,5.371,-37.598,-23.438,-22.949,1.000
1626295012534010.500,-62.012,-51.758,-46.875,-146.484,1.000
1626295012537916.750,-55.176,-62.988,-67.383,-52.734,1.000
1626295012541823.000,0.977,-45.898,-40.039,76.660,1.000
1626295012545729.250,11.719,13.672,-5.371,18.555,1.000
1626295012549635.500,-64.941,13.672,-23.438,-146.973,1.000
1626295012553541.750,-63.477,11.719,-26.855,-95.703,1.000
1626295012557448.000,4.883,-48.340,-28.320,69.824,1.000
1626295012561354.250,1.953,-69.824,-44.922,35.645,1.000
1626295012565260.500,-62.012,-40.527,-31.738,-136.230,1.000
1626295012569166.750,-92.773,-40.527,-20.020,-154.785,1.000
1626295012573073.000,-10.742,-20.508,-2.441,33.691,1.000
1626295012576979.250,2.930,-18.066,-23.438,74.219,1.000
1626295012580885.500,-4.883,-8.789,-25.879,49.805,1.000
1626295012584791.750,-82.520,-46.875,-38.574,-116.699,1.000
1626295012588698.000,-83.984,-44.922,0.488,-111.328,1.000
1626295012592604.250,-16.113,0.000,8.789,39.551,1.000
1626295012596510.500,20.996,-18.555,-14.160,98.145,1.000
1626295012600416.750,-34.180,-24.414,-10.254,-50.293,1.000
1626295012604323.000,-101.074,-90.820,-36.133,-157.227,1.000
1626295012608229.250,-46.387,-72.754,-37.598,-16.113,1.000
1626295012612135.500,24.414,-2.441,-24.902,115.234,1.000
1626295012616041.750,-5.371,-12.207,-39.551,12.695,1.000
1626295012619948.000,-78.125,-7.324,-50.293,-131.348,1.000
1626295012623854.250,-92.285,-12.695,-31.738,-165.039,1.000
1626295012627760.500,-65.430,-19.531,-39.062,-59.082,1.000
1626295012631666.750,9.277,-78.613,-27.832,79.102,1.000
1626295012635573.000,-21.484,-80.078,-31.738,-16.113,1.000
1626295012639479.250,-85.938,5.859,-20.508,-157.715,1.000
1626295012643385.500,-57.617,1.953,-6.836,-72.266,1.000
1626295012647291.750,34.180,-14.648,-10.742,107.422,1.000
1626295012651198.000,22.461,-56.641,-28.320,58.105,1.000
1626295012655104.250,-66.895,-38.086,-32.715,-127.441,1.000
1626295012659010.500,-79.590,-3.418,-23.926,-125.977,1.000
1626295012662916.750,-28.320,-13.672,-33.691,23.926,1.000
1626295012666823.000,-9.766,-14.648,-30.762,44.434,1.000
1626295012670729.250,14.160,13.184,-49.316,54.199,1.000
1626295012674635.500,-46.875,20.996,-14.648,-107.910,1.000
1626295012678541.750,-78.125,-58.594,-0.488,-127.441,1.000
1626295012682448.000,-11.719,-81.055,-9.277,41.504,1.000
1626295012686354.250,45.410,-18.066,-22.461,111.816,1.000
1626295012690260.500,-30.273,-30.762,-55.664,-61.035,1.000
