timestamps,TP9,AF7,AF8,TP10
1628114232.989,-94.238,-36.621,-15.137,-59.570
1628114232.993,-86.914,-46.387,-26.855,-58.594
1628114232.997,36.621,-15.625,-31.738,8.301
1628114233.001,45.898,-37.109,-37.109,19.531
1628114233.005,-73.242,-65.918,-52.246,-41.992
1628114233.009,-90.820,-21.973,-27.344,-45.898
1628114233.013,9.277,-15.625,-25.879,-4.883
1628114233.016,51.758,-37.598,-46.875,4.395
1628114233.020,-36.133,-57.129,-32.715,-26.855
1628114233.024,-111.328,-41.992,-10.742,-57.129
1628114233.028,-46.387,-29.297,-20.996,-46.875
1628114233.032,45.898,-26.855,-40.527,-1.465
1628114233.045,-2.441,-30.762,-31.250,-10.742
1628114233.049,-123.535,-90.820,-50.781,-72.754
1628114233.053,-76.172,-45.410,-57.617,-51.758
1628114233.057,62.012,-15.625,-18.555,18.555
1628114233.061,16.602,-56.152,-31.738,-8.301
1628114233.065,-122.070,-48.340,-41.504,-85.449
1628114233.069,-110.352,-52.734,-17.090,-74.219
1628114233.072,29.785,-21.484,-32.227,-2.930
1628114233.076,58.594,-28.320,-27.344,12.695
1628114233.080,-58.594,-33.691,-13.672,-39.551
1628114233.084,-119.141,-17.090,-48.340,-75.195
1628114233.088,-49.805,-48.340,-78.125,-56.641
1628114233.083,32.227,-49.805,-46.875,-10.254
1628114233.087,-30.762,-33.203,-18.066,-21.973
1628114233.091,-118.164,-32.227,-17.090,-73.730
1628114233.095,-53.711,-26.855,-32.227,-52.246
1628114233.099,56.152,-31.738,-59.082,6.348
1628114233.103,8.789,-20.996,-52.734,-10.742
1628114233.107,-98.145,2.930,-4.883,-54.199
1628114233.110,-90.332,-22.461,-7.812,-55.664
1628114233.114,8.789,-78.613,-47.852,-23.438
1628114233.118,24.414,-41.504,-35.645,-11.719
1628114233.122,-78.613,-23.438,-5.371,-41.992
1628114233.126,-99.609,-37.109,-16.602,-62.988
1628114233.138,6.836,-36.133,-35.645,-24.902
1628114233.142,42.969,-77.148,-50.293,0.000
1628114233.146,-57.129,-60.059,-63.477,-42.969
1628114233.150,-113.281,-40.527,-41.504,-71.289
1628114233.154,-16.113,-26.855,-0.977,-31.250
1628114233.158,72.266,-24.902,-1.953,15.625
1628114233.162,-33.691,-60.059,-60.059,-32.715
1628114233.165,-116.211,-17.578,-63.477,-71.777
1628114233.169,-49.805,2.930,-40.527,-44.922
1628114233.173,45.410,-16.602,-41.504,-7.324
1628114233.177,19.531,-11.719,-38.086,-7.812
1628114233.181,-103.516,-19.531,-26.367,-52.246
1628114233.176,-106.934,-47.852,-1.953,-63.477
1628114233.180,14.648,-53.711,-8.301,-18.066
1628114233.184,42.480,-20.508,-21.973,9.766
1628114233.188,-69.824,-19.043,-16.113,-38.574
1628114233.192,-100.098,-37.598,-20.508,-60.547
1628114233.196,10.742,-34.668,-54.688,-8.789
1628114233.200,63.477,-18.066,-64.453,23.926
1628114233.203,-42.969,-24.414,-35.156,-19.531
1628114233.207,-138.184,-68.359,-27.344,-77.148
1628114233.211,-59.082,-62.500,-31.250,-51.758
1628114233.215,53.223,-18.066,-19.531,12.695
1628114233.219,-0.488,3.418,-18.555,1.953
1628114233.232,-108.887,-10.254,-46.875,-62.012
1628114233.236,-85.449,-72.754,-54.199,-67.383
1628114233.240,25.391,-50.293,-42.480,-17.090
1628114233.244,22.949,-13.672,-54.199,-8.301
1628114233.248,-94.727,-21.484,-56.152,-54.199
1628114233.252,-101.074,-34.180,-25.391,-65.918
1628114233.256,30.762,-55.176,4.883,-6.348
1628114233.259,62.988,-36.133,0.488,16.602
1628114233.263,-72.266,-39.062,-20.020,-41.992
1628114233.267,-125.000,-33.203,-26.855,-72.266
1628114233.271,-16.602,-33.691,-42.480,-26.855
1628114233.275,49.805,-45.898,-36.621,11.230
1628114233.270,-33.691,-10.742,-32.227,-20.508
1628114233.274,-113.770,-23.438,-44.922,-67.383
1628114233.278,-48.828,-45.410,-40.039,-49.805
1628114233.282,47.363,-24.414,-34.180,-1.953
1628114233.286,10.742,-28.320,-24.414,-7.324
1628114233.290,-89.844,-51.758,-15.625,-54.688
1628114233.294,-85.938,-45.898,-30.762,-72.266
1628114233.297,23.438,-33.203,-47.363,-20.996
1628114233.301,17.578,-97.168,-44.922,-7.812
1628114233.305,-90.820,-74.219,-47.363,-56.152
1628114233.309,-100.098,-10.742,-62.012,-66.895
1628114233.313,11.230,-11.230,-26.367,-17.090
1628114233.326,48.340,-11.230,0.488,1.953
1628114233.330,-73.730,-72.754,-32.227,-52.734
1628114233.334,-131.348,-54.688,-44.922,-87.891
1628114233.338,-26.367,-19.043,-38.086,-51.758
1628114233.342,69.824,-4.883,-32.715,5.859
1628114233.346,17.090,-7.324,-23.438,-1.465
1628114233.350,-107.910,-86.426,-39.551,-72.266
1628114233.353,-73.242,-67.383,-46.875,-69.336
1628114233.357,75.684,-10.742,-23.438,13.184
1628114233.361,29.785,-20.508,-42.969,-0.977
1628114233.365,-92.773,-20.508,-64.941,-64.453
1628114233.369,-81.543,-10.254,-67.871,-68.359
1628114233.367,12.695,-1.465,-50.781,-30.273
1628114233.371,29.785,-11.719,-23.438,-9.766
1628114233.375,-82.520,-26.855,-18.555,-57.617
1628114233.379,-118.652,-87.402,-26.367,-80.078
1628114233.383,6.348,-73.730,-27.832,-21.484
1628114233.387,82.031,-20.508,-18.555,33.203
1628114233.391,-8.301,-28.320,-27.344,0.000
1628114233.394,-108.398,-39.551,-56.641,-60.059
1628114233.398,-67.383,-64.453,-76.660,-60.059
1628114233.402,48.828,-34.668,-37.109,-1.953
1628114233.406,20.020,0.488,-7.812,6.348
1628114233.410,-103.027,-8.301,-33.691,-55.176
1628114233.421,-85.449,-30.273,-35.156,-66.895
1628114233.425,19.043,-61.035,-18.555,-16.602
1628114233.429,28.320,-20.508,-21.973,7.324
1628114233.433,-69.824,-17.090,-33.203,-34.180
1628114233.437,-87.891,-24.414,-39.551,-51.758
1628114233.441,10.254,-39.062,-46.387,-16.602
1628114233.445,28.809,-94.238,-42.969,-3.906
1628114233.448,-71.289,-59.570,-22.461,-44.434
1628114233.452,-112.305,-27.344,-5.859,-70.312
1628114233.456,-3.906,-0.488,-0.488,-19.531
1628114233.460,59.570,-20.020,-15.137,14.648
1628114233.464,-32.715,-64.941,-38.574,-25.391
1628114233.458,-87.891,-14.160,-31.250,-45.410
1628114233.462,-37.109,10.742,-22.461,-29.785
1628114233.466,25.391,3.418,-41.992,-8.301
1628114233.470,-4.395,-10.742,-41.992,-9.277
1628114233.474,-79.590,-29.785,-15.625,-39.551
1628114233.478,-66.406,-41.016,-15.625,-42.969
1628114233.482,34.180,-31.250,-27.344,4.883
1628114233.485,58.105,-9.277,-24.414,28.320
1628114233.489,-69.824,-84.473,-31.738,-38.574
1628114233.493,-144.043,-83.496,-71.777,-99.121
1628114233.497,-29.785,-15.625,-58.105,-51.758
1628114233.501,43.945,6.836,-28.320,-12.207
1628114233.513,-35.156,1.953,-17.090,-42.969
1628114233.517,-104.980,-70.312,-11.230,-78.125
1628114233.521,-39.062,-67.383,-25.879,-62.988
1628114233.525,35.156,-29.785,-34.180,-24.414
1628114233.529,-20.020,-10.254,-37.109,-35.645
1628114233.533,-84.961,-21.973,-30.762,-60.547
1628114233.537,-44.434,-83.984,-35.156,-48.340
1628114233.540,44.922,-58.594,-46.387,-4.395
1628114233.544,28.320,-33.691,-29.297,1.953
1628114233.548,-78.613,-41.992,-20.020,-49.805
1628114233.552,-97.168,-45.410,-45.410,-81.543
1628114233.556,0.488,-25.879,-64.941,-41.504
1628114233.551,25.391,-5.371,-47.852,-14.160
1628114233.555,-75.684,-11.719,-15.625,-55.176
1628114233.559,-107.910,-8.301,-10.254,-83.984
1628114233.563,-0.488,5.859,-16.602,-34.180
1628114233.567,78.613,20.508,-11.719,24.414
1628114233.571,-5.859,-6.836,-44.434,-3.906
1628114233.575,-90.820,-38.086,-72.266,-64.453
1628114233.578,-46.387,-75.684,-60.059,-71.289
1628114233.582,26.855,-85.449,-48.340,-29.297
1628114233.586,-3.906,-37.109,-12.695,-24.902
1628114233.590,-91.309,-2.441,-2.930,-63.965
1628114233.594,-76.660,18.066,-23.438,-67.871
1628114233.607,27.344,1.465,-38.574,-8.301
1628114233.611,45.898,-74.219,-45.898,29.785
1628114233.615,-54.199,-51.270,-53.223,-19.043
1628114233.619,-81.055,-19.531,-54.688,-59.082
1628114233.623,20.508,-5.859,-31.738,-19.531
1628114233.627,41.992,-26.855,-26.367,4.395
1628114233.631,-75.684,-109.375,-35.156,-42.480
1628114233.634,-119.141,-69.824,-48.340,-70.312
1628114233.638,-21.973,-33.203,-49.316,-30.762
1628114233.642,58.105,-14.160,-27.832,20.996
1628114233.646,-18.555,5.371,-21.973,-6.836
1628114233.650,-104.004,-8.789,-37.598,-63.477
1628114233.646,-37.109,-10.742,-47.363,-47.852
1628114233.650,55.176,-12.207,-23.926,0.488
1628114233.654,5.859,-25.879,-8.789,-6.836
1628114233.658,-109.375,-57.617,-35.156,-61.035
1628114233.662,-88.867,-37.109,-43.457,-55.176
1628114233.666,44.922,1.465,-17.090,19.043
1628114233.670,36.133,-5.371,-24.902,23.926
1628114233.673,-81.055,-49.805,-34.668,-38.086
1628114233.677,-80.566,-115.234,-7.324,-41.504
1628114233.681,38.574,-69.824,-4.883,14.160
1628114233.685,70.312,11.719,-31.738,32.715
1628114233.689,-38.086,10.742,-25.879,-21.484
1628114233.701,-110.352,-28.320,-23.438,-69.824
1628114233.705,-29.785,-71.777,-28.809,-36.621
1628114233.709,40.039,-28.809,-20.996,1.465
1628114233.713,-46.387,-7.812,-42.480,-38.086
1628114233.717,-120.117,-20.508,-51.270,-78.125
1628114233.721,-51.758,-49.805,-30.273,-48.828
1628114233.725,36.621,-100.098,-17.578,-0.488
1628114233.728,1.953,-51.758,-12.695,-12.695
1628114233.732,-95.215,-30.273,-34.668,-54.199
1628114233.736,-48.828,-14.648,-24.902,-28.809
1628114233.740,64.453,-7.812,-17.578,20.020
1628114233.744,34.180,-35.156,-28.320,4.883
1628114233.757,-96.191,-39.062,-43.457,-59.082
1628114233.761,-112.793,-32.227,-42.969,-70.801
1628114233.765,0.977,-11.719,-24.414,-21.973
1628114233.769,24.414,-8.789,-24.902,-17.578
1628114233.773,-93.262,-27.832,-25.879,-66.895
1628114233.777,-138.184,-22.949,-17.090,-84.961
1628114233.781,-34.668,-1.953,-27.832,-38.574
1628114233.784,46.387,-17.090,-22.949,14.160
1628114233.788,-22.949,-87.402,-8.789,-7.324
1628114233.792,-119.141,-80.078,-15.137,-64.453
1628114233.796,-81.543,-41.992,-43.945,-63.965
1628114233.800,30.762,-40.527,-37.109,-8.301
1628114233.795,1.465,-28.809,-12.695,-17.578
1628114233.799,-117.676,-20.020,-36.621,-77.637
1628114233.803,-93.750,-20.020,-58.105,-70.801
1628114233.807,20.020,-25.879,-38.086,-25.879
1628114233.811,24.414,-1.465,-1.953,-12.207
1628114233.815,-102.051,-44.922,-11.230,-57.129
1628114233.819,-118.164,-122.559,-16.113,-77.148
1628114233.822,34.180,-41.504,7.324,-5.371
1628114233.826,61.523,6.836,-2.930,12.207
1628114233.830,-86.426,-5.859,-30.762,-61.523
1628114233.834,-143.555,-47.852,-44.922,-90.820
1628114233.838,-27.832,-103.516,-39.551,-38.574
1628114233.833,51.758,-51.758,-32.227,3.906
1628114233.837,-31.738,-20.020,-38.086,-29.785
1628114233.841,-111.328,-11.719,-29.785,-66.406
1628114233.845,-72.266,-41.992,-37.109,-66.406
1628114233.849,30.762,-44.922,-40.527,-14.160
1628114233.853,19.043,-3.906,-16.113,3.418
1628114233.857,-87.402,8.789,-38.574,-39.551
1628114233.860,-74.219,5.371,-54.688,-45.410
1628114233.864,28.320,-49.805,-26.367,-13.184
1628114233.868,38.574,-43.945,-5.859,-2.930
1628114233.872,-81.543,-32.227,-9.766,-53.711
1628114233.876,-114.746,-38.574,-17.090,-76.172
1628114233.888,10.742,-16.113,-27.832,-24.902
1628114233.892,40.527,-53.223,-35.645,-7.324
1628114233.896,-74.707,-49.805,-43.945,-45.410
1628114233.900,-105.957,-19.043,-42.969,-52.734
1628114233.904,-13.672,-2.930,-30.273,-24.414
1628114233.908,52.734,-25.391,-23.926,5.859
1628114233.912,-23.926,-76.660,-31.738,-20.508
1628114233.915,-110.352,-35.156,-33.203,-62.988
1628114233.919,-57.129,-7.324,-23.926,-40.039
1628114233.923,47.852,-19.043,-29.297,10.254
1628114233.927,10.254,-33.691,-23.926,2.441
1628114233.931,-105.469,-40.039,-16.602,-46.875
1628114233.926,-92.773,-12.207,-36.133,-49.316
1628114233.930,33.203,-0.488,-39.551,1.953
1628114233.934,55.176,-3.418,-15.137,19.531
1628114233.938,-78.125,-29.785,-23.438,-32.715
1628114233.942,-112.793,-46.387,-45.898,-55.176
1628114233.946,6.348,-27.832,-26.855,-7.324
1628114233.950,63.477,-6.348,-13.184,26.367
1628114233.953,-19.531,5.371,-14.160,-1.465
1628114233.957,-90.820,-62.500,-38.086,-41.016
1628114233.961,-15.625,-80.566,-49.316,-19.043
1628114233.965,86.426,-9.766,-18.066,36.621
1628114233.969,6.348,-2.930,-21.973,6.348
1628114233.982,-135.254,-40.527,-39.062,-79.590
1628114233.986,-78.125,-56.641,-27.344,-55.664
1628114233.990,61.523,-21.484,-29.785,16.602
1628114233.994,36.621,-19.043,-29.785,7.324
1628114233.998,-89.844,-17.090,-39.062,-46.387
1628114234.002,-105.469,-18.066,-40.527,-65.918
1628114234.006,18.555,-50.293,-23.926,-9.766
1628114234.009,59.570,-21.973,-22.949,27.344
1628114234.013,-82.031,-29.297,-31.250,-46.875
1628114234.017,-144.043,-41.992,-41.016,-87.891
1628114234.021,-24.902,-36.621,-39.062,-29.785
1628114234.025,54.199,-33.691,-21.973,7.812
1628114234.020,-32.227,-5.371,-26.855,-29.785
1628114234.024,-117.676,-5.859,-43.457,-75.195
1628114234.028,-42.969,-35.645,-38.574,-46.387
1628114234.032,50.781,-58.594,-42.480,-5.859
1628114234.036,-13.672,-45.410,-56.641,-34.180
1628114234.040,-111.328,-30.273,-41.016,-66.895
1628114234.044,-88.867,-38.086,-37.109,-66.406
1628114234.047,23.926,-23.438,-34.180,-15.625
1628114234.051,41.992,-31.250,-23.438,15.137
1628114234.055,-73.730,-22.461,-40.039,-36.133
1628114234.059,-97.656,-17.090,-41.504,-70.312
1628114234.063,20.508,-22.949,-28.809,-17.578
1628114234.076,75.195,-4.395,-32.227,26.855
1628114234.080,-46.875,-49.805,-35.156,-27.344
1628114234.084,-121.582,-47.852,-37.598,-76.172
1628114234.088,1.953,-16.602,-34.180,-22.461
1628114234.092,76.172,-41.992,-22.461,18.066
1628114234.096,-46.387,-63.965,-25.879,-41.992
1628114234.100,-139.160,-68.359,-43.457,-86.426
1628114234.103,-58.105,-22.461,-42.969,-48.828
1628114234.107,54.199,2.441,-23.926,5.859
1628114234.111,5.371,-10.742,-19.043,-13.184
1628114234.115,-115.234,-24.902,-34.668,-73.730
1628114234.119,-91.797,-22.949,-38.086,-71.777
1628114234.115,52.734,6.836,-23.926,1.465
1628114234.119,50.781,2.441,-34.180,9.277
1628114234.123,-96.680,-34.668,-38.574,-58.594
1628114234.127,-120.605,-59.570,-37.109,-72.754
1628114234.131,3.906,-54.199,-41.016,-20.508
1628114234.135,51.758,-43.945,-35.645,9.766
1628114234.139,-50.781,-28.320,-26.855,-32.227
1628114234.142,-122.070,-38.574,-27.832,-71.289
1628114234.146,-29.297,-76.172,-18.066,-31.250
1628114234.150,62.012,-47.363,-16.113,9.766
1628114234.154,-14.648,-30.762,-23.438,-15.625
1628114234.158,-106.445,-9.277,-27.832,-46.387
1628114234.169,-55.664,5.371,-22.949,-38.574
1628114234.173,36.133,-50.781,-29.297,-11.719
1628114234.177,8.301,-42.969,-45.898,-10.742
1628114234.181,-109.375,-29.785,-49.316,-62.988
1628114234.185,-98.633,-30.762,-32.227,-69.336
1628114234.189,29.785,-38.086,-32.715,-14.648
1628114234.193,32.227,-52.734,-57.129,-1.953
1628114234.196,-75.195,-34.668,-46.387,-39.062
1628114234.200,-90.332,-23.438,-16.602,-46.387
1628114234.204,20.508,-12.695,-22.949,-2.930
1628114234.208,62.500,-12.207,-43.945,17.578
1628114234.212,-33.691,-15.137,-36.621,-8.789
1628114234.209,-98.633,-13.672,-20.020,-50.781
1628114234.213,-27.832,-10.254,-13.184,-34.180
1628114234.217,45.410,-22.949,-28.320,6.836
1628114234.221,-39.551,-39.062,-44.434,-30.762
1628114234.225,-136.230,-27.832,-31.738,-77.148
1628114234.229,-67.383,-29.297,-22.461,-44.922
1628114234.233,51.270,-22.461,-22.949,11.230
1628114234.236,17.578,-10.254,-42.969,-2.441
1628114234.240,-107.422,-67.383,-49.805,-63.965
1628114234.244,-82.031,-65.918,-18.555,-50.781
1628114234.248,41.992,-34.668,-25.879,8.301
1628114234.252,56.641,-26.367,-41.504,18.066
1628114234.264,-66.895,-22.461,-37.109,-38.086
1628114234.268,-123.535,-60.059,-40.527,-81.055
1628114234.272,-18.066,-41.016,-39.551,-44.434
1628114234.276,58.594,-6.348,-19.043,3.418
1628114234.280,-31.738,-2.930,-22.949,-20.996
1628114234.284,-125.000,-12.695,-74.707,-73.730
1628114234.288,-47.852,-59.082,-64.453,-50.293
1628114234.291,62.500,-58.594,-14.648,7.812
1628114234.295,16.113,-10.742,-1.953,5.859
1628114234.299,-99.121,-10.742,-24.902,-40.527
1628114234.303,-69.824,-21.973,-21.973,-40.527
1628114234.307,55.664,-27.344,-18.066,20.020
1628114234.302,47.363,-39.551,-45.898,18.555
1628114234.306,-81.543,-39.551,-56.641,-48.340
1628114234.310,-113.281,-38.086,-38.574,-77.637
1628114234.314,13.672,-39.062,-19.531,-27.344
1628114234.318,75.684,-21.484,-9.277,14.160
1628114234.322,-47.363,-8.789,-31.250,-32.227
1628114234.326,-114.746,-30.762,-71.777,-70.312
1628114234.329,-0.977,-27.344,-51.270,-21.484
1628114234.333,72.754,-22.461,-17.578,21.973
1628114234.337,-15.137,-26.367,-12.207,-12.695
1628114234.341,-108.398,-10.742,-15.137,-66.895
1628114234.345,-49.316,-13.184,-20.508,-45.410
1628114234.358,46.387,-56.641,-21.973,-2.441
1628114234.362,-9.277,-79.590,-28.320,-18.555
1628114234.366,-112.305,-50.781,-33.691,-64.941
1628114234.370,-74.707,-50.781,-41.992,-52.734
1628114234.374,58.105,-18.066,-33.203,12.695
1628114234.378,52.246,-6.348,-25.879,10.742
1628114234.382,-73.730,-62.012,-26.855,-47.852
1628114234.385,-88.379,-24.902,-17.090,-64.941
1628114234.389,14.648,-2.441,-22.949,-25.879
1628114234.393,62.500,-9.766,-18.555,12.207
1628114234.397,-39.062,-9.766,-3.906,-24.902
1628114234.401,-126.953,-28.320,-31.250,-86.426
1628114234.396,-47.852,-34.668,-43.945,-64.453
1628114234.400,67.383,-23.438,-10.254,4.395
1628114234.404,-11.230,-31.250,-20.996,-19.531
1628114234.408,-130.859,-62.500,-45.898,-87.891
1628114234.412,-77.148,-38.574,-54.199,-73.242
1628114234.416,30.273,-6.836,-60.059,-22.461
1628114234.420,14.648,-9.766,-40.527,-15.625
1628114234.423,-84.961,-23.926,-32.227,-49.805
1628114234.427,-94.727,-102.051,-35.156,-73.730
1628114234.431,8.789,-91.797,-43.457,-39.062
1628114234.435,38.086,-34.668,-54.199,-16.113
1628114234.439,-83.984,-33.203,-32.715,-62.988
1628114234.451,-123.047,-42.969,-17.090,-77.637
1628114234.455,7.812,-57.617,-23.438,-16.602
1628114234.459,65.918,-17.578,-27.832,9.277
1628114234.463,-51.758,-24.414,-30.762,-39.062
1628114234.467,-111.816,-20.020,-25.879,-60.547
1628114234.471,-35.645,-14.648,-24.414,-34.668
1628114234.475,38.086,-81.543,-26.367,-0.977
1628114234.478,-24.414,-42.480,-21.973,-8.789
1628114234.482,-135.742,-8.301,-17.090,-62.012
1628114234.486,-89.355,-34.180,-19.531,-50.781
1628114234.490,31.738,-47.363,-31.738,-2.441
1628114234.494,7.324,-35.645,-30.273,-2.441
1628114234.489,-100.098,-17.090,-44.922,-37.598
1628114234.493,-87.891,-20.508,-38.574,-42.969
1628114234.497,31.738,-32.715,-3.906,5.859
1628114234.501,62.500,-18.066,2.930,31.738
1628114234.505,-68.359,-9.766,-18.066,-27.344
1628114234.509,-144.531,-16.602,-25.879,-81.543
1628114234.513,-20.020,-12.207,-10.742,-31.250
1628114234.516,69.824,-34.180,-15.625,24.414
1628114234.520,-25.391,-89.355,-27.832,-15.625
1628114234.524,-126.465,-89.355,-41.504,-73.242
1628114234.528,-48.340,-27.832,-35.645,-28.809
1628114234.532,80.566,28.320,-29.297,37.598
1628114234.546,19.531,-0.977,-32.227,12.695
1628114234.550,-116.699,-116.211,-3.906,-50.781
1628114234.554,-76.660,-67.871,17.090,-47.852
1628114234.558,62.012,9.277,11.230,13.672
1628114234.562,45.410,0.000,-7.812,15.137
1628114234.566,-94.727,-21.484,-23.438,-51.758
1628114234.570,-128.418,-73.730,-42.969,-76.172
1628114234.573,-7.812,-38.086,-41.504,-26.367
1628114234.577,42.480,-31.250,-17.090,10.254
1628114234.581,-63.477,-52.734,-33.691,-33.203
1628114234.585,-124.512,-41.016,-63.965,-72.266
1628114234.589,-1.465,-32.227,-26.855,-12.207
1628114234.601,101.074,0.977,-3.906,40.039
1628114234.605,-7.324,10.254,-32.715,-15.137
1628114234.609,-120.605,5.371,-28.320,-76.660
1628114234.613,-62.500,-8.301,-18.066,-60.059
1628114234.617,36.621,-20.508,-35.156,-16.113
1628114234.621,-3.418,-31.738,-49.805,-20.020
1628114234.625,-113.770,-62.988,-40.039,-72.266
1628114234.628,-99.609,-72.266,-29.785,-79.590
1628114234.632,26.367,-43.945,-38.086,-17.578
1628114234.636,57.129,-4.395,-32.715,11.230
1628114234.640,-75.195,-6.348,-31.738,-44.434
1628114234.644,-116.699,-16.602,-22.949,-70.312
1628114234.639,43.945,-6.348,9.277,5.371
1628114234.643,73.730,-56.152,-32.227,10.742
1628114234.647,-70.801,-40.039,-49.805,-60.547
1628114234.651,-112.793,-1.465,-11.719,-73.242
1628114234.655,-15.625,-21.973,-8.789,-41.992
1628114234.659,46.875,-46.387,-32.715,-15.625
1628114234.663,-36.621,-70.312,-53.711,-41.504
1628114234.666,-123.535,-34.668,-47.363,-81.543
1628114234.670,-58.105,-12.695,-33.691,-59.082
1628114234.674,70.312,-13.184,-25.879,6.836
1628114234.678,46.387,-32.715,-24.414,14.648
1628114234.682,-82.520,-59.570,-32.227,-42.969
1628114234.676,-75.195,-40.527,-32.227,-51.758
1628114234.680,40.039,-20.996,-46.875,-4.883
1628114234.684,50.293,-14.160,-23.926,11.230
1628114234.688,-70.801,-34.668,0.977,-38.086
1628114234.692,-134.277,-46.387,-16.113,-78.613
1628114234.696,-29.785,-21.484,-28.320,-42.969
1628114234.700,51.758,-6.836,-37.109,1.953
1628114234.703,-37.109,-24.902,-27.832,-16.602
1628114234.707,-122.559,-47.363,-9.766,-60.059
1628114234.711,-42.969,-62.500,-11.230,-35.645
1628114234.715,52.734,-58.594,-23.926,18.066
1628114234.719,-6.348,-12.695,-26.367,-3.906
1628114234.733,-138.672,-27.832,-51.270,-80.078
1628114234.737,-108.398,-79.102,-62.500,-76.172
1628114234.741,33.691,-28.320,-44.434,-0.977
1628114234.745,14.160,0.000,-35.645,-7.812
1628114234.749,-124.023,-32.715,-19.531,-73.242
1628114234.753,-106.934,-37.598,-15.137,-63.965
1628114234.757,29.297,-39.062,-34.180,-13.184
1628114234.760,40.039,-45.898,-42.969,-15.625
1628114234.764,-64.941,-25.391,-29.297,-54.688
1628114234.768,-99.121,3.418,-26.367,-81.055
1628114234.772,-7.812,1.465,-38.574,-48.340
1628114234.776,57.617,1.465,-38.574,-10.254
1628114234.770,-22.949,11.230,-39.062,-33.691
1628114234.774,-106.445,-14.648,-43.945,-67.383
1628114234.778,-36.621,-41.504,-40.527,-41.992
1628114234.782,73.242,-23.926,-48.828,8.789
1628114234.786,0.977,-23.926,-86.914,-26.367
1628114234.790,-129.883,-35.156,-89.844,-88.379
1628114234.794,-90.332,-20.508,-37.109,-71.289
1628114234.797,48.340,5.859,-19.043,-6.836
1628114234.801,33.691,8.789,-38.086,-9.766
1628114234.805,-107.910,-44.434,-38.574,-71.289
1628114234.809,-117.188,-45.898,-44.434,-80.566
1628114234.813,9.277,-29.297,-39.062,-17.578
1628114234.826,59.570,-38.086,-8.301,20.508
1628114234.830,-63.965,-17.578,-22.461,-33.691
1628114234.834,-140.137,-8.301,-44.922,-79.102
1628114234.838,-41.504,-20.996,-39.551,-46.875
1628114234.842,48.828,-27.344,-30.762,4.883
1628114234.846,-17.578,-39.062,-37.109,-9.766
1628114234.850,-122.070,-77.637,-46.387,-67.871
1628114234.853,-66.406,-50.781,-44.434,-54.688
1628114234.857,47.363,-22.949,-34.668,-0.977
1628114234.861,16.113,-39.551,-20.508,-3.906
1628114234.865,-108.887,-61.523,-72.266,-65.430
1628114234.869,-83.496,-56.152,-72.266,-62.988
1628114234.882,79.102,-13.184,0.488,20.020
1628114234.886,57.617,-4.883,1.465,5.371
1628114234.890,-97.656,-8.301,-22.949,-65.918
1628114234.894,-117.676,-35.156,-23.438,-74.707
1628114234.898,-1.953,-55.176,-28.320,-32.227
1628114234.902,57.617,-34.668,-29.785,-1.465
1628114234.906,-50.781,-38.574,-38.086,-38.086
1628114234.909,-116.211,-48.340,-39.062,-70.801
1628114234.913,-40.527,-58.594,-54.199,-49.316
1628114234.917,48.828,-35.645,-56.641,-2.441
1628114234.921,-11.719,-12.695,-47.363,-20.508
1628114234.925,-111.328,-35.645,-47.852,-66.895
1628114234.919,-45.410,-48.828,-39.551,-32.227
1628114234.923,81.055,-22.949,-20.996,30.273
1628114234.927,37.109,-1.465,-3.906,5.371
1628114234.931,-101.074,-20.020,-18.555,-66.406
1628114234.935,-94.727,-32.227,-22.461,-71.289
1628114234.939,36.621,-23.438,-24.414,-12.695
1628114234.943,43.945,-24.902,-35.156,-2.441
1628114234.946,-60.059,-20.020,-21.484,-39.551
1628114234.950,-104.980,-23.438,-35.645,-67.871
1628114234.954,-30.273,-23.438,-55.176,-51.758
1628114234.958,33.691,-16.113,-43.945,-19.531
1628114234.962,-50.781,-18.555,-32.715,-44.922
1628114234.958,-118.164,-21.973,-27.832,-66.406
1628114234.962,-49.805,-27.832,-36.621,-45.898
1628114234.966,36.621,-40.039,-46.387,-14.160
1628114234.970,0.000,-41.504,-38.086,-12.695
1628114234.974,-84.473,-25.391,-30.762,-41.016
1628114234.978,-63.965,-28.320,-47.363,-36.621
1628114234.982,47.363,-21.484,-33.691,13.672
1628114234.985,35.645,-14.648,-16.113,5.371
1628114234.989,-112.793,-62.500,-28.809,-72.266
1628114234.993,-145.020,-71.289,-31.250,-95.703
1628114234.997,-23.926,-28.809,-24.414,-37.109
1628114235.001,38.086,-4.883,-29.297,4.883
1628114235.013,-33.203,-28.320,-20.996,-7.812
1628114235.017,-81.543,-72.754,-11.719,-34.668
1628114235.021,-2.930,-41.992,-21.973,-17.090
1628114235.025,56.641,-11.719,-34.180,12.695
1628114235.029,-13.672,-18.555,-15.625,-8.789
1628114235.033,-105.957,-30.273,-22.949,-59.570
1628114235.037,-73.242,-50.293,-57.617,-60.059
1628114235.040,31.738,-43.457,-37.598,-15.137
1628114235.044,2.441,-24.902,-24.902,-26.367
1628114235.048,-103.516,-15.625,-38.574,-73.242
1628114235.052,-86.914,-55.664,-52.246,-69.824
1628114235.056,31.250,-73.242,-35.645,-7.324
1628114235.051,36.621,-21.484,-7.324,8.789
1628114235.055,-77.148,2.441,-11.719,-47.363
1628114235.059,-107.422,-20.020,-31.738,-76.660
1628114235.063,-14.648,-37.109,-36.621,-40.039
1628114235.067,31.738,-33.691,-42.969,-11.719
1628114235.071,-44.922,-27.832,-42.480,-31.250
1628114235.075,-100.098,-37.598,-24.414,-57.617
1628114235.078,-28.320,-58.594,-20.020,-40.527
1628114235.082,29.785,-99.609,-54.199,-17.090
1628114235.086,-37.109,-67.871,-60.547,-34.668
1628114235.090,-115.723,-9.766,-27.344,-64.941
1628114235.094,-48.828,-4.883,-9.277,-37.109
1628114235.107,62.988,-22.949,-11.230,19.043
1628114235.111,9.277,-72.754,-34.180,-11.719
1628114235.115,-93.750,-62.500,-34.180,-55.664
1628114235.119,-81.055,-16.113,-34.180,-53.711
1628114235.123,15.625,-2.441,-30.273,-27.344
1628114235.127,37.109,3.418,-25.391,-11.230
1628114235.131,-59.570,-22.461,-25.391,-47.363
1628114235.134,-96.191,-44.922,-20.020,-67.871
1628114235.138,-4.395,-45.898,-24.902,-28.320
1628114235.142,60.059,-36.133,-15.625,13.184
1628114235.146,-21.484,-29.297,-31.250,-18.066
1628114235.150,-90.332,-24.414,-43.945,-51.270
1628114235.164,-18.066,-25.391,-40.527,-28.809
1628114235.168,58.105,-23.926,-51.270,3.906
1628114235.172,5.371,-29.785,-47.363,-9.766
1628114235.176,-97.656,-55.664,-47.363,-62.012
1628114235.180,-86.914,-36.621,-40.527,-70.801
1628114235.184,26.367,-15.625,-22.949,-12.695
1628114235.188,25.391,-25.391,-19.043,-7.324
1628114235.191,-69.824,-20.020,-17.090,-47.852
1628114235.195,-83.496,-64.453,-22.461,-56.641
1628114235.199,-3.418,-71.289,-36.621,-30.273
1628114235.203,44.434,-12.207,-43.945,4.883
1628114235.207,-32.227,-13.184,-43.945,-12.207
1628114235.201,-84.961,-47.852,-29.297,-51.758
1628114235.205,-13.184,-63.965,-20.996,-45.898
1628114235.209,57.129,-27.344,-7.324,-7.812
1628114235.213,-8.789,-0.977,-5.371,-21.484
1628114235.217,-107.910,-26.855,-24.902,-67.871
1628114235.221,-45.898,-26.367,-20.996,-42.480
1628114235.225,70.312,-18.555,-21.484,21.973
1628114235.228,27.832,-23.926,-39.062,20.020
1628114235.232,-96.680,-42.969,-43.945,-46.387
1628114235.236,-78.613,-35.156,-34.668,-50.781
1628114235.240,41.992,-45.898,-33.203,4.883
1628114235.244,30.273,-74.707,-27.344,9.277
1628114235.259,-78.613,-52.734,-12.695,-40.039
1628114235.263,-103.027,-41.504,-22.949,-71.777
1628114235.267,2.930,-13.672,-43.945,-27.344
1628114235.271,50.293,-13.184,-44.922,6.348
1628114235.275,-49.805,-15.137,-38.086,-30.762
1628114235.279,-75.684,10.254,-11.719,-39.551
1628114235.283,17.090,-26.855,-23.926,2.930
1628114235.286,66.406,-64.941,-45.410,27.832
1628114235.290,-33.691,-59.570,-31.738,-17.578
1628114235.294,-137.695,-30.762,-28.320,-76.172
1628114235.298,-78.613,-22.461,-26.367,-59.570
1628114235.302,44.434,-20.020,-9.277,0.000
1628114235.295,2.930,-11.719,-16.113,-15.625
1628114235.299,-119.629,-42.480,-24.414,-66.895
1628114235.303,-95.215,-41.992,-53.223,-52.246
1628114235.307,31.738,-16.113,-78.125,1.953
1628114235.311,38.086,-13.672,-32.227,5.859
1628114235.315,-75.684,-48.828,-0.488,-37.598
1628114235.319,-113.281,-101.074,-7.812,-62.988
1628114235.322,14.648,-35.645,0.000,-4.883
1628114235.326,53.711,-23.438,-18.555,16.113
1628114235.330,-72.266,-41.504,-48.828,-44.922
1628114235.334,-115.723,-42.969,-54.688,-54.199
1628114235.338,-41.992,-69.336,-42.480,-35.156
1628114235.332,41.504,-22.461,-33.203,0.000
1628114235.336,-29.297,-0.977,-23.926,-15.625
1628114235.340,-133.301,-32.715,-22.461,-71.289
1628114235.344,-72.754,-67.871,-25.879,-54.199
1628114235.348,45.898,-34.668,-29.297,-0.977
1628114235.352,11.230,-5.859,-40.527,-15.625
1628114235.356,-96.680,-18.555,-27.344,-56.152
1628114235.359,-63.477,-35.156,-11.230,-27.832
1628114235.363,37.598,-90.820,-28.320,8.789
1628114235.367,27.344,-47.852,-53.711,-8.301
1628114235.371,-69.336,-14.648,-44.434,-48.340
1628114235.375,-103.516,-31.738,-33.691,-66.895
1628114235.391,-15.137,-33.203,-37.109,-30.762
1628114235.395,41.992,-77.148,-34.180,2.930
1628114235.399,-49.805,-55.664,-29.785,-28.320
1628114235.403,-113.281,-29.297,-14.160,-63.965
1628114235.407,-42.969,-19.043,-16.113,-45.410
1628114235.411,31.738,-18.555,-30.273,-6.348
1628114235.415,-22.461,-52.246,-33.203,-17.090
1628114235.418,-108.398,-35.156,-35.645,-59.570
1628114235.422,-57.129,-3.906,-47.363,-49.805
1628114235.426,58.105,7.324,-43.945,8.301
1628114235.430,26.855,-6.836,-24.902,0.977
1628114235.434,-108.398,-36.133,-32.227,-63.477
1628114235.440,-110.352,-41.504,-31.738,-66.895
1628114235.444,1.465,-36.621,-19.043,-24.414
1628114235.448,29.297,-34.180,-26.367,-8.789
1628114235.452,-79.102,-44.434,-35.645,-47.363
1628114235.456,-111.328,-31.738,-22.949,-63.965
1628114235.460,0.977,-5.859,-26.367,-14.648
1628114235.464,77.637,22.949,-40.527,33.203
1628114235.467,-3.906,-1.465,-41.504,4.883
1628114235.471,-130.859,-111.816,-50.293,-77.637
1628114235.475,-90.332,-90.820,-42.480,-84.961
1628114235.479,31.250,-17.090,-26.367,-21.973
1628114235.483,-6.836,-26.367,-22.949,-23.438
1628114235.483,-115.723,-54.199,-23.438,-66.895
1628114235.487,-84.473,-116.211,-23.438,-55.664
1628114235.491,48.340,-65.430,-33.691,11.230
1628114235.495,55.176,4.883,-55.664,19.531
1628114235.499,-61.523,20.020,-22.461,-31.738
1628114235.503,-86.914,2.930,1.953,-44.434
1628114235.507,-13.184,-70.312,-36.621,-31.738
1628114235.510,12.207,-46.387,-47.852,-25.879
1628114235.514,-85.938,-22.949,-18.555,-63.477
1628114235.518,-143.066,-29.297,-1.953,-90.820
1628114235.522,-53.711,-52.246,-8.301,-50.781
1628114235.526,40.527,-85.938,-10.742,6.836
1628114235.520,-7.324,-56.641,-25.391,0.000
1628114235.524,-106.445,-31.250,-36.621,-53.711
1628114235.528,-79.102,-19.043,-48.340,-68.848
1628114235.532,25.879,-9.766,-73.730,-18.555
1628114235.536,-8.301,-2.441,-57.129,-18.555
1628114235.540,-115.234,-3.418,-22.949,-67.871
1628114235.544,-89.844,-18.066,-2.930,-62.988
1628114235.547,26.367,-24.902,-5.371,-9.766
1628114235.551,25.879,-62.988,-13.672,1.953
1628114235.555,-72.754,-49.805,-21.484,-35.156
1628114235.559,-80.078,-17.578,-29.297,-44.434
1628114235.563,33.691,-20.508,-22.461,2.930
1628114235.576,59.082,-21.484,-41.016,14.648
1628114235.580,-73.242,-52.734,-41.992,-52.734
1628114235.584,-143.555,-31.250,-44.922,-93.262
1628114235.588,-56.641,-17.090,-44.922,-62.012
1628114235.592,40.039,-6.836,-28.320,-11.230
1628114235.596,-4.883,0.488,-8.789,-17.090
1628114235.600,-106.445,-83.008,-8.789,-63.477
1628114235.603,-69.824,-91.309,-30.273,-56.641
1628114235.607,50.781,-41.992,-44.434,-1.953
1628114235.611,31.250,-3.418,-42.969,0.977
1628114235.615,-91.797,11.719,-30.273,-43.945
1628114235.619,-102.051,-16.602,-42.969,-60.059
1628114235.614,18.066,-22.949,-43.457,-13.672
1628114235.618,37.109,-3.418,-29.785,9.277
1628114235.622,-72.266,-2.441,-19.531,-37.109
1628114235.626,-94.238,-38.086,1.465,-54.199
1628114235.630,7.812,-32.227,-1.953,-13.184
1628114235.634,53.223,-13.184,-14.648,12.695
1628114235.638,-50.293,-53.223,-27.344,-28.320
1628114235.641,-128.418,-56.152,-70.801,-77.637
1628114235.645,-50.293,-59.082,-62.988,-53.711
1628114235.649,62.500,-34.668,-38.086,10.742
1628114235.653,5.859,5.371,-27.344,-3.418
1628114235.657,-111.816,3.906,-11.719,-58.594
1628114235.670,-75.195,-13.184,-10.742,-49.805
1628114235.674,28.320,-60.059,-29.297,-4.395
1628114235.678,5.371,-41.016,-38.086,-10.254
1628114235.682,-107.422,-39.551,-23.926,-61.035
1628114235.686,-98.633,-67.871,-18.555,-62.500
1628114235.690,11.719,-45.898,-33.203,-25.391
1628114235.694,25.391,-33.691,-43.457,-13.672
1628114235.697,-84.473,-15.137,-49.316,-47.363
1628114235.701,-124.023,-11.230,-56.641,-64.941
1628114235.705,-12.695,-17.090,-37.598,-19.531
1628114235.709,57.129,-21.484,0.000,22.949
1628114235.713,-46.387,-31.738,-0.977,-20.996
1628114235.708,-111.816,-31.738,-20.508,-56.152
1628114235.712,-32.715,-65.918,-35.156,-28.809
1628114235.716,38.574,-60.059,-50.781,-4.395
1628114235.720,-8.789,-10.742,-41.992,-16.113
1628114235.724,-119.141,-23.926,-38.086,-68.848
1628114235.728,-89.355,-41.992,-37.109,-71.289
1628114235.732,51.270,-23.438,-28.320,-2.930
1628114235.735,32.715,-20.996,-41.016,-2.930
1628114235.739,-119.629,-74.707,-34.180,-80.078
1628114235.743,-135.742,-56.641,-22.461,-92.773
1628114235.747,-8.789,-17.090,-46.387,-32.227
1628114235.751,32.227,-38.574,-53.711,-0.977
1628114235.764,-67.871,-45.898,-20.020,-39.062
1628114235.768,-118.652,-53.223,-3.418,-70.801
1628114235.772,-17.090,-27.344,-26.855,-32.227
1628114235.776,66.406,-6.836,-31.250,21.484
1628114235.780,-17.578,-10.742,-40.527,-19.043
1628114235.784,-105.469,-30.273,-44.922,-75.195
1628114235.788,-53.711,-68.848,-40.527,-57.617
1628114235.791,44.434,-26.367,-41.504,-9.766
1628114235.795,12.695,1.953,-28.320,-13.184
1628114235.799,-105.957,-28.809,-35.156,-64.941
1628114235.803,-77.637,-46.875,-34.668,-54.199
1628114235.807,37.109,-43.945,-45.410,-6.836
1628114235.820,41.016,-18.555,-57.617,0.488
1628114235.824,-62.500,2.441,-28.809,-35.156
1628114235.828,-100.098,0.000,-17.578,-62.988
1628114235.832,6.348,-20.996,-32.227,-25.879
1628114235.836,56.641,-26.367,-37.598,2.441
1628114235.840,-73.730,-46.875,-50.781,-58.594
1628114235.844,-136.230,-53.711,-55.664,-94.238
1628114235.847,-38.574,-39.551,-44.922,-61.035
1628114235.851,39.551,-42.969,-32.227,-20.996
1628114235.855,-10.254,-34.668,-28.320,-22.461
1628114235.859,-91.309,-31.250,-29.297,-46.387
1628114235.863,-34.668,-29.297,-35.156,-25.391
1628114235.857,71.289,-20.996,-47.363,23.438
1628114235.861,29.785,-37.109,-49.316,5.859
1628114235.865,-87.402,-42.480,-37.109,-51.758
1628114235.869,-70.801,-27.344,-22.949,-51.270
1628114235.873,41.992,-11.719,-35.645,-5.371
1628114235.877,37.109,-18.555,-52.734,-3.418
1628114235.881,-88.867,-70.801,-48.828,-63.965
1628114235.884,-117.676,-65.430,-33.203,-84.961
1628114235.888,4.883,-11.719,-21.484,-32.715
1628114235.892,73.242,3.906,-30.273,8.301
1628114235.896,-35.645,-33.203,-58.594,-32.227
1628114235.900,-124.512,-52.246,-60.059,-79.590
1628114235.895,-33.691,-12.695,-41.504,-43.945
1628114235.899,84.961,-3.418,-23.926,18.555
1628114235.903,24.414,-20.020,-17.090,0.000
1628114235.907,-88.379,-25.879,-28.809,-57.129
1628114235.911,-45.898,-22.461,-40.039,-44.434
1628114235.915,54.199,-28.320,-60.547,-9.766
1628114235.919,23.926,-19.043,-65.430,-19.043
1628114235.922,-90.332,-9.277,-51.270,-60.059
1628114235.926,-93.262,-51.270,-23.926,-75.195
1628114235.930,41.016,-63.477,3.906,-7.324
1628114235.934,85.449,-13.672,-6.348,38.574
1628114235.938,-37.598,10.742,-34.180,-14.160
1628114235.951,-107.910,-27.344,-25.879,-63.477
1628114235.955,-20.020,-80.566,-20.508,-37.598
1628114235.959,56.152,-47.363,-14.160,8.301
1628114235.963,-51.758,-16.602,-18.066,-34.668
1628114235.967,-148.926,-21.484,-39.062,-85.449
1628114235.971,-56.641,-18.555,-40.039,-45.410
1628114235.975,46.387,-49.316,-33.691,1.953
1628114235.978,-12.207,-48.828,-26.367,-19.531
1628114235.982,-131.348,-47.363,-23.438,-73.242
1628114235.986,-80.078,-39.062,-20.508,-55.176
1628114235.990,57.617,-17.578,-25.391,8.789
1628114235.994,35.156,-17.578,-31.738,11.230
1628114236.007,-99.609,-41.504,-37.598,-55.176
1628114236.011,-124.512,-55.664,-54.199,-79.590
1628114236.015,7.324,-28.320,-33.203,-16.602
1628114236.019,61.523,-22.461,-20.508,22.949
1628114236.023,-66.895,-50.293,-35.645,-40.527
1628114236.027,-117.676,-48.340,-14.648,-73.242
1628114236.031,2.441,-29.785,-5.371,-19.043
1628114236.034,66.406,-25.391,-38.574,13.184
1628114236.038,-25.879,-58.594,-40.039,-16.113
1628114236.042,-118.652,-51.270,-25.391,-62.500
1628114236.046,-53.711,-20.996,-19.531,-46.875
1628114236.050,62.988,-47.852,-11.230,13.184
1628114236.045,29.785,-44.434,-19.043,18.555
1628114236.049,-100.098,-13.184,-40.039,-44.434
1628114236.053,-99.121,-9.277,-32.227,-68.848
1628114236.057,40.039,-13.672,-38.086,-0.488
1628114236.061,53.223,-17.090,-41.992,18.555
1628114236.065,-84.961,-58.594,-30.273,-49.316
1628114236.069,-97.168,-63.477,-23.438,-53.223
1628114236.072,29.297,12.695,-29.785,5.371
1628114236.076,45.898,13.672,-41.992,3.418
1628114236.080,-85.938,-4.883,-34.668,-64.941
1628114236.084,-148.926,-31.738,-36.621,-90.332
1628114236.088,-59.082,-77.637,-44.434,-47.363
1628114236.083,27.832,-18.555,-41.016,-15.137
1628114236.087,-44.434,0.977,-26.855,-48.828
1628114236.091,-148.438,-13.672,-24.902,-100.586
1628114236.095,-100.586,-21.484,-46.875,-85.938
1628114236.099,21.973,-20.996,-56.152,-23.926
1628114236.103,-22.949,-27.344,-34.668,-42.969
1628114236.107,-173.828,-33.203,-8.789,-122.559
1628114236.110,-188.477,-32.227,-4.883,-146.973
1628114236.114,-100.586,-82.520,-13.184,-115.234
1628114236.118,-93.750,-66.406,-6.836,-107.910
1628114236.122,-202.637,-24.414,0.488,-151.855
1628114236.126,-277.344,-33.203,-11.230,-206.543
1628114236.139,-173.340,-20.996,-13.184,-177.734
1628114236.143,-96.680,-95.703,0.000,-135.254
1628114236.147,-233.887,-87.402,-18.066,-210.938
1628114236.151,-355.469,-36.621,-35.156,-287.109
1628114236.155,-284.180,-9.277,-19.043,-267.090
1628114236.159,-192.871,2.441,-1.465,-226.562
1628114236.163,-255.859,-37.109,0.977,-240.723
1628114236.166,-348.145,-13.184,-18.066,-277.344
1628114236.170,-294.922,-15.625,-13.672,-262.695
1628114236.174,-155.273,-54.688,9.766,-194.824
1628114236.178,-153.320,-39.062,2.930,-178.711
1628114236.182,-264.160,-9.277,5.371,-224.609
1628114236.178,-260.254,-33.203,16.113,-222.168
1628114236.182,-138.672,-42.969,5.371,-166.016
1628114236.186,-108.887,-16.113,21.484,-144.043
1628114236.190,-222.656,-33.691,30.762,-183.105
1628114236.194,-255.859,-67.383,9.766,-199.707
1628114236.198,-147.461,-72.266,-32.715,-150.879
1628114236.202,-58.594,-44.434,-40.527,-100.586
1628114236.205,-107.910,-47.363,-2.441,-110.840
1628114236.209,-177.246,-83.984,-5.859,-131.836
1628114236.213,-107.910,-60.059,-24.902,-103.516
1628114236.217,28.809,-25.391,-18.066,-25.879
1628114236.221,21.484,-20.508,-5.859,-1.465
1628114236.232,-83.496,-38.086,-2.441,-44.434
1628114236.236,-66.406,-83.008,-28.809,-46.387
1628114236.240,49.316,-52.734,-49.805,-4.883
1628114236.244,62.988,-17.578,-46.387,22.949
1628114236.248,-25.391,-17.578,-41.504,5.371
1628114236.252,-20.020,-28.320,-42.969,-0.977
1628114236.256,102.539,-89.355,-52.734,61.523
1628114236.259,147.949,-51.758,-65.430,93.750
1628114236.263,34.180,0.488,-78.125,41.016
1628114236.267,-1.953,0.488,-66.406,28.809
1628114236.271,109.375,-52.734,-53.711,77.637
1628114236.275,160.156,-81.055,-62.012,91.797
1628114236.270,72.754,-2.930,-57.617,57.617
1628114236.274,-11.719,5.859,-46.387,19.043
1628114236.278,42.969,-24.414,-39.062,31.738
1628114236.282,163.086,-30.273,-37.598,98.145
1628114236.286,118.164,-20.020,-47.363,88.867
1628114236.290,-14.160,-11.230,-54.688,22.461
1628114236.294,17.090,-2.441,-50.781,31.250
1628114236.297,146.484,-8.301,-44.922,93.262
1628114236.301,135.742,-44.434,-41.992,96.680
1628114236.305,30.273,-29.785,-46.387,53.711
1628114236.309,22.949,-8.789,-61.523,47.852
1628114236.313,106.445,-27.832,-61.523,75.195
1628114236.326,140.625,-29.297,-52.246,93.750
1628114236.330,58.594,-84.961,-55.664,72.266
1628114236.334,-9.766,-71.777,-37.598,25.391
1628114236.338,59.082,-24.414,-30.762,35.156
1628114236.342,142.090,-35.156,-41.504,83.984
1628114236.346,73.242,-30.762,-37.598,60.059
1628114236.350,-25.391,-41.016,-26.855,15.137
1628114236.353,26.367,-17.090,-32.227,34.180
1628114236.357,128.418,6.836,-39.551,80.078
1628114236.361,94.238,10.742,-39.062,77.148
1628114236.365,-40.527,-17.578,-61.523,12.207
1628114236.369,-41.016,-40.039,-54.688,-0.488
1628114236.364,89.844,-20.996,-26.855,57.129
1628114236.368,105.957,-22.461,-20.020,72.266
1628114236.372,-10.254,-41.992,-28.809,24.414
1628114236.376,-41.992,-90.332,-45.898,-2.441
1628114236.380,57.617,-56.641,-49.316,22.949
1628114236.384,115.723,8.789,-23.926,47.852
1628114236.388,16.602,6.836,-12.207,19.043
1628114236.391,-55.176,0.000,-9.277,-7.812
1628114236.395,30.273,-63.965,-6.348,28.320
1628114236.399,105.957,-66.895,-33.691,63.477
1628114236.403,19.043,-41.016,-52.734,18.555
1628114236.407,-72.266,-34.668,-48.828,-19.043
1628114236.420,-18.555,-16.113,-40.039,-1.465
1628114236.424,77.637,-59.570,-42.480,32.715
1628114236.428,54.199,-33.203,-49.316,29.785
1628114236.432,-62.988,-24.414,-46.875,-21.973
1628114236.436,-46.387,-19.043,-32.227,-15.625
1628114236.440,74.707,-14.648,-38.086,40.039
1628114236.444,90.820,-75.684,-52.246,54.688
1628114236.447,-5.371,-44.434,-18.066,21.973
1628114236.451,-75.195,-52.734,-14.160,-24.902
1628114236.455,10.742,-26.367,-31.250,-8.301
1628114236.459,84.473,-14.648,-26.855,28.809
1628114236.463,-25.879,-54.199,-32.227,-17.578
1628114236.458,-104.004,-6.836,-43.945,-55.664
1628114236.462,-4.883,15.625,-35.645,-10.254
1628114236.466,87.891,2.441,-30.273,42.480
1628114236.470,23.438,-19.531,-31.250,17.578
1628114236.474,-85.449,-47.852,-25.391,-37.598
1628114236.478,-41.504,-52.734,-21.484,-23.438
1628114236.482,72.754,-27.832,-39.551,27.832
1628114236.485,53.711,-5.859,-43.457,24.902
1628114236.489,-83.984,-65.430,-51.270,-45.898
1628114236.493,-111.328,-82.031,-67.383,-75.684
1628114236.497,9.277,-32.715,-54.688,-20.020
1628114236.501,58.105,-2.930,-23.926,16.113
1628114236.514,-43.945,-9.766,-23.926,-31.738
1628114236.518,-104.492,-68.848,-22.949,-63.965
1628114236.522,8.789,-45.898,-1.465,-3.906
1628114236.526,99.609,-8.301,-13.672,40.527
1628114236.530,-4.883,-11.230,-35.156,-11.230
1628114236.534,-114.746,-42.969,-31.738,-65.918
1628114236.538,-62.012,-112.793,-38.086,-47.852
1628114236.541,48.828,-52.734,-47.363,0.000
1628114236.545,27.832,-7.324,-30.762,8.789
1628114236.549,-83.496,-20.996,-17.578,-34.668
1628114236.553,-88.867,-41.992,-41.504,-58.105
1628114236.557,30.762,-44.434,-32.227,-5.371
1628114236.551,32.715,-24.414,-27.832,-0.977
1628114236.555,-77.148,-13.184,-44.922,-42.969
1628114236.559,-69.824,-2.930,-32.227,-33.203
1628114236.563,34.668,-21.973,-22.461,-1.953
1628114236.567,64.453,-31.250,-28.809,11.719
1628114236.571,-42.480,-25.879,-45.898,-30.762
1628114236.575,-99.609,-2.930,-39.551,-65.918
1628114236.578,-11.719,-0.488,-19.043,-28.809
1628114236.582,56.152,-49.316,-20.996,6.348
1628114236.586,-12.207,-51.270,-32.715,-21.973
1628114236.590,-85.938,-14.648,-16.113,-49.316
1628114236.594,-35.156,-9.766,-14.160,-26.367
1628114236.608,57.617,-40.527,-36.621,8.789
1628114236.612,31.250,-91.309,-40.039,9.766
1628114236.616,-59.082,-65.430,-25.879,-16.602
1628114236.620,-57.129,-43.457,-17.578,-34.180
1628114236.624,36.133,-20.508,-36.621,-8.301
1628114236.628,63.477,5.371,-30.762,8.789
1628114236.632,-59.082,-28.320,-24.902,-39.551
1628114236.635,-125.488,-34.180,-36.133,-84.473
1628114236.639,-9.277,-20.508,-25.879,-40.039
1628114236.643,65.430,-15.625,-25.879,14.160
1628114236.647,-13.184,-25.391,-34.668,-13.672
1628114236.651,-77.637,-34.668,-22.949,-53.223
1628114236.645,-9.766,-17.090,-14.160,-26.855
1628114236.649,88.867,-14.648,-11.719,27.832
1628114236.653,22.461,-25.391,-21.973,6.348
1628114236.657,-106.934,-62.012,-44.922,-56.641
1628114236.661,-88.867,-70.312,-42.480,-61.035
1628114236.665,31.738,-27.832,-34.180,0.000
1628114236.669,31.250,-11.719,-28.809,14.160
1628114236.672,-95.703,-18.066,-56.641,-45.898
1628114236.676,-131.348,-71.777,-72.266,-84.473
1628114236.680,-21.484,-68.848,-29.297,-44.434
1628114236.684,38.086,-33.691,-4.395,-1.465
1628114236.688,-45.410,-8.301,-17.578,-24.902
1628114236.701,-82.520,-0.977,-20.508,-36.621
1628114236.705,-11.230,-77.637,-21.973,-13.184
1628114236.709,31.738,-50.781,-27.344,-8.301
1628114236.713,-35.645,-13.672,-22.461,-36.621
1628114236.717,-117.676,-31.250,-25.391,-77.637
1628114236.721,-67.383,-50.781,-31.250,-59.082
1628114236.725,53.711,-100.586,-37.598,12.695
1628114236.728,29.785,-63.965,-38.574,9.277
1628114236.732,-96.680,-30.762,-45.898,-50.293
1628114236.736,-101.074,-16.113,-42.969,-59.082
1628114236.740,8.301,-10.742,-33.203,-11.230
1628114236.744,34.668,-10.742,-35.156,11.230
1628114236.739,-47.363,17.578,-5.371,-17.578
1628114236.743,-107.422,-19.043,2.441,-67.871
1628114236.747,-40.527,-29.297,-22.949,-54.688
1628114236.751,33.691,-8.789,-28.809,-6.836
1628114236.755,-32.715,-20.020,-24.902,-19.043
1628114236.759,-106.445,-53.711,-28.809,-63.477
1628114236.763,-65.918,-58.105,-32.715,-61.035
1628114236.766,24.902,-10.742,-25.391,-4.883
1628114236.770,-4.883,-40.527,-32.715,-7.812
1628114236.774,-117.676,-58.105,-38.574,-69.824
1628114236.778,-96.680,-32.715,-46.387,-75.195
1628114236.782,22.949,-21.484,-40.039,-20.020
1628114236.795,37.109,-11.230,-6.836,12.695
1628114236.799,-73.242,-69.824,-23.438,-31.738
1628114236.803,-93.262,-47.363,-27.832,-57.129
1628114236.807,13.672,-4.883,-11.719,-11.719
1628114236.811,46.387,4.883,-7.324,11.230
1628114236.815,-66.895,-19.043,-18.555,-43.945
1628114236.819,-118.652,-97.168,-39.551,-68.359
1628114236.822,2.930,-51.270,-19.043,-8.789
1628114236.826,72.754,1.465,-5.859,32.715
1628114236.830,-21.973,-6.348,-25.879,-6.348
1628114236.834,-112.305,-19.531,-43.945,-65.918
1628114236.838,-55.664,-22.949,-39.551,-50.293
1628114236.833,44.922,-13.184,-30.273,1.953
1628114236.837,1.953,-34.668,-45.898,-2.441
1628114236.841,-99.121,-47.852,-33.203,-46.875
1628114236.845,-85.449,-63.477,-16.113,-59.082
1628114236.849,21.484,-47.363,-28.320,-12.695
1628114236.853,34.180,0.000,-25.879,5.859
1628114236.857,-77.148,6.836,-25.391,-39.062
1628114236.860,-97.168,-23.926,-45.410,-56.152
1628114236.864,-9.277,-93.262,-61.035,-37.109
1628114236.868,23.438,-64.453,-43.457,-14.648
1628114236.872,-63.477,-4.395,-37.598,-38.086
1628114236.876,-114.746,-5.859,-42.480,-68.848
1628114236.892,-7.812,-11.719,-13.184,-19.531
1628114236.896,76.172,-37.598,-18.555,31.250
1628114236.900,-18.066,-28.320,-36.133,-7.324
1628114236.904,-128.418,-41.992,-37.109,-69.824
1628114236.908,-84.961,-46.387,-38.574,-70.312
1628114236.912,22.461,-44.922,-27.344,-13.672
1628114236.916,-0.488,-96.680,-30.762,-5.859
1628114236.919,-99.609,-57.617,-35.645,-50.293
1628114236.923,-83.008,-38.574,-27.344,-53.711
1628114236.927,36.133,-32.227,-40.039,2.930
1628114236.931,49.805,-17.578,-46.387,26.855
1628114236.935,-64.941,-18.555,-27.832,-28.320
1628114236.927,-105.957,0.977,-31.738,-66.406
1628114236.931,-10.254,-12.695,-32.715,-28.809
1628114236.935,49.805,-11.230,-5.859,12.207
1628114236.939,-51.270,-19.531,-7.812,-26.367
1628114236.943,-113.281,-46.387,-26.367,-62.012
1628114236.947,-28.809,-55.664,-41.016,-35.645
1628114236.951,42.969,-29.297,-36.133,2.930
1628114236.954,-17.090,-15.625,-31.738,-11.719
1628114236.958,-118.652,-76.172,-58.105,-60.059
1628114236.962,-62.012,-60.547,-41.504,-40.527
1628114236.966,68.848,-0.977,-19.531,23.438
1628114236.970,30.762,-7.812,-34.180,16.113
1628114236.982,-92.285,-31.738,-49.805,-43.945
1628114236.986,-82.520,-88.379,-41.016,-47.852
1628114236.990,41.992,-39.551,-15.625,12.207
1628114236.994,51.270,-9.277,-13.184,20.020
1628114236.998,-61.035,-20.508,0.488,-24.414
1628114237.002,-89.844,-26.367,-7.812,-44.922
1628114237.006,-10.742,-108.398,-40.527,-23.926
1628114237.009,43.457,-55.176,-46.387,0.488
1628114237.013,-31.250,-20.508,-43.457,-20.996
1628114237.017,-109.863,-39.062,-47.363,-62.988
1628114237.021,-34.668,-41.992,-37.598,-40.039
1628114237.025,53.711,-67.871,-12.695,14.160
1628114237.020,-7.324,-33.203,-4.395,-3.418
1628114237.024,-105.957,-10.742,-17.090,-58.105
1628114237.028,-66.406,-18.555,-21.973,-48.828
1628114237.032,50.781,-25.391,-13.184,12.695
1628114237.036,12.695,-15.137,-19.043,-1.953
1628114237.040,-108.887,-16.602,-25.391,-56.641
1628114237.044,-112.793,-33.203,-28.320,-66.895
1628114237.047,-3.906,-34.180,-34.668,-27.344
1628114237.051,26.855,-46.387,-41.016,-1.465
1628114237.055,-85.938,-43.945,-46.387,-52.734
1628114237.059,-125.977,-42.969,-54.688,-78.125
1628114237.063,-24.414,-33.203,-52.246,-36.133
1628114237.076,41.016,-13.672,-19.531,-0.977
1628114237.080,-40.039,-82.520,0.488,-21.484
1628114237.084,-118.164,-80.078,-9.277,-63.965
1628114237.088,-53.711,-34.668,-23.926,-51.758
1628114237.092,54.688,-13.672,-18.555,1.465
1628114237.096,14.648,-27.344,-24.902,-8.789
1628114237.100,-106.445,-108.887,-47.852,-64.453
1628114237.103,-86.426,-59.082,-48.828,-61.523
1628114237.107,30.273,-7.812,-44.434,-10.742
1628114237.111,20.508,-18.066,-48.828,-1.953
1628114237.115,-92.285,-13.184,-54.688,-53.711
1628114237.119,-91.797,-13.184,-33.203,-63.477
1628114237.132,26.855,-4.883,-7.324,-2.930
1628114237.136,51.758,-5.371,-10.254,12.207
1628114237.140,-69.336,-11.230,-17.578,-42.969
1628114237.144,-122.070,-42.969,-14.648,-70.312
1628114237.148,-27.344,-48.340,-19.531,-33.203
1628114237.152,51.270,-26.367,-26.855,17.090
1628114237.156,-10.742,-51.270,-30.762,-3.418
1628114237.159,-88.867,-62.500,-40.039,-58.594
1628114237.163,-55.176,-112.305,-56.641,-64.453
1628114237.167,38.574,-72.754,-42.480,-19.531
1628114237.171,16.113,5.859,-20.020,-8.301
1628114237.175,-102.051,-7.812,-24.902,-58.594
1628114237.170,-95.215,-26.855,-32.715,-63.965
1628114237.174,40.039,-50.781,-17.090,7.812
1628114237.178,57.129,-20.020,-11.230,30.762
1628114237.182,-77.637,-9.766,-27.832,-36.133
1628114237.186,-103.516,-3.906,-33.203,-64.453
1628114237.190,9.766,-13.672,-43.945,-12.695
1628114237.194,35.156,-69.824,-55.664,2.930
1628114237.197,-40.039,-39.062,-24.414,-19.531
1628114237.201,-96.680,-28.809,-2.441,-54.199
1628114237.205,-30.273,-24.902,-21.484,-44.434
1628114237.209,32.715,-5.859,-41.504,-11.230
1628114237.213,-60.059,-19.043,-59.082,-47.363
1628114237.208,-135.742,-34.180,-43.945,-82.031
1628114237.212,-57.129,-33.691,-21.973,-47.852
1628114237.216,43.945,-18.555,-44.922,-2.441
1628114237.220,5.859,-16.602,-41.504,-8.789
1628114237.224,-103.027,-27.832,-21.973,-59.082
1628114237.228,-85.449,-22.949,-30.762,-60.547
1628114237.232,50.293,-6.836,-25.391,17.090
1628114237.235,47.852,-26.367,-41.992,29.785
1628114237.239,-78.613,-41.992,-48.828,-34.180
1628114237.243,-94.727,-20.508,-24.902,-49.805
1628114237.247,6.836,-37.598,-21.973,-18.555
1628114237.251,57.129,-42.480,-11.230,13.184
1628114237.263,-37.109,-32.227,-12.207,-13.672
1628114237.267,-127.930,-46.387,-29.785,-77.148
1628114237.271,-50.293,-21.484,-37.598,-57.617
1628114237.275,50.293,-11.230,-40.039,4.395
1628114237.279,-4.883,-4.883,-25.879,-3.418
1628114237.283,-98.633,-3.906,-31.250,-52.734
1628114237.287,-63.477,-23.926,-62.012,-48.828
1628114237.290,42.969,-26.855,-55.176,3.906
1628114237.294,15.137,-36.621,-32.227,0.000
1628114237.298,-97.656,-47.363,-22.949,-46.875
1628114237.302,-80.078,-45.898,-16.602,-50.293
1628114237.306,35.156,-37.598,-13.672,-1.465
1628114237.320,52.246,-27.344,-7.812,19.043
1628114237.324,-65.430,-17.578,-27.832,-32.227
1628114237.328,-112.793,-20.020,-55.176,-67.871
1628114237.332,-8.301,-35.645,-57.129,-31.250
1628114237.336,52.246,-26.367,-53.711,0.977
1628114237.340,-25.391,-14.160,-43.945,-20.020
1628114237.344,-88.867,-17.090,-40.039,-49.805
1628114237.347,-32.715,-30.273,-46.875,-40.527
1628114237.351,43.457,-32.715,-37.598,-2.441
1628114237.355,-9.766,-24.414,-18.066,-13.184
1628114237.359,-90.820,-12.695,-7.324,-43.945
1628114237.363,-49.316,-10.742,-5.371,-34.180
1628114237.358,37.598,-34.668,-24.414,-3.418
1628114237.362,21.973,-63.477,-42.480,0.977
1628114237.366,-83.008,-81.543,-43.457,-44.922
1628114237.370,-97.656,-62.988,-50.293,-71.289
1628114237.374,13.184,-6.836,-54.688,-30.762
1628114237.378,43.945,4.883,-41.016,-5.859
1628114237.382,-69.824,-24.414,-41.504,-42.969
1628114237.385,-113.281,-16.602,-60.547,-72.754
1628114237.389,-7.324,-14.648,-40.039,-29.785
1628114237.393,41.016,-26.367,-9.277,4.395
1628114237.397,-42.480,-49.805,-9.277,-24.902
1628114237.401,-120.117,-70.801,-20.508,-65.918
1628114237.395,-68.848,-37.109,-37.109,-54.199
1628114237.399,43.945,-32.715,-59.570,-1.465
1628114237.403,19.043,-38.574,-43.945,3.906
1628114237.407,-93.262,-42.969,-15.137,-41.992
1628114237.411,-88.867,-38.086,-27.832,-57.129
1628114237.415,31.250,-10.254,-23.926,-5.371
1628114237.419,25.391,-18.066,-14.648,8.789
1628114237.422,-100.098,-34.180,-36.133,-53.711
1628114237.426,-122.070,-62.988,-50.781,-79.590
1628114237.430,-14.160,-60.547,-37.109,-30.273
1628114237.434,46.875,-31.738,-20.996,13.184
1628114237.438,-54.199,-33.691,-30.762,-26.855
1628114237.451,-111.328,-42.480,-37.598,-58.105
1628114237.455,-17.578,-71.777,-43.945,-25.391
1628114237.459,49.805,-46.387,-23.926,4.883
1628114237.463,-26.367,-29.297,-2.930,-22.949
1628114237.467,-117.188,-20.508,-18.066,-64.941
1628114237.471,-64.941,-20.508,-26.367,-45.410
1628114237.475,33.203,-76.660,-32.227,-4.883
1628114237.478,-3.418,-49.316,-40.527,-16.602
1628114237.482,-110.352,-31.250,-34.668,-60.547
1628114237.486,-86.426,-46.387,-31.738,-61.523
1628114237.490,33.691,-46.875,-61.035,-6.348
1628114237.494,31.738,-35.156,-62.988,8.301
1628114237.489,-87.891,-13.184,-38.086,-48.340
1628114237.493,-122.070,-36.133,-27.344,-79.590
1628114237.497,0.000,-36.133,-5.371,-25.879
1628114237.501,63.965,-11.719,-10.742,15.137
1628114237.505,-25.391,14.160,-29.297,-14.648
1628114237.509,-92.773,3.418,-41.992,-52.734
1628114237.513,-42.480,-25.391,-41.504,-48.340
1628114237.516,32.715,-16.602,-32.715,-8.301
1628114237.520,-28.320,-48.828,-44.434,-29.785
1628114237.524,-106.934,-69.336,-31.738,-60.059
1628114237.528,-55.664,-68.848,-24.414,-41.016
1628114237.532,43.457,-43.457,-29.785,3.418
1628114237.545,15.625,-15.625,-22.949,-5.371
1628114237.549,-103.516,-52.246,-27.832,-64.453
1628114237.553,-101.562,-36.133,-32.227,-68.359
1628114237.557,17.090,-17.090,-31.738,-13.672
1628114237.561,56.152,-1.953,-10.742,16.113
1628114237.565,-57.129,-1.465,-32.715,-27.832
1628114237.569,-116.211,-45.410,-73.242,-66.406
1628114237.572,-5.371,-56.641,-45.410,-26.855
1628114237.576,55.176,-51.758,-6.836,10.742
1628114237.580,-47.852,-29.785,-23.926,-23.926
1628114237.584,-117.188,-17.090,-52.734,-60.059
1628114237.588,-13.184,-15.137,-20.508,-18.555
1628114237.584,83.008,-26.855,-22.949,33.203
1628114237.588,-4.395,-22.949,-27.832,-6.348
1628114237.592,-112.305,-11.230,-19.531,-66.406
1628114237.596,-69.336,-36.133,-42.480,-62.012
1628114237.600,20.508,-40.527,-42.480,-18.066
1628114237.604,10.742,-13.672,-28.320,-16.602
1628114237.608,-88.379,-11.719,-24.902,-60.059
1628114237.611,-112.305,-41.992,-43.457,-82.031
1628114237.615,16.602,-56.152,-32.715,-25.879
1628114237.619,69.824,-32.227,-22.949,21.973
1628114237.623,-55.176,-31.738,-55.664,-33.203
1628114237.627,-77.637,-23.438,-35.645,-45.410
1628114237.638,28.809,-24.902,-16.602,-2.441
1628114237.642,53.223,-60.059,-43.457,5.859
1628114237.646,-33.691,-31.738,-44.434,-21.484
1628114237.650,-100.098,-11.230,-25.879,-54.688
1628114237.654,-30.273,-5.859,-36.133,-33.691
1628114237.658,70.312,-21.973,-39.551,23.926
1628114237.662,6.348,-101.562,-18.066,8.789
1628114237.665,-109.863,-41.992,-18.066,-56.152
1628114237.669,-67.871,7.812,-33.691,-51.270
1628114237.673,54.199,-5.859,-42.969,3.418
1628114237.677,27.344,-28.809,-34.180,0.488
1628114237.681,-101.074,-43.457,-19.043,-58.594
1628114237.695,-108.887,-34.668,-23.926,-73.730
1628114237.699,30.762,-20.508,-23.438,-14.160
1628114237.703,58.594,-24.414,-31.738,8.301
1628114237.707,-78.125,-62.012,-53.223,-52.246
1628114237.711,-98.633,-45.410,-46.387,-62.988
1628114237.715,13.184,-7.812,-47.852,-14.160
1628114237.719,90.820,13.184,-40.039,38.086
1628114237.722,-3.418,2.441,-22.949,-2.930
1628114237.726,-129.883,-117.188,-30.273,-79.590
1628114237.730,-70.801,-106.934,-36.133,-62.500
1628114237.734,41.504,-7.812,-39.551,-7.812
1628114237.738,-0.488,8.301,-28.809,-17.090
1628114237.732,-104.004,-26.367,-16.602,-62.012
1628114237.736,-81.055,-137.207,-12.207,-51.758
1628114237.740,43.945,-83.984,-29.297,0.488
1628114237.744,51.270,0.488,-33.691,10.254
1628114237.748,-66.895,8.789,-3.418,-37.598
1628114237.752,-93.262,-4.883,-32.715,-58.105
1628114237.756,10.254,-45.410,-74.707,-16.602
1628114237.759,55.176,-10.254,-37.598,8.301
1628114237.763,-62.012,-4.883,-12.695,-41.504
1628114237.767,-118.652,-26.855,-21.484,-71.289
1628114237.771,-8.789,-70.801,-26.367,-16.113
1628114237.775,71.777,-100.098,-19.531,27.832
1628114237.770,-6.836,-20.020,-26.367,-8.301
1628114237.774,-90.820,4.395,-25.391,-54.199
1628114237.778,-38.574,-11.719,-36.133,-43.945
1628114237.782,50.293,-37.109,-54.199,-10.742
1628114237.786,13.672,-27.344,-33.691,-17.090
1628114237.790,-101.562,1.465,-20.996,-63.477
1628114237.794,-89.844,-6.348,-24.902,-65.430
1628114237.797,43.945,-4.883,-27.344,3.906
1628114237.801,58.594,-62.012,-20.020,21.484
1628114237.805,-67.383,-66.895,-27.832,-34.668
1628114237.809,-102.051,-26.855,-48.828,-67.871
1628114237.813,6.348,-35.645,-36.621,-21.484
1628114237.826,57.129,-28.320,-25.879,20.996
1628114237.830,-54.688,-76.172,-31.738,-29.785
1628114237.834,-125.000,-50.293,-21.484,-68.359
1628114237.838,-38.574,-11.719,-26.367,-29.785
1628114237.842,46.387,1.953,-28.320,15.625
1628114237.846,-23.926,-15.625,-28.809,-11.230
1628114237.850,-130.859,-100.098,-45.410,-66.895
1628114237.853,-84.961,-36.621,-31.738,-59.570
1628114237.857,35.645,13.672,-14.160,-6.836
1628114237.861,10.742,-0.488,-50.781,-10.254
1628114237.865,-104.980,-37.109,-72.754,-58.594
1628114237.869,-97.656,-62.012,-32.715,-63.477
1628114237.865,27.832,-18.555,-0.488,-15.137
1628114237.869,56.641,-20.020,-19.531,3.418
1628114237.873,-67.383,-19.043,-33.203,-44.922
1628114237.877,-113.281,-9.766,-15.625,-77.637
1628114237.881,2.441,-2.441,-5.859,-29.297
1628114237.885,50.293,-8.789,-22.461,1.953
1628114237.889,-71.777,-18.555,-51.758,-48.340
1628114237.892,-131.348,-3.418,-54.688,-78.125
1628114237.896,-54.199,-73.242,-62.988,-52.734
1628114237.900,38.574,-89.355,-53.223,-4.883
1628114237.904,-8.301,-31.738,-7.812,-22.461
1628114237.908,-117.676,1.953,-6.348,-74.219
1628114237.919,-58.105,-2.441,-27.832,-46.387
1628114237.923,87.402,-62.500,-12.207,21.973
1628114237.927,24.902,-50.781,-7.812,-5.371
1628114237.931,-130.859,-20.020,-22.949,-81.055
1628114237.935,-95.703,-17.090,-31.738,-69.336
1628114237.939,54.688,-24.414,-21.484,2.441
1628114237.943,41.504,-76.172,-26.367,4.883
1628114237.946,-121.582,-39.551,-72.266,-73.242
1628114237.950,-134.766,-10.254,-79.102,-87.402
1628114237.954,35.156,-31.738,-31.250,-0.977
1628114237.958,83.984,-48.340,-9.766,33.203
1628114237.962,-71.289,-37.598,-24.902,-36.621
1628114237.958,-155.762,-5.859,-33.691,-94.727
1628114237.962,-24.414,-2.930,-26.367,-39.062
1628114237.966,103.027,8.301,-12.207,41.016
1628114237.970,-13.184,-5.371,-31.250,-13.672
1628114237.974,-164.062,-20.508,-49.316,-92.285
1628114237.978,-79.102,-5.371,-46.387,-50.293
1628114237.982,87.402,13.672,-26.855,27.832
1628114237.985,34.180,2.441,-18.555,5.859
1628114237.989,-128.906,-100.098,-20.508,-59.570
1628114237.993,-92.773,-90.820,-31.738,-36.621
1628114237.997,63.965,-20.996,-38.574,19.043
1628114238.001,60.059,-30.273,-6.348,10.742
1628114238.014,-119.629,-45.898,-3.906,-77.148
1628114238.018,-153.320,-98.633,-23.438,-87.402
1628114238.022,23.926,-38.574,-33.203,2.930
1628114238.026,85.938,15.137,-44.922,26.367
1628114238.030,-49.316,0.000,-38.574,-32.715
1628114238.034,-125.977,-21.484,-22.949,-65.918
1628114238.038,-25.879,-75.195,-16.602,-26.367
1628114238.041,80.078,-42.480,-20.020,15.625
1628114238.045,-17.578,-16.602,-36.621,-27.344
1628114238.049,-166.504,-11.719,-41.992,-99.121
1628114238.053,-87.402,-22.949,-57.617,-60.059
1628114238.057,70.801,-55.664,-55.176,20.020
1628114238.070,14.648,-23.926,-15.625,-10.254
1628114238.074,-126.953,-6.836,0.000,-71.777
1628114238.078,-83.496,-3.906,-11.719,-36.133
1628114238.082,49.316,-38.574,-13.184,15.137
1628114238.086,28.320,-48.828,-30.273,-7.812
1628114238.090,-123.047,-15.625,-39.551,-77.637
1628114238.094,-152.344,3.418,-35.156,-88.379
1628114238.097,1.465,-8.301,-47.852,-20.020
1628114238.101,95.215,-32.227,-38.086,32.227
1628114238.105,-50.781,-24.902,-43.457,-29.297
1628114238.109,-164.551,-38.086,-67.383,-92.773
1628114238.113,-32.227,-37.598,-47.852,-29.297
1628114238.109,102.539,-15.137,-23.926,42.480
1628114238.113,3.418,-43.457,-6.836,-1.465
1628114238.117,-152.344,-55.176,-12.695,-76.660
1628114238.121,-69.336,-43.945,-25.391,-43.457
1628114238.125,113.770,-13.184,-11.230,50.293
1628114238.129,51.270,0.000,-49.316,23.438
1628114238.133,-145.508,-58.594,-71.289,-87.402
1628114238.136,-134.277,-43.457,-34.668,-87.402
1628114238.140,44.434,-14.648,-14.160,2.441
1628114238.144,70.312,1.953,-21.973,10.254
1628114238.148,-119.141,-37.109,-39.551,-88.379
1628114238.152,-172.363,-112.793,-41.992,-111.328
1628114238.145,1.465,-39.551,-34.668,-27.832
1628114238.149,81.055,-6.348,-39.551,7.324
1628114238.153,-60.059,-15.625,-51.758,-53.711
1628114238.157,-153.320,-20.996,-51.758,-90.820
1628114238.161,-23.438,-23.926,-28.320,-20.020
1628114238.165,97.656,-11.230,-19.531,26.855
1628114238.169,-13.184,-11.230,-43.945,-36.133
1628114238.172,-153.809,-12.695,-39.062,-96.191
1628114238.176,-73.730,-72.266,-17.578,-53.711
1628114238.180,85.449,-70.801,-14.648,24.902
1628114238.184,46.875,-7.812,-19.531,4.883
1628114238.188,-117.676,8.301,-41.992,-74.707
1628114238.201,-123.535,-24.414,-53.711,-70.801
1628114238.205,16.602,-109.863,-39.062,-11.719
1628114238.209,52.734,-61.035,-24.902,8.301
1628114238.213,-85.449,-12.695,-19.043,-44.434
1628114238.217,-135.742,-4.883,-16.602,-67.871
1628114238.221,8.301,-25.391,-36.621,-9.766
1628114238.225,93.262,-112.305,-30.273,30.762
1628114238.228,-40.527,-68.848,-20.508,-23.438
1628114238.232,-162.598,-19.043,-37.598,-83.984
1628114238.236,-66.895,-16.113,-30.273,-50.781
1628114238.240,74.219,-27.344,-25.391,9.766
1628114238.244,14.160,-46.875,-31.250,-11.230
1628114238.240,-132.324,-9.277,-41.992,-82.520
1628114238.244,-82.031,-4.883,-33.691,-55.176
1628114238.248,76.172,-15.625,-18.555,13.672
1628114238.252,47.363,-11.719,-29.785,-6.348
1628114238.256,-113.770,3.418,-38.574,-75.684
1628114238.260,-123.047,-12.207,-42.969,-80.078
1628114238.264,31.738,-28.809,-37.598,-9.766
1628114238.267,71.777,-26.855,-29.785,8.789
1628114238.271,-94.727,-94.727,-44.922,-63.965
1628114238.275,-160.156,-88.379,-58.105,-83.496
1628114238.279,-11.230,-19.531,-24.902,-4.395
1628114238.283,91.797,21.484,1.953,34.180
1628114238.295,-11.719,17.090,-17.578,-22.461
1628114238.299,-162.598,-109.375,-44.922,-93.262
1628114238.303,-94.727,-89.844,-33.691,-69.824
1628114238.307,75.195,-1.465,-29.297,16.113
1628114238.311,31.738,-3.906,-31.738,3.418
1628114238.315,-117.188,-33.203,-27.344,-71.777
1628114238.319,-101.074,-92.773,-42.969,-69.336
1628114238.322,49.316,-44.922,-29.297,4.883
1628114238.326,81.543,18.555,-16.602,31.250
1628114238.330,-84.473,28.320,-12.207,-46.875
1628114238.334,-162.598,-13.672,-15.625,-100.586
1628114238.338,-45.898,-47.852,-43.945,-60.059
1628114238.351,47.363,-22.949,-39.062,-8.789
1628114238.355,-50.781,-33.691,-25.879,-42.969
1628114238.359,-164.062,-45.898,-42.480,-95.215
1628114238.363,-68.848,-41.016,-58.105,-54.199
1628114238.367,76.660,-16.113,-65.918,6.836
1628114238.371,0.488,-9.277,-69.824,-19.531
1628114238.375,-130.859,-15.137,-37.109,-67.383
1628114238.378,-65.430,-17.090,-3.418,-41.504
1628114238.382,61.523,-88.379,0.000,2.441
1628114238.386,25.879,-64.941,-7.324,-18.555
1628114238.390,-137.207,-1.465,-31.738,-93.262
1628114238.394,-141.602,-3.418,-47.363,-88.867
1628114238.388,13.672,-11.230,-56.152,-23.438
1628114238.392,52.734,-44.922,-72.266,-6.348
1628114238.396,-78.613,-47.363,-59.082,-55.176
1628114238.400,-136.719,-28.320,-26.367,-79.590
1628114238.404,-9.277,-13.672,-20.996,-20.996
1628114238.408,85.938,-17.578,-21.973,21.973
1628114238.412,-20.508,-72.754,-11.230,-28.809
1628114238.415,-142.578,-52.734,-8.301,-88.867
1628114238.419,-53.711,-25.879,-20.996,-45.410
1628114238.423,82.031,-21.484,-38.086,20.020
1628114238.427,-0.977,-39.551,-46.387,-26.367
1628114238.431,-143.066,-69.336,-28.809,-88.867
1628114238.427,-85.449,-31.738,-36.133,-60.547
1628114238.431,60.547,-13.672,-65.918,2.930
1628114238.435,54.199,-27.344,-35.645,9.766
1628114238.439,-104.980,-39.551,-33.203,-64.453
1628114238.443,-127.441,-10.254,-50.293,-80.078
1628114238.447,46.875,1.465,-33.203,6.348
1628114238.451,96.680,-21.973,-22.461,34.180
1628114238.454,-55.176,-42.480,-30.273,-42.480
1628114238.458,-128.906,-74.219,-24.414,-72.266
1628114238.462,-11.230,-49.316,-19.531,-18.066
1628114238.466,74.707,-20.996,-52.246,11.719
1628114238.470,-39.062,-26.855,-56.641,-42.969
1628114238.482,-159.180,-39.062,-45.410,-99.609
1628114238.486,-74.707,-90.332,-43.457,-58.105
1628114238.490,99.609,-43.457,-14.160,39.062
1628114238.494,65.430,-1.953,1.953,35.156
1628114238.498,-106.934,-7.324,-17.090,-43.945
1628114238.502,-86.914,-6.348,-32.227,-39.062
1628114238.506,56.641,-52.734,-38.086,19.531
1628114238.509,53.223,-29.785,-39.062,18.555
1628114238.513,-95.703,-33.203,-26.855,-39.551
1628114238.517,-142.090,-68.359,-32.715,-68.359
1628114238.521,-2.441,-51.270,-36.133,-14.160
1628114238.525,69.824,-40.039,-26.367,19.531
1628114238.520,-53.711,-2.441,-44.922,-34.668
1628114238.524,-143.066,6.348,-43.945,-69.336
1628114238.528,-20.508,-5.371,-28.320,-12.207
1628114238.532,105.469,-11.719,-18.066,47.852
1628114238.536,-16.113,-28.320,-30.762,-4.883
1628114238.540,-155.762,-36.133,-53.223,-70.312
1628114238.544,-68.848,-23.438,-47.363,-27.344
1628114238.547,76.172,-7.324,-19.531,31.738
1628114238.551,14.160,-57.617,-21.484,-9.766
1628114238.555,-154.785,-64.941,-41.992,-87.891
1628114238.559,-134.277,-22.461,-42.969,-75.684
1628114238.563,62.012,-2.930,-6.836,26.855
1628114238.576,103.516,2.930,7.812,51.758
1628114238.580,-87.402,-75.195,-38.574,-47.852
1628114238.584,-150.391,-89.355,-52.246,-86.914
1628114238.588,17.578,-29.785,-33.691,1.465
1628114238.592,109.375,13.184,-26.367,54.688
1628114238.596,-47.363,-15.137,-30.762,-31.250
1628114238.600,-175.293,-96.680,-42.480,-102.051
1628114238.603,-53.711,-42.480,-33.203,-41.504
1628114238.607,106.445,15.625,-20.020,46.875
1628114238.611,42.480,7.812,-18.066,26.367
1628114238.615,-130.859,-25.879,-25.391,-67.871
1628114238.619,-103.516,-41.992,-33.203,-67.871
1628114238.635,58.594,-23.926,-14.160,3.906
1628114238.639,50.781,-13.184,-9.766,4.883
1628114238.643,-100.098,-11.719,-32.227,-59.082
1628114238.647,-119.141,-29.297,-49.316,-71.777
1628114238.651,40.527,-15.137,-59.570,-2.441
1628114238.655,87.402,-3.906,-36.621,27.344
1628114238.659,-72.266,-24.902,-17.578,-43.457
1628114238.662,-126.953,-16.113,-21.484,-70.801
1628114238.666,1.953,-57.129,-38.574,-14.160
1628114238.670,66.895,-79.590,-47.363,4.883
1628114238.674,-45.410,-20.996,-30.762,-48.828
1628114238.678,-140.625,8.301,-20.020,-83.496
1628114238.670,-42.480,0.977,-11.719,-34.668
1628114238.674,79.590,-14.648,-21.484,14.160
1628114238.678,6.836,-1.953,-47.852,-20.508
1628114238.682,-138.184,-17.090,-38.574,-82.520
1628114238.686,-90.332,-29.785,-26.367,-63.965
1628114238.690,75.684,-28.320,-28.320,10.254
1628114238.694,47.363,-95.703,-40.039,-1.465
1628114238.697,-127.930,-84.961,-54.199,-93.262
1628114238.701,-139.648,-19.531,-70.312,-103.027
1628114238.705,26.367,12.207,-62.500,-22.949
1628114238.709,78.613,-10.742,-29.785,6.348
1628114238.713,-66.406,-60.547,-8.789,-50.293
1628114238.710,-151.855,-35.645,-18.066,-95.703
1628114238.714,-38.086,-16.113,-24.414,-51.758
1628114238.718,65.918,-22.949,-25.879,2.930
1628114238.722,-17.090,-23.438,-26.367,-22.949
1628114238.726,-136.719,-34.668,-45.898,-83.496
1628114238.730,-72.266,-39.062,-59.082,-54.199
1628114238.734,79.590,-7.324,-50.781,23.926
1628114238.737,19.043,-10.742,-57.129,-14.648
1628114238.741,-147.949,-74.219,-38.574,-95.703
1628114238.745,-120.117,-56.152,-17.090,-74.707
1628114238.749,42.480,8.301,-26.855,8.789
1628114238.753,45.898,-9.277,-45.410,8.789
1628114238.763,-106.934,-28.320,-49.316,-61.035
1628114238.767,-140.137,-50.781,-36.133,-80.566
1628114238.771,-6.348,-35.645,-41.992,-32.715
1628114238.775,62.012,-36.133,-50.293,7.812
1628114238.779,-47.363,-37.598,-48.828,-27.344
1628114238.783,-142.090,-30.273,-46.875,-75.195
1628114238.787,-52.246,-67.871,-26.855,-40.527
1628114238.790,49.316,-24.902,-26.855,0.000
1628114238.794,-35.156,-3.418,-47.852,-46.875
1628114238.798,-156.250,-17.090,-56.641,-98.633
1628114238.802,-86.426,-31.738,-37.598,-58.105
1628114238.806,73.242,-50.293,-12.207,21.973
1628114238.824,51.758,-18.066,-14.648,11.230
1628114238.828,-93.750,-33.203,-71.777,-60.547
1628114238.832,-96.680,-54.199,-84.961,-65.430
1628114238.836,34.668,-72.754,-31.738,-4.883
1628114238.840,66.406,-35.156,4.395,15.625
1628114238.844,-71.777,16.113,-6.836,-48.828
1628114238.848,-109.375,18.555,-29.785,-63.477
1628114238.851,20.996,21.973,-37.598,-1.465
1628114238.855,89.844,-51.270,-28.320,29.785
1628114238.859,-41.992,-92.285,-36.621,-40.039
1628114238.863,-148.438,-63.477,-39.062,-94.238
1628114238.867,-42.969,-18.066,-26.855,-41.016
1628114238.858,86.914,14.648,-33.691,31.250
1628114238.862,11.230,-63.477,-35.156,1.953
1628114238.866,-119.141,-76.172,-21.484,-65.918
1628114238.870,-78.125,-27.344,-16.602,-57.617
1628114238.874,73.242,11.719,-3.418,16.602
1628114238.878,57.617,10.254,-14.160,9.277
1628114238.882,-137.695,-107.422,-48.340,-90.820
1628114238.885,-135.254,-102.051,-58.105,-85.449
1628114238.889,46.875,-41.992,-52.246,10.742
1628114238.893,62.012,-32.715,-40.527,20.020
1628114238.897,-86.914,-16.602,-30.273,-52.734
1628114238.901,-146.973,-17.578,-19.043,-85.938
1628114238.895,-19.531,-24.902,3.418,-20.508
1628114238.899,78.125,-25.391,-10.254,24.902
1628114238.903,-16.113,-10.742,-36.621,-16.602
1628114238.907,-107.910,-20.996,-21.973,-47.363
1628114238.911,-40.039,-22.461,-25.879,-30.273
1628114238.915,83.984,-35.156,-39.551,26.855
1628114238.919,46.387,-39.551,-62.012,16.602
1628114238.922,-103.516,-18.555,-46.875,-65.918
1628114238.926,-84.961,-91.797,-9.277,-59.570
1628114238.930,65.918,-87.402,-7.324,17.578
1628114238.934,66.406,-4.883,-7.324,25.879
1628114238.938,-70.801,11.719,-5.859,-33.203
1628114238.951,-88.867,-13.184,-10.254,-41.016
1628114238.955,36.133,-67.871,-42.969,13.672
1628114238.959,98.633,-32.227,-37.598,52.246
1628114238.963,-25.391,-16.113,-31.250,-0.977
1628114238.967,-119.629,-26.367,-33.203,-61.035
1628114238.971,-14.648,-21.973,-21.484,-29.785
1628114238.975,72.754,-79.590,-34.180,12.695
1628114238.978,-4.883,-35.156,-16.113,-15.625
1628114238.982,-106.445,-5.859,-15.625,-66.406
1628114238.986,-54.688,-10.254,-31.738,-46.875
1628114238.990,77.637,-23.438,-18.555,13.672
1628114238.994,44.434,-78.613,-1.465,1.465
1628114238.991,-96.680,-19.531,-7.812,-58.594
1628114238.995,-99.609,-5.371,-30.273,-65.430
1628114238.999,45.410,-35.645,-42.969,-0.977
1628114239.003,69.824,-19.531,-45.898,18.555
1628114239.007,-74.707,-16.602,-39.551,-42.480
1628114239.011,-126.953,-30.762,-30.273,-71.289
1628114239.015,-5.371,-5.371,-33.203,-24.414
1628114239.018,74.219,23.438,-20.508,15.137
1628114239.022,-53.223,-42.480,-14.648,-38.574
1628114239.026,-130.859,-46.387,-28.320,-69.336
1628114239.030,-7.812,-17.090,-18.066,-10.742
1628114239.034,97.656,-36.133,0.000,29.785
1628114239.047,-6.348,-47.852,-33.691,-26.855
1628114239.051,-152.344,-101.562,-73.242,-92.285
1628114239.055,-79.102,-47.363,-51.270,-53.223
1628114239.059,73.242,15.137,-17.090,5.371
1628114239.063,35.645,14.160,-13.672,-14.160
1628114239.067,-111.816,-6.836,-27.832,-75.195
1628114239.071,-100.586,-76.172,-24.414,-65.918
1628114239.074,57.617,-26.367,-9.766,9.277
1628114239.078,70.312,6.348,-37.598,13.672
1628114239.082,-86.914,-31.738,-63.965,-57.617
1628114239.086,-137.207,-36.133,-40.527,-88.379
1628114239.090,-3.906,-14.648,-18.066,-24.414
1628114239.087,76.172,0.488,-26.855,17.578
1628114239.091,-24.902,-12.695,-21.484,-22.949
1628114239.095,-125.977,-37.598,-24.414,-65.918
1628114239.099,-48.340,-55.664,-33.203,-30.273
1628114239.103,72.266,-25.879,-19.531,27.832
1628114239.107,9.766,-9.766,-29.785,2.930
1628114239.111,-118.652,-18.555,-33.691,-55.176
1628114239.114,-94.238,-15.137,-42.969,-59.082
1628114239.118,23.438,-60.059,-51.758,-14.648
1628114239.122,16.113,-39.551,-31.250,-13.184
1628114239.126,-127.441,-9.766,-20.508,-75.195
1628114239.130,-135.742,-25.879,-20.020,-84.961
1628114239.216,11.719,-31.250,-19.531,-18.066
1628114239.220,43.945,-84.473,-33.203,7.324
1628114239.224,-65.918,-49.805,-38.086,-20.996
1628114239.228,-108.887,-21.973,-41.016,-41.992
1628114239.232,-7.812,-46.875,-39.062,-21.973
1628114239.236,69.824,-30.762,-29.297,8.789
1628114239.240,-64.453,-63.965,-17.578,-52.246
1628114239.243,-166.016,-42.480,-37.598,-100.098
1628114239.247,-49.805,-17.578,-80.566,-43.457
1628114239.251,72.266,-20.508,-52.246,4.395
1628114239.255,-10.254,-17.578,-2.441,-36.133
1628114239.259,-171.387,-44.922,14.160,-101.562
1628114239.217,-102.051,-58.594,17.090,-55.664
1628114239.221,68.848,-49.316,2.930,34.668
1628114239.225,35.156,-12.695,-28.320,18.066
1628114239.229,-132.812,-32.227,-36.621,-66.406
1628114239.233,-162.598,-60.547,-45.410,-91.309
1628114239.237,-0.488,-48.828,-33.203,-26.855
1628114239.241,63.965,-38.574,-12.207,3.906
1628114239.244,-91.797,-38.574,-42.969,-64.453
1628114239.248,-167.480,-92.773,-35.156,-97.656
1628114239.252,-24.414,-83.496,1.465,-28.809
1628114239.256,80.078,-52.734,-10.742,16.602
1628114239.260,-19.531,-52.734,-19.531,-19.531
1628114239.308,-125.000,-30.762,-4.395,-48.828
1628114239.312,-62.012,-72.266,-15.137,-27.344
1628114239.316,60.059,-66.895,-38.086,15.137
1628114239.320,3.418,-29.297,-37.598,-9.766
1628114239.324,-166.992,-24.902,-26.367,-91.797
1628114239.328,-122.559,-12.695,-19.043,-72.754
1628114239.332,61.035,-32.715,-21.484,19.531
1628114239.335,41.504,-55.176,-30.273,15.625
1628114239.339,-128.418,-62.988,-47.363,-61.035
1628114239.343,-138.184,-37.109,-38.574,-66.406
1628114239.347,17.090,-45.410,-19.043,-0.488
1628114239.351,60.059,-81.543,-12.695,9.277
1628114239.315,-71.777,-35.645,-6.348,-46.387
1628114239.319,-147.461,-20.508,-17.578,-74.219
1628114239.323,-32.227,-28.320,-30.273,-27.832
1628114239.327,63.965,-25.391,-46.387,8.789
1628114239.331,-37.598,-25.391,-52.246,-43.457
1628114239.335,-161.133,-36.133,-44.434,-100.098
1628114239.339,-70.801,-41.504,-12.695,-48.340
1628114239.342,73.730,-25.879,-2.930,21.484
1628114239.346,12.695,-71.777,-41.016,-13.184
1628114239.350,-122.070,-85.938,-60.059,-65.918
1628114239.354,-108.887,-47.852,-39.551,-60.547
1628114239.358,42.480,-9.277,-10.254,13.184
1628114239.346,85.938,-5.371,-2.930,41.504
1628114239.350,-77.148,-75.195,-18.555,-29.785
1628114239.354,-150.879,-53.711,-20.996,-65.430
1628114239.358,-21.973,-18.066,-33.691,-20.020
1628114239.362,55.664,-28.320,-44.922,12.207
1628114239.366,-52.734,-41.016,-20.996,-30.762
1628114239.370,-145.996,-105.957,-27.344,-73.242
1628114239.373,-68.359,-75.684,-43.457,-46.387
1628114239.377,45.410,-18.066,-30.762,2.441
1628114239.381,-15.625,-27.832,-24.414,-25.391
1628114239.385,-133.789,-46.387,-20.020,-81.543
1628114239.389,-98.633,-41.992,-35.156,-66.895
1628114239.385,50.293,0.977,-26.367,9.277
1628114239.389,59.082,20.996,-11.230,28.320
1628114239.393,-95.215,-5.371,-33.203,-48.340
1628114239.397,-103.027,-58.105,-37.598,-61.035
1628114239.401,33.691,-54.199,-43.457,-1.953
1628114239.405,60.547,-13.672,-50.293,1.465
1628114239.409,-52.246,-8.301,-27.832,-37.109
1628114239.412,-104.492,-15.625,-18.066,-55.176
1628114239.416,4.883,-15.137,-6.348,-9.277
1628114239.420,89.355,-5.371,5.371,34.180
1628114239.424,-11.230,-7.324,-9.766,-9.277
1628114239.428,-132.324,-23.926,-33.203,-66.406
1628114239.437,-61.035,-23.926,-32.227,-34.668
1628114239.441,61.523,-19.043,-30.762,19.043
1628114239.445,12.207,-28.809,-36.621,-3.418
1628114239.449,-113.770,-41.016,-33.203,-63.477
1628114239.453,-82.520,-33.203,-22.461,-56.152
1628114239.457,66.406,-28.320,-18.066,15.625
1628114239.461,67.871,-44.922,-40.527,18.555
1628114239.464,-77.148,-35.645,-44.434,-47.363
1628114239.468,-107.422,-30.273,-49.805,-73.242
1628114239.472,15.625,-28.320,-35.156,-24.902
1628114239.476,77.148,-25.879,-14.160,13.184
1628114239.480,-34.180,-44.922,-30.762,-41.992
1628114239.465,-131.836,-37.598,-48.828,-95.703
1628114239.469,-36.133,-28.809,-47.852,-48.340
1628114239.473,70.801,-22.949,-34.180,3.906
1628114239.477,-16.602,-19.531,-24.902,-28.809
1628114239.481,-105.957,-9.277,-11.230,-56.152
1628114239.485,-48.340,-10.254,-8.301,-33.691
1628114239.489,46.387,-31.738,-36.133,-3.906
1628114239.492,15.625,-27.832,-38.086,-12.207
1628114239.496,-103.516,-60.547,-39.062,-61.523
1628114239.500,-93.750,-59.082,-48.340,-61.523
1628114239.504,53.223,-27.344,-20.996,6.836
1628114239.508,66.406,-33.691,-3.418,14.160
1628114239.526,-85.449,-46.875,-17.090,-56.152
1628114239.530,-136.719,-114.258,-42.480,-84.473
1628114239.534,-3.418,-77.148,-35.645,-19.043
1628114239.538,71.777,-2.441,-35.645,25.391
1628114239.542,-50.781,-20.996,-70.312,-34.668
1628114239.546,-137.207,-52.246,-64.941,-78.613
1628114239.550,-17.090,-65.918,-20.508,-19.531
1628114239.553,95.215,-29.297,2.930,24.902
1628114239.557,5.859,-18.555,-6.348,-13.672
1628114239.561,-120.605,-26.367,-14.160,-62.012
1628114239.565,-72.754,-21.484,-26.367,-42.969
1628114239.569,71.289,-19.043,-42.969,22.949
1628114239.554,43.945,-28.809,-45.410,6.348
1628114239.558,-93.262,-25.391,-30.273,-51.758
1628114239.562,-76.660,-16.602,-26.855,-40.527
1628114239.566,39.551,-55.176,-34.668,4.883
1628114239.570,52.246,-38.086,-39.551,12.695
1628114239.574,-69.336,16.602,-25.879,-40.527
1628114239.578,-118.164,0.977,-11.230,-75.195
1628114239.581,6.836,-20.996,-4.395,-15.137
1628114239.585,88.867,-62.988,4.395,36.621
1628114239.589,-32.227,-50.293,-20.996,-15.625
1628114239.593,-134.277,-20.020,-55.176,-61.523
1628114239.597,-38.574,-26.367,-37.109,-19.531
1628114239.630,67.383,-37.109,-40.039,15.137
1628114239.634,9.766,-48.828,-33.203,-16.113
1628114239.638,-117.188,-30.762,-6.348,-73.242
1628114239.642,-94.238,-39.551,-4.883,-67.383
1628114239.646,47.363,-18.066,0.977,-1.465
1628114239.650,46.387,-1.465,-1.953,-0.488
1628114239.654,-106.934,-62.012,-27.832,-71.289
1628114239.657,-109.375,-29.297,-26.367,-66.895
1628114239.661,29.785,0.488,-43.945,-2.441
1628114239.665,58.105,-28.809,-80.566,12.695
1628114239.669,-81.055,-43.457,-95.215,-53.711
1628114239.673,-143.555,-55.176,-39.062,-83.984
1628114239.650,-31.250,-49.805,1.953,-38.574
1628114239.654,48.340,-46.875,-6.836,-4.883
1628114239.658,-44.434,-52.734,-7.812,-38.086
1628114239.662,-162.598,-51.270,-47.852,-94.238
1628114239.666,-107.422,-35.645,-75.684,-75.195
1628114239.670,49.316,12.695,-27.832,9.277
1628114239.674,29.297,18.066,-10.254,7.324
1628114239.677,-112.793,-12.695,-31.250,-54.688
1628114239.681,-88.867,-83.008,-36.133,-40.527
1628114239.685,32.227,-94.238,-52.246,-4.883
1628114239.689,30.762,-56.641,-48.340,-16.113
1628114239.693,-94.727,-51.270,-11.719,-68.848
1628114239.702,-109.863,-44.434,-20.508,-77.637
1628114239.706,10.254,-121.094,-56.641,-28.320
1628114239.710,55.176,-84.473,-44.434,-4.883
1628114239.714,-58.594,-18.066,-18.066,-48.340
1628114239.718,-130.371,-7.812,-0.977,-75.684
1628114239.722,-25.879,1.953,-20.508,-25.391
1628114239.726,74.707,-70.312,-49.805,24.902
1628114239.729,-12.695,-76.172,-44.434,-15.625
1628114239.733,-122.559,-34.668,-41.992,-65.918
1628114239.737,-54.688,-4.883,-32.715,-37.598
1628114239.741,67.871,-23.926,-20.508,21.484
1628114239.745,32.227,-82.520,-19.531,14.648
1628114239.739,-106.445,-51.270,-34.668,-55.176
1628114239.743,-77.637,-1.465,-19.043,-47.363
1628114239.747,84.473,11.230,6.348,36.621
1628114239.751,78.613,-1.953,-26.855,32.227
1628114239.755,-85.449,-16.602,-56.152,-43.945
1628114239.759,-127.930,-23.926,-54.688,-70.312
1628114239.763,15.137,-20.996,-28.320,-8.301
1628114239.766,91.797,-13.672,-6.836,34.180
1628114239.770,-47.852,-103.516,-29.297,-31.250
1628114239.774,-147.461,-106.445,-66.406,-76.660
1628114239.778,-31.250,-46.875,-50.293,-14.648
1628114239.782,92.285,-28.320,-11.719,44.434
1628114239.795,0.488,-10.742,-25.879,-9.277
1628114239.799,-150.391,-80.566,-30.762,-83.496
1628114239.803,-100.586,-55.664,-18.066,-64.453
1628114239.807,46.387,-4.883,-17.090,-9.766
1628114239.811,19.531,-6.836,-39.551,-14.160
1628114239.815,-104.980,-20.996,-58.105,-54.688
1628114239.819,-100.098,-78.613,-36.621,-47.852
1628114239.822,32.715,-40.039,0.488,4.395
1628114239.826,50.293,-30.762,-6.836,8.301
1628114239.830,-83.984,-37.598,-35.645,-44.434
1628114239.834,-106.445,-4.395,-30.273,-46.875
1628114239.838,4.395,-19.531,-24.902,-4.883
1628114239.851,54.199,-22.461,-32.227,8.789
1628114239.855,-47.363,-25.879,-40.527,-42.480
1628114239.859,-135.742,-35.645,-25.879,-79.590
1628114239.863,-51.270,-49.805,-7.324,-36.621
1628114239.867,47.852,-47.363,-42.969,4.883
1628114239.871,-2.441,-13.672,-62.500,-12.207
1628114239.875,-91.309,-5.371,-24.902,-40.039
1628114239.878,-64.453,-14.648,-8.301,-37.598
1628114239.882,17.090,-86.914,-41.504,-17.090
1628114239.886,0.488,-89.355,-59.570,-28.320
1628114239.890,-107.422,-31.738,-40.039,-74.219
1628114239.894,-101.074,-19.043,-18.066,-65.430
1628114239.888,26.367,-40.039,-24.902,-4.395
1628114239.892,62.012,-72.266,-40.527,9.766
1628114239.896,-51.270,-23.438,-11.719,-41.504
1628114239.900,-111.328,5.859,-6.348,-69.336
1628114239.904,-7.812,5.859,-13.184,-22.949
1628114239.908,79.590,-5.371,-20.020,18.066
1628114239.912,-14.160,-35.156,-42.969,-28.320
1628114239.915,-124.023,-16.113,-49.805,-77.637
1628114239.919,-58.105,-3.418,-31.250,-45.898
1628114239.923,66.406,7.812,-39.551,6.348
1628114239.927,12.695,-39.062,-58.594,-12.207
1628114239.931,-121.582,-120.605,-46.387,-64.941
1628114239.926,-81.055,-64.941,-36.133,-53.223
1628114239.930,58.594,-17.578,-27.832,13.672
1628114239.934,44.922,-22.949,-23.438,10.742
1628114239.938,-90.332,-38.086,-16.113,-51.758
1628114239.942,-91.797,-7.812,-23.438,-41.504
1628114239.946,42.480,4.395,-47.852,15.137
1628114239.950,84.473,-32.715,-41.504,23.926
1628114239.953,-36.621,-22.949,-35.645,-28.809
1628114239.957,-125.488,-19.043,-31.250,-73.730
1628114239.961,-39.062,-16.113,-16.602,-38.086
1628114239.965,51.758,-12.695,-46.875,-7.324
1628114239.969,-39.062,-32.715,-63.965,-56.641
1628114239.982,-137.695,-32.227,-32.227,-87.891
1628114239.986,-62.500,-76.172,-28.320,-44.434
1628114239.990,74.707,-49.316,-28.809,18.555
1628114239.994,48.828,-4.395,-15.625,13.184
1628114239.998,-93.750,-18.555,-30.762,-54.199
1628114240.002,-71.289,-39.551,-46.387,-41.992
1628114240.006,54.199,-81.055,-41.016,14.648
1628114240.009,36.133,-15.625,-30.273,-7.324
1628114240.013,-102.539,2.930,-13.672,-74.219
1628114240.017,-139.160,-36.621,-19.043,-90.332
1628114240.021,-28.320,-63.965,-44.922,-45.898
1628114240.025,32.715,-83.984,-45.410,-10.254
1628114240.020,-50.293,-16.602,-23.926,-33.203
1628114240.024,-119.141,14.160,-27.344,-63.965
1628114240.028,-13.672,-0.977,-17.090,-9.766
1628114240.032,93.750,-4.883,-10.254,46.875
1628114240.036,-17.090,-24.902,-38.574,-11.719
1628114240.040,-153.320,-35.645,-39.551,-80.566
1628114240.044,-79.590,-13.184,-36.621,-52.246
1628114240.047,60.547,-6.348,-25.391,12.207
1628114240.051,22.949,-50.781,-34.180,5.371
1628114240.055,-112.793,-58.105,-45.410,-55.664
1628114240.059,-90.332,-25.391,2.441,-51.270
1628114240.063,70.801,-1.953,20.508,22.949
1628114240.076,95.703,-12.695,-10.254,39.062
1628114240.080,-69.824,-84.961,-38.086,-31.738
1628114240.084,-128.906,-49.316,-33.691,-62.988
1628114240.088,5.859,-27.832,-2.441,-10.254
1628114240.092,72.266,-19.531,-7.812,20.508
1628114240.096,-54.199,-0.977,-30.273,-39.062
1628114240.100,-156.250,-61.523,-29.297,-85.938
1628114240.103,-59.570,-21.484,-20.020,-41.992
1628114240.107,99.609,17.090,-8.789,33.691
1628114240.111,33.691,-11.719,-25.879,9.277
1628114240.115,-121.094,-33.203,-45.410,-66.406
1628114240.119,-65.918,-41.992,-41.016,-51.270
1628114240.113,71.777,-39.551,-42.969,6.348
1628114240.117,36.133,-33.691,-38.574,-11.719
1628114240.121,-102.539,-9.766,-41.992,-84.961
1628114240.125,-114.258,-14.648,-53.223,-94.238
1628114240.129,15.137,-8.301,-39.551,-23.438
1628114240.133,74.219,12.695,-20.020,14.648
1628114240.137,-28.320,-1.953,1.465,-31.738
1628114240.140,-86.426,-6.836,2.930,-54.688
1628114240.144,6.348,-45.410,-17.090,-18.066
1628114240.148,63.477,-62.988,-43.945,-2.930
1628114240.152,-52.734,-32.715,-50.781,-55.176
1628114240.156,-151.367,-16.602,-37.598,-99.121
1628114240.170,-72.754,-21.484,-35.156,-69.336
1628114240.174,46.387,-60.059,-49.805,-19.531
1628114240.178,-1.465,-45.898,-57.129,-44.434
1628114240.182,-120.605,-18.066,-28.320,-88.867
1628114240.186,-75.195,-17.578,-1.953,-60.059
1628114240.190,76.660,-25.391,9.277,4.395
1628114240.194,50.293,-38.086,-8.789,-11.719
1628114240.197,-117.676,-28.809,-42.969,-92.285
1628114240.201,-137.695,-28.809,-56.641,-102.051
1628114240.205,-0.488,-20.996,-57.129,-40.527
1628114240.209,56.152,-14.648,-40.527,-10.742
1628114240.213,-72.754,-20.020,-12.207,-57.617
1628114240.209,-133.301,-22.949,-15.625,-77.148
1628114240.213,-23.438,-37.598,-36.621,-34.668
1628114240.217,57.617,-41.992,-45.898,2.441
1628114240.221,-20.508,-43.457,-19.043,-12.695
1628114240.225,-136.230,-47.852,4.395,-66.406
1628114240.229,-73.242,-32.715,-10.742,-43.945
1628114240.233,69.336,-35.156,-31.250,29.785
1628114240.236,17.090,-31.738,-48.340,18.555
1628114240.240,-148.438,-54.199,-45.410,-63.477
1628114240.244,-130.859,-50.781,-34.180,-71.777
1628114240.248,29.785,-10.742,-39.551,-3.418
1628114240.252,50.293,-9.766,-33.691,6.348
1628114240.264,-93.750,-33.691,-33.691,-54.199
1628114240.268,-123.535,-74.219,-50.781,-59.570
1628114240.272,26.367,-53.711,-47.363,7.324
1628114240.276,76.660,-39.062,-33.691,20.020
1628114240.280,-56.152,-35.645,-18.066,-45.410
1628114240.284,-144.531,-16.113,-18.555,-86.426
1628114240.288,-51.758,-49.316,-32.715,-46.875
1628114240.291,58.105,-38.574,-41.504,7.324
1628114240.295,-14.160,-4.883,-40.527,-28.320
1628114240.299,-125.000,8.301,-41.016,-81.543
1628114240.303,-62.500,-20.508,-33.203,-45.410
1628114240.307,79.590,-38.086,-17.090,22.949
1628114240.302,48.340,-29.297,-13.672,16.602
1628114240.306,-119.629,-46.387,-28.809,-65.430
1628114240.310,-132.324,-52.734,-49.316,-79.590
1628114240.314,27.832,-39.062,-42.480,-1.465
1628114240.318,69.824,-27.832,-18.555,21.973
1628114240.322,-91.797,-34.180,-26.855,-57.129
1628114240.326,-143.555,-5.371,-40.039,-80.078
1628114240.329,-5.371,18.555,-34.180,-17.578
1628114240.333,87.402,-2.930,-5.371,24.902
1628114240.337,-10.742,-5.859,-2.441,-15.137
1628114240.341,-138.184,-7.812,-27.344,-84.961
1628114240.345,-62.012,-31.250,-30.273,-61.523
1628114240.358,70.312,-33.203,-33.691,-5.371
1628114240.362,8.301,-77.148,-41.992,-20.508
1628114240.366,-124.512,-56.152,-34.668,-75.195
1628114240.370,-89.844,-14.160,-35.156,-72.266
1628114240.374,67.383,-24.414,-7.812,5.371
1628114240.378,50.781,-23.438,-14.648,5.371
1628114240.382,-117.188,-28.809,-45.410,-79.102
1628114240.385,-117.676,-10.742,-23.926,-73.730
1628114240.389,43.457,1.465,-6.836,8.789
1628114240.393,78.125,-7.812,-17.578,21.484
1628114240.397,-66.406,-15.137,-31.250,-42.969
1628114240.401,-132.812,-50.293,-36.621,-72.266
1628114240.395,3.418,-49.316,-51.270,-3.418
1628114240.399,111.328,-22.949,-44.434,50.293
1628114240.403,-22.949,-32.715,-14.648,-21.973
1628114240.407,-166.504,-40.039,-8.301,-97.168
1628114240.411,-62.500,-13.184,-11.230,-47.363
1628114240.415,95.215,-4.395,-13.672,36.133
1628114240.419,32.715,-30.762,-28.320,4.395
1628114240.422,-119.141,-28.809,-29.785,-77.148
1628114240.426,-77.637,-71.777,-6.836,-55.176
1628114240.430,65.430,-87.402,-26.855,3.906
1628114240.434,27.832,-48.340,-73.242,-18.066
1628114240.438,-116.699,-23.438,-52.246,-65.430
1628114240.452,-119.629,-8.301,-20.020,-63.965
1628114240.456,-1.465,-77.637,-41.992,-34.180
1628114240.460,54.688,-44.922,-16.113,-7.812
1628114240.464,-83.008,-4.883,-7.324,-66.406
1628114240.468,-159.180,-19.043,-23.438,-101.074
1628114240.472,-10.254,-10.254,-36.133,-29.785
1628114240.476,78.125,-67.871,-49.316,7.324
1628114240.479,-40.527,-57.129,-40.527,-46.875
1628114240.483,-159.180,-41.016,-59.082,-103.516
1628114240.487,-71.289,-39.062,-78.125,-65.430
1628114240.491,83.984,-36.621,-47.852,10.742
1628114240.495,22.949,-45.898,-15.625,-13.184
1628114240.491,-128.906,12.207,-4.395,-80.078
1628114240.495,-101.074,12.695,-18.555,-70.312
1628114240.499,42.969,-10.742,-23.438,-11.719
1628114240.503,35.156,-20.508,-25.879,-17.578
1628114240.507,-124.023,-17.090,-35.156,-86.914
1628114240.511,-147.949,-10.742,-38.086,-97.656
1628114240.515,9.766,-22.461,-46.875,-32.715
1628114240.518,76.172,-26.855,-59.082,0.488
1628114240.522,-65.430,-60.059,-90.332,-56.152
1628114240.526,-133.301,-39.551,-49.805,-73.730
1628114240.530,-11.230,-21.973,8.301,-17.090
1628114240.534,89.844,-33.203,9.277,17.090
1628114240.568,-23.438,-26.367,-14.160,-31.738
1628114240.572,-158.691,-39.062,-22.461,-88.379
1628114240.576,-65.430,-12.207,-20.996,-48.828
1628114240.580,73.242,-30.762,-30.273,7.324
1628114240.584,18.555,-52.246,-30.273,-12.207
1628114240.588,-132.324,-45.410,-34.180,-74.219
1628114240.592,-109.375,-40.527,-53.711,-65.918
1628114240.595,55.176,4.883,-54.199,10.254
1628114240.599,66.406,-13.184,-45.410,21.973
1628114240.603,-99.609,-35.645,-24.414,-58.594
1628114240.607,-147.949,-34.668,-8.301,-91.797
1628114240.611,1.953,-39.551,-18.066,-26.367
1628114240.601,77.637,-19.531,-16.602,12.695
1628114240.605,-55.664,-17.578,-21.484,-43.945
1628114240.609,-145.020,-19.043,-23.926,-79.590
1628114240.613,-47.363,-51.270,-26.855,-38.574
1628114240.617,65.918,-57.617,-30.762,6.836
1628114240.621,-6.348,-18.066,-30.762,-23.438
1628114240.625,-145.020,-17.090,-57.129,-82.520
1628114240.628,-89.355,-8.789,-48.340,-55.664
1628114240.632,44.922,-30.762,-29.297,1.465
1628114240.636,18.066,-45.410,-27.344,-5.859
1628114240.640,-115.723,-41.504,-29.785,-63.477
1628114240.644,-109.863,-36.621,-25.879,-62.012
1628114240.650,33.691,-41.016,-11.719,3.418
1628114240.654,71.777,-103.516,-12.695,20.020
1628114240.658,-67.383,-49.316,-30.762,-40.039
1628114240.662,-145.020,17.090,-47.852,-82.031
1628114240.666,-13.672,1.953,-36.133,-25.391
1628114240.670,74.707,-25.391,-40.039,17.090
1628114240.674,-48.340,-60.059,-46.875,-44.434
1628114240.677,-147.461,-25.879,-43.945,-85.449
1628114240.681,-56.152,-17.090,-55.176,-35.156
1628114240.685,72.754,-37.109,-38.086,17.578
1628114240.689,10.742,-37.109,-20.996,-15.625
1628114240.693,-136.230,-72.754,-37.109,-78.613
1628114240.680,-107.910,-60.547,-44.922,-71.289
1628114240.684,34.180,-24.902,-31.250,-13.184
1628114240.688,42.480,-10.742,-12.695,1.465
1628114240.692,-98.145,-20.020,-6.348,-57.129
1628114240.696,-131.836,-25.391,-28.809,-76.660
1628114240.700,5.371,-16.113,-36.621,-13.672
1628114240.704,63.477,-16.602,-31.250,11.719
1628114240.707,-61.523,-15.625,-41.504,-45.410
1628114240.711,-153.320,-65.430,-52.734,-86.426
1628114240.715,-50.293,-79.590,-52.734,-47.852
1628114240.719,83.496,-11.719,-21.484,18.066
1628114240.723,14.160,2.930,-13.672,2.441
1628114240.732,-114.258,-42.969,-23.926,-54.688
1628114240.736,-57.129,-68.848,-23.926,-33.691
1628114240.740,73.242,-38.574,-29.785,20.996
1628114240.744,34.668,-6.836,-52.734,2.930
1628114240.748,-112.305,-35.645,-48.340,-59.082
1628114240.752,-105.957,-52.734,-38.086,-63.477
1628114240.756,42.480,-55.664,-35.645,0.000
1628114240.759,53.711,-28.809,-31.738,9.277
1628114240.763,-81.543,-15.625,-37.598,-42.969
1628114240.767,-103.027,-21.484,-28.320,-46.875
1628114240.771,21.484,-38.086,-19.043,3.418
1628114240.775,74.707,-62.988,-29.297,23.438
1628114240.788,-31.250,-25.391,-27.832,-29.785
1628114240.792,-124.512,-21.973,-23.438,-78.613
1628114240.796,-38.574,-29.297,-25.391,-35.156
1628114240.800,76.660,-21.973,-58.105,15.625
1628114240.804,-7.812,-25.391,-65.918,-28.320
1628114240.808,-125.977,-13.184,-33.203,-83.496
1628114240.812,-63.965,-9.277,-29.297,-58.105
1628114240.815,81.543,-20.996,-21.973,15.625
1628114240.819,50.293,-70.801,-28.320,8.301
1628114240.823,-101.562,-71.777,-30.273,-65.430
1628114240.827,-95.703,-15.137,-17.578,-64.453
1628114240.831,37.109,6.836,-41.504,-1.465
1628114240.826,66.406,0.977,-49.316,15.137
1628114240.830,-70.312,-28.320,-28.809,-50.293
1628114240.834,-131.836,-37.109,-34.668,-87.402
1628114240.838,-18.066,-38.574,-38.086,-50.781
1628114240.842,60.059,-24.414,-34.180,-13.184
1628114240.846,-24.414,-25.391,-25.391,-35.156
1628114240.850,-124.512,-70.801,-16.602,-83.496
1628114240.853,-46.875,-48.828,-23.926,-56.641
1628114240.857,88.379,-8.301,-27.344,16.113
1628114240.861,46.387,2.441,-23.926,13.672
1628114240.865,-110.352,-17.090,-42.480,-61.523
1628114240.869,-106.934,-53.711,-65.430,-77.637
1628114240.863,46.387,-27.344,-55.664,-10.742
1628114240.867,36.133,-26.855,-40.527,-8.789
1628114240.871,-114.746,-37.109,-37.109,-75.684
1628114240.875,-130.859,-24.902,-30.273,-87.891
1628114240.879,11.230,-15.137,-18.066,-25.879
1628114240.883,71.777,-7.812,-9.766,18.066
1628114240.887,-49.316,-16.602,-16.113,-22.949
1628114240.890,-104.004,-27.832,-14.160,-45.898
1628114240.894,7.324,-47.852,-9.766,5.859
1628114240.898,77.148,-46.875,-24.902,27.344
1628114240.902,-30.273,-15.625,-41.016,-31.738
1628114240.906,-142.090,-25.391,-59.570,-83.984
1628114240.920,-69.336,-30.762,-43.945,-59.082
1628114240.924,53.223,-32.227,-35.156,-6.348
1628114240.928,14.648,-31.738,-32.227,-19.043
1628114240.932,-120.605,-24.414,-20.508,-79.590
1628114240.936,-102.539,-32.715,-13.672,-73.242
1628114240.940,42.480,-31.738,-10.742,-7.324
1628114240.944,58.105,-47.852,-14.160,6.836
1628114240.947,-73.242,-45.898,-19.043,-46.875
1628114240.951,-88.867,-27.344,-18.555,-47.363
1628114240.955,38.086,-21.973,-30.762,6.836
1628114240.959,77.148,-30.762,-41.016,20.996
1628114240.963,-62.012,-45.898,-41.016,-43.457
1628114240.976,-146.484,-47.852,-39.062,-88.867
1628114240.980,-39.062,-22.461,-19.043,-39.551
1628114240.984,58.594,-2.441,-9.277,3.906
1628114240.988,-33.203,-25.879,-18.555,-41.504
1628114240.992,-139.160,-30.762,-28.320,-84.961
1628114240.996,-71.289,-34.180,-28.809,-53.223
1628114241.000,66.406,-24.414,-25.879,4.395
1628114241.003,28.320,-30.762,-55.176,-12.695
1628114241.007,-119.141,-78.125,-89.844,-80.078
1628114241.011,-83.496,-47.852,-57.617,-56.152
1628114241.015,57.617,-11.230,-21.973,10.254
1628114241.019,53.711,-16.113,-22.949,0.488
1628114241.014,-86.914,-24.902,-24.414,-56.641
1628114241.018,-140.625,-64.941,-22.461,-80.566
1628114241.022,-11.230,-47.363,-16.113,-28.809
1628114241.026,46.875,-34.180,-33.203,-6.836
1628114241.030,-74.707,-47.852,-42.969,-55.176
1628114241.034,-142.090,-39.062,-50.781,-67.871
1628114241.038,-53.223,-57.617,-77.637,-34.180
1628114241.041,62.988,-44.922,-63.965,8.301
1628114241.045,20.508,-6.836,-27.344,10.254
1628114241.049,-126.465,-13.184,-11.719,-59.570
1628114241.053,-104.492,-36.621,5.859,-64.453
1628114241.057,31.250,-60.547,-8.301,-5.371
1628114241.071,27.344,-50.293,-26.367,1.465
1628114241.075,-105.469,-39.062,-20.020,-51.758
1628114241.079,-114.258,-10.742,-26.855,-58.105
1628114241.083,31.738,-4.395,-31.250,2.441
1628114241.087,62.500,-29.785,-34.668,16.602
1628114241.091,-65.430,-24.414,-50.293,-33.691
1628114241.095,-99.121,-18.555,-37.598,-44.922
1628114241.098,20.508,-17.090,-3.418,4.395
1628114241.102,70.801,-55.176,-13.672,13.672
1628114241.106,-54.199,-63.965,-28.809,-36.133
1628114241.110,-153.809,-31.250,-24.414,-78.613
1628114241.114,-57.617,-21.484,-15.625,-46.387
1628114241.109,79.102,-10.254,-13.184,16.113
1628114241.113,14.160,-32.227,-24.414,-6.348
1628114241.117,-140.137,-44.434,-35.645,-76.172
1628114241.121,-104.492,-43.945,-41.504,-62.988
1628114241.125,52.734,-42.969,-44.434,5.859
1628114241.129,36.621,-35.156,-62.012,-1.465
1628114241.133,-122.070,-32.715,-62.500,-76.172
1628114241.136,-101.562,-19.531,-10.254,-65.918
1628114241.140,52.734,-18.555,4.395,10.254
1628114241.144,64.941,-9.766,-18.066,15.137
1628114241.148,-86.426,-29.297,-38.574,-57.617
1628114241.152,-158.691,-89.355,-49.805,-92.773
1628114241.145,-23.438,-41.992,-40.039,-30.762
1628114241.149,90.332,-7.812,-18.066,24.414
1628114241.153,-29.785,-38.086,-23.438,-32.227
1628114241.157,-156.738,-44.922,-45.898,-99.121
1628114241.161,-80.566,-23.926,-66.895,-67.871
1628114241.165,54.199,-15.625,-46.387,-6.836
1628114241.169,5.371,-29.297,-14.160,-25.879
1628114241.172,-121.582,-12.207,-9.277,-71.289
1628114241.176,-94.238,-46.875,-24.902,-62.012
1628114241.180,26.855,-72.266,-44.922,-19.043
1628114241.184,40.527,-17.578,-26.855,-12.695
1628114241.188,-84.473,-8.789,-4.395,-59.082
1628114241.201,-141.113,-48.828,-23.438,-87.402
1628114241.205,-14.648,-64.453,-32.715,-32.227
1628114241.209,61.035,-16.113,-28.809,8.789
1628114241.213,-60.547,-5.859,-46.387,-44.922
1628114241.217,-139.648,-20.020,-46.875,-81.543
1628114241.221,-12.695,-31.738,-7.324,-24.414
1628114241.225,79.590,-100.098,-14.648,16.113
1628114241.228,-48.340,-77.637,-56.641,-52.734
1628114241.232,-159.668,-42.480,-37.109,-97.656
1628114241.236,-90.820,-22.461,-17.090,-69.824
1628114241.240,33.203,-14.648,-21.973,-20.996
1628114241.244,5.859,-53.711,-29.785,-20.996
1628114241.242,-114.258,-24.902,-33.691,-63.477
1628114241.246,-93.750,-18.066,-37.598,-54.199
1628114241.250,55.664,-14.648,-27.832,10.742
1628114241.254,67.871,-17.090,-19.531,23.926
1628114241.258,-82.031,-18.066,-30.762,-42.480
1628114241.262,-119.141,-6.836,-49.316,-65.430
1628114241.266,12.695,-9.766,-37.109,-6.348
1628114241.269,79.102,-18.555,-20.508,22.949
1628114241.273,-64.453,-90.820,-39.551,-46.875
1628114241.277,-161.621,-88.867,-41.992,-89.355
1628114241.281,-47.852,-28.809,-21.973,-34.668
1628114241.285,75.684,-9.766,-32.715,13.184
1628114241.296,17.090,-13.672,-43.945,0.488
1628114241.300,-112.305,-85.449,-26.367,-53.223
1628114241.304,-75.684,-44.434,-21.484,-43.457
1628114241.308,59.082,-20.020,-30.273,19.043
1628114241.312,37.598,-14.160,-39.062,2.930
1628114241.316,-87.891,-4.395,-28.320,-46.387
1628114241.320,-114.746,-117.188,-29.785,-58.594
1628114241.323,10.254,-67.871,-36.621,-13.184
1628114241.327,58.594,-7.324,-31.250,8.789
1628114241.331,-81.055,-27.344,-39.062,-55.664
1628114241.335,-136.230,-32.715,-45.410,-75.684
1628114241.339,-2.441,-38.086,-33.203,-11.230
1628114241.334,100.586,1.465,-13.672,32.227
1628114241.338,-20.508,10.742,-22.461,-25.391
1628114241.342,-137.695,3.418,-33.203,-76.172
1628114241.346,-43.945,-30.762,-31.738,-36.621
1628114241.350,81.055,-36.133,-26.855,19.531
1628114241.354,20.508,-1.465,-38.086,-0.977
1628114241.358,-95.703,-15.625,-32.227,-51.758
1628114241.361,-39.062,-14.648,-29.297,-27.832
1628114241.365,77.148,-65.430,-70.801,20.508
1628114241.369,41.992,-85.449,-63.965,0.000
1628114241.373,-106.934,-20.020,-22.461,-67.871
1628114241.377,-115.723,9.766,-11.719,-72.266
1628114241.389,42.969,0.977,-12.207,7.812
1628114241.393,65.430,-92.285,-20.996,19.531
1628114241.397,-94.238,-72.266,-20.508,-62.500
1628114241.401,-141.113,-6.348,-17.578,-82.031
1628114241.405,-17.090,-0.977,-25.879,-29.297
1628114241.409,77.637,-16.602,-33.691,14.160
1628114241.413,-14.160,-94.727,-40.527,-24.414
1628114241.416,-141.602,-77.148,-40.527,-80.566
1628114241.420,-61.523,-24.902,-61.035,-41.992
1628114241.424,84.473,0.488,-76.172,23.926
1628114241.428,33.203,-23.926,-36.621,-0.977
1628114241.432,-121.094,-59.570,-21.484,-72.754
1628114241.427,-97.168,-26.367,-31.250,-63.965
1628114241.431,68.848,0.000,-17.578,16.113
1628114241.435,71.777,-8.301,-3.418,21.484
1628114241.439,-97.168,-28.809,-14.648,-61.523
1628114241.443,-116.211,-25.391,-20.020,-67.871
1628114241.447,41.016,-14.648,-8.301,9.766
1628114241.451,99.609,-7.812,-19.043,34.668
1628114241.454,-16.602,4.395,-32.227,-4.883
1628114241.458,-108.398,-77.637,-38.574,-45.898
1628114241.462,-29.785,-107.910,-36.133,-32.715
1628114241.466,69.824,-44.434,-40.039,6.348
1628114241.470,-12.207,-19.043,-35.645,-23.926
1628114241.482,-142.090,-12.207,-26.855,-84.473
1628114241.486,-88.379,-90.332,-21.484,-62.988
1628114241.490,69.336,-63.965,-2.930,15.625
1628114241.494,33.691,-17.578,-15.625,4.395
1628114241.498,-125.000,-29.297,-35.156,-71.289
1628114241.502,-100.586,-25.879,-37.598,-63.477
1628114241.506,66.406,-67.871,-26.855,13.184
1628114241.509,82.031,-13.184,-27.832,24.414
1628114241.513,-80.078,13.184,-69.336,-52.246
1628114241.517,-137.207,-45.898,-65.430,-86.914
1628114241.521,-2.930,-69.824,-20.020,-28.809
1628114241.525,68.848,-78.125,-7.324,6.348
1628114241.520,-59.082,-52.734,-23.438,-49.805
1628114241.524,-142.578,-38.086,-34.180,-83.984
1628114241.528,-20.508,-9.277,-28.320,-18.066
1628114241.532,87.891,-2.930,-31.250,32.715
1628114241.536,1.953,-19.043,-32.227,-6.348
1628114241.540,-113.281,-28.320,-18.066,-54.199
1628114241.544,-48.340,-25.879,-8.789,-22.949
1628114241.547,93.262,-1.465,-20.508,41.504
1628114241.551,45.410,-59.570,-31.250,16.113
1628114241.555,-130.371,-83.496,-35.156,-74.219
1628114241.559,-135.254,-49.805,-33.203,-83.008
1628114241.563,16.602,-46.875,-43.945,-13.184
1628114241.580,50.781,-28.320,-43.945,6.348
1628114241.584,-86.426,-83.008,-38.574,-50.293
1628114241.588,-133.301,-63.965,-28.809,-71.777
1628114241.592,-14.160,-28.320,-19.531,-26.367
1628114241.596,59.082,-32.715,-24.414,13.672
1628114241.600,-47.852,-36.133,-28.320,-30.762
1628114241.604,-149.414,-104.004,-40.527,-80.078
1628114241.607,-41.504,-37.598,-40.527,-26.367
1628114241.611,84.961,10.254,-34.668,23.438
1628114241.615,-5.371,-25.879,-32.227,-20.996
1628114241.619,-143.555,-16.602,-29.785,-80.566
1628114241.623,-91.309,-19.531,-25.391,-63.477
1628114241.614,75.195,-21.484,-21.484,6.836
1628114241.618,52.734,-29.297,-33.203,0.977
1628114241.622,-118.652,-29.297,-37.598,-77.148
1628114241.626,-119.141,-16.602,-42.480,-75.684
1628114241.630,43.457,-1.953,-39.062,7.812
1628114241.634,78.613,3.906,-31.250,26.367
1628114241.638,-63.477,-10.254,-25.391,-39.062
1628114241.641,-113.281,-16.113,-16.602,-59.082
1628114241.645,-9.766,-68.848,-42.480,-25.391
1628114241.649,68.359,-65.918,-57.617,9.277
1628114241.653,-6.836,-13.184,-24.902,-20.020
1628114241.657,-122.559,-24.414,-30.273,-76.660
1628114241.670,-61.035,-31.738,-59.082,-57.617
1628114241.674,57.129,-94.727,-47.363,-10.254
1628114241.678,1.465,-56.152,-25.391,-27.832
1628114241.682,-130.859,-28.809,-24.414,-77.148
1628114241.686,-98.633,-37.598,-30.762,-63.965
1628114241.690,64.941,-5.859,-20.020,10.742
1628114241.694,55.176,-103.027,-24.902,6.348
1628114241.697,-106.934,-70.801,-55.664,-74.219
1628114241.701,-127.930,-29.785,-54.688,-82.031
1628114241.705,5.859,-20.996,-55.664,-27.832
1628114241.709,49.805,-25.879,-55.176,-16.602
1628114241.713,-69.824,-81.055,-22.461,-55.664
1628114241.710,-131.348,-6.836,-12.695,-72.754
1628114241.714,-31.250,13.184,-27.832,-35.156
1628114241.718,76.172,-14.160,-25.391,17.090
1628114241.722,-1.953,-15.625,-13.184,-17.578
1628114241.726,-139.160,-23.438,-26.855,-88.867
1628114241.730,-76.660,-18.555,-41.992,-63.965
1628114241.734,74.219,-4.395,-41.992,5.371
1628114241.737,32.715,9.766,-40.527,-9.277
1628114241.741,-134.277,-56.152,-48.340,-88.867
1628114241.745,-114.746,-80.566,-42.480,-80.566
1628114241.749,53.223,-18.066,-26.855,3.418
1628114241.753,61.523,8.301,-16.113,2.930
1628114241.764,-103.027,-13.672,-20.996,-75.684
1628114241.768,-155.762,-83.496,-58.105,-97.168
1628114241.772,-8.301,-45.410,-49.316,-28.320
1628114241.776,62.988,-2.930,-25.391,3.906
1628114241.780,-76.172,-3.418,-26.367,-56.641
1628114241.784,-157.227,-10.742,-23.438,-90.820
1628114241.788,-47.363,-94.727,-26.367,-44.922
1628114241.791,83.008,-49.805,-19.531,10.254
1628114241.795,13.184,4.395,-17.578,-20.020
1628114241.799,-133.789,-21.973,-35.156,-80.566
1628114241.803,-82.031,-31.250,-48.828,-65.430
1628114241.807,72.754,-23.438,-44.434,7.324
1628114241.820,55.664,-0.977,-34.668,5.859
1628114241.824,-92.773,-11.719,-14.648,-50.781
1628114241.828,-94.727,-24.414,-8.301,-40.527
1628114241.832,59.570,-26.855,-21.484,25.391
1628114241.836,77.148,-27.344,-25.391,28.809
1628114241.840,-94.238,-31.250,-45.898,-58.594
1628114241.844,-138.184,-2.441,-41.504,-83.008
1628114241.847,-3.906,11.719,-36.621,-22.461
1628114241.851,62.012,-33.691,-47.852,3.906
1628114241.855,-52.246,-36.133,-32.715,-48.828
1628114241.859,-147.461,-26.855,-27.832,-84.961
1628114241.863,-59.082,-14.648,-27.344,-52.246
1628114241.858,55.664,-14.648,-23.438,-4.395
1628114241.862,-0.488,-79.590,-18.066,-16.113
1628114241.866,-121.582,-55.176,-11.230,-61.035
1628114241.870,-80.078,-18.066,-18.555,-45.410
1628114241.874,65.918,-12.207,-7.812,12.207
1628114241.878,41.504,-25.391,-18.066,-4.395
1628114241.882,-118.652,-102.539,-40.527,-68.848
1628114241.885,-130.371,-65.918,-44.434,-74.707
1628114241.889,4.883,-36.133,-54.199,-29.785
1628114241.893,51.270,-21.973,-45.410,-3.418
1628114241.897,-83.496,-25.879,-46.875,-61.035
1628114241.901,-144.043,-90.820,-36.621,-94.238
1628114241.895,-7.812,-27.832,-15.137,-30.273
1628114241.899,80.078,13.672,-22.461,14.160
1628114241.903,-21.973,0.977,-24.414,-22.461
1628114241.907,-141.113,-21.973,-31.738,-80.078
1628114241.911,-67.871,-34.180,-38.574,-46.875
1628114241.915,72.754,-10.742,-40.039,24.902
1628114241.919,8.789,-16.602,-43.945,-9.277
1628114241.922,-127.441,-26.855,-27.832,-69.336
1628114241.926,-83.984,-88.379,-29.297,-43.457
1628114241.930,57.129,-90.332,-43.457,19.043
1628114241.934,45.410,-17.090,-42.480,6.836
1628114241.938,-114.746,0.488,-22.949,-69.336
1628114241.951,-130.859,-2.441,-15.625,-70.801
1628114241.955,20.020,-81.543,-30.762,3.418
1628114241.959,72.266,-78.125,-17.090,27.344
1628114241.963,-53.711,-26.855,-4.883,-33.203
1628114241.967,-131.348,-4.395,-37.109,-77.148
1628114241.971,-31.738,-17.090,-49.805,-48.340
1628114241.975,76.172,-136.719,-30.762,3.418
1628114241.978,-9.766,-97.168,-42.969,-30.762
1628114241.982,-145.020,-23.438,-52.734,-108.398
1628114241.986,-54.199,-7.324,-27.344,-61.035
1628114241.990,92.285,-39.551,-18.555,16.602
1628114241.994,24.414,-82.520,-31.250,-17.578
1628114241.991,-130.371,-15.137,-41.504,-95.215
1628114241.995,-104.004,13.672,-31.250,-85.449
1628114241.999,56.641,12.207,-20.020,-1.465
1628114242.003,59.570,-9.766,-47.852,-2.930
1628114242.007,-96.191,-18.066,-51.758,-75.195
1628114242.011,-129.883,-18.555,-40.039,-84.473
1628114242.015,4.395,-36.133,-49.805,-20.508
1628114242.018,64.941,-10.254,-63.477,7.324
1628114242.022,-70.801,-73.730,-54.199,-56.152
1628114242.026,-166.992,-87.891,-35.156,-103.027
1628114242.030,-57.617,-32.227,-24.414,-57.129
1628114242.034,81.055,-15.625,-9.277,14.160
1628114242.047,21.484,4.883,-12.695,-0.977
1628114242.051,-128.418,-82.031,-29.785,-70.312
1628114242.055,-93.262,-77.148,-44.922,-68.359
1628114242.059,53.223,-21.973,-62.012,-2.441
1628114242.063,29.297,5.371,-65.430,-14.648
1628114242.067,-120.117,0.000,-50.293,-84.473
1628114242.071,-114.258,-113.281,-44.434,-77.148
1628114242.074,33.691,-69.336,-41.992,-2.930
1628114242.078,51.270,-0.488,-50.781,2.441
1628114242.082,-99.609,-11.230,-41.016,-71.777
1628114242.086,-152.344,-36.621,-23.438,-91.309
1628114242.090,-17.090,-58.105,-12.695,-27.344
1628114242.083,84.473,4.883,-6.836,20.508
1628114242.087,-22.949,3.418,-11.719,-22.949
1628114242.091,-141.602,-22.949,-21.973,-75.684
1628114242.095,-67.383,-45.898,-51.270,-49.805
1628114242.099,52.246,-57.617,-84.473,-0.977
1628114242.103,0.000,-16.602,-55.176,-18.066
1628114242.107,-129.395,-9.766,-11.230,-74.219
1628114242.110,-90.820,-3.418,-0.977,-64.453
1628114242.114,50.293,-68.359,-8.301,-6.348
1628114242.118,35.645,-74.219,-16.602,-9.277
1628114242.122,-93.262,0.000,-7.812,-55.664
1628114242.126,-102.539,-7.324,-5.371,-51.270
1628114242.138,29.785,-16.602,-31.250,6.348
1628114242.142,66.895,-39.551,-43.945,20.508
1628114242.146,-83.496,-20.996,-34.180,-45.410
1628114242.150,-152.344,-19.531,-38.086,-76.172
1628114242.154,-22.949,-20.020,-44.434,-20.020
1628114242.158,90.332,-32.227,-27.344,38.574
1628114242.162,-18.555,-163.086,-26.855,-11.230
1628114242.165,-147.949,-94.238,-48.828,-81.543
1628114242.169,-62.988,-8.301,-48.828,-41.504
1628114242.173,74.707,-10.742,-40.039,19.043
1628114242.177,22.461,-12.695,-30.762,-2.441
1628114242.181,-125.488,-43.457,-25.391,-60.547
1628114242.177,-104.492,-10.254,-37.109,-63.477
1628114242.181,47.852,1.953,-38.574,4.883
1628114242.185,67.871,1.465,-11.230,29.297
1628114242.189,-83.008,-52.734,-0.488,-46.387
1628114242.193,-123.535,-71.777,-22.461,-73.730
1628114242.197,6.348,1.953,-37.598,-14.648
1628114242.201,70.312,28.320,-22.461,19.043
1628114242.204,-39.551,18.555,-0.488,-25.391
1628114242.208,-142.090,-85.449,-38.086,-73.730
1628114242.212,-47.852,-89.844,-67.871,-36.133
1628114242.216,66.895,-9.766,-52.734,6.836
1628114242.220,-20.020,9.766,-25.879,-31.250
1628114242.232,-136.719,13.672,-14.648,-79.102
1628114242.236,-81.055,-107.910,-33.203,-57.617
1628114242.240,61.523,-84.961,-31.738,9.766
1628114242.244,19.531,-20.996,-34.668,-7.812
1628114242.248,-130.371,-21.484,-37.109,-80.078
1628114242.252,-87.891,-20.508,-21.973,-57.617
1628114242.256,62.988,-140.137,-17.578,12.695
1628114242.259,48.340,-76.660,-43.457,-4.883
1628114242.263,-104.004,6.836,-47.852,-83.984
1628114242.267,-131.348,-4.883,-19.043,-94.238
1628114242.271,1.953,-14.648,-31.250,-34.668
1628114242.275,76.660,-17.090,-52.246,-2.441
1628114242.288,-38.086,2.930,-37.598,-44.922
1628114242.292,-145.020,-16.113,-41.504,-94.727
1628114242.296,-28.809,-11.230,-40.039,-45.410
1628114242.300,126.953,-27.344,-11.230,43.457
1628114242.304,53.223,-30.273,-0.488,28.809
1628114242.308,-100.586,-1.953,-30.273,-46.875
1628114242.312,-66.406,-15.137,-42.480,-45.410
1628114242.315,77.637,0.977,-27.344,16.113
1628114242.319,40.527,-81.055,-20.996,0.977
1628114242.323,-135.742,-108.398,-25.391,-85.449
1628114242.327,-124.512,-24.902,-41.504,-84.961
1628114242.331,38.574,11.230,-52.246,-5.371
1628114242.327,67.383,16.602,-31.738,11.719
1628114242.331,-93.750,-144.531,-30.762,-64.453
1628114242.335,-149.414,-108.398,-45.410,-94.727
1628114242.339,1.953,17.578,-35.645,-22.949
1628114242.343,90.332,-11.719,-32.227,25.879
1628114242.347,-39.551,-28.320,-42.480,-31.738
1628114242.351,-147.461,-18.555,-44.434,-77.637
1628114242.354,-54.688,-2.441,-45.410,-44.922
1628114242.358,68.359,-15.137,-36.133,1.465
1628114242.362,0.000,6.348,-32.227,-21.484
1628114242.366,-144.531,-27.344,-49.316,-88.867
1628114242.370,-109.863,-129.395,-38.086,-83.008
1628114242.364,51.270,-69.824,-22.461,-5.859
1628114242.368,46.875,-10.742,-34.668,0.000
1628114242.372,-99.121,8.789,-31.250,-62.500
1628114242.376,-108.887,11.230,-23.438,-68.359
1628114242.380,37.598,0.488,-11.719,6.348
1628114242.384,63.965,-15.625,-12.695,18.555
1628114242.388,-93.750,-29.297,-30.273,-61.523
1628114242.391,-157.715,-13.672,-35.645,-86.426
1628114242.395,-37.109,-87.891,-52.246,-29.785
1628114242.399,78.125,-89.355,-38.574,29.297
1628114242.403,-30.273,-31.738,-30.273,-18.555
1628114242.407,-179.199,-33.691,-61.035,-94.238
1628114242.419,-92.285,-8.301,-58.105,-55.664
1628114242.423,50.293,-71.777,-40.527,5.371
1628114242.427,-3.418,-69.824,-28.809,-15.137
1628114242.431,-134.766,-20.996,-15.137,-67.383
1628114242.435,-82.520,-0.977,0.977,-40.527
1628114242.439,65.918,-22.461,0.000,22.461
1628114242.443,41.504,-117.188,-12.207,10.254
1628114242.446,-103.516,-53.711,-21.973,-48.340
1628114242.450,-113.770,-5.859,-39.551,-56.152
1628114242.454,20.996,-14.648,-39.551,-3.418
1628114242.458,63.477,-15.625,-21.484,16.113
1628114242.462,-79.102,-46.875,-7.812,-43.457
1628114242.458,-145.996,-21.973,-5.859,-74.707
1628114242.462,-18.555,-19.531,-16.113,-18.555
1628114242.466,75.195,-12.207,-26.855,21.484
1628114242.470,-35.645,-21.973,-40.039,-32.227
1628114242.474,-145.996,-19.043,-25.879,-81.543
1628114242.478,-60.059,2.930,-18.555,-42.969
1628114242.482,80.078,2.930,-21.973,24.414
1628114242.485,20.996,-10.254,-20.508,-1.953
1628114242.489,-145.996,-78.613,-42.480,-75.684
1628114242.493,-114.258,-86.426,-32.227,-54.199
1628114242.497,60.059,-27.344,6.836,28.320
1628114242.501,70.801,-12.695,10.254,32.715
1628114242.513,-98.633,-23.926,-3.418,-44.922
1628114242.517,-159.180,-99.609,-21.484,-74.707
1628114242.521,-5.859,-65.430,-24.902,-10.742
1628114242.525,67.383,-25.391,-35.645,20.996
1628114242.529,-60.059,-31.738,-41.504,-34.180
1628114242.533,-120.605,-3.906,-30.273,-65.430
1628114242.537,-29.785,-93.262,-37.598,-27.344
1628114242.540,83.984,-62.500,-35.645,24.414
1628114242.544,-1.953,-15.137,-26.855,-19.043
1628114242.548,-141.113,-27.344,-23.438,-83.008
1628114242.552,-74.219,-27.344,-32.227,-52.734
1628114242.556,69.824,-25.391,-22.461,12.695
1628114242.552,38.574,-6.348,3.906,8.789
1628114242.556,-138.672,-29.785,-13.672,-76.660
1628114242.560,-134.766,-22.949,-26.367,-80.078
1628114242.564,29.297,-15.137,-25.391,-7.324
1628114242.568,43.945,-36.621,-41.504,-3.906
1628114242.572,-106.934,-21.973,-36.621,-62.988
1628114242.576,-126.953,-8.789,-43.457,-60.547
1628114242.579,34.668,-12.695,-46.387,11.719
1628114242.583,97.656,-65.430,-27.832,26.367
1628114242.587,-67.871,-68.848,-27.344,-54.688
1628114242.591,-169.434,-7.324,-38.086,-96.680
1628114242.595,-35.645,9.277,-35.645,-37.109
1628114242.607,103.516,3.906,-4.883,30.273
1628114242.611,9.277,-49.805,-0.488,-12.207
1628114242.615,-153.320,-43.457,-22.949,-89.355
1628114242.619,-80.566,-17.578,-28.809,-46.875
1628114242.623,97.656,-7.812,-10.742,39.551
1628114242.627,53.711,-22.949,-29.297,13.184
1628114242.631,-122.070,-101.074,-53.711,-66.895
1628114242.634,-115.234,-53.223,-30.273,-62.500
1628114242.638,42.480,-2.441,-21.973,0.488
1628114242.642,68.359,-15.625,-24.902,10.254
1628114242.646,-95.215,-31.250,-31.738,-61.523
1628114242.650,-161.133,-42.969,-39.062,-91.797
1628114242.645,-16.113,-36.621,-34.668,-24.902
1628114242.649,80.566,-27.832,-34.668,14.160
1628114242.653,-42.480,-21.484,-27.344,-47.363
1628114242.657,-160.645,-37.598,-20.508,-90.820
1628114242.661,-57.617,-30.273,-15.625,-35.645
1628114242.665,88.867,-11.719,-21.973,27.832
1628114242.669,14.648,-31.250,-35.156,-4.883
1628114242.672,-120.605,-1.953,-25.391,-64.453
1628114242.676,-91.797,-54.199,-34.668,-54.688
1628114242.680,41.016,-91.797,-50.293,0.977
1628114242.684,28.809,-34.668,-33.691,-12.207
1628114242.688,-132.812,-21.484,-16.602,-83.008
1628114242.701,-147.461,-22.949,-26.855,-85.938
1628114242.705,7.324,-93.750,-40.527,-17.090
1628114242.709,80.078,-67.871,-38.086,20.508
1628114242.713,-65.430,-18.066,-42.969,-43.945
1628114242.717,-143.555,-16.113,-33.691,-79.590
1628114242.721,-12.207,-21.973,-16.602,-21.484
1628114242.725,75.195,-111.816,-31.738,27.832
1628114242.728,-25.879,-61.523,-34.180,-13.184
1628114242.732,-135.254,10.254,-4.395,-72.266
1628114242.736,-50.781,17.090,-1.465,-32.227
1628114242.740,79.590,-18.066,-29.297,20.996
1628114242.744,6.348,-76.172,-65.918,-20.508
1628114242.739,-130.859,-42.969,-54.199,-73.730
1628114242.743,-102.539,-12.207,-18.066,-56.152
1628114242.747,37.109,-4.395,-26.855,2.930
1628114242.751,50.781,-11.230,-36.621,14.160
1628114242.755,-83.984,-28.320,-18.066,-41.504
1628114242.759,-122.070,-34.180,-17.578,-59.082
1628114242.763,20.996,-18.555,-21.973,-0.977
1628114242.766,97.168,-8.301,-27.832,32.715
1628114242.770,-49.805,-53.223,-34.668,-36.621
1628114242.774,-147.949,-43.945,-32.715,-85.449
1628114242.778,-22.949,-2.441,-30.273,-24.902
1628114242.782,92.773,-1.465,-24.902,35.156
1628114242.795,0.000,-5.859,-17.578,-9.277
1628114242.799,-138.184,-105.957,-26.855,-78.125
1628114242.803,-69.336,-72.266,-27.344,-45.410
1628114242.807,66.406,-10.254,-27.832,18.555
1628114242.811,20.508,-29.297,-35.156,-0.977
1628114242.815,-124.023,-37.109,-38.086,-69.824
1628114242.819,-122.559,-106.445,-51.270,-77.148
1628114242.822,25.391,-55.176,-40.039,-12.695
1628114242.826,57.617,0.488,-21.484,11.230
1628114242.830,-84.961,1.465,-23.926,-51.270
1628114242.834,-134.277,2.441,-30.762,-80.566
1628114242.838,-6.836,-27.832,-39.062,-27.832
1628114242.832,77.637,-23.438,-37.109,14.160
1628114242.836,-22.461,-12.695,-18.066,-26.367
1628114242.840,-111.328,0.000,-6.836,-65.430
1628114242.844,-41.016,-32.227,-24.414,-31.738
1628114242.848,74.707,-42.969,-35.645,22.461
1628114242.852,17.578,-5.371,-33.691,-2.441
1628114242.856,-128.418,-16.602,-30.273,-79.590
1628114242.859,-106.445,-23.926,-54.688,-78.613
1628114242.863,21.484,-95.703,-66.406,-15.137
1628114242.867,16.602,-106.445,-37.598,-15.137
1628114242.871,-126.953,-30.273,-20.996,-89.844
1628114242.875,-138.184,-16.602,-25.879,-96.680
1628114242.888,17.578,-10.254,-33.203,-19.043
1628114242.892,64.453,-72.266,-32.227,0.488
1628114242.896,-56.152,-50.293,-19.531,-50.781
1628114242.900,-114.258,-3.418,-45.898,-78.613
1628114242.904,-23.438,-11.230,-66.406,-48.828
1628114242.908,68.359,-15.625,-45.410,-0.488
1628114242.912,-22.461,-86.914,-37.109,-38.574
1628114242.915,-130.859,-47.363,-36.621,-89.844
1628114242.919,-51.758,-18.555,-55.664,-47.852
1628114242.923,79.102,-30.273,-37.598,13.672
1628114242.927,18.555,-4.883,-14.160,-15.625
1628114242.931,-135.254,-17.578,-27.344,-84.473
1628114242.927,-106.934,-28.320,-19.531,-67.871
1628114242.931,39.062,-39.062,-13.184,1.465
1628114242.935,40.527,-22.461,-23.438,7.324
1628114242.939,-111.328,-17.090,-39.551,-63.477
1628114242.943,-140.625,-32.227,-48.340,-80.078
1628114242.947,-0.488,-19.043,-29.785,-16.602
1628114242.951,58.594,-7.812,-17.090,5.371
1628114242.954,-67.383,-22.949,-36.621,-47.852
1628114242.958,-148.926,-80.078,-42.969,-79.590
1628114242.962,-29.297,-68.848,-25.879,-23.926
1628114242.966,94.238,3.418,-37.598,36.621
1628114242.970,16.113,5.859,-41.016,2.930
1628114242.982,-114.746,-13.672,-25.879,-64.453
1628114242.986,-91.797,-117.188,-52.734,-66.895
1628114242.990,49.805,-90.820,-46.387,-2.441
1628114242.994,43.945,-6.836,-10.254,4.883
1628114242.998,-106.445,0.977,-21.484,-59.570
1628114243.002,-102.539,-29.785,-34.180,-62.988
1628114243.006,31.738,-144.043,-22.949,-8.301
1628114243.009,42.969,-89.844,-21.973,-5.859
1628114243.013,-82.520,-28.320,-34.180,-56.152
1628114243.017,-122.559,-27.344,-40.527,-73.242
1628114243.021,10.254,5.371,-30.762,-16.113
1628114243.025,92.773,8.301,-31.250,23.926
1628114243.021,-37.109,-13.184,-41.504,-34.668
1628114243.025,-136.230,-28.809,-18.555,-86.426
1628114243.029,-45.898,-20.996,-26.367,-53.223
1628114243.033,55.176,-30.273,-50.781,-4.395
1628114243.037,-23.926,-36.133,-38.574,-32.715
1628114243.041,-135.742,-33.203,-30.273,-78.125
1628114243.045,-76.172,-46.875,-48.828,-46.387
1628114243.048,69.336,-26.367,-43.945,16.602
1628114243.052,41.016,-54.688,-20.996,7.324
1628114243.056,-116.211,-53.223,-16.602,-66.895
1628114243.060,-110.840,-1.953,-16.602,-69.336
1628114243.064,41.504,-0.488,-13.672,9.277
1628114243.095,58.594,-20.020,-33.691,3.906
1628114243.099,-107.910,-89.844,-55.664,-81.543
1628114243.103,-130.371,-33.691,-38.086,-76.172
1628114243.107,-0.977,22.461,-28.809,-22.461
1628114243.111,56.152,15.625,-36.621,-11.719
1628114243.115,-41.992,-17.578,-40.527,-55.664
1628114243.119,-135.254,-136.719,-42.969,-86.426
1628114243.122,-34.180,-80.078,-41.016,-34.668
1628114243.126,79.102,-21.484,-65.918,9.766
1628114243.130,-14.648,-46.387,-78.125,-35.156
1628114243.134,-163.086,-28.809,-58.105,-102.539
1628114243.138,-109.863,-13.184,-46.387,-82.031
1628114243.132,58.594,32.227,-19.043,2.441
1628114243.136,41.992,22.949,-9.766,4.883
1628114243.140,-125.488,-15.137,-40.039,-80.566
1628114243.144,-131.836,-32.715,-46.387,-87.891
1628114243.148,26.855,-41.016,-34.180,-6.348
1628114243.152,82.031,-42.480,-20.020,25.879
1628114243.156,-53.223,-33.203,-25.879,-41.504
1628114243.159,-139.648,-3.418,-50.293,-91.797
1628114243.163,-24.902,-2.441,-55.176,-41.504
1628114243.167,71.289,10.742,-49.316,6.836
1628114243.171,-23.926,16.602,-32.227,-36.133
1628114243.175,-129.883,9.766,-10.742,-82.520
1628114243.170,-75.195,-16.602,-30.762,-63.965
1628114243.174,55.664,-111.816,-30.762,-2.930
1628114243.178,34.180,-74.219,-22.949,1.465
