timestamps,TP9,AF7,AF8,TP10
1626465483.397,41.504,-22.461,-44.922,-8.301
1626465483.401,-5.859,-28.320,-53.711,-58.594
1626465483.405,-83.008,-31.738,-11.719,-53.223
1626465483.409,-29.297,-23.926,2.930,0.000
1626465483.413,38.086,-20.996,-36.621,0.977
1626465483.417,26.367,-29.785,-58.594,-50.781
1626465483.421,-65.918,-29.297,-24.414,-65.430
1626465483.424,-41.016,-12.695,7.812,-0.488
1626465483.428,27.344,-21.484,-32.715,11.719
1626465483.432,34.668,-35.645,-64.941,-37.109
1626465483.436,-34.668,-23.926,-26.855,-54.199
1626465483.440,-50.781,-20.996,13.184,1.465
1626465483.442,12.695,-30.762,-19.531,26.367
1626465483.446,32.227,-37.109,-59.570,-16.602
1626465483.450,-40.039,-39.551,-47.852,-44.922
1626465483.454,-71.289,-29.297,1.465,-11.719
1626465483.458,-7.324,-20.508,-6.836,16.602
1626465483.462,20.508,-24.414,-52.246,-22.949
1626465483.466,-18.066,-31.250,-54.199,-70.312
1626465483.469,-98.145,-35.156,-14.648,-66.895
1626465483.473,-64.453,-30.273,-5.859,-7.812
1626465483.477,12.695,-22.461,-53.223,-13.184
1626465483.481,1.953,-35.156,-72.266,-64.453
1626465483.485,-82.031,-37.598,-37.598,-69.336
1626465483.487,-62.012,-25.391,-9.277,-10.742
1626465483.491,3.418,-33.691,-40.039,0.488
1626465483.495,14.648,-35.645,-80.566,-43.945
1626465483.499,-60.547,-26.855,-57.617,-70.312
1626465483.503,-89.355,-31.250,-11.719,-42.480
1626465483.507,-16.602,-32.227,-30.762,-12.207
1626465483.511,24.414,-23.926,-63.477,-33.203
1626465483.514,-43.457,-40.039,-58.105,-79.102
1626465483.518,-105.469,-47.363,-13.672,-54.688
1626465483.522,-31.250,-31.250,2.930,3.418
1626465483.526,36.133,-26.367,-39.551,-8.301
1626465483.530,11.719,-35.645,-62.988,-48.340
1626465483.532,-74.707,-35.645,-19.043,-57.129
1626465483.536,-52.246,-27.832,4.883,-7.324
1626465483.540,16.602,-24.414,-32.227,-4.883
1626465483.544,16.602,-32.227,-59.570,-52.734
1626465483.548,-76.660,-44.434,-33.203,-68.359
1626465483.552,-63.477,-35.645,6.836,-9.277
1626465483.556,19.531,-28.320,-17.578,16.602
1626465483.559,50.781,-31.738,-60.547,-19.043
1626465483.563,-24.902,-30.762,-47.852,-52.734
1626465483.567,-70.312,-28.320,0.000,-27.344
1626465483.571,5.859,-22.949,-5.371,13.184
1626465483.575,52.734,-19.043,-51.270,-10.254
1626465483.578,-0.488,-20.020,-52.246,-51.270
1626465483.582,-62.500,-22.949,0.488,-37.598
1626465483.586,-11.719,-25.879,10.742,21.484
1626465483.590,51.758,-23.438,-37.109,10.742
1626465483.594,30.762,-27.832,-54.688,-46.387
1626465483.598,-64.941,-33.203,-10.254,-53.711
1626465483.602,-40.527,-35.156,12.695,4.883
1626465483.605,27.344,-29.785,-21.484,3.418
1626465483.609,33.691,-22.461,-47.852,-48.828
1626465483.613,-57.617,-35.156,-23.926,-76.660
1626465483.617,-67.383,-31.250,11.719,-30.273
1626465483.621,-1.953,-28.320,-16.113,-5.371
1626465483.622,20.996,-40.039,-53.223,-34.668
1626465483.626,-53.223,-41.992,-37.598,-62.988
1626465483.630,-96.680,-41.016,11.230,-41.504
1626465483.634,-9.277,-30.273,9.766,10.742
1626465483.638,39.551,-30.762,-40.527,-9.766
1626465483.642,-26.855,-36.621,-60.547,-73.242
1626465483.646,-105.957,-35.645,-21.973,-68.848
1626465483.649,-51.758,-31.250,-3.418,-2.930
1626465483.653,24.902,-20.996,-36.133,0.488
1626465483.657,8.789,-34.668,-60.059,-45.898
1626465483.661,-88.379,-45.410,-23.926,-60.547
1626465483.665,-61.035,-34.668,7.812,-8.301
1626465483.682,7.324,-36.133,-35.645,0.000
1626465483.686,9.277,-40.039,-78.125,-46.387
1626465483.690,-71.777,-41.016,-48.340,-69.824
1626465483.694,-77.148,-29.297,3.906,-20.508
1626465483.698,3.906,-20.996,-8.789,14.648
1626465483.702,30.762,-26.855,-51.758,-20.020
1626465483.706,-36.133,-36.621,-48.340,-65.430
1626465483.709,-83.496,-33.691,-3.906,-37.109
1626465483.713,-26.855,-28.320,-5.859,11.230
1626465483.717,23.926,-30.762,-49.316,-15.137
1626465483.721,-5.371,-29.785,-58.594,-50.781
1626465483.725,-93.262,-37.109,-18.555,-55.664
1626465483.728,-63.965,-41.504,0.488,-12.207
1626465483.732,3.906,-43.457,-42.480,-9.277
1626465483.736,6.836,-41.504,-67.871,-57.129
1626465483.740,-80.566,-36.621,-27.344,-63.965
1626465483.744,-69.336,-33.203,5.371,-5.371
1626465483.748,9.766,-38.574,-26.855,8.301
1626465483.752,23.438,-37.598,-63.965,-34.668
1626465483.755,-68.848,-32.227,-41.504,-64.453
1626465483.759,-94.727,-37.109,9.277,-24.902
1626465483.763,-2.930,-40.527,-13.184,13.672
1626465483.767,43.457,-33.691,-60.547,-21.973
1626465483.771,-23.926,-33.691,-57.617,-68.848
1626465483.772,-85.449,-34.668,-10.254,-47.852
1626465483.776,-20.020,-29.785,0.488,2.930
1626465483.780,37.109,-27.344,-41.992,-13.672
1626465483.784,7.812,-24.414,-50.781,-58.105
1626465483.788,-82.031,-31.250,-16.113,-61.035
1626465483.792,-45.898,-32.227,4.395,1.465
1626465483.796,22.949,-27.344,-31.738,1.953
1626465483.799,12.207,-29.297,-69.824,-49.316
1626465483.803,-80.566,-38.574,-38.086,-67.383
1626465483.807,-79.590,-29.297,5.859,-14.648
1626465483.811,7.324,-14.160,-14.160,20.508
1626465483.815,34.668,-22.949,-48.828,-23.438
1626465483.817,-54.199,-40.527,-39.551,-62.500
1626465483.821,-84.961,-32.715,-0.488,-19.531
1626465483.825,-7.812,-15.137,-9.766,16.113
1626465483.829,31.738,-13.672,-56.641,-19.043
1626465483.833,-34.180,-29.297,-64.941,-64.941
1626465483.837,-106.445,-30.762,-17.090,-57.617
1626465483.841,-41.992,-12.695,-13.672,-17.578
1626465483.844,26.367,-10.742,-59.570,-26.855
1626465483.848,-0.488,-13.672,-76.660,-72.754
1626465483.852,-94.238,-12.695,-43.945,-85.938
1626465483.856,-65.430,-7.812,-21.484,-32.227
1626465483.860,15.137,-5.859,-62.012,-23.926
1626465483.862,26.855,-10.254,-92.773,-61.523
1626465483.866,-58.594,-17.090,-60.059,-79.590
1626465483.870,-74.219,-15.137,-19.043,-37.598
1626465483.874,5.371,-9.766,-39.551,-2.930
1626465483.878,44.434,-13.672,-78.125,-33.203
1626465483.882,-29.297,-12.207,-61.523,-73.242
1626465483.886,-75.195,-14.160,-13.184,-40.039
1626465483.889,-12.695,-21.973,-13.672,7.324
1626465483.893,37.109,-26.367,-51.758,-12.695
1626465483.897,-15.625,-31.250,-66.406,-63.965
1626465483.901,-90.820,-32.715,-21.973,-56.641
1626465483.905,-48.828,-34.180,-8.789,1.465
1626465483.907,7.324,-25.391,-51.758,-11.719
1626465483.911,-7.324,-22.461,-72.754,-53.711
1626465483.915,-91.309,-16.602,-32.715,-53.223
1626465483.919,-62.012,-10.254,-2.441,-12.207
1626465483.923,2.441,-23.926,-35.156,-5.859
1626465483.927,19.043,-28.809,-63.477,-43.945
1626465483.931,-61.523,-34.180,-43.457,-74.219
1626465483.934,-76.660,-40.039,-6.836,-25.391
1626465483.938,13.184,-26.367,-25.879,13.184
1626465483.942,49.805,-23.926,-64.941,-17.578
1626465483.946,-31.738,-28.320,-57.617,-61.035
1626465483.950,-91.309,-24.414,-11.230,-41.016
1626465483.952,-10.742,-21.484,-5.859,17.090
1626465483.956,47.363,-26.367,-52.734,-5.371
1626465483.960,3.418,-32.715,-61.035,-57.129
1626465483.964,-83.008,-37.598,-15.625,-49.805
1626465483.968,-44.434,-35.156,4.395,2.930
1626465483.972,26.367,-22.949,-28.809,-4.395
1626465483.976,2.930,-32.715,-71.777,-64.941
1626465483.979,-96.191,-48.828,-40.527,-80.078
1626465483.983,-69.336,-36.133,11.230,-17.090
1626465483.987,7.812,-26.367,-20.996,-2.441
1626465483.991,20.020,-32.715,-61.523,-45.410
1626465483.995,-74.219,-42.480,-48.828,-85.938
1626465483.997,-91.797,-33.203,-1.465,-37.598
1626465484.001,7.324,-22.461,-10.254,7.812
1626465484.005,45.410,-29.297,-58.105,-29.297
1626465484.009,-29.785,-41.016,-61.035,-75.684
1626465484.013,-90.332,-39.551,-10.254,-47.363
1626465484.017,-22.949,-37.109,-4.395,4.395
1626465484.021,38.574,-39.551,-53.711,-13.184
1626465484.024,4.395,-38.574,-67.383,-51.270
1626465484.028,-71.777,-39.062,-15.137,-54.199
1626465484.032,-31.738,-27.832,9.277,-2.930
1626465484.036,24.414,-23.438,-27.344,11.230
1626465484.040,23.926,-36.133,-52.734,-30.762
1626465484.043,-71.777,-36.133,-30.273,-64.941
1626465484.047,-89.355,-42.480,-2.930,-30.762
1626465484.051,-11.230,-36.621,-34.668,-8.301
1626465484.055,20.508,-28.809,-67.871,-39.551
1626465484.059,-55.176,-36.133,-47.852,-74.219
1626465484.063,-89.355,-26.367,0.977,-33.691
1626465484.067,-4.883,-21.484,-9.277,8.789
1626465484.070,34.180,-28.320,-56.152,-24.414
1626465484.074,-30.762,-35.645,-55.176,-65.430
1626465484.078,-89.844,-34.180,-2.930,-51.758
1626465484.082,-35.156,-22.461,-1.953,-1.953
1626465484.086,23.438,-19.043,-48.828,-13.184
1626465484.103,-2.930,-30.273,-62.988,-54.688
1626465484.107,-92.773,-41.992,-23.438,-59.082
1626465484.111,-60.547,-36.621,5.859,-12.695
1626465484.115,19.043,-31.250,-25.391,-6.348
1626465484.119,20.508,-26.855,-58.594,-44.434
1626465484.123,-65.430,-32.715,-31.738,-66.406
1626465484.127,-64.453,-31.250,4.395,-22.949
1626465484.130,9.277,-26.367,-22.461,5.371
1626465484.134,34.180,-30.762,-58.594,-23.438
1626465484.138,-40.527,-34.180,-44.434,-59.082
1626465484.142,-78.613,-26.855,8.301,-33.203
1626465484.146,-1.953,-17.578,1.953,12.207
1626465484.147,47.363,-24.902,-47.363,-15.625
1626465484.151,-5.859,-36.621,-58.105,-62.988
1626465484.155,-97.168,-28.320,-13.184,-47.852
1626465484.159,-43.945,-20.020,4.883,1.953
1626465484.163,22.461,-23.926,-38.086,-9.277
1626465484.167,7.324,-18.066,-55.176,-44.434
1626465484.171,-70.312,-24.414,-10.254,-51.270
1626465484.174,-46.387,-30.273,19.043,2.930
1626465484.178,21.484,-34.180,-21.973,13.184
1626465484.182,25.391,-37.109,-60.547,-30.273
1626465484.186,-52.734,-27.344,-31.250,-50.781
1626465484.190,-60.547,-26.367,13.672,-8.301
1626465484.193,9.277,-33.203,-14.648,17.090
1626465484.197,40.527,-28.809,-61.035,-13.672
1626465484.201,-26.367,-23.926,-44.434,-56.152
1626465484.205,-77.148,-19.043,7.812,-32.715
1626465484.209,-16.602,-22.949,-1.465,17.090
1626465484.213,45.898,-31.250,-52.246,-4.883
1626465484.217,9.277,-32.227,-64.941,-54.199
1626465484.220,-74.219,-36.133,-16.602,-45.898
1626465484.224,-37.109,-43.945,3.418,16.602
1626465484.228,34.668,-32.227,-30.762,14.648
1626465484.232,26.855,-28.809,-58.105,-43.457
1626465484.236,-69.824,-31.250,-24.902,-63.477
1626465484.237,-59.082,-34.668,9.277,-10.742
1626465484.241,5.371,-39.551,-14.160,9.766
1626465484.245,31.738,-29.785,-48.340,-28.809
1626465484.249,-40.527,-25.391,-37.109,-62.500
1626465484.253,-60.059,-20.996,9.766,-21.973
1626465484.257,10.254,-18.555,-5.859,20.020
1626465484.261,37.109,-24.414,-57.617,-18.555
1626465484.264,-19.043,-30.273,-49.316,-67.871
1626465484.268,-70.312,-34.668,-0.977,-40.527
1626465484.272,-15.625,-38.574,-2.441,9.277
1626465484.276,30.762,-27.344,-35.645,-17.090
1626465484.280,-4.883,-30.762,-48.828,-65.918
1626465484.283,-83.496,-36.621,-16.113,-63.965
1626465484.287,-47.852,-26.855,3.906,-6.836
1626465484.291,18.066,-31.738,-32.227,-5.371
1626465484.295,15.137,-42.969,-64.453,-53.711
1626465484.299,-62.988,-40.527,-33.691,-72.754
1626465484.303,-47.363,-33.203,9.766,-10.742
1626465484.307,21.484,-33.203,-20.020,12.695
1626465484.310,25.391,-40.527,-65.918,-38.574
1626465484.314,-56.641,-40.039,-42.969,-73.730
1626465484.318,-85.449,-35.645,9.277,-35.645
1626465484.322,-7.812,-28.320,-5.371,4.395
1626465484.326,29.785,-30.273,-52.734,-31.250
1626465484.328,-35.645,-32.715,-49.316,-71.289
1626465484.332,-96.191,-23.926,1.465,-51.270
1626465484.336,-25.879,-18.555,15.137,2.441
1626465484.340,23.926,-26.855,-31.738,-20.020
1626465484.344,-14.160,-31.738,-55.664,-66.895
1626465484.348,-92.285,-24.414,-14.160,-62.012
1626465484.352,-55.664,-30.273,4.883,-20.996
1626465484.355,3.418,-41.504,-35.156,-14.160
1626465484.359,6.836,-37.598,-55.176,-40.527
1626465484.363,-67.871,-37.109,-25.391,-66.406
1626465484.367,-67.871,-32.227,10.742,-20.508
1626465484.371,1.465,-24.414,-15.137,14.160
1626465484.372,26.367,-23.438,-55.664,-26.367
1626465484.376,-38.574,-23.438,-41.992,-71.777
1626465484.380,-76.660,-27.344,4.883,-39.062
1626465484.384,-11.230,-30.273,-0.977,1.953
1626465484.388,43.457,-24.902,-47.363,-22.949
1626465484.392,-10.742,-30.762,-51.758,-69.336
1626465484.396,-93.750,-46.387,-0.977,-62.012
1626465484.399,-36.133,-37.598,3.906,3.418
1626465484.403,30.273,-27.344,-39.062,-3.418
1626465484.407,16.113,-32.227,-51.758,-46.387
1626465484.411,-67.871,-37.109,-20.508,-56.152
1626465484.415,-50.293,-37.109,2.441,-3.906
1626465484.432,27.832,-30.273,-22.949,11.719
1626465484.436,39.062,-36.621,-51.758,-38.086
1626465484.440,-70.801,-48.340,-37.109,-79.102
1626465484.444,-92.285,-40.039,5.371,-34.180
1626465484.448,-4.883,-29.297,-12.695,0.977
1626465484.452,41.504,-27.832,-54.199,-32.715
1626465484.456,-30.762,-42.969,-43.945,-63.965
1626465484.459,-90.820,-51.758,8.789,-33.203
1626465484.463,-33.691,-43.457,10.742,8.301
1626465484.467,15.625,-44.922,-34.180,-14.648
1626465484.471,-14.648,-48.828,-38.574,-51.758
1626465484.475,-83.496,-46.387,8.789,-44.434
1626465484.477,-32.227,-41.016,28.320,13.672
1626465484.481,34.180,-32.715,-13.672,11.230
1626465484.485,17.578,-39.062,-47.852,-43.945
1626465484.489,-70.801,-43.945,-7.324,-65.430
1626465484.493,-50.781,-32.227,27.832,-1.953
1626465484.497,19.043,-28.809,-9.766,17.090
1626465484.501,19.531,-30.762,-56.152,-34.180
1626465484.504,-69.336,-43.457,-45.410,-62.012
1626465484.508,-74.219,-41.504,0.488,-18.555
1626465484.512,8.301,-31.250,-12.695,13.672
1626465484.516,36.133,-37.109,-50.293,-21.973
1626465484.520,-25.879,-41.016,-40.039,-61.523
1626465484.522,-71.777,-35.645,7.812,-32.227
1626465484.526,-11.230,-37.598,11.719,23.926
1626465484.530,41.504,-46.387,-37.598,2.441
1626465484.534,1.953,-45.898,-63.477,-52.734
1626465484.538,-86.914,-45.898,-20.996,-42.969
1626465484.542,-39.062,-40.039,2.930,18.066
1626465484.546,33.203,-36.133,-29.785,14.160
1626465484.549,25.879,-40.527,-58.105,-27.832
1626465484.553,-80.566,-47.363,-27.832,-47.852
1626465484.557,-64.453,-43.945,15.625,-0.977
1626465484.561,23.926,-33.203,-12.207,22.461
1626465484.565,49.316,-39.062,-46.875,-9.766
1626465484.567,-35.645,-49.316,-32.227,-43.457
1626465484.571,-81.543,-44.922,11.230,-9.277
1626465484.575,-2.930,-37.109,5.859,29.297
1626465484.579,45.898,-35.645,-41.992,-8.301
1626465484.583,-14.160,-38.574,-47.363,-51.758
1626465484.587,-73.730,-31.250,2.930,-26.367
1626465484.591,-15.137,-24.902,11.230,29.785
1626465484.594,27.832,-31.738,-40.039,2.930
1626465484.598,-7.324,-44.434,-66.895,-59.082
1626465484.602,-88.379,-41.504,-15.137,-58.594
1626465484.606,-51.270,-30.273,17.090,7.324
1626465484.610,14.160,-30.762,-36.133,3.906
1626465484.612,8.789,-37.598,-73.242,-41.504
1626465484.616,-80.566,-45.410,-42.969,-67.871
1626465484.620,-80.078,-40.527,7.324,-19.531
1626465484.624,5.371,-36.621,-14.648,13.672
1626465484.628,30.273,-46.875,-60.547,-31.250
1626465484.632,-37.598,-42.480,-42.480,-66.895
1626465484.636,-74.707,-37.109,6.348,-38.574
1626465484.639,-10.742,-40.527,-6.836,9.766
1626465484.643,28.809,-41.016,-54.199,-10.254
1626465484.647,-26.367,-43.945,-53.711,-59.082
1626465484.651,-92.773,-43.945,-0.977,-50.293
1626465484.655,-48.828,-45.898,0.488,-6.836
1626465484.657,3.906,-51.758,-45.410,-18.066
1626465484.661,-10.254,-48.340,-58.594,-64.453
1626465484.665,-98.633,-47.363,-26.367,-76.172
1626465484.669,-83.496,-43.945,4.395,-10.742
1626465484.673,1.465,-34.668,-21.484,10.742
1626465484.677,23.438,-32.715,-52.734,-35.156
1626465484.681,-69.824,-43.945,-29.297,-70.801
1626465484.684,-90.332,-53.223,5.371,-40.039
1626465484.688,-6.348,-41.016,-7.324,0.977
1626465484.692,27.832,-40.039,-46.875,-30.273
1626465484.696,-53.711,-51.758,-42.969,-76.660
1626465484.700,-109.375,-47.852,1.465,-42.480
1626465484.702,-44.434,-51.758,-10.254,18.066
1626465484.706,22.461,-51.270,-51.758,-4.395
1626465484.710,-5.859,-36.133,-57.617,-61.035
1626465484.714,-89.355,-31.738,-14.160,-55.664
1626465484.718,-34.180,-25.879,6.348,8.301
1626465484.722,35.645,-22.461,-31.250,3.906
1626465484.726,8.789,-32.715,-64.453,-49.316
1626465484.729,-91.309,-38.574,-36.133,-62.012
1626465484.733,-76.172,-32.715,-4.395,-7.812
1626465484.737,0.977,-28.320,-31.250,9.766
1626465484.741,18.555,-32.715,-66.406,-24.902
1626465484.745,-62.500,-34.180,-49.316,-54.688
1626465484.749,-78.613,-32.715,5.371,-20.020
1626465484.753,2.441,-32.715,-7.812,15.137
1626465484.757,37.598,-34.668,-55.664,-15.625
1626465484.761,-29.785,-34.668,-44.434,-55.176
1626465484.765,-82.031,-32.715,8.789,-27.832
1626465484.769,-18.066,-33.203,2.441,13.672
1626465484.773,36.621,-31.738,-50.781,-8.789
1626465484.776,-10.742,-29.785,-66.895,-52.734
1626465484.780,-96.191,-26.367,-20.996,-47.363
1626465484.784,-44.434,-23.926,-0.488,18.066
1626465484.788,28.320,-19.531,-34.180,17.578
1626465484.792,15.625,-24.902,-62.500,-36.621
1626465484.807,-65.430,-34.668,-28.809,-58.105
1626465484.811,-52.246,-29.297,4.395,-6.836
1626465484.815,18.066,-21.484,-29.297,15.625
1626465484.819,43.945,-28.809,-62.988,-24.902
1626465484.823,-37.598,-31.738,-41.992,-57.129
1626465484.827,-72.266,-26.855,0.488,-11.719
1626465484.831,-0.977,-31.738,-16.113,27.344
1626465484.834,33.203,-37.598,-58.105,-15.137
1626465484.838,-33.203,-35.156,-52.734,-55.664
1626465484.842,-94.727,-33.691,-3.906,-43.945
1626465484.846,-25.391,-31.250,6.348,12.207
1626465484.850,36.133,-33.691,-43.945,-1.953
1626465484.852,4.395,-28.809,-71.289,-57.617
1626465484.856,-96.191,-40.039,-38.086,-67.383
1626465484.860,-64.941,-42.480,-13.184,-8.789
1626465484.864,11.230,-34.668,-40.039,-3.418
1626465484.868,14.160,-34.180,-59.570,-56.152
1626465484.872,-66.895,-29.297,-24.902,-71.289
1626465484.876,-75.684,-29.785,6.836,-20.508
1626465484.879,-6.348,-32.227,-27.344,5.859
1626465484.883,21.484,-35.645,-66.895,-27.832
1626465484.887,-54.199,-35.156,-52.734,-62.500
1626465484.891,-86.914,-27.344,-0.977,-29.785
1626465484.895,-12.207,-25.391,-8.301,20.996
1626465484.897,42.969,-32.715,-47.363,-3.418
1626465484.901,-5.371,-42.969,-44.434,-45.898
1626465484.905,-85.938,-38.574,-9.766,-38.574
1626465484.909,-35.645,-25.391,-3.906,3.906
1626465484.913,16.602,-29.785,-41.504,-11.230
1626465484.917,1.465,-31.738,-56.152,-54.688
1626465484.921,-63.965,-32.227,-19.531,-49.316
1626465484.924,-40.039,-31.738,8.789,-2.930
1626465484.928,24.902,-36.133,-32.227,-0.488
1626465484.932,45.410,-45.410,-59.570,-26.855
1626465484.936,-46.387,-44.922,-19.531,-60.059
1626465484.940,-66.895,-42.969,20.996,-20.996
1626465484.942,2.441,-42.480,-5.371,17.090
1626465484.946,23.926,-42.480,-49.805,-24.902
1626465484.950,-41.992,-50.781,-34.180,-55.176
1626465484.954,-73.730,-51.758,23.926,-11.230
1626465484.958,-2.930,-53.223,27.344,33.203
1626465484.962,42.969,-55.664,-10.742,11.230
1626465484.966,4.395,-62.012,-14.160,-26.855
1626465484.969,-70.801,-66.895,27.832,-22.461
1626465484.973,-27.344,-67.383,34.668,34.668
1626465484.977,42.969,-58.105,-6.836,41.504
1626465484.981,26.855,-59.082,-30.762,-7.324
1626465484.985,-68.359,-69.824,2.930,-30.273
1626465484.988,-56.641,-58.594,37.109,18.066
1626465484.992,22.461,-49.805,2.441,36.133
1626465484.996,37.109,-53.223,-35.645,-16.113
1626465485.000,-46.387,-53.223,-12.207,-43.945
1626465485.004,-52.246,-45.898,22.461,5.371
1626465485.008,19.531,-32.227,4.883,33.203
1626465485.012,50.781,-32.227,-30.762,-5.371
1626465485.015,-24.902,-52.246,-41.504,-53.223
1626465485.019,-90.332,-52.246,3.906,-28.320
1626465485.023,-22.461,-38.574,14.160,20.508
1626465485.027,48.828,-34.180,-34.668,-0.977
1626465485.031,2.930,-44.434,-60.547,-45.898
1626465485.032,-88.379,-45.898,-9.277,-42.480
1626465485.036,-35.156,-38.086,17.090,9.766
1626465485.040,26.367,-35.645,-30.273,11.230
1626465485.044,23.438,-32.715,-57.129,-31.250
1626465485.048,-60.547,-39.062,-23.926,-56.152
1626465485.052,-68.359,-44.922,16.113,-11.230
1626465485.056,2.441,-41.504,-8.789,18.555
1626465485.059,24.414,-49.316,-50.781,-19.043
1626465485.063,-51.270,-51.758,-27.344,-55.664
1626465485.067,-79.102,-46.387,19.531,-14.160
1626465485.071,-7.324,-36.133,-5.371,22.949
1626465485.075,34.668,-30.273,-42.480,-6.836
1626465485.077,-25.391,-37.109,-36.133,-46.875
1626465485.081,-85.938,-38.086,7.812,-24.902
1626465485.085,-13.184,-36.133,17.578,25.391
1626465485.089,46.387,-39.062,-22.461,6.348
1626465485.093,12.207,-42.969,-31.738,-30.273
1626465485.097,-60.059,-40.039,1.465,-28.320
1626465485.101,-33.203,-37.109,10.254,23.926
1626465485.104,11.719,-49.316,-32.715,20.020
1626465485.108,8.301,-53.223,-57.617,-26.367
1626465485.112,-71.289,-53.223,-22.461,-47.363
1626465485.116,-64.453,-42.480,20.996,2.441
1626465485.120,15.137,-28.809,-11.719,31.738
1626465485.122,46.875,-28.809,-50.781,-18.066
1626465485.126,-41.992,-37.109,-30.762,-55.176
1626465485.130,-91.309,-47.852,10.742,-18.555
1626465485.134,-10.254,-48.340,-4.395,26.855
1626465485.138,36.621,-50.781,-41.016,-1.953
1626465485.142,-20.508,-50.293,-40.527,-48.340
1626465485.146,-93.750,-47.852,-0.977,-29.785
1626465485.149,-48.828,-53.711,5.859,20.508
1626465485.153,10.254,-51.758,-42.969,0.488
1626465485.157,-5.371,-42.480,-59.082,-39.062
1626465485.161,-86.914,-43.457,-17.090,-44.434
1626465485.165,-59.082,-48.340,7.324,8.301
1626465485.167,6.348,-49.316,-32.227,8.301
1626465485.171,12.207,-52.246,-62.988,-42.969
1626465485.175,-76.660,-53.223,-32.715,-55.176
1626465485.179,-88.379,-49.805,1.465,-8.301
1626465485.183,-9.277,-56.641,-24.414,14.160
1626465485.187,20.508,-54.688,-72.266,-23.926
1626465485.191,-59.082,-55.176,-61.035,-67.871
1626465485.194,-102.051,-52.734,-0.977,-30.273
1626465485.198,-26.855,-48.340,-3.906,20.996
1626465485.202,28.320,-51.270,-48.828,-10.254
1626465485.206,-7.324,-48.340,-59.570,-51.270
1626465485.210,-81.055,-46.387,-10.254,-29.785
1626465485.228,-36.133,-43.457,9.277,26.855
1626465485.232,14.160,-45.410,-45.898,-1.953
1626465485.236,-13.184,-49.316,-70.801,-52.734
1626465485.240,-89.844,-41.504,-27.832,-53.223
1626465485.244,-64.941,-33.691,0.977,-8.301
1626465485.248,7.324,-31.738,-36.621,-1.953
1626465485.252,23.926,-35.156,-79.102,-40.527
1626465485.255,-62.500,-35.156,-41.504,-64.941
1626465485.259,-71.777,-33.691,14.648,-22.461
1626465485.263,3.418,-31.250,-15.625,11.719
1626465485.267,30.273,-27.832,-55.664,-21.973
1626465485.271,-43.457,-34.668,-50.781,-62.012
1626465485.272,-94.727,-35.645,-9.766,-36.621
1626465485.276,-20.508,-30.273,-1.465,13.184
1626465485.280,32.715,-33.691,-39.551,-6.836
1626465485.284,-3.418,-36.621,-56.152,-56.152
1626465485.288,-79.102,-35.645,-18.555,-49.805
1626465485.292,-45.898,-31.738,0.977,3.906
1626465485.296,15.625,-25.879,-34.668,5.371
1626465485.299,14.648,-24.902,-58.594,-38.574
1626465485.303,-68.848,-32.227,-23.926,-71.289
1626465485.307,-57.617,-36.133,7.812,-13.184
1626465485.311,14.648,-29.785,-23.438,15.137
1626465485.315,38.574,-21.973,-58.105,-24.414
1626465485.317,-45.410,-34.180,-43.457,-56.641
1626465485.321,-86.426,-37.109,-4.883,-22.949
1626465485.325,-5.859,-30.273,-10.254,20.996
1626465485.329,45.410,-31.250,-45.898,-6.348
1626465485.333,-22.461,-36.133,-50.781,-56.152
1626465485.337,-88.867,-37.109,-4.883,-37.109
1626465485.341,-15.137,-25.879,5.859,15.137
1626465485.344,47.363,-30.273,-34.180,1.465
1626465485.348,-2.441,-50.781,-61.523,-48.340
1626465485.352,-91.309,-48.340,-25.391,-58.594
1626465485.356,-51.758,-41.504,5.859,1.465
1626465485.360,20.508,-38.574,-31.250,11.230
1626465485.362,15.137,-36.621,-62.988,-43.945
1626465485.366,-76.172,-46.387,-25.391,-62.500
1626465485.370,-45.898,-42.969,20.996,15.137
1626465485.374,30.762,-31.250,-13.672,46.387
1626465485.378,44.922,-26.367,-61.523,-4.883
1626465485.382,-39.551,-25.391,-44.922,-66.895
1626465485.386,-86.426,-20.508,5.859,-45.410
1626465485.389,-20.508,-17.578,-17.578,-8.789
1626465485.393,11.230,-22.461,-75.684,-52.734
1626465485.397,-57.617,-24.902,-81.543,-111.328
1626465485.401,-115.723,-18.066,-40.527,-98.633
1626465485.405,-56.152,-14.160,-41.504,-53.223
1626465485.407,-6.836,-7.812,-86.426,-71.289
1626465485.411,-25.879,-16.113,-107.422,-109.863
1626465485.415,-100.098,-22.949,-61.523,-112.305
1626465485.419,-66.406,-7.812,-28.320,-42.969
1626465485.423,-4.395,-15.137,-72.754,-33.203
1626465485.427,7.812,-29.297,-106.445,-83.496
1626465485.431,-72.266,-24.902,-74.707,-96.191
1626465485.434,-80.566,-13.184,-24.902,-41.504
1626465485.438,1.465,-1.465,-49.805,-22.949
1626465485.442,34.180,-10.254,-90.820,-60.547
1626465485.446,-32.715,-20.508,-64.941,-86.914
1626465485.450,-84.961,-20.020,-21.973,-57.617
1626465485.453,-24.414,-21.484,-34.180,-13.672
1626465485.457,35.645,-17.090,-74.707,-41.992
1626465485.461,-16.113,-23.926,-82.031,-89.844
1626465485.465,-91.309,-29.297,-32.715,-71.289
1626465485.469,-37.598,-16.113,-10.742,-7.812
1626465485.473,21.973,-8.301,-45.898,-14.648
1626465485.477,2.930,-15.625,-75.195,-64.453
1626465485.480,-92.285,-20.996,-41.016,-79.102
1626465485.484,-60.547,-18.066,1.953,-18.066
1626465485.488,4.395,-32.227,-36.133,-14.648
1626465485.492,17.090,-32.227,-72.266,-60.547
1626465485.496,-66.406,-27.344,-51.270,-84.473
1626465485.498,-95.703,-29.785,-6.836,-38.086
1626465485.502,-13.184,-31.250,-31.738,-9.277
1626465485.506,36.133,-29.785,-74.219,-42.969
1626465485.510,-33.203,-26.367,-54.688,-77.148
1626465485.514,-93.750,-19.043,-12.695,-56.152
1626465485.518,-29.785,-18.066,-17.090,-4.883
1626465485.522,11.719,-40.527,-66.406,-23.926
1626465485.525,-31.738,-45.410,-77.637,-77.637
1626465485.529,-106.934,-35.156,-24.902,-68.848
1626465485.533,-48.828,-26.367,-1.465,-4.395
1626465485.537,19.531,-25.879,-42.969,-6.836
1626465485.541,1.953,-25.879,-71.777,-61.523
1626465485.557,-77.148,-23.438,-37.109,-89.844
1626465485.561,-60.059,-25.879,-0.977,-27.832
1626465485.565,10.254,-23.926,-30.273,3.418
1626465485.569,21.484,-26.855,-70.312,-44.922
1626465485.573,-61.035,-29.785,-47.852,-82.520
1626465485.577,-73.730,-13.672,3.906,-35.156
1626465485.581,10.742,-7.324,-10.742,7.812
1626465485.584,50.781,-19.531,-57.129,-20.996
1626465485.588,-17.090,-27.832,-53.223,-60.547
1626465485.592,-84.473,-25.391,3.418,-38.086
1626465485.596,-17.090,-21.484,2.930,20.508
1626465485.600,43.945,-30.273,-48.828,4.395
1626465485.602,4.395,-31.738,-60.059,-44.434
1626465485.606,-85.449,-36.621,-22.949,-49.316
1626465485.610,-46.875,-33.691,1.465,0.977
1626465485.614,27.344,-28.320,-38.086,0.977
1626465485.618,15.137,-36.621,-69.824,-46.875
1626465485.622,-73.730,-44.922,-33.203,-68.359
1626465485.626,-62.012,-41.016,4.395,-20.508
1626465485.629,4.395,-32.715,-28.809,13.184
1626465485.633,29.785,-38.574,-63.477,-29.785
1626465485.637,-50.293,-50.781,-42.480,-73.242
1626465485.641,-79.590,-36.621,-3.906,-23.438
1626465485.645,-0.488,-29.785,-18.066,20.996
1626465485.649,40.527,-41.016,-57.617,-12.695
1626465485.653,-25.879,-48.340,-61.523,-62.988
1626465485.657,-98.145,-38.574,-12.695,-56.152
1626465485.661,-29.297,-28.320,3.906,6.836
1626465485.665,26.855,-30.762,-42.969,-0.977
1626465485.669,-2.441,-36.621,-71.289,-62.500
1626465485.673,-90.820,-47.363,-31.250,-69.824
1626465485.676,-66.406,-45.898,0.488,-9.277
1626465485.680,11.230,-34.668,-33.691,-2.930
1626465485.684,33.691,-32.715,-62.500,-46.875
1626465485.688,-52.734,-38.574,-33.691,-72.266
1626465485.692,-74.707,-34.668,5.859,-17.578
1626465485.694,0.000,-32.227,-15.137,15.137
1626465485.698,31.738,-34.668,-57.129,-23.438
1626465485.702,-34.668,-36.621,-47.852,-58.105
1626465485.706,-87.891,-39.062,0.488,-35.645
1626465485.710,-28.320,-28.809,-1.465,8.301
1626465485.714,31.250,-20.996,-39.551,-6.348
1626465485.718,-14.160,-28.320,-52.246,-57.129
1626465485.721,-99.609,-30.273,-19.531,-49.316
1626465485.725,-53.711,-32.715,-10.254,12.207
1626465485.729,23.926,-25.879,-40.527,13.184
1626465485.733,13.672,-28.320,-62.012,-33.203
1626465485.737,-79.590,-40.527,-30.273,-46.875
1626465485.737,-59.570,-36.133,10.742,8.789
1626465485.741,10.742,-38.574,-22.949,12.207
1626465485.745,24.902,-40.039,-56.641,-32.715
1626465485.749,-63.477,-29.785,-22.949,-50.293
1626465485.753,-94.727,-27.344,8.789,-16.602
1626465485.757,-12.207,-34.180,-13.184,10.742
1626465485.761,37.598,-31.738,-49.805,-20.508
1626465485.764,-34.180,-40.039,-52.734,-69.824
1626465485.768,-90.332,-47.852,-3.906,-50.293
1626465485.772,-13.184,-35.645,7.324,10.254
1626465485.776,50.781,-33.203,-33.203,4.395
1626465485.780,-7.324,-37.598,-60.059,-41.016
1626465485.782,-100.586,-36.133,-14.160,-49.805
1626465485.786,-48.340,-25.391,11.719,9.277
1626465485.790,20.996,-24.414,-28.320,17.090
1626465485.794,5.859,-35.645,-52.246,-47.363
1626465485.798,-80.566,-36.621,-21.484,-68.359
1626465485.802,-63.477,-30.273,7.812,-5.371
1626465485.806,-0.488,-35.645,-22.949,8.789
1626465485.809,7.324,-46.875,-60.547,-36.133
1626465485.813,-76.172,-43.457,-40.527,-64.941
1626465485.817,-94.238,-35.645,12.207,-23.926
1626465485.821,-5.371,-28.809,0.488,18.555
1626465485.825,38.086,-25.879,-57.129,-19.531
1626465485.828,-27.344,-36.621,-68.359,-74.707
1626465485.832,-78.613,-39.062,-10.742,-47.363
1626465485.836,-31.738,-36.621,-1.953,8.301
1626465485.840,6.836,-41.992,-49.805,-22.949
1626465485.844,-28.320,-45.410,-59.570,-73.730
1626465485.848,-108.887,-46.875,-8.789,-62.500
1626465485.852,-69.824,-51.270,19.531,-0.488
1626465485.855,-1.465,-56.641,-24.414,-6.348
1626465485.859,5.859,-55.176,-55.176,-48.828
1626465485.863,-79.590,-55.664,-22.461,-66.406
1626465485.867,-78.125,-46.387,14.160,-16.113
1626465485.871,1.953,-45.410,-21.973,4.395
1626465485.872,33.203,-38.086,-60.547,-40.039
1626465485.876,-48.828,-32.227,-37.109,-71.777
1626465485.880,-88.867,-47.363,8.301,-36.133
1626465485.884,-6.836,-42.969,-0.977,8.789
1626465485.888,41.992,-34.180,-41.504,-7.324
1626465485.892,-24.902,-34.668,-41.504,-56.152
1626465485.896,-95.215,-34.668,0.000,-50.293
1626465485.899,-28.809,-22.949,11.719,6.836
1626465485.903,29.297,-22.461,-28.320,-5.859
1626465485.907,1.953,-32.227,-50.781,-62.012
1626465485.911,-91.797,-31.738,-14.648,-77.637
1626465485.915,-67.383,-32.227,13.672,-25.391
1626465485.918,11.719,-26.367,-16.113,-10.742
1626465485.922,22.949,-32.715,-50.781,-51.758
1626465485.926,-65.430,-39.551,-26.855,-76.172
1626465485.930,-74.219,-35.156,17.090,-21.973
1626465485.934,3.906,-30.273,-4.395,5.859
1626465485.938,38.574,-29.297,-48.828,-25.391
1626465485.942,-38.086,-31.738,-47.363,-69.336
1626465485.945,-83.984,-28.320,1.953,-38.086
1626465485.949,-14.160,-22.949,1.953,14.648
1626465485.953,40.527,-17.578,-41.992,-14.160
1626465485.957,6.836,-6.348,-41.504,-52.246
1626465485.961,-62.500,-5.371,16.113,-31.738
1626465485.977,-18.066,-12.207,28.320,24.902
1626465485.981,29.785,-19.043,-33.203,3.906
1626465485.985,4.395,-29.785,-60.059,-48.340
1626465485.989,-74.707,-17.090,-19.043,-57.129
1626465485.993,-40.527,6.836,6.348,-6.836
1626465485.997,22.461,2.930,-18.066,1.465
1626465486.001,0.488,-6.348,-46.875,-68.359
1626465486.004,-111.328,-7.812,-27.832,-123.535
1626465486.008,-142.090,-4.883,15.625,-86.426
1626465486.012,-90.820,-6.836,-1.465,-71.289
1626465486.016,-93.750,-13.184,-38.574,-134.766
1626465486.020,-177.246,-17.578,-20.020,-180.664
1626465486.022,-238.770,-10.254,27.344,-177.734
1626465486.026,-182.129,-8.789,14.160,-141.113
1626465486.030,-134.766,-26.855,-20.996,-148.926
1626465486.034,-176.758,-32.227,-27.832,-193.359
1626465486.038,-247.559,-32.715,16.113,-178.711
1626465486.042,-188.477,-33.203,37.598,-112.305
1626465486.046,-105.469,-38.086,-6.836,-102.051
1626465486.049,-89.355,-46.387,-35.645,-125.977
1626465486.053,-157.227,-54.199,-1.953,-113.281
1626465486.057,-133.301,-57.617,31.250,-42.480
1626465486.061,-30.762,-46.875,0.000,-14.160
1626465486.065,3.418,-49.316,-29.785,-40.527
1626465486.067,-82.031,-60.547,-23.926,-61.035
1626465486.071,-96.680,-53.223,15.625,-16.113
1626465486.075,-10.742,-46.875,11.230,27.832
1626465486.079,30.762,-53.711,-34.668,0.488
1626465486.083,-22.461,-58.594,-32.715,-29.785
1626465486.087,-64.453,-49.805,22.949,1.953
1626465486.091,5.371,-40.039,28.809,53.223
1626465486.094,49.316,-45.410,-20.020,31.250
1626465486.098,3.418,-57.129,-42.480,-17.090
1626465486.102,-60.547,-48.340,0.977,-10.742
1626465486.106,-9.277,-33.203,27.832,48.828
1626465486.110,48.340,-40.039,-16.113,57.129
1626465486.112,48.340,-45.898,-46.387,10.742
1626465486.116,-38.086,-45.898,-10.254,-17.578
1626465486.120,-32.227,-48.340,34.180,35.156
1626465486.124,56.152,-43.945,6.348,63.477
1626465486.128,74.707,-45.898,-35.645,21.484
1626465486.132,-13.184,-54.688,-21.973,-18.555
1626465486.136,-41.016,-49.805,21.484,17.090
1626465486.139,38.574,-48.828,7.812,69.824
1626465486.143,75.684,-56.641,-42.480,31.250
1626465486.147,16.113,-58.594,-43.945,-17.578
1626465486.151,-40.527,-46.387,8.301,2.441
1626465486.155,16.113,-42.480,9.766,49.805
1626465486.159,65.918,-50.781,-31.250,35.645
1626465486.163,45.898,-43.945,-40.527,-5.859
1626465486.167,-27.344,-44.434,-3.906,-6.836
1626465486.171,-6.836,-51.270,13.672,40.039
1626465486.175,58.105,-46.875,-19.531,44.434
1626465486.179,64.453,-47.852,-42.969,5.371
1626465486.183,-24.902,-44.922,-21.973,-21.484
1626465486.186,-35.645,-46.387,7.812,14.648
1626465486.190,36.621,-43.457,-15.625,41.992
1626465486.194,66.406,-45.898,-51.270,10.254
1626465486.198,-8.301,-53.223,-31.250,-24.902
1626465486.202,-45.898,-43.457,15.625,5.371
1626465486.202,31.738,-31.250,2.930,50.781
1626465486.206,78.613,-35.156,-40.039,25.879
1626465486.210,13.672,-48.340,-49.316,-27.832
1626465486.214,-63.477,-48.828,-9.277,-22.949
1626465486.218,11.230,-37.598,1.953,40.527
1626465486.222,74.707,-38.574,-35.645,42.480
1626465486.226,31.250,-51.758,-64.453,-17.578
1626465486.229,-60.059,-47.363,-31.738,-39.551
1626465486.233,-38.574,-38.574,2.441,12.695
1626465486.237,35.156,-38.574,-23.926,21.973
1626465486.241,46.387,-38.086,-54.688,-14.160
1626465486.245,-51.758,-42.969,-39.551,-40.527
1626465486.247,-55.176,-37.109,9.277,6.836
1626465486.251,32.715,-27.832,-9.766,41.504
1626465486.255,63.477,-30.273,-49.316,8.301
1626465486.259,-13.184,-37.598,-39.062,-25.391
1626465486.263,-65.918,-39.062,6.836,4.395
1626465486.267,0.977,-30.273,2.930,46.387
1626465486.271,38.086,-40.039,-50.293,13.184
1626465486.274,-1.465,-40.039,-57.129,-31.738
1626465486.278,-69.824,-39.062,-11.719,-28.320
1626465486.282,-29.297,-38.574,3.906,27.832
1626465486.286,28.320,-37.598,-33.691,26.855
1626465486.290,18.555,-42.969,-56.152,-29.297
1626465486.307,-66.406,-47.363,-17.090,-46.387
1626465486.311,-48.828,-51.758,11.230,9.766
1626465486.315,15.625,-42.480,-25.879,28.809
1626465486.319,30.762,-37.109,-62.988,-12.695
1626465486.323,-52.734,-42.969,-38.086,-47.363
1626465486.327,-76.172,-33.203,11.230,-7.812
1626465486.331,-3.418,-37.598,-6.836,28.320
1626465486.334,31.250,-46.387,-51.758,-6.348
1626465486.338,-32.715,-41.504,-50.781,-47.852
1626465486.342,-82.520,-36.621,0.000,-19.531
1626465486.346,-11.719,-30.762,5.859,24.414
1626465486.350,25.391,-31.738,-40.527,-5.859
1626465486.352,-12.695,-40.039,-56.152,-52.246
1626465486.356,-90.332,-54.199,-20.020,-54.199
1626465486.360,-38.086,-44.434,8.301,3.418
1626465486.364,40.527,-28.809,-24.414,15.137
1626465486.368,29.785,-31.738,-49.316,-27.344
1626465486.372,-63.477,-33.203,-11.230,-41.992
1626465486.376,-51.270,-22.949,20.508,9.277
1626465486.379,21.484,-20.508,-13.184,28.320
1626465486.383,41.992,-31.250,-57.129,-24.902
1626465486.387,-43.457,-37.598,-45.410,-65.918
1626465486.391,-80.566,-34.668,3.906,-25.879
1626465486.395,-10.742,-38.574,-1.953,17.578
1626465486.399,35.645,-38.086,-37.598,-2.930
1626465486.403,-14.648,-33.691,-42.480,-48.340
1626465486.407,-83.984,-36.133,-11.230,-45.410
1626465486.411,-20.020,-27.344,-2.441,11.230
1626465486.415,33.203,-27.832,-40.527,3.418
1626465486.419,6.348,-30.762,-59.082,-43.945
1626465486.423,-74.707,-36.621,-17.578,-46.387
1626465486.426,-44.922,-45.410,11.230,17.090
1626465486.430,37.598,-35.645,-27.344,32.227
1626465486.434,27.832,-32.227,-63.477,-36.133
1626465486.438,-87.891,-39.062,-34.668,-85.449
1626465486.442,-98.145,-33.203,0.488,-44.434
1626465486.442,-27.344,-27.344,-29.785,-30.273
1626465486.446,0.000,-27.832,-63.965,-66.895
1626465486.450,-70.312,-33.203,-57.129,-101.562
1626465486.454,-113.281,-27.344,-27.344,-85.938
1626465486.458,-39.551,-21.973,-26.367,-36.621
1626465486.462,21.484,-20.996,-60.059,-41.016
1626465486.466,-23.926,-27.344,-68.359,-79.102
1626465486.469,-107.422,-33.203,-28.809,-72.754
1626465486.473,-56.641,-27.832,-16.113,-24.414
1626465486.477,9.766,-28.809,-51.270,-20.020
1626465486.481,-9.277,-28.320,-73.730,-59.570
1626465486.485,-90.332,-27.344,-34.668,-70.312
1626465486.487,-56.641,-25.391,-6.348,-12.695
1626465486.491,9.766,-29.297,-46.387,-5.859
1626465486.495,16.113,-31.738,-72.754,-49.316
1626465486.499,-67.871,-29.297,-46.387,-71.777
1626465486.503,-76.660,-20.996,-6.348,-28.320
1626465486.507,3.418,-17.090,-19.043,11.230
1626465486.511,33.203,-27.832,-62.500,-29.785
1626465486.514,-48.828,-40.039,-65.430,-86.426
1626465486.518,-98.145,-39.551,-23.438,-56.641
1626465486.522,-28.809,-33.203,-12.207,12.695
1626465486.526,28.320,-23.926,-46.387,-13.672
1626465486.530,-16.113,-24.902,-60.547,-72.266
1626465486.532,-92.285,-40.039,-18.555,-60.059
1626465486.536,-33.203,-33.203,2.441,-1.465
1626465486.540,31.250,-26.855,-35.156,-4.395
1626465486.544,18.066,-37.598,-65.918,-46.875
1626465486.548,-69.336,-43.457,-28.320,-58.594
1626465486.552,-44.922,-25.879,5.371,-0.488
1626465486.556,27.832,-16.602,-26.855,22.949
1626465486.559,44.434,-24.902,-59.570,-11.719
1626465486.563,-41.504,-27.344,-32.715,-44.434
1626465486.567,-80.078,-31.738,8.301,-17.578
1626465486.571,4.395,-24.414,-10.742,18.555
1626465486.575,42.969,-23.438,-53.711,-21.484
1626465486.577,-32.227,-32.227,-46.875,-72.754
1626465486.581,-83.008,-24.902,7.324,-39.062
1626465486.585,-19.531,-16.113,0.488,12.207
1626465486.589,32.227,-27.832,-46.387,-15.625
1626465486.593,1.953,-38.574,-55.176,-68.848
1626465486.597,-84.961,-32.715,-13.184,-68.848
1626465486.601,-43.457,-25.879,5.859,-3.418
1626465486.604,22.949,-27.832,-37.109,-0.977
1626465486.608,11.719,-29.785,-58.594,-44.922
1626465486.612,-68.359,-31.738,-26.367,-62.500
1626465486.616,-56.152,-29.785,5.859,-12.695
1626465486.620,8.789,-25.879,-21.973,11.230
1626465486.623,32.715,-23.926,-53.711,-33.691
1626465486.627,-41.016,-31.738,-33.691,-58.105
1626465486.631,-81.543,-37.109,2.930,-20.508
1626465486.635,-3.906,-27.832,-10.742,10.254
1626465486.639,43.945,-15.137,-51.758,-10.742
1626465486.643,-15.137,-22.461,-53.223,-52.246
1626465486.647,-83.984,-34.668,-6.348,-42.480
1626465486.650,-16.602,-21.484,8.789,20.020
1626465486.654,46.875,-15.625,-34.180,10.742
1626465486.658,13.184,-31.250,-55.664,-49.316
1626465486.662,-61.523,-28.809,-11.719,-49.316
1626465486.666,-34.668,-23.438,15.625,11.719
1626465486.668,26.367,-25.879,-23.438,10.742
1626465486.672,38.086,-27.344,-54.688,-33.691
1626465486.676,-61.035,-28.320,-21.484,-60.547
1626465486.680,-62.012,-20.020,22.949,-11.719
1626465486.684,28.809,-15.137,-2.930,22.461
1626465486.688,46.387,-26.367,-49.805,-23.926
1626465486.692,-47.363,-43.945,-47.852,-72.266
1626465486.695,-81.055,-42.969,-2.441,-36.621
1626465486.699,-0.977,-29.297,1.465,10.254
1626465486.703,36.621,-21.973,-34.180,-18.555
1626465486.707,-18.066,-27.832,-41.504,-62.500
1626465486.711,-86.426,-30.762,-2.441,-49.805
1626465486.728,-35.645,-26.367,10.742,-3.906
1626465486.732,13.672,-29.785,-36.133,-23.926
1626465486.736,-11.719,-40.039,-58.594,-61.523
1626465486.740,-93.750,-39.551,-18.555,-76.172
1626465486.744,-66.406,-28.809,15.625,-23.438
1626465486.748,11.719,-23.926,-13.672,-2.441
1626465486.752,21.484,-30.273,-46.387,-42.480
1626465486.755,-51.758,-32.227,-29.297,-56.641
1626465486.759,-68.848,-31.738,-0.488,-16.602
1626465486.763,-20.020,-36.133,-19.043,1.465
1626465486.767,27.832,-24.902,-46.387,-22.949
1626465486.771,-37.598,-29.785,-34.668,-59.082
1626465486.772,-93.750,-38.574,10.254,-39.062
1626465486.776,-16.602,-31.250,9.277,3.418
1626465486.780,30.762,-33.203,-42.969,-29.297
1626465486.784,-25.391,-38.574,-58.594,-72.266
1626465486.788,-89.355,-24.902,-9.277,-51.758
1626465486.792,-20.508,-8.789,20.020,10.742
1626465486.796,40.527,-17.578,-20.996,3.418
1626465486.799,10.742,-27.344,-55.664,-49.805
1626465486.803,-97.168,-33.203,-20.508,-76.660
1626465486.807,-87.402,-30.762,10.742,-29.297
1626465486.811,-4.395,-13.184,-14.648,-8.789
1626465486.815,12.207,-11.230,-41.504,-59.082
1626465486.817,-106.934,-29.785,-30.762,-122.559
1626465486.821,-150.391,-19.531,11.719,-97.168
1626465486.825,-91.309,-2.441,3.418,-72.754
1626465486.829,-98.633,-5.859,-41.016,-149.414
1626465486.833,-202.148,-11.719,-46.387,-214.355
1626465486.837,-279.785,-8.301,-0.977,-202.637
1626465486.841,-246.582,0.977,-1.953,-190.918
1626465486.844,-212.402,-0.977,-55.176,-236.816
1626465486.848,-258.789,-16.602,-77.148,-298.340
1626465486.852,-330.078,-7.324,-33.203,-294.922
1626465486.856,-287.109,-0.977,-10.254,-238.770
1626465486.860,-228.027,-11.719,-52.246,-256.348
1626465486.863,-229.492,-24.414,-80.566,-307.129
1626465486.867,-310.059,-22.461,-40.527,-317.871
1626465486.871,-296.387,-11.719,4.395,-254.395
1626465486.875,-223.633,-9.277,-25.391,-235.840
1626465486.879,-195.801,-2.930,-64.941,-271.484
1626465486.883,-252.441,7.324,-39.551,-283.691
1626465486.887,-265.137,12.695,-1.465,-228.027
1626465486.890,-185.547,2.930,-28.320,-180.664
1626465486.894,-125.000,-3.906,-66.406,-202.148
1626465486.898,-150.879,-2.441,-57.129,-217.773
1626465486.902,-203.613,-3.418,-14.160,-178.711
1626465486.906,-137.207,-4.395,-19.531,-120.605
1626465486.907,-61.035,-11.230,-57.129,-110.840
1626465486.911,-66.406,-13.184,-71.777,-126.953
1626465486.915,-138.672,-14.648,-40.039,-118.164
1626465486.919,-88.867,-17.090,-18.066,-42.969
1626465486.923,-4.883,-15.625,-55.176,-26.855
1626465486.927,5.859,-23.926,-81.055,-58.594
1626465486.931,-60.059,-37.109,-47.363,-56.641
1626465486.934,-60.547,-41.504,-16.113,-15.625
1626465486.938,20.996,-33.691,-40.527,11.230
1626465486.942,79.590,-26.855,-68.848,-3.418
1626465486.946,9.766,-30.273,-57.617,-34.668
1626465486.950,-34.668,-35.645,-13.184,1.953
1626465486.952,51.270,-33.203,-18.066,59.570
1626465486.956,94.238,-36.133,-58.105,28.320
1626465486.960,39.551,-45.410,-63.965,-18.066
1626465486.964,-29.785,-48.828,-18.066,-7.324
1626465486.968,24.414,-34.668,-1.953,51.270
1626465486.972,86.426,-34.180,-36.621,53.711
1626465486.976,66.406,-47.363,-60.547,3.906
1626465486.979,-21.973,-50.781,-27.344,4.395
1626465486.983,8.789,-42.480,9.766,72.754
1626465486.987,85.938,-37.598,-21.973,86.426
1626465486.991,88.379,-48.828,-52.734,47.852
1626465486.995,-1.953,-50.781,-25.879,20.508
1626465487.012,-9.277,-44.922,16.113,60.547
1626465487.016,66.895,-46.875,-7.324,88.867
1626465487.020,103.027,-46.387,-53.223,57.617
1626465487.024,20.508,-55.176,-49.316,14.648
1626465487.028,-30.762,-55.176,5.371,47.363
1626465487.032,53.223,-46.875,7.812,100.586
1626465487.036,107.422,-48.828,-45.898,65.430
1626465487.039,46.875,-53.223,-53.223,19.531
1626465487.043,-16.113,-48.340,1.953,31.250
1626465487.047,50.293,-37.109,13.184,83.984
1626465487.051,99.121,-36.621,-33.691,69.824
1626465487.055,86.914,-40.527,-54.688,16.113
1626465487.043,5.859,-39.062,-25.879,-0.488
1626465487.047,19.531,-39.062,0.977,49.805
1626465487.051,94.727,-37.598,-29.297,74.219
1626465487.055,110.352,-45.898,-62.500,41.016
1626465487.059,19.531,-48.828,-36.133,13.672
1626465487.063,-4.883,-40.527,8.301,54.199
1626465487.067,71.289,-41.992,-8.789,82.031
1626465487.070,104.492,-42.969,-45.410,44.922
1626465487.074,39.062,-31.738,-37.598,11.230
1626465487.078,-20.508,-28.320,2.930,31.250
1626465487.082,37.598,-32.227,-8.789,65.918
1626465487.086,86.426,-32.715,-53.223,50.781
1626465487.103,40.527,-32.227,-60.547,6.348
1626465487.107,-41.504,-38.086,-14.648,-0.488
1626465487.111,8.789,-35.645,16.113,49.316
1626465487.115,79.590,-35.156,-20.020,46.387
1626465487.119,55.664,-41.016,-46.875,-3.906
1626465487.123,-35.645,-38.574,-13.184,-29.785
1626465487.127,-4.883,-30.762,21.484,26.855
1626465487.130,62.500,-31.250,-17.578,49.805
1626465487.134,62.012,-41.992,-62.988,1.953
1626465487.138,-24.414,-58.105,-46.875,-51.270
1626465487.142,-38.574,-46.875,12.207,-5.859
1626465487.146,52.734,-28.809,7.812,56.641
1626465487.147,76.172,-31.250,-46.875,19.043
1626465487.151,-0.977,-37.109,-44.434,-30.273
1626465487.155,-46.387,-35.156,7.324,-4.395
1626465487.159,34.668,-24.414,12.695,47.852
1626465487.163,90.820,-26.367,-31.738,35.645
1626465487.167,39.551,-36.133,-48.828,-4.395
1626465487.171,-41.992,-44.922,-7.324,-13.184
1626465487.174,15.625,-38.574,14.648,41.504
1626465487.178,84.961,-31.250,-21.484,52.734
1626465487.182,71.777,-29.297,-43.945,5.371
1626465487.186,-6.836,-35.645,-13.184,-17.090
1626465487.190,-1.953,-38.086,23.926,32.227
1626465487.193,70.801,-34.668,-0.977,51.270
1626465487.197,90.332,-37.109,-49.805,3.418
1626465487.201,-2.930,-40.039,-43.457,-32.715
1626465487.205,-37.598,-34.180,6.836,-2.930
1626465487.209,48.828,-26.367,5.371,52.246
1626465487.213,95.215,-24.902,-35.645,32.715
1626465487.217,31.738,-32.715,-37.598,-15.137
1626465487.220,-50.293,-44.922,2.930,-0.977
1626465487.224,-3.418,-43.457,4.395,47.363
1626465487.228,48.828,-42.480,-36.133,24.902
1626465487.232,18.066,-41.504,-55.664,-21.484
1626465487.236,-64.941,-41.992,-13.672,-34.180
1626465487.237,-29.785,-35.645,13.184,20.508
1626465487.241,44.922,-25.391,-13.184,40.527
1626465487.245,43.457,-32.227,-45.898,-7.812
1626465487.249,-62.500,-41.504,-30.762,-41.016
1626465487.253,-67.383,-36.621,4.883,0.000
1626465487.257,25.879,-29.785,-22.461,30.762
1626465487.261,46.875,-31.738,-65.430,-11.230
1626465487.264,-38.574,-40.039,-55.176,-59.570
1626465487.268,-74.219,-35.645,-3.418,-23.926
1626465487.272,9.277,-23.926,3.906,34.180
1626465487.276,45.410,-28.809,-38.086,6.836
1626465487.280,-27.344,-48.340,-64.941,-44.922
1626465487.282,-104.980,-49.805,-23.926,-46.387
1626465487.286,-42.480,-38.086,2.441,8.789
1626465487.290,12.207,-41.016,-34.668,3.906
1626465487.294,-18.066,-44.922,-51.758,-43.945
1626465487.298,-102.051,-39.062,-9.766,-53.711
1626465487.302,-61.523,-30.273,24.902,8.301
1626465487.306,25.391,-30.273,-21.973,26.855
1626465487.309,16.602,-43.457,-70.801,-36.133
1626465487.313,-70.801,-42.969,-36.133,-54.688
1626465487.317,-73.730,-36.621,17.578,-1.953
1626465487.321,11.230,-29.297,0.977,28.320
1626465487.325,32.227,-36.621,-42.480,1.953
1626465487.328,-40.039,-47.363,-39.551,-41.504
1626465487.332,-80.078,-34.668,4.395,-31.250
1626465487.336,-8.789,-31.250,8.301,19.531
1626465487.340,39.551,-35.156,-32.227,8.301
1626465487.344,-3.906,-42.480,-48.340,-41.504
1626465487.348,-81.543,-45.898,-4.883,-45.898
1626465487.352,-37.598,-36.621,15.137,11.230
1626465487.355,26.367,-34.668,-21.973,14.160
1626465487.359,12.207,-45.410,-52.734,-32.715
1626465487.363,-88.867,-57.129,-28.320,-52.246
1626465487.367,-69.336,-44.434,12.207,-1.465
1626465487.371,13.672,-32.227,-18.066,21.484
1626465487.372,23.926,-41.992,-53.711,-18.066
1626465487.376,-65.430,-51.758,-32.715,-54.199
1626465487.380,-93.262,-45.898,7.324,-25.391
1626465487.384,-20.020,-35.645,-10.742,13.672
1626465487.388,21.484,-32.227,-47.852,-18.066
1626465487.392,-33.203,-30.762,-40.527,-53.223
1626465487.396,-102.051,-47.852,-0.488,-33.203
1626465487.399,-23.438,-38.086,11.719,20.996
1626465487.403,36.621,-22.949,-21.973,-0.977
1626465487.407,-14.648,-30.762,-54.199,-72.754
1626465487.411,-100.586,-28.809,-29.297,-78.125
1626465487.415,-67.871,-18.066,-2.930,-14.648
1626465487.417,-5.859,-19.531,-40.039,-19.043
1626465487.421,1.465,-25.391,-71.777,-58.594
1626465487.425,-83.984,-30.762,-39.062,-81.055
1626465487.429,-85.938,-31.250,6.836,-36.133
1626465487.433,-10.254,-26.855,-20.508,1.953
1626465487.437,26.367,-24.414,-60.547,-39.551
1626465487.441,-54.199,-26.367,-49.316,-79.102
1626465487.444,-99.609,-35.156,-1.465,-42.480
1626465487.448,-12.695,-27.344,-5.859,14.160
1626465487.452,42.969,-25.391,-49.805,0.000
1626465487.456,-8.789,-25.391,-53.711,-46.387
1626465487.460,-83.984,-30.762,-17.578,-37.109
1626465487.477,-35.156,-30.273,-9.277,16.113
1626465487.481,30.273,-18.555,-42.969,6.348
1626465487.485,10.742,-21.973,-62.500,-35.645
1626465487.489,-73.242,-28.320,-20.996,-48.828
1626465487.493,-41.016,-25.879,17.578,-9.766
1626465487.497,36.621,-23.926,-20.020,9.277
1626465487.501,54.688,-27.344,-67.383,-24.414
1626465487.504,-39.062,-29.785,-44.922,-56.641
1626465487.508,-55.176,-19.043,4.883,-16.602
1626465487.512,10.742,-23.438,-19.531,11.719
1626465487.516,38.086,-37.598,-62.500,-19.043
1626465487.520,-32.227,-39.551,-53.711,-59.082
1626465487.522,-85.938,-36.133,-9.277,-41.016
1626465487.526,-17.090,-32.227,-6.348,11.719
1626465487.530,44.922,-26.367,-43.457,-3.418
1626465487.534,3.418,-35.156,-56.152,-44.922
1626465487.538,-79.590,-39.062,-9.766,-37.109
1626465487.542,-23.438,-29.785,12.207,12.207
1626465487.546,45.410,-20.996,-28.320,8.789
1626465487.549,20.996,-21.973,-59.570,-30.273
1626465487.553,-81.055,-41.016,-34.180,-56.152
1626465487.557,-70.312,-41.992,2.441,-18.066
1626465487.561,20.508,-21.973,-20.508,7.324
1626465487.565,59.570,-26.855,-54.688,-23.438
1626465487.568,-45.410,-41.016,-47.363,-71.289
1626465487.572,-79.590,-29.297,-1.465,-26.367
1626465487.576,12.695,-18.555,-8.789,14.648
1626465487.580,46.387,-25.391,-52.734,-28.809
1626465487.584,-32.227,-36.621,-58.105,-71.777
1626465487.588,-92.773,-35.645,-11.719,-50.781
1626465487.592,-22.949,-26.367,1.465,5.371
1626465487.595,27.832,-30.762,-41.992,-10.254
1626465487.599,-9.277,-45.898,-61.523,-60.059
1626465487.603,-99.121,-45.898,-18.555,-57.617
1626465487.607,-62.988,-38.574,8.301,1.953
1626465487.611,16.602,-37.109,-27.832,1.953
1626465487.612,17.090,-31.250,-57.129,-41.992
1626465487.616,-77.148,-25.879,-24.902,-57.129
1626465487.620,-70.801,-26.855,7.324,-10.254
1626465487.624,18.555,-32.227,-20.020,14.648
1626465487.628,49.805,-30.273,-51.270,-21.973
1626465487.632,-43.945,-27.832,-38.086,-54.688
1626465487.636,-76.660,-32.715,8.301,-22.461
1626465487.639,-6.348,-32.227,-6.836,10.742
1626465487.643,37.109,-33.691,-51.758,-13.184
1626465487.647,-13.672,-30.273,-44.922,-46.387
1626465487.651,-87.891,-31.738,-3.418,-35.156
1626465487.655,-30.762,-44.434,-5.371,14.648
1626465487.657,27.832,-47.852,-41.016,3.418
1626465487.661,8.789,-41.992,-53.711,-33.691
1626465487.665,-73.242,-35.645,-17.578,-44.434
1626465487.669,-45.410,-28.320,7.812,2.441
1626465487.673,30.273,-29.297,-27.344,11.719
1626465487.677,34.180,-30.273,-57.617,-37.109
1626465487.681,-62.988,-30.273,-33.203,-58.594
1626465487.684,-70.312,-36.621,1.465,-14.648
1626465487.688,-0.977,-41.504,-25.391,8.301
1626465487.692,29.785,-43.457,-62.012,-26.367
1626465487.696,-44.434,-47.852,-48.828,-66.406
1626465487.700,-91.797,-43.945,-5.859,-43.945
1626465487.702,-21.484,-42.969,-15.625,8.301
1626465487.706,32.227,-41.992,-53.223,-13.672
1626465487.710,-17.578,-39.551,-53.711,-62.012
1626465487.714,-92.773,-41.016,-6.836,-42.969
1626465487.718,-37.109,-34.180,-1.465,3.906
1626465487.722,41.016,-23.438,-30.273,-2.441
1626465487.726,25.391,-29.785,-45.898,-38.086
1626465487.729,-82.520,-43.457,-16.113,-45.410
1626465487.733,-57.617,-36.133,16.602,6.836
1626465487.737,11.719,-34.668,-24.414,-1.953
1626465487.741,28.320,-38.574,-60.059,-37.109
1626465487.745,-51.758,-39.551,-29.785,-58.105
1626465487.748,-74.707,-38.086,13.184,-24.902
1626465487.752,-1.465,-29.785,-6.348,8.301
1626465487.756,35.645,-43.945,-49.316,-24.414
1626465487.760,-30.762,-52.246,-40.527,-69.336
1626465487.764,-73.242,-34.668,8.789,-43.457
1626465487.768,-4.395,-21.484,13.672,14.160
1626465487.772,48.340,-32.227,-32.715,-3.418
1626465487.775,5.371,-41.504,-47.852,-54.199
1626465487.779,-82.031,-35.156,3.418,-51.758
1626465487.783,-40.039,-38.574,14.648,-2.930
1626465487.787,29.297,-51.270,-29.297,-7.812
1626465487.791,32.227,-43.945,-50.293,-38.574
1626465487.794,-59.570,-37.598,-18.066,-48.340
1626465487.798,-65.918,-43.457,13.184,-12.207
1626465487.802,11.719,-48.340,-20.020,2.930
1626465487.806,40.527,-46.875,-57.129,-32.227
1626465487.810,-43.945,-42.969,-29.785,-54.199
1626465487.814,-60.547,-41.992,19.043,-8.789
1626465487.818,14.160,-33.691,-0.977,25.391
1626465487.821,56.641,-32.227,-38.086,3.906
1626465487.825,-10.254,-37.109,-40.039,-39.551
1626465487.829,-74.707,-30.762,5.859,-23.926
1626465487.833,-6.348,-28.320,13.672,23.438
1626465487.837,46.875,-42.969,-34.180,-1.953
1626465487.852,13.184,-49.316,-54.688,-43.457
1626465487.856,-76.660,-44.434,-20.508,-41.016
1626465487.860,-35.645,-31.738,4.395,2.930
1626465487.864,34.668,-30.273,-28.809,10.254
1626465487.868,28.809,-35.645,-56.152,-23.438
1626465487.872,-53.711,-31.738,-32.227,-41.992
1626465487.876,-49.316,-27.344,-2.441,3.418
1626465487.879,20.996,-30.273,-23.926,25.879
1626465487.883,45.898,-31.250,-57.617,-10.254
1626465487.887,-45.410,-33.203,-48.340,-50.293
1626465487.891,-76.660,-23.926,6.836,-8.789
1626465487.895,2.441,-20.996,-9.277,23.926
1626465487.897,58.105,-18.555,-51.758,-1.953
1626465487.901,-2.441,-27.344,-45.410,-34.668
1626465487.905,-80.566,-42.480,-2.441,-29.785
1626465487.909,-23.926,-36.621,0.000,11.719
1626465487.913,45.410,-29.297,-33.691,2.441
1626465487.917,25.879,-35.645,-44.922,-33.203
1626465487.921,-71.289,-47.363,-12.695,-46.387
1626465487.924,-44.922,-43.457,13.672,4.395
1626465487.928,25.391,-36.621,-19.043,12.695
1626465487.932,21.973,-41.992,-53.223,-27.344
1626465487.936,-77.637,-46.875,-23.926,-55.176
1626465487.940,-95.215,-51.758,11.719,-16.602
1626465487.942,-27.832,-55.176,-13.184,11.719
1626465487.946,18.555,-51.270,-45.898,-8.301
1626465487.950,-48.340,-43.457,-36.133,-55.176
1626465487.954,-99.121,-34.668,16.602,-38.574
1626465487.958,-34.668,-36.133,6.348,8.301
1626465487.962,14.160,-43.945,-38.574,-22.461
1626465487.966,-24.902,-51.270,-44.922,-68.848
1626465487.969,-104.980,-50.293,-6.836,-53.711
1626465487.973,-60.547,-47.852,6.348,-0.977
1626465487.977,18.066,-52.246,-36.621,-4.395
1626465487.981,5.371,-46.875,-52.734,-43.945
1626465487.985,-89.355,-34.180,-15.625,-50.293
1626465487.987,-64.453,-35.645,12.207,3.906
1626465487.991,7.324,-39.551,-23.926,10.254
1626465487.995,24.902,-34.180,-56.152,-25.391
1626465487.999,-61.035,-38.086,-34.180,-52.246
1626465488.003,-84.473,-41.992,5.371,-20.020
1626465488.007,-6.836,-32.227,-11.719,11.230
1626465488.011,37.598,-28.320,-49.805,-13.672
1626465488.014,-45.410,-43.457,-51.758,-55.664
1626465488.018,-98.633,-42.969,-8.789,-40.527
1626465488.022,-18.066,-28.809,-3.906,3.418
1626465488.026,36.621,-32.715,-37.109,-19.043
1626465488.030,-13.184,-41.016,-50.293,-60.059
1626465488.033,-87.402,-32.227,-10.254,-44.922
1626465488.037,-36.621,-21.973,4.883,0.977
1626465488.041,18.066,-18.066,-38.086,-17.090
1626465488.045,16.113,-21.484,-62.988,-55.664
1626465488.049,-63.477,-34.668,-29.297,-61.523
1626465488.053,-54.688,-33.691,8.301,-16.602
1626465488.057,12.695,-34.180,-23.926,-3.418
1626465488.060,38.086,-37.109,-62.500,-29.297
1626465488.064,-41.016,-29.785,-38.086,-59.082
1626465488.068,-84.961,-29.785,5.371,-26.855
1626465488.072,-11.719,-31.738,-15.137,9.277
1626465488.076,49.805,-30.762,-57.617,-14.160
1626465488.077,-21.973,-37.109,-53.711,-53.711
1626465488.081,-91.309,-42.480,-4.395,-36.621
1626465488.085,-21.973,-39.062,-2.930,5.371
1626465488.089,40.039,-39.551,-42.480,-13.184
1626465488.093,2.930,-36.133,-58.594,-45.898
1626465488.097,-79.102,-24.414,-15.137,-43.457
1626465488.101,-45.898,-23.438,1.953,-0.488
1626465488.104,9.277,-34.180,-38.574,-1.953
1626465488.108,13.672,-32.227,-55.176,-35.645
1626465488.112,-78.613,-33.203,-31.250,-50.781
1626465488.116,-69.336,-31.250,0.488,-9.766
1626465488.120,5.371,-27.832,-20.020,6.348
1626465488.122,27.832,-29.785,-53.223,-29.297
1626465488.126,-41.992,-34.180,-36.621,-58.594
1626465488.130,-71.289,-36.621,11.230,-28.809
1626465488.134,1.953,-19.531,0.488,7.812
1626465488.138,48.340,-18.066,-41.504,-12.207
1626465488.142,-9.277,-35.645,-51.270,-55.176
1626465488.146,-75.684,-38.574,-13.184,-36.133
1626465488.149,-14.160,-32.715,0.000,18.066
1626465488.153,42.480,-28.809,-29.785,5.371
1626465488.157,19.531,-27.344,-41.992,-27.832
1626465488.161,-59.570,-40.039,-14.160,-26.855
1626465488.165,-27.832,-36.133,7.812,21.973
1626465488.182,38.086,-23.438,-22.949,20.508
1626465488.186,46.387,-26.367,-50.293,-23.926
1626465488.190,-44.922,-30.762,-28.320,-42.969
1626465488.194,-67.383,-31.250,7.812,-6.348
1626465488.198,3.906,-31.738,-14.648,13.672
1626465488.202,38.086,-36.133,-55.176,-13.672
1626465488.206,-43.945,-39.062,-44.922,-49.805
1626465488.209,-84.473,-33.691,2.930,-12.695
1626465488.213,1.953,-32.227,-0.977,41.016
1626465488.217,59.570,-35.645,-43.457,14.160
1626465488.221,1.953,-28.320,-51.758,-30.762
1626465488.225,-75.195,-28.809,-4.883,-22.461
1626465488.228,-21.484,-33.691,0.000,17.578
1626465488.232,35.645,-36.133,-47.852,1.465
1626465488.236,21.484,-32.227,-63.965,-38.086
1626465488.240,-58.594,-29.785,-25.879,-48.340
1626465488.244,-49.805,-30.273,-0.488,-5.859
1626465488.248,19.043,-19.531,-28.320,7.324
1626465488.252,46.387,-18.066,-49.805,-30.762
1626465488.255,-46.875,-26.855,-34.180,-56.152
1626465488.259,-71.289,-30.273,-6.348,-20.508
1626465488.263,-2.441,-35.645,-29.297,2.441
1626465488.267,41.016,-36.133,-63.965,-15.625
1626465488.271,-21.484,-35.645,-48.340,-52.246
1626465488.273,-74.707,-28.320,1.953,-29.785
1626465488.277,-25.391,-26.367,-4.395,7.812
1626465488.281,7.812,-41.016,-52.734,-20.508
1626465488.285,-30.762,-41.992,-70.801,-62.500
1626465488.289,-93.262,-32.227,-33.203,-51.270
1626465488.293,-39.551,-32.227,-8.301,0.000
1626465488.297,20.996,-36.621,-45.898,-12.207
1626465488.300,3.418,-36.621,-73.730,-58.594
1626465488.304,-94.727,-43.945,-38.574,-76.660
1626465488.308,-79.590,-40.527,-5.859,-19.043
1626465488.312,-0.977,-30.273,-37.598,-3.906
1626465488.316,28.809,-32.715,-71.777,-44.922
1626465488.317,-53.711,-38.086,-50.781,-73.242
1626465488.321,-76.172,-35.645,-9.277,-35.156
1626465488.325,-6.836,-19.043,-24.902,2.930
1626465488.329,30.273,-25.879,-53.711,-32.715
1626465488.333,-30.762,-33.203,-42.480,-70.801
1626465488.337,-93.262,-26.855,-0.977,-57.129
1626465488.341,-24.902,-23.926,-3.906,-11.719
1626465488.344,38.574,-23.926,-39.551,-16.602
1626465488.348,1.465,-33.203,-44.434,-65.430
1626465488.352,-91.797,-35.645,-13.184,-70.312
1626465488.356,-56.152,-26.367,2.930,-7.324
1626465488.360,20.020,-28.320,-29.297,5.371
1626465488.362,20.020,-27.832,-56.152,-31.250
1626465488.366,-65.918,-31.738,-24.414,-48.340
1626465488.370,-49.805,-27.344,14.160,1.465
1626465488.374,17.090,-20.020,-18.066,2.441
1626465488.378,36.133,-26.855,-59.570,-36.621
1626465488.382,-46.875,-34.180,-43.945,-62.988
1626465488.386,-89.355,-29.785,-4.395,-35.156
1626465488.389,-10.742,-24.414,-16.113,6.348
1626465488.393,42.480,-27.344,-55.176,-18.555
1626465488.397,-27.344,-29.297,-50.781,-53.711
1626465488.401,-84.961,-24.414,0.000,-39.062
1626465488.405,-22.949,-31.738,0.488,3.906
1626465488.407,28.320,-34.180,-41.016,-13.184
1626465488.411,-2.930,-31.250,-62.988,-51.758
1626465488.415,-83.008,-33.203,-27.344,-44.922
1626465488.419,-47.363,-18.555,6.836,2.930
1626465488.423,19.531,-20.020,-22.949,2.441
1626465488.427,26.367,-34.180,-58.105,-24.902
1626465488.431,-56.152,-31.738,-39.062,-46.875
1626465488.434,-55.176,-34.180,-10.742,-19.043
1626465488.438,12.695,-39.062,-29.785,6.348
1626465488.442,39.062,-36.621,-56.152,-23.926
1626465488.446,-48.828,-39.062,-41.504,-61.035
1626465488.450,-100.098,-34.668,0.000,-27.832
1626465488.452,-24.414,-32.715,-9.766,15.137
1626465488.456,19.531,-38.574,-52.734,-14.648
1626465488.460,-43.457,-47.363,-60.547,-65.430
1626465488.464,-100.098,-44.434,-16.113,-49.316
1626465488.468,-30.762,-30.273,2.930,15.625
1626465488.472,34.668,-34.180,-33.691,1.465
1626465488.476,10.254,-50.781,-63.477,-49.805
1626465488.479,-83.984,-54.199,-26.855,-57.129
1626465488.483,-49.316,-43.457,13.184,-1.465
1626465488.487,27.344,-34.180,-23.438,3.418
1626465488.491,26.367,-40.039,-63.965,-36.621
1626465488.495,-69.336,-45.410,-45.898,-63.477
1626465488.499,-76.172,-29.785,0.488,-33.203
1626465488.503,4.883,-21.973,-13.672,-1.953
1626465488.507,30.762,-31.250,-58.594,-33.691
1626465488.511,-40.039,-34.180,-46.387,-64.941
1626465488.515,-77.637,-32.227,-0.488,-31.250
1626465488.519,-13.672,-36.133,-8.789,6.836
1626465488.523,27.344,-54.688,-55.664,-21.484
1626465488.526,-15.137,-53.711,-61.035,-57.617
1626465488.530,-76.660,-39.062,-11.719,-39.062
1626465488.534,-35.645,-41.504,-2.441,0.000
1626465488.538,12.695,-48.828,-37.109,-16.602
1626465488.542,-6.348,-48.340,-54.199,-59.570
1626465488.542,-96.191,-46.875,-28.809,-76.172
1626465488.546,-83.496,-48.828,2.441,-32.227
1626465488.550,-8.301,-46.387,-23.926,-19.043
1626465488.554,8.789,-42.969,-55.664,-48.340
1626465488.558,-64.941,-34.180,-23.438,-63.965
1626465488.562,-75.195,-39.062,14.160,-16.602
1626465488.566,-10.742,-47.852,-11.230,14.648
1626465488.569,35.645,-40.039,-46.875,-10.742
1626465488.573,-41.016,-47.363,-43.457,-55.664
1626465488.577,-96.680,-47.363,-1.953,-45.410
1626465488.581,-19.043,-38.086,-2.930,-0.488
1626465488.585,26.367,-48.340,-46.387,-26.855
1626465488.603,-14.160,-47.852,-58.594,-72.266
1626465488.607,-92.285,-39.551,-14.160,-66.406
1626465488.611,-37.598,-30.273,9.277,-15.625
1626465488.615,30.762,-25.391,-33.203,-10.742
1626465488.619,8.789,-32.227,-61.035,-48.828
1626465488.623,-78.613,-35.156,-30.762,-72.266
1626465488.627,-67.383,-30.762,-3.906,-18.066
1626465488.630,0.488,-29.297,-22.461,1.465
1626465488.634,20.508,-36.133,-51.758,-33.203
1626465488.638,-64.941,-41.992,-46.387,-64.941
1626465488.642,-83.496,-33.691,1.953,-24.414
1626465488.646,-4.395,-29.785,-2.930,25.879
1626465488.647,33.203,-32.715,-44.434,-1.953
1626465488.651,-27.344,-33.691,-48.828,-49.316
1626465488.655,-88.867,-30.273,-5.371,-33.691
1626465488.659,-15.625,-26.367,1.465,16.113
1626465488.663,40.039,-32.227,-42.969,-5.859
1626465488.667,-10.742,-34.668,-58.594,-62.988
1626465488.671,-88.867,-35.156,-19.043,-65.430
1626465488.674,-45.898,-34.180,1.465,-15.137
1626465488.678,9.766,-39.062,-39.551,-22.949
1626465488.682,1.465,-40.527,-64.453,-62.500
1626465488.686,-75.195,-32.715,-27.344,-77.148
1626465488.690,-60.059,-24.414,3.418,-34.180
1626465488.693,3.418,-32.715,-30.762,-12.695
1626465488.697,21.973,-41.504,-67.383,-42.480
1626465488.701,-57.129,-40.527,-51.758,-74.219
1626465488.705,-93.750,-38.086,3.418,-35.645
1626465488.709,-12.207,-31.738,-4.883,5.859
1626465488.713,33.203,-22.949,-48.340,-22.461
1626465488.717,-25.391,-22.949,-49.316,-56.641
1626465488.720,-88.379,-31.250,-3.418,-41.992
1626465488.724,-36.133,-32.227,3.418,6.348
1626465488.728,11.230,-39.551,-38.574,-9.766
1626465488.732,-15.625,-46.875,-63.965,-64.453
1626465488.736,-93.262,-33.203,-24.414,-68.848
1626465488.739,-60.547,-27.832,3.418,-10.742
1626465488.743,0.977,-34.668,-33.203,-9.277
1626465488.747,13.184,-30.762,-61.035,-48.828
1626465488.751,-74.219,-39.062,-44.922,-74.707
1626465488.755,-81.543,-39.551,-3.418,-28.320
1626465488.759,9.277,-29.297,-19.531,15.625
1626465488.763,46.387,-31.738,-57.129,-15.137
1626465488.766,-41.504,-46.387,-46.875,-55.664
1626465488.770,-87.891,-42.969,-8.789,-33.691
1626465488.774,-8.789,-26.855,-11.230,13.184
1626465488.778,38.086,-32.227,-54.688,-8.789
1626465488.782,-20.020,-43.945,-73.242,-61.035
1626465488.782,-83.496,-41.504,-21.973,-48.828
1626465488.786,-20.020,-38.086,-4.883,1.465
1626465488.790,31.738,-33.691,-46.387,-10.742
1626465488.794,10.742,-26.367,-56.641,-47.852
1626465488.798,-71.289,-23.926,-15.137,-56.152
1626465488.802,-45.898,-24.414,14.160,-6.836
1626465488.806,22.461,-29.297,-23.438,-2.441
1626465488.809,8.789,-44.434,-60.547,-46.875
1626465488.813,-89.844,-48.340,-31.738,-66.406
1626465488.817,-91.797,-32.227,5.859,-24.902
1626465488.821,-4.883,-22.461,-15.625,5.859
1626465488.825,27.344,-26.855,-49.316,-14.648
1626465488.828,-48.828,-38.086,-50.293,-58.105
1626465488.832,-89.844,-37.109,-3.906,-42.969
1626465488.836,-13.672,-29.297,4.395,6.836
1626465488.840,28.320,-32.715,-41.504,-16.602
1626465488.844,-17.090,-37.598,-60.547,-60.059
1626465488.848,-89.355,-34.668,-20.020,-66.895
1626465488.852,-49.805,-32.227,-2.441,-15.137
1626465488.855,11.719,-33.203,-40.527,-12.695
1626465488.859,9.766,-34.668,-51.270,-46.875
1626465488.863,-75.195,-33.691,-15.137,-56.641
1626465488.867,-62.012,-25.391,3.906,-21.973
1626465488.871,11.230,-28.809,-45.410,-11.719
1626465488.872,23.926,-37.109,-74.707,-45.410
1626465488.876,-65.918,-53.711,-43.457,-74.707
1626465488.880,-99.121,-49.805,1.465,-35.645
1626465488.884,-28.320,-36.621,-14.648,2.441
1626465488.888,20.508,-33.691,-58.105,-22.949
1626465488.892,-39.062,-35.156,-46.387,-63.477
1626465488.896,-88.379,-35.156,-3.906,-41.992
1626465488.899,-22.949,-31.250,-8.789,16.602
1626465488.903,31.250,-33.203,-50.293,-3.418
1626465488.907,1.953,-34.180,-66.895,-56.641
1626465488.911,-82.031,-38.086,-20.020,-52.734
1626465488.915,-45.410,-35.156,8.301,3.418
1626465488.918,20.020,-36.133,-35.645,0.000
1626465488.922,11.719,-43.457,-67.871,-47.852
1626465488.926,-75.195,-40.039,-32.715,-71.777
1626465488.930,-68.359,-38.086,6.836,-29.785
1626465488.934,-4.883,-36.133,-23.438,-7.812
1626465488.938,25.391,-30.762,-53.711,-36.133
1626465488.942,-47.363,-42.480,-45.410,-71.289
1626465488.945,-89.844,-40.527,-14.648,-38.086
1626465488.949,-9.277,-29.785,-21.973,-1.465
1626465488.953,40.039,-32.227,-57.129,-23.926
1626465488.957,-28.320,-35.645,-59.570,-61.035
1626465488.961,-94.727,-36.133,-15.137,-50.781
1626465488.978,-35.156,-30.273,-3.418,6.348
1626465488.982,20.996,-33.203,-41.504,-4.883
1626465488.986,0.000,-35.645,-58.594,-52.246
1626465488.990,-93.750,-35.156,-26.855,-62.012
1626465488.994,-67.383,-39.551,-3.418,-19.043
1626465488.998,3.906,-41.016,-38.574,-13.672
1626465489.002,16.602,-31.250,-66.406,-38.574
1626465489.005,-58.594,-27.832,-32.715,-52.246
1626465489.009,-60.059,-20.020,7.324,-12.695
1626465489.013,15.137,-23.438,-19.531,5.371
1626465489.017,30.273,-32.227,-59.570,-38.086
1626465489.021,-46.875,-27.832,-41.504,-62.988
1626465489.022,-85.938,-35.156,9.766,-21.484
1626465489.026,-15.137,-34.180,-0.977,14.648
1626465489.030,30.762,-30.762,-45.410,-13.672
1626465489.034,-21.973,-34.668,-48.828,-49.805
1626465489.038,-82.031,-37.598,-4.883,-40.527
1626465489.042,-36.133,-34.668,5.371,-2.441
1626465489.046,19.043,-34.180,-34.668,-7.324
1626465489.049,5.859,-34.668,-52.246,-46.387
1626465489.053,-83.496,-38.574,-15.625,-59.082
1626465489.057,-66.406,-44.434,9.766,-6.348
1626465489.061,14.160,-37.598,-17.090,11.719
1626465489.065,37.598,-37.598,-51.270,-23.438
1626465489.067,-62.012,-45.898,-43.457,-60.547
1626465489.071,-84.473,-34.180,-4.883,-30.273
1626465489.075,-0.977,-13.672,-12.695,5.371
1626465489.079,42.969,-10.254,-50.781,-22.461
1626465489.083,-39.551,-25.391,-48.828,-71.289
1626465489.087,-107.422,-35.156,-0.977,-48.340
1626465489.091,-30.273,-31.738,-1.953,-5.371
1626465489.094,24.414,-32.227,-46.387,-29.297
1626465489.098,-26.367,-32.227,-61.035,-75.195
1626465489.102,-106.445,-32.227,-24.902,-75.195
1626465489.106,-51.758,-25.879,-6.836,-6.348
1626465489.110,14.648,-20.020,-36.133,1.465
1626465489.112,1.465,-30.762,-61.523,-45.898
1626465489.116,-82.031,-41.016,-38.574,-64.453
1626465489.120,-69.824,-40.527,2.441,-21.973
1626465489.124,-7.812,-39.062,-19.531,-9.766
1626465489.128,7.324,-38.086,-55.176,-42.480
1626465489.132,-70.801,-31.738,-29.785,-62.012
1626465489.136,-87.891,-26.855,8.301,-30.273
1626465489.139,-14.160,-31.738,-18.555,2.930
1626465489.143,25.879,-41.992,-51.758,-22.461
1626465489.147,-38.574,-46.875,-45.410,-61.523
1626465489.151,-81.055,-30.762,7.812,-33.691
1626465489.155,-9.277,-29.297,7.812,11.719
1626465489.157,26.367,-37.109,-34.180,-10.254
1626465489.161,-15.137,-38.574,-44.922,-58.594
1626465489.165,-87.402,-43.457,-4.395,-62.988
1626465489.169,-44.922,-33.203,12.207,-6.836
1626465489.173,24.414,-25.391,-24.414,-9.766
1626465489.177,24.902,-29.785,-41.016,-47.363
1626465489.181,-63.477,-30.273,-17.090,-61.035
1626465489.184,-71.289,-36.133,3.418,-26.367
1626465489.188,-1.465,-37.598,-17.578,0.488
1626465489.192,29.785,-31.738,-49.805,-17.578
1626465489.196,-39.551,-32.227,-31.738,-46.387
1626465489.200,-74.707,-34.180,11.230,-12.207
1626465489.202,-3.418,-35.156,-4.395,21.973
1626465489.206,43.457,-32.715,-39.551,-10.742
1626465489.210,-12.695,-28.809,-37.598,-48.340
1626465489.214,-81.543,-41.504,-5.371,-34.180
1626465489.218,-22.461,-42.969,0.000,21.484
1626465489.222,45.898,-28.809,-37.109,17.578
1626465489.226,17.090,-33.691,-60.059,-33.691
1626465489.229,-71.777,-38.086,-19.043,-48.340
1626465489.233,-41.992,-33.203,13.672,2.441
1626465489.237,24.414,-29.297,-23.926,6.836
1626465489.241,17.090,-31.738,-55.664,-40.039
1626465489.245,-63.477,-36.133,-25.879,-57.617
1626465489.247,-59.082,-32.227,11.719,-10.254
1626465489.251,8.301,-22.949,-20.020,5.859
1626465489.255,31.738,-22.461,-61.035,-36.133
1626465489.259,-41.992,-34.668,-47.363,-70.801
1626465489.263,-78.613,-35.645,4.883,-39.551
1626465489.267,1.465,-26.367,0.488,1.953
1626465489.271,51.758,-28.320,-50.293,-13.672
1626465489.274,-11.230,-42.480,-65.430,-49.316
1626465489.278,-91.797,-41.504,-12.207,-48.828
1626465489.282,-37.598,-34.180,5.859,-0.977
1626465489.286,27.344,-37.598,-31.250,2.930
1626465489.290,4.883,-44.434,-47.363,-46.387
1626465489.307,-90.820,-41.504,-19.531,-66.895
1626465489.311,-58.105,-24.902,11.230,-10.742
1626465489.315,23.926,-22.461,-19.043,9.766
1626465489.319,26.367,-37.109,-54.199,-25.391
1626465489.323,-63.477,-39.062,-24.902,-48.828
1626465489.327,-69.824,-25.391,22.461,-2.441
1626465489.331,0.977,-29.297,-7.324,25.391
1626465489.334,32.227,-34.668,-49.805,-15.625
1626465489.338,-41.016,-42.480,-41.992,-50.781
1626465489.342,-88.867,-46.875,-2.930,-32.715
1626465489.346,-17.090,-37.598,-1.953,7.324
1626465489.350,34.180,-37.109,-47.363,-4.395
1626465489.352,-8.301,-39.551,-54.199,-46.875
1626465489.356,-90.332,-41.016,-12.695,-48.340
1626465489.360,-32.715,-32.227,10.742,4.883
1626465489.364,39.062,-31.738,-23.438,2.441
1626465489.368,19.531,-38.574,-53.223,-34.180
1626465489.372,-74.707,-46.387,-22.949,-53.711
1626465489.376,-45.898,-41.504,12.207,-8.301
1626465489.379,28.320,-36.621,-22.461,11.230
1626465489.383,28.809,-40.527,-62.012,-29.297
1626465489.387,-56.152,-40.039,-40.039,-55.176
1626465489.391,-74.707,-39.551,8.789,-16.113
1626465489.395,4.883,-41.016,-4.883,17.578
1626465489.397,38.086,-35.645,-54.688,-12.695
1626465489.401,-39.062,-38.574,-54.199,-53.223
1626465489.405,-92.285,-36.133,1.953,-30.762
1626465489.409,-31.250,-32.715,5.859,10.254
1626465489.413,20.508,-37.598,-35.156,-6.348
1626465489.417,-11.719,-31.250,-44.922,-53.223
1626465489.421,-84.961,-35.156,-6.836,-45.410
1626465489.424,-39.062,-41.016,6.836,12.695
1626465489.428,17.578,-43.945,-40.527,1.465
1626465489.432,18.066,-40.527,-63.965,-30.273
1626465489.436,-67.871,-31.738,-27.344,-50.293
1626465489.440,-62.012,-30.762,8.789,-12.207
1626465489.442,12.207,-37.598,-19.043,13.184
1626465489.446,21.973,-42.480,-59.570,-24.414
1626465489.450,-52.734,-38.086,-41.504,-64.453
1626465489.454,-82.031,-41.016,6.348,-34.180
1626465489.458,0.977,-44.922,7.812,23.926
1626465489.462,41.504,-44.922,-36.133,-7.812
1626465489.466,-22.949,-43.457,-45.410,-54.199
1626465489.469,-88.379,-44.434,-0.977,-26.855
1626465489.473,-29.297,-49.805,4.883,17.090
1626465489.477,31.738,-42.480,-37.598,6.348
1626465489.481,28.809,-33.691,-52.246,-24.902
1626465489.485,-47.363,-35.156,-4.395,-27.344
1626465489.487,-44.922,-31.738,21.973,8.789
1626465489.491,5.371,-35.645,-17.578,0.977
1626465489.495,-2.930,-44.922,-51.270,-42.480
1626465489.499,-87.891,-37.598,-22.461,-57.129
1626465489.503,-86.914,-35.156,23.926,-12.207
1626465489.507,-10.254,-35.156,-0.488,8.789
1626465489.511,13.184,-33.203,-51.270,-40.527
1626465489.514,-61.035,-35.645,-44.434,-81.543
1626465489.518,-91.797,-40.527,4.395,-36.621
1626465489.522,-21.484,-45.410,2.441,9.766
1626465489.526,30.273,-36.133,-39.062,-16.113
1626465489.530,-24.902,-42.480,-50.293,-63.477
1626465489.532,-88.867,-43.945,-4.395,-47.363
1626465489.536,-21.973,-25.391,4.395,14.160
1626465489.540,36.133,-24.902,-41.504,0.977
1626465489.544,7.324,-35.645,-56.641,-51.758
1626465489.548,-63.965,-32.715,-10.742,-59.570
1626465489.552,-29.297,-25.391,15.137,-3.906
1626465489.556,37.109,-25.879,-29.297,11.230
1626465489.559,25.391,-31.250,-56.641,-40.527
1626465489.563,-61.035,-32.227,-27.832,-69.824
1626465489.567,-58.594,-27.832,6.836,-12.207
1626465489.571,12.207,-28.809,-12.695,15.137
1626465489.575,29.297,-31.738,-58.105,-34.180
1626465489.577,-42.969,-38.574,-50.781,-72.266
1626465489.581,-66.406,-38.086,3.906,-34.668
1626465489.585,-7.812,-25.391,-3.418,14.648
1626465489.589,26.367,-20.996,-53.223,-10.254
1626465489.593,-20.996,-26.367,-57.617,-57.617
1626465489.597,-83.008,-32.227,-7.812,-44.434
1626465489.601,-26.855,-31.250,8.789,8.301
1626465489.604,22.461,-35.156,-37.109,1.465
1626465489.608,8.301,-29.785,-58.594,-36.133
1626465489.612,-67.383,-22.949,-13.672,-51.270
1626465489.616,-38.086,-18.555,17.578,0.977
1626465489.620,24.902,-18.555,-17.090,20.508
1626465489.623,16.602,-28.320,-53.711,-20.508
1626465489.627,-69.336,-31.738,-31.738,-58.105
1626465489.631,-82.031,-29.297,6.836,-23.438
1626465489.635,-1.953,-31.738,-11.719,19.043
1626465489.639,26.367,-32.715,-49.316,-11.719
1626465489.643,-48.340,-31.250,-42.969,-65.918
1626465489.647,-93.262,-30.273,-4.883,-33.691
1626465489.650,-20.996,-32.715,-4.395,16.113
1626465489.654,26.855,-33.691,-41.504,-8.301
1626465489.658,-28.809,-40.527,-56.641,-58.594
1626465489.662,-93.262,-42.480,-13.184,-54.688
1626465489.666,-42.480,-34.668,7.812,5.859
1626465489.682,20.020,-32.227,-37.598,-2.441
1626465489.686,6.348,-38.574,-63.965,-53.223
1626465489.690,-87.891,-39.062,-24.902,-68.848
1626465489.694,-71.289,-32.715,8.301,-13.672
1626465489.698,4.395,-29.297,-20.996,10.254
1626465489.702,18.555,-31.250,-58.594,-30.762
1626465489.706,-60.547,-36.133,-42.480,-75.195
1626465489.709,-77.637,-26.367,2.441,-36.621
1626465489.713,-2.441,-22.949,-11.719,12.695
1626465489.717,32.227,-27.344,-46.387,-18.555
1626465489.721,-22.461,-25.879,-40.527,-58.105
1626465489.725,-67.383,-24.414,0.000,-28.809
1626465489.728,-7.812,-22.461,-1.465,17.578
1626465489.732,35.645,-22.949,-50.293,-8.301
1626465489.736,0.488,-40.039,-66.406,-54.199
1626465489.740,-74.219,-47.852,-20.996,-47.852
1626465489.744,-40.527,-46.387,4.883,6.348
1626465489.748,13.184,-40.039,-34.180,1.465
1626465489.752,21.973,-31.738,-60.547,-34.180
1626465489.755,-54.199,-38.086,-23.926,-47.363
1626465489.759,-66.895,-34.668,6.836,-16.113
1626465489.763,-0.488,-44.922,-13.672,15.625
1626465489.767,33.691,-46.387,-48.828,-4.395
1626465489.771,-31.250,-38.086,-31.738,-40.527
1626465489.772,-74.219,-41.992,15.137,-10.254
1626465489.776,-3.418,-40.527,5.859,41.504
1626465489.780,42.480,-33.691,-32.715,8.789
1626465489.784,-18.066,-36.621,-41.992,-50.293
1626465489.788,-79.102,-46.875,1.465,-27.344
1626465489.792,-4.395,-37.109,10.742,34.180
1626465489.796,42.969,-31.738,-39.062,11.230
1626465489.799,3.418,-35.645,-55.664,-36.621
1626465489.803,-72.266,-35.156,-14.648,-41.992
1626465489.807,-50.781,-35.156,2.930,-4.883
1626465489.811,6.348,-37.598,-32.715,-2.441
1626465489.815,4.883,-46.387,-57.129,-39.551
1626465489.817,-79.102,-49.805,-26.367,-61.523
1626465489.821,-65.918,-34.180,16.602,-18.066
1626465489.825,13.184,-27.344,-9.277,18.555
1626465489.829,30.273,-28.320,-57.129,-12.207
1626465489.833,-49.805,-35.645,-44.434,-61.035
1626465489.837,-83.008,-37.109,8.789,-30.273
1626465489.841,-3.418,-30.762,1.465,25.391
1626465489.844,21.973,-34.180,-52.246,-17.578
1626465489.848,-30.762,-38.574,-62.500,-65.918
1626465489.852,-95.703,-39.551,-13.184,-41.504
1626465489.856,-38.086,-35.645,3.418,9.277
1626465489.860,36.621,-29.297,-34.668,2.441
1626465489.862,12.695,-37.109,-60.059,-34.180
1626465489.866,-67.871,-41.016,-22.461,-36.621
1626465489.870,-37.109,-32.227,6.348,11.230
1626465489.874,28.320,-29.297,-26.855,12.207
1626465489.878,32.227,-24.414,-58.594,-29.785
1626465489.882,-44.434,-21.973,-30.762,-50.293
1626465489.886,-61.523,-27.344,11.230,-13.184
1626465489.889,13.184,-26.855,-11.230,17.090
1626465489.893,50.781,-25.879,-52.734,-15.625
1626465489.897,-18.555,-29.785,-47.852,-53.223
1626465489.901,-64.941,-21.484,3.418,-21.973
1626465489.905,5.371,-19.531,-6.348,18.066
1626465489.907,44.434,-26.855,-53.711,-10.254
1626465489.911,-2.441,-26.367,-57.617,-51.758
1626465489.915,-72.266,-28.809,-7.324,-42.480
1626465489.919,-28.320,-29.297,0.488,9.277
1626465489.923,29.297,-26.855,-39.551,4.395
1626465489.927,22.461,-24.414,-53.223,-40.039
1626465489.931,-56.152,-35.156,-25.391,-51.758
1626465489.934,-44.434,-32.227,4.395,4.883
1626465489.938,31.250,-12.695,-21.973,28.320
1626465489.942,50.293,-14.160,-51.758,-10.254
1626465489.946,-36.621,-22.949,-34.668,-52.734
1626465489.950,-62.500,-11.719,-2.441,-24.414
1626465489.952,22.461,-7.324,-20.996,20.996
1626465489.956,53.711,-27.344,-63.477,-10.742
1626465489.960,-20.996,-27.832,-55.176,-59.570
1626465489.964,-68.359,-16.113,-2.930,-34.668
1626465489.968,8.301,-10.254,5.371,20.020
1626465489.972,59.570,-10.254,-34.180,5.371
1626465489.976,10.742,-24.414,-57.129,-40.527
1626465489.979,-78.125,-41.992,-30.762,-51.758
1626465489.983,-30.762,-36.621,-0.977,5.371
1626465489.987,40.039,-30.273,-33.691,10.742
1626465489.991,29.297,-31.250,-65.430,-38.574
1626465489.995,-64.941,-34.668,-33.203,-54.199
1626465489.997,-51.270,-27.832,16.602,-8.301
1626465490.001,29.297,-19.043,-8.301,18.066
1626465490.005,39.551,-30.762,-60.059,-14.648
1626465490.009,-41.016,-39.062,-47.852,-64.941
1626465490.013,-65.430,-33.691,3.906,-37.109
1626465490.017,8.789,-27.344,-10.742,10.742
1626465490.021,34.668,-32.227,-53.223,-17.090
1626465490.024,-24.902,-32.715,-44.922,-62.012
1626465490.028,-81.055,-27.344,2.441,-52.734
1626465490.032,-22.461,-23.438,0.488,-2.930
1626465490.036,34.668,-23.926,-50.293,-10.254
1626465490.040,7.812,-33.691,-62.012,-54.688
1626465490.042,-77.148,-37.109,-16.113,-65.918
1626465490.046,-38.086,-28.320,9.766,-2.441
1626465490.050,35.156,-24.414,-25.879,14.160
1626465490.054,21.973,-31.250,-58.594,-50.293
1626465490.058,-72.266,-35.156,-37.598,-71.289
1626465490.062,-71.777,-30.273,3.906,-13.672
1626465490.066,1.953,-26.855,-21.484,0.000
1626465490.069,15.137,-34.180,-64.453,-52.734
1626465490.073,-63.965,-37.598,-46.387,-86.914
1626465490.077,-98.145,-29.297,3.418,-46.875
1626465490.081,-9.766,-27.344,-5.371,4.883
1626465490.085,28.809,-29.297,-56.152,-19.531
1626465490.103,-41.504,-30.762,-59.082,-61.523
1626465490.107,-101.074,-35.645,-12.695,-58.105
1626465490.111,-41.016,-30.273,-1.953,-10.742
1626465490.115,3.906,-29.297,-38.086,-14.648
1626465490.119,-10.254,-32.715,-57.617,-62.500
1626465490.123,-79.102,-31.250,-19.531,-73.242
1626465490.127,-66.895,-25.879,3.906,-19.531
1626465490.130,4.395,-30.273,-35.156,-2.930
1626465490.134,13.184,-37.109,-65.918,-41.992
1626465490.138,-83.008,-42.480,-42.480,-79.590
1626465490.142,-83.008,-41.504,11.719,-33.203
1626465490.146,-10.254,-41.016,-5.371,4.395
1626465490.147,9.277,-45.898,-50.781,-30.273
1626465490.151,-61.523,-45.898,-43.945,-68.359
1626465490.155,-112.793,-39.062,-2.441,-51.270
1626465490.159,-41.504,-37.598,-11.719,-9.277
1626465490.163,10.742,-40.039,-50.781,-22.949
1626465490.167,-22.461,-31.738,-51.270,-52.734
1626465490.171,-88.867,-28.809,-8.789,-42.969
1626465490.174,-48.828,-31.250,2.441,3.906
1626465490.178,1.953,-37.109,-46.387,-5.859
1626465490.182,-9.277,-39.551,-72.266,-47.363
1626465490.186,-80.078,-30.273,-30.273,-61.523
1626465490.190,-56.152,-25.391,0.000,-10.742
1626465490.193,13.672,-25.879,-24.902,18.066
1626465490.197,25.879,-28.809,-57.617,-23.438
1626465490.201,-58.594,-36.133,-43.945,-61.035
1626465490.205,-74.219,-30.762,1.953,-23.926
1626465490.209,2.441,-22.461,-12.695,11.719
1626465490.213,41.016,-20.508,-51.758,-7.812
1626465490.217,-28.809,-29.297,-53.711,-48.828
1626465490.220,-91.797,-40.527,-10.254,-38.574
1626465490.224,-13.672,-37.598,-9.766,5.371
1626465490.228,35.156,-30.273,-54.199,-8.789
1626465490.232,0.488,-35.156,-56.641,-47.852
1626465490.236,-79.590,-35.156,-9.766,-46.387
1626465490.237,-43.457,-23.926,10.254,12.695
1626465490.241,25.391,-26.855,-27.832,12.695
1626465490.245,22.949,-31.738,-53.711,-32.715
1626465490.249,-61.035,-23.926,-29.785,-47.363
1626465490.253,-61.523,-20.508,3.906,-4.395
1626465490.257,24.414,-19.043,-14.160,20.996
1626465490.261,46.875,-24.902,-54.199,-9.277
1626465490.264,-41.504,-35.645,-46.875,-48.340
1626465490.268,-68.359,-36.133,4.883,-28.809
1626465490.272,1.953,-32.715,-1.953,14.648
1626465490.276,37.598,-28.809,-47.363,-8.301
1626465490.280,-26.367,-30.762,-59.082,-62.012
1626465490.282,-90.820,-31.738,-9.277,-49.316
1626465490.286,-17.090,-26.367,3.906,13.184
1626465490.290,46.387,-23.438,-34.180,3.418
1626465490.294,18.066,-23.926,-50.781,-45.898
1626465490.298,-81.055,-30.273,-23.438,-54.199
1626465490.302,-58.105,-38.086,5.859,-1.465
1626465490.306,13.672,-34.668,-26.367,13.184
1626465490.309,19.043,-33.203,-65.430,-21.484
1626465490.313,-66.895,-37.598,-40.527,-50.293
1626465490.317,-74.219,-35.645,8.789,-11.719
1626465490.321,0.977,-32.715,-13.184,12.207
1626465490.325,34.668,-31.738,-59.570,-26.367
1626465490.330,-40.039,-35.156,-53.711,-62.988
1626465490.334,-86.914,-31.250,-5.859,-39.551
1626465490.338,-9.277,-17.578,-3.906,11.230
1626465490.342,40.039,-26.367,-49.316,1.953
1626465490.346,-11.230,-34.180,-57.129,-41.992
1626465490.350,-75.684,-25.391,-4.395,-54.688
1626465490.354,-27.344,-34.668,0.000,-12.695
1626465490.357,10.742,-43.457,-44.434,-17.578
1626465490.361,-6.836,-30.762,-55.176,-60.059
1626465490.365,-75.195,-28.320,-20.996,-76.660
1626465490.369,-60.059,-24.902,7.812,-29.785
1626465490.373,-4.395,-30.273,-27.832,-17.578
1626465490.372,9.277,-34.668,-62.012,-57.129
1626465490.376,-76.660,-41.016,-37.598,-87.891
1626465490.380,-84.961,-38.086,12.695,-38.086
1626465490.384,-11.230,-32.715,-9.277,-0.488
1626465490.388,15.137,-33.691,-56.641,-38.086
1626465490.392,-49.316,-29.297,-53.711,-77.148
1626465490.396,-97.656,-41.016,-6.836,-63.477
1626465490.399,-22.461,-39.551,-9.766,-10.742
1626465490.403,21.484,-37.109,-50.781,-20.508
1626465490.407,-23.438,-45.898,-52.246,-72.266
1626465490.411,-94.238,-38.086,-9.277,-66.406
1626465490.415,-47.363,-30.762,8.301,-5.371
1626465490.417,18.066,-27.344,-31.738,-7.324
1626465490.421,2.441,-32.715,-58.105,-55.664
1626465490.425,-76.172,-37.598,-20.996,-73.730
1626465490.429,-53.223,-27.344,14.160,-17.578
1626465490.433,20.996,-23.438,-15.137,0.977
1626465490.437,29.785,-34.180,-54.688,-34.180
1626465490.441,-59.082,-39.062,-40.039,-59.570
1626465490.444,-75.684,-32.227,11.230,-32.715
1626465490.448,6.348,-22.949,-4.883,-1.465
1626465490.452,43.457,-24.902,-59.570,-20.996
1626465490.456,-17.090,-30.762,-58.105,-50.293
1626465490.460,-68.848,-38.086,-4.395,-30.762
1626465490.477,-19.043,-36.621,-2.441,13.184
1626465490.481,28.320,-34.668,-48.828,-5.371
1626465490.485,-0.977,-37.598,-61.523,-56.152
1626465490.489,-78.125,-31.738,-13.184,-50.781
1626465490.493,-37.598,-26.855,10.254,3.906
1626465490.497,20.020,-32.715,-35.645,-3.906
1626465490.501,19.043,-36.133,-70.801,-34.668
1626465490.504,-63.477,-35.156,-37.109,-56.152
1626465490.508,-68.359,-34.668,7.324,-19.531
1626465490.512,3.418,-36.133,-25.391,6.836
1626465490.516,24.414,-36.133,-62.012,-29.785
1626465490.520,-60.547,-32.227,-41.992,-65.430
1626465490.522,-88.379,-27.344,4.395,-26.367
1626465490.526,0.977,-11.719,-0.977,9.277
1626465490.530,33.203,-19.043,-51.758,-29.785
1626465490.534,-31.250,-32.227,-57.617,-70.312
1626465490.538,-81.055,-21.973,-7.812,-48.340
1626465490.542,-7.324,-12.695,0.488,15.137
1626465490.546,38.086,-22.461,-45.410,1.465
1626465490.549,-5.859,-38.086,-58.105,-42.969
1626465490.553,-84.961,-42.480,-8.789,-50.781
1626465490.557,-57.617,-36.621,12.695,-11.230
1626465490.561,5.371,-28.320,-31.738,13.184
1626465490.565,16.113,-19.531,-65.918,-23.926
1626465490.567,-65.918,-29.785,-47.363,-64.941
1626465490.571,-58.105,-34.180,-3.906,-10.254
1626465490.575,14.648,-31.738,-13.184,25.391
1626465490.579,18.066,-42.480,-51.270,-18.066
1626465490.583,-65.430,-43.457,-45.410,-62.500
1626465490.587,-90.332,-37.598,15.137,-26.367
1626465490.591,-13.184,-31.250,14.648,14.648
1626465490.594,11.719,-37.598,-40.039,-21.973
1626465490.598,-40.527,-53.223,-50.781,-64.453
1626465490.602,-98.633,-49.316,1.953,-53.223
1626465490.606,-46.875,-40.039,16.602,-9.277
1626465490.610,7.812,-41.016,-26.367,-17.090
1626465490.612,-7.812,-43.457,-45.410,-47.363
1626465490.616,-83.984,-48.340,-9.277,-52.246
1626465490.620,-59.570,-45.410,22.949,-1.953
1626465490.624,13.184,-39.062,-11.230,8.789
1626465490.628,16.113,-46.875,-48.340,-25.879
1626465490.632,-75.684,-44.922,-21.973,-50.781
1626465490.636,-88.867,-40.527,13.672,-20.996
1626465490.639,-16.113,-49.316,-12.695,6.348
1626465490.643,24.414,-49.805,-42.969,-15.137
1626465490.647,-39.062,-51.758,-38.574,-49.805
1626465490.651,-85.938,-37.109,6.836,-27.344
1626465490.655,-13.672,-31.250,4.395,20.508
1626465490.657,39.062,-47.363,-41.992,-3.418
1626465490.661,-9.277,-47.852,-55.176,-54.199
1626465490.665,-86.914,-36.621,-3.418,-51.270
1626465490.669,-28.809,-29.297,22.949,9.766
1626465490.673,38.574,-31.738,-20.996,12.695
1626465490.677,29.785,-31.738,-54.199,-33.203
1626465490.681,-52.734,-37.109,-24.902,-51.758
1626465490.684,-51.758,-49.805,-0.488,-3.906
1626465490.688,11.230,-43.945,-27.344,15.137
1626465490.692,29.297,-32.227,-53.223,-26.367
1626465490.696,-43.945,-34.668,-32.715,-47.363
1626465490.700,-62.012,-42.969,7.324,-21.484
1626465490.703,5.859,-44.922,-13.672,2.441
1626465490.707,36.621,-40.527,-56.152,-16.113
1626465490.711,-35.156,-40.527,-54.688,-53.711
1626465490.715,-84.473,-42.969,-7.324,-34.180
1626465490.719,-14.160,-40.039,2.930,20.996
1626465490.723,41.504,-31.738,-36.621,10.254
1626465490.727,10.742,-43.945,-60.547,-36.133
1626465490.730,-86.914,-57.617,-25.391,-46.875
1626465490.734,-63.477,-49.805,0.000,-1.465
1626465490.738,13.184,-50.293,-33.691,-3.418
1626465490.742,23.926,-48.828,-59.082,-26.367
1626465490.746,-62.500,-33.691,-31.250,-45.898
1626465490.747,-67.871,-21.973,4.395,-20.508
1626465490.751,-5.371,-21.973,-28.809,-1.953
1626465490.755,19.531,-23.926,-67.871,-38.086
1626465490.759,-55.664,-21.973,-52.246,-79.590
1626465490.763,-89.355,-19.531,-2.930,-42.480
1626465490.767,-16.602,-14.648,-13.672,-5.859
1626465490.771,20.020,-25.879,-62.012,-39.551
1626465490.774,-33.691,-35.645,-65.430,-72.754
1626465490.778,-96.680,-33.691,-25.391,-66.406
1626465490.782,-24.414,-21.973,-14.648,-5.371
1626465490.786,43.457,-10.254,-53.223,-1.465
1626465490.790,16.113,-12.207,-72.754,-45.410
1626465490.794,-68.848,-14.160,-32.715,-47.852
1626465490.798,-52.734,-20.996,-11.719,-8.789
1626465490.802,16.602,-21.484,-45.898,-7.812
1626465490.806,17.578,-25.879,-74.219,-45.410
1626465490.810,-63.965,-28.320,-42.969,-63.965
1626465490.814,-59.570,-17.090,1.465,-17.578
1626465490.818,4.883,-25.391,-31.738,2.441
1626465490.821,34.180,-34.668,-64.941,-34.668
1626465490.825,-40.039,-34.668,-58.105,-70.312
1626465490.829,-84.473,-33.203,-18.066,-40.527
1626465490.833,-5.371,-17.578,-12.695,-2.441
1626465490.837,34.668,-19.043,-60.547,-22.461
1626465490.852,-23.438,-30.762,-66.406,-61.035
1626465490.856,-90.332,-38.086,-20.020,-53.711
1626465490.860,-21.484,-30.273,-2.441,9.766
1626465490.864,40.039,-25.391,-44.922,0.000
1626465490.868,-4.395,-38.086,-67.871,-50.293
1626465490.872,-90.820,-40.039,-23.926,-55.664
1626465490.876,-54.199,-30.762,0.000,-7.812
1626465490.879,18.555,-29.297,-37.598,1.465
1626465490.883,23.438,-33.691,-66.895,-31.250
1626465490.887,-67.871,-42.969,-49.805,-61.035
1626465490.891,-75.684,-38.574,-9.277,-20.020
1626465490.895,-1.465,-32.227,-19.531,23.926
1626465490.898,27.344,-34.180,-56.641,-13.184
1626465490.902,-46.387,-49.805,-49.805,-68.359
1626465490.906,-87.891,-45.410,-7.324,-46.387
1626465490.910,-17.090,-27.344,-9.766,6.836
1626465490.914,27.832,-30.762,-50.781,-5.859
1626465490.918,-10.742,-37.109,-62.012,-52.734
1626465490.922,-80.566,-29.785,-17.090,-54.688
1626465490.925,-34.180,-26.855,-3.418,2.441
1626465490.929,20.508,-35.156,-43.457,6.348
1626465490.933,0.000,-46.875,-70.312,-43.457
1626465490.937,-79.590,-42.969,-25.391,-58.105
1626465490.941,-59.082,-30.273,10.254,-3.418
1626465490.942,6.836,-33.203,-29.785,9.766
1626465490.946,21.484,-42.480,-57.129,-26.367
1626465490.950,-58.594,-45.410,-36.133,-62.500
1626465490.954,-80.566,-35.156,0.977,-25.391
1626465490.958,-1.953,-27.344,-21.973,14.160
1626465490.962,35.645,-30.762,-62.012,-17.090
1626465490.966,-30.273,-31.250,-55.176,-50.781
1626465490.969,-88.867,-30.762,-10.254,-38.086
1626465490.973,-31.738,-36.133,-10.742,-6.836
1626465490.977,27.344,-37.109,-49.805,-14.160
1626465490.981,-6.836,-35.645,-54.199,-49.805
1626465490.985,-97.168,-37.109,-13.672,-55.176
1626465490.987,-51.270,-37.598,9.766,-0.977
1626465490.991,19.531,-35.645,-25.879,11.230
1626465490.995,8.789,-37.598,-62.500,-29.785
1626465490.999,-65.918,-33.691,-26.855,-43.457
1626465491.003,-47.852,-28.809,12.207,4.395
1626465491.007,32.227,-32.227,-17.090,20.020
1626465491.011,46.875,-38.086,-48.340,-20.996
1626465491.014,-47.852,-46.387,-44.434,-69.336
1626465491.018,-70.312,-39.551,0.488,-34.180
1626465491.022,-2.441,-28.320,0.488,26.367
1626465491.026,28.320,-32.227,-43.457,-11.719
1626465491.030,-30.762,-36.133,-46.875,-66.895
1626465491.034,-103.516,-39.551,-1.465,-49.805
1626465491.038,-40.527,-38.086,5.859,0.488
1626465491.042,27.832,-34.180,-33.691,-12.207
1626465491.046,1.465,-41.992,-52.246,-46.387
1626465491.050,-78.125,-41.504,-10.742,-41.504
1626465491.054,-32.715,-25.879,20.020,15.625
1626465491.058,31.250,-31.738,-24.414,22.461
1626465491.061,17.578,-45.898,-62.012,-24.414
1626465491.065,-64.941,-46.875,-27.344,-52.246
1626465491.069,-71.289,-41.504,16.602,-10.742
1626465491.073,-9.277,-41.992,-4.395,23.926
1626465491.077,37.109,-33.691,-37.598,-4.395
1626465491.077,-35.156,-32.227,-28.809,-49.316
1626465491.081,-86.426,-32.227,8.789,-31.738
1626465491.085,-5.859,-19.531,-6.836,10.742
1626465491.089,46.387,-19.531,-54.688,-1.465
1626465491.093,-6.348,-29.785,-61.035,-42.480
1626465491.097,-78.613,-29.297,-13.672,-46.875
1626465491.101,-29.785,-26.855,-7.812,4.395
1626465491.104,25.391,-28.320,-48.828,7.812
1626465491.108,8.789,-24.902,-62.012,-43.945
1626465491.112,-66.406,-26.855,-19.043,-60.547
1626465491.116,-37.109,-28.809,4.395,-3.906
1626465491.120,34.180,-26.367,-40.039,7.812
1626465491.122,36.133,-30.762,-63.965,-30.273
1626465491.126,-53.223,-36.621,-32.715,-52.734
1626465491.130,-67.383,-32.715,7.812,-11.230
1626465491.134,0.488,-31.738,-10.254,23.438
1626465491.138,40.527,-35.156,-52.734,-3.418
1626465491.142,-40.039,-44.434,-53.711,-49.805
1626465491.146,-97.656,-46.387,-8.301,-25.879
1626465491.149,-16.602,-38.086,0.000,20.508
1626465491.153,39.062,-39.551,-41.992,-1.953
1626465491.157,2.441,-36.621,-62.500,-39.062
1626465491.161,-75.684,-23.438,-10.254,-41.992
1626465491.165,-30.273,-30.762,10.742,8.789
1626465491.167,36.621,-37.109,-28.809,19.043
1626465491.171,14.160,-33.691,-56.641,-27.344
1626465491.175,-79.102,-43.457,-29.297,-54.688
1626465491.179,-59.082,-40.527,4.395,-6.348
1626465491.183,18.066,-33.203,-19.043,15.625
1626465491.187,36.621,-32.715,-54.199,-19.043
1626465491.191,-50.781,-31.738,-46.387,-50.293
1626465491.194,-80.566,-28.809,-3.906,-19.043
1626465491.198,0.488,-21.484,-17.578,23.926
1626465491.202,37.109,-20.020,-54.199,-5.859
1626465491.206,-27.832,-29.297,-53.711,-57.129
1626465491.210,-81.543,-32.715,-3.906,-33.691
1626465491.230,-14.160,-25.879,3.906,21.484
1626465491.234,46.875,-26.367,-40.527,6.836
1626465491.238,0.000,-29.297,-52.246,-35.156
1626465491.242,-92.285,-25.879,-14.648,-37.109
1626465491.246,-45.898,-25.391,8.301,12.207
1626465491.250,30.762,-22.949,-27.832,17.578
1626465491.254,18.066,-30.273,-62.012,-36.133
1626465491.257,-77.637,-42.480,-40.039,-70.312
1626465491.261,-76.660,-36.133,-5.859,-20.996
1626465491.265,-0.488,-34.180,-32.715,10.742
1626465491.269,25.879,-36.133,-65.430,-20.508
1626465491.273,-56.641,-36.621,-42.969,-62.988
1626465491.272,-90.332,-39.551,2.930,-32.715
1626465491.276,-23.926,-42.480,-17.090,5.371
1626465491.280,27.344,-35.156,-50.781,-15.625
1626465491.284,-34.180,-37.598,-53.711,-66.406
1626465491.288,-101.074,-42.969,-11.719,-55.176
1626465491.292,-31.250,-38.086,-2.441,-0.977
1626465491.296,34.668,-36.133,-39.062,-2.441
1626465491.299,7.812,-32.715,-52.246,-41.992
1626465491.303,-81.055,-31.738,-18.066,-53.223
1626465491.307,-41.016,-29.297,4.883,6.348
1626465491.311,37.109,-27.832,-35.156,10.742
1626465491.315,28.320,-37.598,-68.359,-42.969
1626465491.317,-66.895,-48.828,-37.598,-64.453
1626465491.321,-58.105,-43.945,0.488,-4.883
1626465491.325,20.508,-34.668,-13.672,23.438
1626465491.329,41.504,-28.809,-52.246,-17.578
1626465491.333,-37.109,-28.809,-52.246,-47.363
1626465491.337,-68.359,-30.762,3.418,-11.719
1626465491.341,1.953,-28.320,-0.977,29.297
1626465491.344,34.180,-38.574,-52.734,-1.953
1626465491.348,-24.414,-48.340,-71.777,-61.035
1626465491.352,-83.984,-32.227,-16.602,-43.945
1626465491.356,-19.043,-20.996,11.719,20.020
1626465491.360,33.203,-26.855,-32.227,10.742
1626465491.363,15.137,-29.785,-51.758,-34.180
1626465491.367,-61.523,-33.203,-11.230,-42.969
1626465491.371,-31.738,-30.762,20.020,12.207
1626465491.375,33.691,-19.043,-22.461,15.625
1626465491.379,23.438,-21.484,-56.152,-28.809
1626465491.383,-61.035,-32.227,-26.855,-53.711
1626465491.387,-55.176,-21.973,16.113,-11.230
1626465491.390,19.531,-17.578,-3.906,29.785
1626465491.394,35.645,-34.668,-47.363,-14.160
1626465491.398,-37.109,-37.109,-34.668,-67.871
1626465491.402,-71.289,-23.926,17.090,-32.227
1626465491.406,-2.930,-22.461,2.441,13.672
1626465491.407,31.738,-27.344,-46.875,-1.465
1626465491.411,-18.555,-30.762,-49.805,-49.805
1626465491.415,-91.797,-32.227,-9.277,-51.270
1626465491.419,-29.785,-21.973,4.883,11.230
1626465491.423,25.879,-27.832,-35.156,1.953
1626465491.427,-3.906,-37.109,-62.500,-49.805
1626465491.431,-80.566,-36.133,-30.762,-64.453
1626465491.434,-60.547,-36.133,0.977,-10.742
1626465491.438,23.926,-31.250,-30.762,3.906
1626465491.442,28.320,-29.297,-70.801,-32.715
1626465491.446,-69.824,-36.621,-44.922,-55.664
1626465491.450,-79.590,-41.992,6.836,-20.996
1626465491.452,4.395,-35.156,-6.348,14.160
1626465491.456,32.227,-40.039,-50.293,-20.508
1626465491.460,-53.223,-55.176,-49.805,-68.359
1626465491.464,-94.238,-39.551,-4.883,-39.551
1626465491.468,-13.672,-22.949,-1.953,9.277
1626465491.472,29.785,-31.738,-43.945,-17.578
1626465491.476,-26.855,-42.969,-60.059,-56.152
1626465491.479,-105.469,-42.480,-16.602,-51.270
1626465491.483,-50.781,-34.180,7.812,-6.348
1626465491.487,20.020,-34.180,-16.602,-3.418
1626465491.491,5.859,-36.133,-50.293,-54.688
1626465491.495,-84.473,-32.715,-28.320,-71.289
1626465491.499,-67.871,-21.484,6.836,-14.648
1626465491.503,8.789,-25.391,-23.926,-2.441
1626465491.507,24.902,-36.621,-56.641,-40.039
1626465491.511,-58.594,-29.297,-35.645,-63.965
1626465491.515,-90.820,-24.414,13.672,-18.555
1626465491.519,-17.090,-24.902,-0.488,10.254
1626465491.523,15.625,-38.086,-58.594,-35.156
1626465491.526,-49.805,-49.316,-55.176,-76.660
1626465491.530,-99.121,-40.039,-1.953,-60.547
1626465491.534,-35.156,-36.621,0.000,-6.348
1626465491.538,26.855,-30.762,-38.086,-3.418
1626465491.542,-14.160,-36.621,-62.012,-62.012
1626465491.542,-90.332,-46.387,-23.438,-71.289
1626465491.546,-44.922,-38.574,11.719,0.977
1626465491.550,12.207,-32.715,-24.902,2.930
1626465491.554,14.160,-33.691,-61.035,-38.086
1626465491.558,-65.918,-34.180,-34.668,-53.711
1626465491.562,-57.129,-35.156,3.906,-6.836
1626465491.566,18.555,-40.039,-30.762,13.184
1626465491.569,30.762,-41.992,-65.430,-30.762
1626465491.573,-55.664,-48.828,-44.434,-62.500
1626465491.577,-88.867,-45.410,1.953,-18.555
1626465491.581,-1.953,-38.086,-9.277,26.855
1626465491.585,37.109,-36.621,-56.641,-13.672
1626465491.603,-22.461,-42.969,-60.059,-57.617
1626465491.607,-86.914,-44.434,-17.090,-47.852
1626465491.611,-29.785,-39.062,-1.465,6.348
1626465491.615,29.785,-39.062,-34.180,6.348
1626465491.619,14.160,-35.156,-45.898,-36.621
1626465491.623,-64.453,-32.715,-11.719,-48.340
1626465491.627,-31.738,-27.344,14.648,0.488
1626465491.630,37.109,-31.250,-16.602,5.859
1626465491.634,25.879,-41.504,-49.805,-34.180
1626465491.638,-71.777,-50.293,-33.203,-61.035
1626465491.642,-66.406,-35.645,12.207,-20.020
1626465491.646,15.137,-24.414,-12.695,7.324
1626465491.647,28.320,-33.691,-61.035,-23.926
1626465491.651,-55.176,-50.293,-47.852,-54.688
1626465491.655,-92.285,-45.898,9.766,-32.227
1626465491.659,-2.930,-30.762,20.508,19.531
1626465491.663,42.969,-34.668,-29.297,5.859
1626465491.667,-19.531,-36.133,-53.711,-47.852
1626465491.671,-84.961,-28.809,-9.277,-45.410
1626465491.674,-27.832,-28.809,3.418,8.789
1626465491.678,28.320,-35.156,-36.621,3.906
1626465491.682,1.465,-48.828,-53.711,-50.293
1626465491.686,-76.660,-47.363,-4.395,-61.523
1626465491.690,-58.594,-32.715,26.367,-1.953
1626465491.693,0.977,-34.180,-22.949,9.766
1626465491.697,9.766,-41.992,-62.500,-42.969
1626465491.701,-69.336,-41.504,-38.086,-69.336
1626465491.705,-69.824,-39.062,10.254,-24.414
1626465491.709,6.348,-30.762,-4.883,10.254
1626465491.713,37.109,-22.461,-41.992,-21.484
1626465491.717,-20.020,-25.391,-34.668,-53.223
1626465491.720,-72.754,-32.715,7.324,-39.551
1626465491.724,-10.742,-29.785,3.418,3.418
1626465491.728,30.273,-26.367,-38.574,-10.254
1626465491.732,-20.508,-28.809,-47.852,-56.152
1626465491.736,-84.473,-29.785,-0.977,-51.270
1626465491.738,-26.855,-27.344,16.602,3.418
1626465491.742,23.926,-24.902,-30.762,-6.836
1626465491.746,3.418,-27.344,-60.059,-54.688
1626465491.750,-73.242,-32.715,-18.066,-73.730
1626465491.754,-56.641,-31.250,19.531,-27.344
1626465491.758,6.348,-28.809,-13.184,0.000
1626465491.762,27.832,-29.297,-52.246,-34.180
1626465491.765,-45.410,-37.109,-36.621,-71.289
1626465491.769,-74.219,-32.715,11.230,-18.066
1626465491.773,2.930,-25.391,-4.883,28.320
1626465491.777,45.410,-20.508,-43.457,-13.184
1626465491.781,-23.438,-23.926,-41.504,-62.988
1626465491.782,-78.613,-26.367,10.254,-40.039
1626465491.786,-3.418,-25.391,17.090,11.719
1626465491.790,43.945,-28.809,-36.621,-10.742
1626465491.794,-6.836,-40.039,-65.918,-60.547
1626465491.798,-83.984,-39.062,-26.855,-60.547
1626465491.802,-35.156,-20.508,-1.465,-2.930
1626465491.806,23.438,-20.508,-42.969,-1.953
1626465491.809,2.930,-26.855,-73.730,-52.246
1626465491.813,-74.707,-33.691,-30.762,-77.148
1626465491.817,-50.781,-31.250,17.578,-15.625
1626465491.821,22.461,-29.785,-17.578,16.113
1626465491.825,25.391,-34.668,-62.012,-32.227
1626465491.828,-53.711,-32.715,-44.922,-61.035
1626465491.832,-78.125,-32.227,3.418,-32.715
1626465491.836,-1.465,-26.855,-8.301,0.488
1626465491.840,41.992,-22.949,-56.641,-17.578
1626465491.844,-7.324,-28.320,-59.082,-62.988
1626465491.848,-65.918,-34.180,-8.301,-46.875
1626465491.852,-12.207,-37.598,-1.465,11.719
1626465491.855,31.738,-43.945,-49.805,-7.324
1626465491.859,-12.207,-47.363,-71.289,-62.012
1626465491.863,-90.820,-36.133,-27.344,-62.500
1626465491.867,-49.805,-25.879,1.465,-10.742
1626465491.871,18.555,-29.785,-39.062,-1.953
1626465491.872,25.879,-34.180,-66.895,-36.621
1626465491.876,-52.734,-35.645,-35.156,-58.105
1626465491.880,-44.922,-35.645,7.324,-1.953
1626465491.884,22.949,-36.133,-12.207,29.785
1626465491.888,31.250,-33.203,-55.176,-24.414
1626465491.892,-42.480,-38.574,-42.969,-70.801
1626465491.896,-85.938,-51.758,7.812,-41.016
1626465491.899,-12.695,-42.969,6.836,11.230
1626465491.903,28.809,-41.992,-35.645,-5.371
1626465491.907,-30.273,-50.781,-45.898,-55.176
1626465491.911,-102.051,-45.898,0.000,-49.805
1626465491.915,-45.410,-41.016,15.137,1.953
1626465491.917,10.254,-46.875,-38.574,-8.301
1626465491.921,-13.672,-51.270,-62.500,-48.828
1626465491.925,-80.566,-43.945,-20.996,-52.734
1626465491.929,-55.664,-41.016,5.371,-1.953
1626465491.933,4.883,-49.805,-29.297,7.812
1626465491.937,20.508,-46.875,-59.082,-29.297
1626465491.941,-62.500,-42.480,-38.574,-60.059
1626465491.944,-81.055,-35.645,7.812,-26.367
1626465491.948,-0.977,-30.762,-16.602,7.812
1626465491.952,18.555,-43.945,-69.336,-24.902
1626465491.956,-48.340,-48.340,-58.594,-65.918
1626465491.960,-82.031,-41.992,-11.230,-49.316
1626465491.978,-6.836,-31.738,-5.859,0.488
1626465491.982,33.691,-29.785,-46.387,-5.859
1626465491.986,-7.324,-31.738,-60.547,-52.734
1626465491.990,-76.660,-20.020,-16.113,-53.711
1626465491.994,-35.645,-10.742,6.836,2.930
1626465491.998,28.320,-17.090,-34.180,1.953
1626465492.002,11.719,-29.785,-62.500,-53.711
1626465492.005,-77.637,-34.668,-29.297,-74.707
1626465492.009,-59.570,-29.785,8.301,-6.836
1626465492.013,9.766,-36.133,-28.320,9.766
1626465492.017,20.508,-34.668,-71.289,-43.457
1626465492.021,-66.406,-29.297,-43.457,-72.266
1626465492.023,-85.449,-36.621,6.348,-36.133
1626465492.027,-0.977,-40.527,-16.113,-2.441
1626465492.031,38.574,-37.598,-62.988,-26.367
1626465492.035,-31.738,-34.180,-58.594,-64.453
1626465492.039,-87.402,-36.133,-7.812,-37.598
1626465492.043,-14.160,-27.832,2.441,20.508
1626465492.047,35.156,-24.902,-41.016,-1.953
1626465492.050,4.395,-37.109,-53.711,-47.852
1626465492.054,-80.566,-41.992,-15.625,-53.223
1626465492.058,-48.828,-37.598,3.418,-1.465
1626465492.062,23.926,-26.367,-29.785,4.395
1626465492.066,18.555,-32.715,-67.383,-40.039
1626465492.067,-68.359,-42.969,-46.387,-56.152
1626465492.071,-62.988,-32.715,1.465,-9.277
1626465492.075,18.066,-26.367,-20.996,9.766
1626465492.079,43.945,-33.203,-60.547,-25.391
1626465492.083,-24.902,-36.621,-43.457,-56.641
1626465492.087,-69.824,-31.250,7.812,-25.391
1626465492.091,-1.953,-22.949,4.395,21.484
1626465492.094,43.945,-36.621,-51.270,-8.301
1626465492.098,-30.762,-56.152,-61.523,-64.453
1626465492.102,-97.656,-45.410,-10.742,-54.688
1626465492.106,-14.160,-28.320,3.418,10.742
1626465492.110,40.527,-28.320,-32.715,8.789
1626465492.112,-20.996,-37.598,-50.293,-55.664
1626465492.116,-113.281,-43.945,-10.254,-77.637
1626465492.120,-63.477,-35.156,18.066,-14.648
1626465492.124,11.230,-30.273,-27.344,3.418
1626465492.128,11.719,-39.551,-63.965,-37.109
1626465492.132,-69.824,-34.668,-31.250,-61.523
1626465492.136,-74.219,-29.785,4.395,-20.996
1626465492.139,-10.742,-38.086,-22.461,1.953
1626465492.143,17.090,-45.898,-60.547,-24.902
1626465492.147,-42.969,-50.781,-43.457,-53.223
1626465492.151,-82.031,-48.828,6.836,-27.832
1626465492.155,-18.066,-46.875,-9.277,17.578
1626465492.157,17.090,-48.828,-58.105,-3.906
1626465492.161,-32.715,-44.434,-60.059,-48.340
1626465492.165,-97.656,-40.039,-15.137,-51.270
1626465492.169,-39.062,-33.203,0.000,-0.488
1626465492.173,20.020,-26.367,-41.016,0.977
1626465492.177,7.324,-20.996,-65.430,-46.387
1626465492.181,-65.918,-21.484,-25.879,-57.129
1626465492.184,-47.363,-27.832,0.488,-6.836
1626465492.188,22.949,-26.855,-33.691,3.906
1626465492.192,41.016,-35.156,-62.012,-23.926
1626465492.196,-49.316,-41.504,-41.016,-55.176
1626465492.200,-76.660,-30.762,6.348,-16.602
1626465492.203,5.859,-29.297,-2.441,25.879
1626465492.207,41.992,-34.668,-50.293,-7.812
1626465492.211,-23.926,-31.738,-48.828,-46.875
1626465492.215,-77.637,-30.762,4.883,-26.855
1626465492.219,-7.324,-30.762,2.930,22.949
1626465492.223,48.340,-33.203,-44.922,12.207
1626465492.227,-2.930,-48.828,-63.965,-49.316
1626465492.230,-77.148,-47.852,-19.531,-47.852
1626465492.234,-28.809,-32.227,6.836,14.648
1626465492.238,32.227,-27.344,-34.668,10.742
1626465492.242,24.414,-33.691,-62.500,-32.227
1626465492.246,-60.547,-39.551,-26.855,-47.852
1626465492.247,-40.527,-22.461,12.695,1.465
1626465492.251,22.949,-21.973,-26.855,14.648
1626465492.255,29.785,-30.273,-64.453,-19.043
1626465492.259,-46.387,-32.715,-41.016,-48.828
1626465492.263,-66.406,-31.250,-0.977,-17.090
1626465492.267,17.578,-24.902,-15.625,34.180
1626465492.271,48.828,-34.668,-63.965,-7.812
1626465492.274,-16.113,-42.969,-60.059,-64.941
1626465492.278,-74.707,-35.156,-1.465,-44.922
1626465492.282,-7.324,-16.113,7.812,9.277
1626465492.286,43.457,-16.602,-43.457,-3.906
1626465492.290,10.254,-26.855,-59.570,-49.805
1626465492.293,-62.988,-29.297,-17.090,-50.293
1626465492.297,-25.879,-29.297,3.418,10.254
1626465492.301,46.875,-25.391,-26.367,20.020
1626465492.305,35.645,-31.738,-62.500,-32.715
1626465492.309,-68.848,-39.062,-40.039,-59.082
1626465492.313,-68.359,-33.203,3.906,-12.695
1626465492.317,8.789,-30.273,-26.367,2.930
1626465492.320,35.156,-39.062,-64.941,-33.203
1626465492.324,-44.434,-40.039,-42.480,-51.270
1626465492.328,-80.566,-34.180,5.859,-19.531
1626465492.332,0.488,-26.367,-5.859,9.766
1626465492.336,45.898,-21.973,-52.734,-13.184
1626465492.352,-7.324,-33.203,-55.664,-53.711
1626465492.356,-71.777,-41.016,-4.883,-34.180
1626465492.360,-26.367,-36.133,8.789,11.230
1626465492.364,20.508,-34.668,-27.344,-9.277
1626465492.368,-1.953,-41.504,-37.109,-48.828
1626465492.372,-95.703,-47.852,-3.906,-57.129
1626465492.376,-71.777,-47.852,10.742,-10.742
1626465492.379,-0.977,-45.898,-17.578,-7.812
1626465492.383,-3.906,-50.781,-43.457,-46.387
1626465492.387,-89.355,-50.293,-25.879,-69.824
1626465492.391,-85.938,-36.621,10.254,-29.785
1626465492.395,-0.488,-33.691,-12.207,8.789
1626465492.399,30.762,-47.363,-45.410,-20.996
1626465492.403,-54.199,-54.199,-35.156,-66.895
1626465492.407,-102.539,-39.551,11.230,-45.898
1626465492.411,-24.902,-40.527,3.418,-6.836
1626465492.415,19.043,-52.246,-45.410,-19.043
1626465492.419,-27.344,-43.457,-54.199,-52.734
1626465492.423,-86.914,-41.016,-7.812,-47.852
1626465492.426,-34.180,-41.016,5.859,6.348
1626465492.430,19.043,-43.945,-42.480,-12.207
1626465492.434,5.371,-39.551,-64.941,-54.688
1626465492.438,-76.660,-34.180,-22.461,-58.594
1626465492.442,-56.641,-32.715,8.789,-10.742
1626465492.443,13.184,-31.250,-25.391,5.371
1626465492.447,20.996,-34.668,-62.012,-36.133
1626465492.451,-57.617,-31.250,-37.109,-63.965
1626465492.455,-70.312,-30.273,5.371,-30.762
1626465492.459,4.883,-29.297,-16.113,2.441
1626465492.463,35.645,-23.926,-59.570,-18.555
1626465492.467,-25.879,-20.996,-53.223,-58.594
1626465492.470,-62.988,-16.113,2.930,-32.715
1626465492.474,-0.488,-25.391,2.930,8.301
1626465492.478,36.133,-38.574,-45.410,-14.648
1626465492.482,0.488,-33.691,-50.781,-52.246
1626465492.486,-68.848,-31.738,-6.348,-50.781
1626465492.487,-28.809,-30.762,3.418,2.930
1626465492.491,34.180,-27.344,-36.621,0.977
1626465492.495,21.973,-30.762,-51.270,-36.133
1626465492.499,-71.777,-25.879,-21.973,-49.805
1626465492.503,-56.641,-25.879,0.000,-19.043
1626465492.507,17.578,-26.855,-27.344,-1.465
1626465492.511,31.738,-24.902,-60.059,-30.762
1626465492.514,-41.504,-27.832,-44.922,-60.059
1626465492.518,-78.125,-42.480,-6.348,-33.203
1626465492.522,-4.395,-39.551,-13.184,6.348
1626465492.526,37.598,-28.320,-45.898,-11.719
1626465492.530,-34.668,-34.668,-60.547,-58.594
1626465492.532,-86.426,-31.250,-15.625,-39.551
1626465492.536,-26.855,-35.645,1.465,4.395
1626465492.540,17.578,-40.527,-38.086,-17.578
1626465492.544,-10.742,-32.227,-54.199,-56.641
1626465492.548,-86.426,-29.297,-11.230,-49.805
1626465492.552,-42.969,-28.809,13.672,8.301
1626465492.556,27.832,-26.367,-23.926,9.277
1626465492.559,15.137,-35.156,-61.523,-36.621
1626465492.563,-71.777,-36.133,-28.809,-50.781
1626465492.567,-54.688,-23.438,19.531,-2.441
1626465492.571,15.137,-23.926,-14.160,10.254
1626465492.575,24.902,-32.227,-60.059,-26.367
1626465492.577,-51.270,-35.156,-40.527,-57.129
1626465492.581,-71.777,-23.926,1.465,-28.809
1626465492.585,0.977,-13.184,-12.207,-2.930
1626465492.589,37.598,-11.230,-44.434,-23.438
1626465492.593,-19.531,-22.461,-48.828,-55.664
1626465492.597,-83.496,-33.203,-6.348,-51.270
1626465492.601,-30.273,-34.668,0.488,-2.441
1626465492.604,24.902,-38.086,-41.992,-7.324
1626465492.608,-11.719,-39.551,-61.523,-53.711
1626465492.612,-96.680,-35.156,-20.508,-59.082
1626465492.616,-49.805,-25.391,10.254,-1.953
1626465492.620,16.113,-28.320,-27.832,1.953
1626465492.622,28.320,-31.738,-58.105,-37.109
1626465492.626,-48.828,-36.133,-36.621,-60.059
1626465492.630,-71.777,-27.344,4.883,-19.043
1626465492.634,-7.812,-37.109,-16.602,-2.441
1626465492.638,25.879,-45.410,-57.129,-35.156
1626465492.642,-43.945,-39.062,-48.340,-66.406
1626465492.646,-83.008,-32.227,-4.883,-39.551
1626465492.649,-2.930,-31.250,-8.301,8.301
1626465492.653,34.180,-38.086,-50.781,-16.113
1626465492.657,-26.367,-38.086,-61.523,-66.895
1626465492.661,-100.098,-38.574,-16.602,-70.801
1626465492.665,-42.969,-32.715,0.977,-18.066
1626465492.668,28.809,-25.879,-36.621,-15.625
1626465492.672,10.254,-34.668,-60.059,-55.176
1626465492.676,-83.496,-40.039,-29.297,-79.102
1626465492.680,-65.918,-37.109,-0.977,-32.227
1626465492.684,10.742,-27.344,-25.391,-7.324
1626465492.688,30.762,-19.043,-52.246,-35.645
1626465492.692,-59.570,-29.785,-38.574,-56.641
1626465492.695,-76.660,-33.691,4.395,-17.578
1626465492.699,1.953,-31.738,-12.695,11.230
1626465492.703,34.668,-35.645,-57.129,-17.578
1626465492.707,-23.438,-33.691,-48.340,-50.781
1626465492.711,-85.938,-35.156,-6.836,-33.203
1626465492.728,-20.020,-26.367,-2.441,19.043
1626465492.732,34.668,-28.809,-39.551,0.488
1626465492.736,-30.273,-47.363,-55.664,-53.223
1626465492.740,-94.727,-48.828,-6.348,-42.969
1626465492.744,-22.949,-39.062,9.766,18.066
1626465492.748,21.484,-36.621,-51.270,-7.812
1626465492.752,-8.789,-39.062,-79.102,-70.312
1626465492.755,-83.984,-43.457,-36.621,-66.406
1626465492.759,-66.895,-36.621,0.977,-17.578
1626465492.763,8.301,-26.855,-29.785,-4.395
1626465492.767,26.855,-32.715,-57.129,-32.227
1626465492.771,-64.941,-44.922,-38.574,-68.848
1626465492.773,-88.379,-36.133,7.812,-37.109
1626465492.777,-6.348,-33.203,-6.348,7.324
1626465492.781,34.180,-37.598,-63.965,-24.902
1626465492.785,-26.855,-33.691,-64.453,-62.988
1626465492.789,-81.055,-28.809,-13.672,-41.992
1626465492.793,-13.672,-18.555,-3.418,6.348
1626465492.797,38.574,-19.043,-33.203,-1.953
1626465492.800,-1.465,-21.973,-53.223,-41.992
1626465492.804,-90.332,-33.691,-22.461,-57.129
1626465492.808,-47.852,-36.621,7.812,-8.301
1626465492.812,31.738,-21.973,-20.996,7.812
1626465492.816,39.062,-23.926,-52.734,-30.273
1626465492.817,-50.781,-37.598,-34.668,-61.035
1626465492.821,-65.918,-34.180,0.000,-20.020
1626465492.825,7.324,-25.879,-20.996,6.348
1626465492.829,41.016,-24.902,-53.711,-33.203
1626465492.833,-46.875,-29.297,-36.133,-67.383
1626465492.837,-89.355,-33.203,7.812,-38.086
1626465492.841,-10.254,-23.438,-8.301,10.742
1626465492.844,38.574,-22.461,-49.805,-16.113
1626465492.848,-27.832,-36.621,-58.594,-63.965
1626465492.852,-91.309,-28.809,-10.254,-39.062
1626465492.856,-19.531,-16.113,8.789,19.043
1626465492.860,29.297,-26.855,-30.762,6.348
1626465492.862,-3.906,-42.480,-57.129,-48.340
1626465492.866,-82.520,-36.621,-22.461,-55.176
1626465492.870,-44.434,-26.367,7.324,-6.836
1626465492.874,15.625,-35.645,-31.250,-7.812
1626465492.878,25.391,-38.574,-58.105,-36.133
1626465492.882,-49.805,-31.738,-29.297,-52.246
1626465492.886,-51.758,-27.344,8.789,-5.859
1626465492.889,25.879,-35.156,-11.719,23.438
1626465492.893,43.457,-45.410,-51.270,-16.113
1626465492.897,-35.156,-42.480,-35.645,-51.270
1626465492.901,-76.660,-32.227,18.066,-16.113
1626465492.905,-10.742,-28.320,4.395,9.277
1626465492.908,32.715,-24.902,-41.992,-34.180
1626465492.912,-17.578,-23.926,-50.781,-74.219
1626465492.916,-86.426,-27.832,-9.766,-64.453
1626465492.920,-40.527,-30.762,-5.371,-12.695
1626465492.924,22.949,-31.250,-46.875,-19.531
1626465492.928,15.137,-32.227,-57.129,-49.316
1626465492.932,-73.242,-34.180,-28.320,-55.176
1626465492.935,-61.523,-35.156,-6.348,-16.113
1626465492.939,10.742,-31.250,-29.297,0.977
1626465492.943,22.461,-27.344,-55.176,-33.203
1626465492.947,-63.477,-26.855,-36.133,-58.105
1626465492.951,-77.637,-25.879,2.930,-14.160
1626465492.952,0.977,-28.809,-15.625,13.672
1626465492.956,26.367,-38.086,-58.594,-23.438
1626465492.960,-45.898,-41.992,-55.176,-62.012
1626465492.964,-88.379,-34.668,-2.441,-34.180
1626465492.968,-16.602,-31.738,3.906,20.020
1626465492.972,34.668,-35.645,-41.504,-4.883
1626465492.976,-14.160,-39.551,-61.523,-46.387
1626465492.979,-92.285,-52.734,-22.461,-43.457
1626465492.983,-41.016,-42.969,-4.395,2.930
1626465492.987,24.414,-28.809,-41.504,8.789
1626465492.991,12.695,-39.551,-69.336,-40.039
1626465492.995,-72.266,-43.945,-35.645,-52.246
1626465492.997,-49.805,-33.691,8.789,3.418
1626465493.001,20.020,-34.668,-25.391,14.648
1626465493.005,26.855,-36.133,-71.777,-22.461
1626465493.009,-49.316,-37.109,-45.410,-49.805
1626465493.013,-65.918,-38.574,10.254,-15.625
1626465493.017,13.184,-25.391,-11.719,12.695
1626465493.021,55.664,-22.949,-59.570,-14.648
1626465493.024,-15.625,-37.109,-57.617,-53.223
1626465493.028,-75.195,-38.086,-4.395,-33.691
1626465493.032,-9.766,-30.273,3.906,19.531
1626465493.036,39.551,-33.691,-48.828,-11.230
1626465493.040,-2.930,-32.715,-63.965,-58.594
1626465493.046,-85.938,-31.738,-21.973,-50.781
1626465493.050,-41.504,-30.762,0.977,-0.488
1626465493.054,24.902,-28.320,-31.738,-4.395
1626465493.058,16.113,-25.391,-57.129,-46.387
1626465493.062,-73.242,-32.227,-27.832,-60.059
1626465493.066,-66.895,-28.320,0.977,-14.160
1626465493.070,-2.930,-30.273,-37.109,-3.906
1626465493.073,17.578,-37.109,-70.312,-35.645
1626465493.077,-52.734,-38.574,-54.199,-70.312
1626465493.081,-78.613,-30.273,-7.812,-37.598
1626465493.085,0.977,-25.391,-15.625,8.301
1626465493.089,38.574,-36.621,-55.176,-14.648
1626465493.102,-23.926,-51.758,-62.500,-62.012
1626465493.106,-95.703,-52.734,-17.578,-55.176
1626465493.110,-29.297,-37.598,-0.488,5.859
1626465493.114,34.180,-36.621,-41.992,-9.277
1626465493.118,-8.301,-47.363,-57.617,-59.082
1626465493.122,-97.656,-48.340,-24.902,-66.895
1626465493.126,-60.547,-40.039,-4.883,-16.113
1626465493.129,16.113,-39.551,-37.598,-0.488
1626465493.133,26.855,-42.480,-61.035,-28.320
1626465493.137,-62.988,-37.598,-30.273,-50.293
1626465493.141,-66.895,-34.180,12.695,-9.277
1626465493.145,13.184,-34.668,-7.324,19.043
1626465493.147,43.457,-33.203,-48.340,-14.160
1626465493.151,-29.297,-33.691,-53.223,-47.363
1626465493.155,-71.289,-28.809,-10.742,-21.484
1626465493.159,1.953,-32.227,-6.836,16.602
1626465493.163,53.711,-35.156,-43.457,-3.418
1626465493.167,-6.836,-33.203,-56.152,-50.293
1626465493.171,-95.215,-35.156,-15.137,-46.875
1626465493.174,-46.875,-33.691,4.883,2.930
1626465493.178,11.230,-37.598,-35.645,0.000
1626465493.182,-5.371,-44.434,-53.711,-38.086
1626465493.186,-68.359,-32.715,-14.160,-44.922
1626465493.190,-43.945,-22.461,6.348,4.395
1626465493.193,18.555,-29.297,-30.273,17.090
1626465493.197,21.484,-38.086,-62.012,-25.391
1626465493.201,-58.594,-31.738,-25.879,-51.270
1626465493.205,-71.777,-33.691,12.207,-12.695
1626465493.209,-1.465,-37.109,-17.090,12.207
1626465493.213,27.832,-30.762,-56.641,-19.043
1626465493.217,-44.922,-41.016,-55.664,-58.105
1626465493.220,-88.867,-40.527,-12.207,-41.016
1626465493.224,-22.461,-26.855,-12.695,7.812
1626465493.228,18.555,-23.926,-55.176,-6.836
1626465493.232,-27.832,-23.438,-62.012,-51.758
1626465493.236,-90.820,-22.949,-13.672,-47.852
1626465493.237,-32.715,-26.855,7.324,13.672
1626465493.241,28.809,-33.203,-29.297,14.160
1626465493.245,17.578,-28.809,-53.223,-32.227
1626465493.249,-77.637,-31.250,-19.043,-47.852
1626465493.253,-68.359,-37.109,16.113,1.953
1626465493.257,14.648,-22.949,-16.113,14.648
1626465493.261,21.484,-20.508,-58.105,-29.785
1626465493.264,-68.359,-31.250,-42.480,-60.547
1626465493.268,-84.961,-31.250,4.395,-22.949
1626465493.272,-0.977,-23.438,-1.953,14.648
1626465493.276,38.574,-25.879,-35.156,-18.066
1626465493.280,-42.480,-40.527,-40.527,-65.918
1626465493.282,-107.422,-44.434,1.953,-45.898
1626465493.286,-26.855,-27.832,13.184,5.371
1626465493.290,24.902,-28.320,-29.785,-13.184
1626465493.294,-17.578,-39.062,-52.734,-61.523
1626465493.298,-94.238,-35.156,-19.043,-61.523
1626465493.302,-50.293,-25.391,1.953,-3.906
1626465493.306,19.531,-20.996,-32.715,-2.441
1626465493.309,17.090,-36.133,-58.594,-40.527
1626465493.313,-66.895,-36.133,-27.832,-60.547
1626465493.317,-58.594,-27.344,4.883,-5.859
1626465493.321,15.625,-24.902,-25.879,25.879
1626465493.325,45.898,-31.738,-59.570,-13.184
1626465493.328,-35.645,-39.551,-42.480,-52.734
1626465493.332,-74.219,-29.785,1.953,-23.926
1626465493.336,9.766,-23.926,-4.883,14.160
1626465493.340,53.711,-30.762,-49.805,-11.719
1626465493.344,-16.113,-34.668,-62.988,-56.641
1626465493.348,-73.242,-28.320,-15.625,-47.852
1626465493.352,-9.277,-30.762,0.000,4.883
1626465493.355,32.715,-39.551,-40.527,-7.812
1626465493.359,10.254,-36.621,-51.270,-40.039
1626465493.363,-66.406,-36.621,-15.137,-40.527
1626465493.367,-35.645,-30.273,5.859,6.348
1626465493.371,26.367,-25.391,-30.273,10.742
1626465493.373,32.715,-25.391,-58.594,-24.902
1626465493.377,-52.734,-30.762,-26.367,-48.340
1626465493.381,-67.871,-39.062,10.742,-12.207
1626465493.385,14.160,-38.086,-13.672,25.391
1626465493.389,43.945,-29.297,-52.734,-14.648
1626465493.393,-40.039,-27.832,-50.293,-66.406
1626465493.397,-74.707,-28.809,-11.719,-35.156
1626465493.400,6.348,-27.344,-5.371,24.902
1626465493.404,43.457,-31.738,-39.062,-6.348
1626465493.408,-27.344,-37.109,-49.805,-56.641
1626465493.412,-95.703,-34.668,0.000,-44.922
1626465493.416,-41.992,-35.156,15.137,-6.836
1626465493.432,15.625,-30.762,-21.973,-8.789
1626465493.436,3.418,-33.203,-44.434,-44.434
1626465493.440,-82.031,-42.969,-13.672,-58.105
1626465493.444,-62.012,-39.062,23.438,0.488
1626465493.448,17.090,-21.973,-5.371,12.695
1626465493.452,31.250,-20.996,-45.898,-37.598
1626465493.456,-61.523,-39.551,-30.762,-66.895
1626465493.459,-76.172,-36.621,9.277,-23.926
1626465493.463,-1.465,-39.062,-8.301,-0.488
1626465493.467,39.062,-46.387,-41.992,-25.391
1626465493.471,-25.391,-35.645,-30.273,-56.152
1626465493.475,-83.496,-29.785,13.184,-39.062
1626465493.477,-15.137,-32.227,12.207,6.836
1626465493.481,39.551,-34.180,-27.832,-3.418
1626465493.485,-16.602,-40.527,-57.129,-53.711
1626465493.489,-94.727,-39.551,-19.043,-55.664
1626465493.493,-33.691,-35.156,16.602,-0.977
1626465493.497,27.344,-40.039,-24.414,-7.324
1626465493.501,3.418,-41.016,-43.945,-47.363
1626465493.504,-88.379,-37.598,-11.719,-65.918
1626465493.508,-86.914,-42.969,3.418,-33.691
1626465493.512,-20.020,-45.898,-35.156,-26.855
1626465493.516,-5.371,-37.598,-68.359,-61.035
1626465493.520,-81.543,-37.109,-41.992,-79.590
1626465493.522,-95.703,-40.039,2.930,-40.527
1626465493.526,-13.184,-38.574,-13.184,-6.348
1626465493.530,25.391,-42.969,-50.293,-34.180
1626465493.534,-41.016,-40.039,-47.363,-69.336
1626465493.538,-85.449,-28.809,-6.836,-49.316
1626465493.542,-10.742,-31.250,-3.418,-4.883
1626465493.546,23.438,-34.668,-45.410,-22.461
1626465493.549,-21.484,-34.668,-63.965,-59.570
1626465493.553,-85.938,-40.039,-20.508,-47.852
1626465493.557,-40.527,-40.039,4.395,6.836
1626465493.561,30.273,-37.598,-34.668,8.789
1626465493.565,23.926,-41.992,-58.594,-32.715
1626465493.567,-71.777,-46.387,-23.438,-56.641
1626465493.571,-56.641,-28.809,15.137,-14.648
1626465493.575,23.926,-9.277,-15.137,7.812
1626465493.579,28.809,-25.879,-59.570,-32.227
1626465493.583,-49.316,-41.016,-34.180,-61.035
1626465493.587,-62.500,-31.738,15.137,-19.531
1626465493.591,10.254,-29.785,-11.230,19.531
1626465493.594,39.551,-27.832,-59.082,-12.207
1626465493.598,-17.090,-29.297,-52.734,-60.059
1626465493.602,-65.918,-20.508,-1.953,-40.527
1626465493.606,-10.254,-14.648,1.465,7.324
1626465493.610,35.645,-27.344,-42.480,-5.859
1626465493.613,-3.906,-38.086,-63.477,-49.805
1626465493.617,-91.309,-46.875,-23.438,-57.129
1626465493.621,-50.293,-40.527,4.883,1.465
1626465493.625,16.113,-33.203,-33.691,10.254
1626465493.629,8.789,-37.598,-58.594,-39.062
1626465493.633,-72.266,-35.645,-29.297,-62.500
1626465493.637,-68.848,-32.227,4.883,-22.461
1626465493.640,5.371,-26.367,-19.531,-0.488
1626465493.644,25.391,-30.762,-56.152,-32.715
1626465493.648,-46.875,-38.574,-37.109,-65.430
1626465493.652,-72.266,-27.832,10.254,-36.133
1626465493.656,1.953,-34.180,-7.324,6.348
1626465493.657,30.762,-45.898,-54.199,-23.438
1626465493.661,-19.043,-36.621,-49.805,-59.570
1626465493.665,-80.566,-38.086,-4.883,-40.527
1626465493.669,-34.180,-36.621,0.977,9.766
1626465493.673,24.902,-36.133,-32.227,1.465
