timestamps,TP9,AF7,AF8,TP10
1630097037.606,-102.539,-44.434,-217.773,-230.957
1630097037.610,-1000.000,-37.598,-1000.000,-1000.000
1630097037.614,193.359,-26.855,453.125,385.254
1630097037.618,-749.512,-31.738,-772.461,-764.648
1630097037.622,184.570,-40.527,164.551,175.781
1630097037.626,-1000.000,-41.504,-1000.000,-1000.000
1630097037.630,-278.320,-44.922,-146.484,-192.871
1630097037.633,-806.152,-39.062,-774.414,-776.367
1630097037.637,463.867,-35.156,384.766,350.098
1630097037.641,-1000.000,-42.969,-1000.000,-1000.000
1630097037.645,-359.863,-31.738,-309.570,-285.156
1630097037.649,-925.293,-25.391,-890.625,-871.094
1630097037.651,943.359,-33.691,868.164,813.965
1630097037.655,-597.656,-48.340,-713.379,-796.875
1630097037.659,-834.473,-42.969,-669.434,-696.777
1630097037.663,736.328,-29.297,864.746,865.234
1630097037.667,-815.918,-34.668,-841.309,-850.098
1630097037.671,40.527,-47.852,-33.691,-68.848
1630097037.675,-1000.000,-51.270,-1000.000,-1000.000
1630097037.678,46.875,-41.992,270.996,178.711
1630097037.682,-747.559,-37.598,-753.418,-749.023
1630097037.686,191.895,-41.016,180.176,185.547
1630097037.690,-1000.000,-59.082,-1000.000,-1000.000
1630097037.694,-278.320,-43.945,-220.215,-265.625
1630097037.696,-817.383,-26.367,-794.922,-801.270
1630097037.700,546.875,-40.527,484.863,456.055
1630097037.704,-1000.000,-43.457,-1000.000,-1000.000
1630097037.708,-455.078,-33.691,-351.562,-346.680
1630097037.712,-996.094,-30.762,-942.383,-925.781
1630097037.716,-937.012,-37.598,999.512,954.590
1630097037.720,-343.750,-57.617,-470.215,-561.035
1630097037.723,-1000.000,-46.387,-842.773,-874.023
1630097037.727,484.375,-25.391,695.312,685.059
1630097037.731,-774.902,-33.691,-805.176,-808.594
1630097037.735,158.203,-52.246,68.359,53.711
1630097037.739,-1000.000,-49.316,-1000.000,-1000.000
1630097037.741,-103.027,-25.391,92.773,23.926
1630097037.745,-758.789,-24.902,-749.512,-749.512
1630097037.749,232.910,-33.203,222.656,194.824
1630097037.753,-1000.000,-39.551,-1000.000,-1000.000
1630097037.757,-275.391,-33.203,-264.648,-277.832
1630097037.761,-847.168,-21.484,-829.102,-820.312
1630097037.765,701.660,-20.020,642.090,572.754
1630097037.768,-950.684,-23.926,-992.188,-1000.000
1630097037.772,-576.172,-28.320,-429.199,-463.379
1630097037.776,945.312,-20.508,-989.258,-998.535
1630097037.780,-883.789,-16.113,-915.039,-931.641
1630097037.784,-188.965,-24.902,-277.344,-332.520
1630097037.786,-1000.000,-9.277,-927.246,-1000.000
1630097037.790,325.684,9.277,581.055,501.953
1630097037.794,-756.836,0.977,-779.297,-776.367
1630097037.798,175.293,-15.625,137.695,142.578
1630097037.802,-1000.000,-17.090,-1000.000,-1000.000
1630097037.806,-186.523,11.230,8.301,-86.914
1630097037.810,-773.926,11.719,-749.512,-756.836
1630097037.813,360.840,-20.508,321.289,251.953
1630097037.817,-1000.000,-36.133,-1000.000,-1000.000
1630097037.821,-282.715,-11.230,-277.832,-278.809
1630097037.825,-875.488,3.906,-861.816,-843.262
1630097037.829,834.473,-16.602,796.387,691.406
1630097037.831,-774.902,-33.203,-817.383,-957.520
1630097037.835,-693.848,-32.227,-524.414,-588.867
1630097037.839,877.441,-29.297,961.914,933.105
1630097037.843,-848.145,-25.391,-864.746,-875.488
1630097037.847,-56.152,-35.156,-128.906,-180.176
1630097037.851,-1000.000,-30.762,-975.098,-1000.000
1630097037.855,184.082,-12.207,483.398,349.609
1630097037.858,-746.582,-23.438,-771.973,-761.719
1630097037.862,184.082,-45.898,173.340,179.688
1630097037.866,-1000.000,-51.758,-1000.000,-1000.000
1630097037.870,-278.809,-36.621,-172.363,-236.328
1630097037.874,-810.547,-32.227,-781.250,-789.062
1630097037.876,494.141,-41.016,431.641,385.742
1630097037.880,-1000.000,-52.246,-1000.000,-1000.000
1630097037.884,-413.086,-46.387,-330.078,-313.965
1630097037.888,-953.613,-30.273,-911.621,-899.414
1630097037.892,982.422,-45.410,925.293,884.766
1630097037.896,-528.809,-60.547,-623.047,-694.824
1630097037.900,-905.273,-37.109,-712.891,-754.883
1630097037.903,650.391,-27.832,829.102,817.383
1630097037.907,-803.711,-42.480,-837.891,-838.867
1630097037.911,74.219,-53.223,4.395,-28.809
1630097037.915,-1000.000,-53.223,-1000.000,-1000.000
1630097037.919,-29.785,-38.574,147.461,103.516
1630097037.936,-755.371,-34.668,-751.465,-749.023
1630097037.940,199.219,-53.223,191.406,190.430
1630097037.944,-1000.000,-65.918,-1000.000,-1000.000
1630097037.948,-277.344,-52.734,-245.117,-278.320
1630097037.952,-827.637,-45.898,-815.430,-812.988
1630097037.956,607.422,-60.547,576.660,523.926
1630097037.960,-1000.000,-73.730,-1000.000,-1000.000
1630097037.963,-541.504,-70.801,-427.734,-420.898
1630097037.967,955.078,-62.500,-980.469,-973.145
1630097037.971,-891.602,-42.969,-945.801,-965.820
1630097037.975,-251.953,-46.387,-380.371,-432.129
1630097037.979,-1000.000,-55.664,-879.395,-916.016
1630097037.981,433.105,-41.504,652.832,634.277
1630097037.985,-770.020,-39.551,-799.316,-797.363
1630097037.989,175.293,-54.199,110.840,115.723
1630097037.993,-1000.000,-60.547,-1000.000,-1000.000
1630097037.997,-190.918,-43.945,-23.926,-61.523
1630097038.001,-774.902,-34.180,-757.324,-756.348
1630097038.005,292.969,-47.363,256.348,211.426
1630097038.008,-1000.000,-63.477,-1000.000,-1000.000
1630097038.012,-278.809,-45.410,-276.367,-275.879
1630097038.016,-854.980,-46.387,-841.309,-833.008
1630097038.020,741.699,-64.453,684.082,635.254
1630097038.024,-897.461,-71.289,-948.242,-1000.000
1630097038.026,-660.156,-60.547,-521.484,-530.273
1630097038.030,898.438,-44.922,970.703,970.703
1630097038.034,-868.164,-53.711,-903.320,-906.738
1630097038.038,-147.461,-63.477,-255.859,-280.762
1630097038.042,-1000.000,-57.617,-1000.000,-1000.000
1630097038.046,229.004,-29.785,471.191,446.289
1630097038.050,-754.395,-29.297,-774.414,-771.484
1630097038.053,184.570,-59.082,158.691,167.969
1630097038.057,-1000.000,-50.293,-1000.000,-1000.000
1630097038.061,-276.855,-27.344,-129.883,-177.246
1630097038.065,-800.781,-35.645,-770.508,-772.949
1630097038.069,411.621,-46.387,339.844,308.105
1630097038.071,-1000.000,-53.223,-1000.000,-1000.000
1630097038.075,-325.195,-37.598,-300.781,-279.297
1630097038.079,-898.438,-34.668,-871.094,-859.375
1630097038.083,875.977,-43.457,794.922,764.648
1630097038.087,-701.172,-56.152,-812.988,-866.699
1630097038.091,-800.293,-59.082,-631.836,-644.531
1630097038.095,765.625,-46.387,887.207,903.809
1630097038.098,-825.684,-46.875,-855.469,-863.281
1630097038.102,20.020,-50.781,-65.430,-96.680
1630097038.106,-1000.000,-47.852,-1000.000,-1000.000
1630097038.110,61.523,-43.945,256.348,194.824
1630097038.114,-747.559,-48.828,-754.883,-750.977
1630097038.117,191.406,-61.523,180.664,185.059
1630097038.121,-1000.000,-60.547,-1000.000,-1000.000
1630097038.125,-278.809,-41.992,-214.844,-260.742
1630097038.129,-812.500,-27.344,-791.504,-797.852
1630097038.133,519.531,-32.715,458.984,434.082
1630097038.137,-1000.000,-38.574,-1000.000,-1000.000
1630097038.141,-410.156,-17.090,-325.684,-322.266
1630097038.144,-970.215,-0.977,-924.316,-909.668
1630097038.148,-968.262,-10.254,967.285,920.410
1630097038.152,-403.809,-32.227,-527.832,-614.746
1630097038.156,-986.328,-23.926,-826.660,-845.703
1630097038.160,541.504,-3.906,717.285,718.262
1630097038.161,-781.738,-16.113,-811.523,-814.453
1630097038.165,128.418,-29.297,44.922,17.578
1630097038.169,-1000.000,-30.762,-1000.000,-1000.000
1630097038.173,-50.293,-14.648,109.863,70.312
1630097038.177,-751.953,-19.531,-749.512,-747.070
1630097038.181,224.121,-33.203,219.727,191.406
1630097038.185,-1000.000,-30.273,-1000.000,-1000.000
1630097038.188,-278.320,-18.066,-262.695,-277.832
1630097038.192,-837.402,-16.602,-820.312,-816.895
1630097038.196,658.691,-30.273,600.586,552.246
1630097038.200,-996.582,-46.387,-1000.000,-1000.000
1630097038.204,-563.477,-36.621,-437.988,-438.965
1630097038.206,952.148,-27.832,-983.398,-979.004
1630097038.210,-894.043,-45.898,-946.777,-959.473
1630097038.214,-227.051,-63.965,-354.492,-394.043
1630097038.218,-1000.000,-47.363,-943.359,-984.375
1630097038.222,337.402,-22.949,566.406,538.086
1630097038.226,-760.254,-20.020,-785.156,-782.227
1630097038.230,175.781,-28.809,132.812,139.648
1630097038.233,-1000.000,-39.551,-1000.000,-1000.000
1630097038.237,-190.918,-32.227,-31.738,-75.684
1630097038.241,-774.414,-32.715,-754.395,-755.859
1630097038.245,305.176,-45.410,270.020,228.027
1630097038.249,-1000.000,-45.410,-1000.000,-1000.000
1630097038.252,-274.414,-33.691,-278.320,-275.391
1630097038.256,-875.000,-33.203,-854.492,-844.238
1630097038.260,815.430,-40.527,740.234,687.500
1630097038.264,-795.410,-58.594,-884.277,-960.449
1630097038.268,-717.285,-51.270,-569.336,-593.750
1630097038.272,859.375,-23.438,939.941,937.500
1630097038.276,-852.539,-29.297,-882.812,-885.742
1630097038.279,-92.285,-52.734,-194.824,-225.098
1630097038.283,-1000.000,-46.875,-1000.000,-1000.000
1630097038.287,161.133,-30.273,409.180,351.562
1630097038.291,-748.535,-38.086,-768.066,-763.184
1630097038.295,186.035,-57.129,169.434,178.223
1630097038.311,-1000.000,-46.387,-1000.000,-1000.000
1630097038.315,-277.832,-20.508,-165.527,-214.844
1630097038.319,-804.688,-18.066,-776.855,-781.738
1630097038.323,455.078,-35.156,385.254,349.121
1630097038.327,-1000.000,-47.363,-1000.000,-1000.000
1630097038.331,-348.145,-31.738,-303.223,-281.250
1630097038.335,-918.457,-18.066,-881.348,-868.652
1630097038.338,929.199,-27.832,843.262,805.664
1630097038.342,-607.422,-35.645,-743.164,-799.805
1630097038.346,-856.934,-21.484,-673.828,-720.215
1630097038.350,708.496,-18.555,855.469,840.820
1630097038.354,-815.918,-24.414,-848.633,-849.121
1630097038.356,51.270,-31.250,-17.578,-53.223
1630097038.360,-1000.000,-41.992,-1000.000,-1000.000
1630097038.364,-20.020,-35.156,162.598,113.281
1630097038.368,-755.859,-40.039,-750.000,-749.512
1630097038.372,199.219,-65.918,182.617,188.965
1630097038.376,-1000.000,-73.242,-1000.000,-1000.000
1630097038.380,-277.344,-65.430,-203.613,-264.160
1630097038.383,-821.777,-69.824,-795.898,-803.711
1630097038.387,572.754,-74.219,507.324,473.145
1630097038.391,-1000.000,-81.543,-1000.000,-1000.000
1630097038.395,-490.723,-93.750,-377.441,-389.160
1630097038.399,991.699,-92.773,-951.172,-940.918
1630097038.401,-930.176,-98.145,-989.258,962.402
1630097038.405,-353.516,-117.188,-473.633,-561.523
1630097038.409,-1000.000,-111.328,-806.152,-872.559
1630097038.413,515.137,-104.004,737.305,683.105
1630097038.417,-780.273,-115.723,-812.012,-808.594
1630097038.421,170.898,-121.582,101.074,80.078
1630097038.425,-1000.000,-117.676,-1000.000,-1000.000
1630097038.428,-144.043,-87.402,40.527,-13.672
1630097038.432,-764.648,-58.105,-750.000,-751.953
1630097038.436,265.625,-62.012,243.164,197.754
1630097038.440,-1000.000,-90.332,-1000.000,-1000.000
1630097038.444,-277.832,-73.242,-270.020,-276.367
1630097038.446,-852.051,-49.805,-835.449,-827.148
1630097038.450,726.074,-62.988,666.016,604.980
1630097038.454,-918.945,-81.543,-967.285,-1000.000
1630097038.458,-629.395,-79.102,-482.422,-507.324
1630097038.462,914.062,-60.547,984.375,978.516
1630097038.466,-871.094,-55.176,-900.391,-911.621
1630097038.470,-153.809,-71.289,-245.605,-293.457
1630097038.473,-1000.000,-61.035,-970.703,-1000.000
1630097038.477,266.113,-37.598,517.090,472.168
1630097038.481,-755.859,-47.363,-776.367,-772.461
1630097038.485,181.641,-67.383,153.320,162.598
1630097038.489,-1000.000,-65.430,-1000.000,-1000.000
1630097038.492,-252.930,-52.246,-85.449,-133.301
1630097038.496,-793.457,-59.570,-762.695,-763.672
1630097038.500,395.020,-67.383,329.590,277.344
1630097038.504,-1000.000,-72.754,-1000.000,-1000.000
1630097038.508,-310.059,-56.641,-292.969,-277.832
1630097038.512,-889.648,-38.574,-867.188,-854.492
1630097038.516,861.816,-46.387,793.945,743.164
1630097038.519,-740.234,-50.781,-821.777,-896.973
1630097038.523,-723.633,-36.621,-570.312,-609.863
1630097038.527,853.516,-29.785,937.988,927.246
1630097038.531,-845.703,-40.039,-867.676,-874.023
1630097038.535,-33.203,-58.594,-120.605,-151.367
1630097038.536,-1000.000,-61.523,-1000.000,-1000.000
1630097038.540,108.887,-51.270,357.910,280.762
1630097038.544,-748.535,-42.969,-759.766,-754.395
1630097038.548,188.965,-46.875,173.340,179.688
1630097038.552,-1000.000,-55.176,-1000.000,-1000.000
1630097038.556,-278.320,-36.621,-155.762,-226.562
1630097038.560,-810.547,-24.414,-777.344,-786.621
1630097038.563,491.699,-44.922,412.109,385.742
1630097038.567,-1000.000,-58.594,-1000.000,-1000.000
1630097038.571,-415.527,-29.297,-331.543,-317.871
1630097038.575,-963.379,-26.367,-920.410,-905.273
1630097038.579,-996.094,-36.621,941.406,899.414
1630097038.581,-488.770,-34.180,-597.168,-670.898
1630097038.585,-918.945,-26.855,-745.117,-770.508
1630097038.589,632.324,-12.207,800.781,801.270
1630097038.593,-795.898,-20.020,-823.242,-831.055
1630097038.597,89.844,-38.086,5.859,-18.555
1630097038.601,-1000.000,-41.504,-1000.000,-1000.000
1630097038.605,4.395,-8.789,226.074,126.465
1630097038.608,-748.535,-4.883,-750.977,-747.070
1630097038.612,194.824,-46.387,191.406,187.988
1630097038.616,-1000.000,-45.410,-1000.000,-1000.000
1630097038.620,-277.832,-17.578,-246.582,-278.320
1630097038.624,-826.660,-19.043,-810.059,-812.012
1630097038.626,598.633,-38.086,544.922,510.742
1630097038.630,-1000.000,-44.922,-1000.000,-1000.000
1630097038.634,-534.180,-31.250,-409.668,-419.434
1630097038.638,958.008,-20.020,-977.051,-973.145
1630097038.642,-895.508,-29.297,-950.684,-970.703
1630097038.646,-251.953,-40.039,-380.859,-432.129
1630097038.650,-1000.000,-29.785,-881.836,-935.547
1630097038.653,412.109,-31.738,646.973,607.422
1630097038.657,-768.066,-37.598,-798.340,-793.457
1630097038.661,174.805,-36.133,119.629,119.629
1630097038.665,-1000.000,-40.527,-1000.000,-1000.000
1630097038.669,-189.941,-32.715,-30.762,-68.848
1630097038.686,-773.926,-28.320,-755.859,-756.836
1630097038.690,300.293,-41.504,268.555,220.215
1630097038.694,-1000.000,-52.734,-1000.000,-1000.000
1630097038.698,-273.926,-37.598,-271.484,-274.902
1630097038.702,-875.000,-30.762,-857.910,-842.773
1630097038.706,816.895,-46.387,758.301,677.246
1630097038.710,-798.828,-54.688,-861.816,-970.703
1630097038.713,-696.777,-54.688,-562.988,-588.379
1630097038.717,882.812,-43.945,953.613,943.359
1630097038.721,-859.863,-29.785,-892.090,-895.508
1630097038.725,-113.770,-42.480,-228.516,-248.535
1630097038.729,-1000.000,-47.852,-1000.000,-1000.000
1630097038.731,176.758,-28.320,434.082,359.375
1630097038.735,-750.000,-27.832,-771.484,-763.672
1630097038.739,185.547,-48.340,166.016,177.246
1630097038.743,-1000.000,-58.594,-1000.000,-1000.000
1630097038.747,-277.832,-38.574,-153.320,-200.684
1630097038.751,-804.199,-33.691,-774.902,-778.320
1630097038.755,441.406,-54.688,377.930,340.820
1630097038.758,-1000.000,-62.988,-1000.000,-1000.000
1630097038.762,-354.492,-38.574,-307.617,-281.738
1630097038.766,-916.016,-19.531,-882.324,-865.723
1630097038.770,910.645,-39.062,840.820,792.969
1630097038.774,-642.578,-70.312,-749.023,-819.336
1630097038.776,-843.262,-57.617,-673.340,-701.660
1630097038.780,721.680,-36.133,857.910,858.398
1630097038.784,-814.453,-37.598,-841.309,-848.633
1630097038.788,20.020,-49.316,-62.500,-98.633
1630097038.792,-1000.000,-46.875,-1000.000,-1000.000
1630097038.796,75.195,-33.203,303.711,227.051
1630097038.800,-746.582,-43.457,-755.859,-751.465
1630097038.803,189.941,-60.059,178.711,184.082
1630097038.807,-1000.000,-51.758,-1000.000,-1000.000
1630097038.811,-278.809,-32.227,-214.355,-263.672
1630097038.815,-814.453,-37.598,-792.969,-800.293
1630097038.819,516.113,-51.270,445.801,433.594
1630097038.821,-1000.000,-54.688,-1000.000,-1000.000
1630097038.825,-471.680,-42.480,-382.812,-361.816
1630097038.829,-994.141,-38.574,-941.406,-924.805
1630097038.833,-964.844,-47.852,955.566,927.734
1630097038.837,-431.641,-53.223,-576.660,-622.559
1630097038.841,-965.820,-46.387,-794.434,-829.590
1630097038.845,566.406,-41.992,748.535,734.863
1630097038.848,-788.574,-44.922,-822.754,-819.824
1630097038.852,146.484,-42.969,56.152,39.062
1630097038.856,-1000.000,-46.387,-1000.000,-1000.000
1630097038.860,-108.887,-42.480,41.016,22.949
1630097038.864,-762.207,-38.086,-752.930,-750.977
1630097038.866,205.566,-49.805,211.426,195.312
1630097038.870,-1000.000,-56.152,-1000.000,-1000.000
1630097038.874,-272.949,-42.969,-264.160,-277.832
1630097038.878,-842.285,-44.434,-823.242,-820.312
1630097038.882,664.551,-44.434,595.215,561.035
1630097038.886,-986.816,-43.945,-1000.000,-1000.000
1630097038.890,-618.652,-41.504,-487.305,-500.000
1630097038.893,919.434,-29.297,989.258,987.793
1630097038.897,-885.742,-42.480,-937.500,-938.965
1630097038.901,-194.336,-68.848,-317.871,-353.027
1630097038.905,-1000.000,-63.965,-1000.000,-1000.000
1630097038.909,233.887,-41.016,449.707,453.613
1630097038.911,-755.371,-44.434,-775.391,-772.949
1630097038.915,181.641,-67.383,129.883,141.602
1630097038.919,-1000.000,-71.777,-1000.000,-1000.000
1630097038.923,-236.816,-53.223,-92.285,-107.910
1630097038.927,-788.086,-44.434,-764.648,-760.254
1630097038.931,374.023,-68.359,310.547,262.207
1630097038.935,-1000.000,-70.801,-1000.000,-1000.000
1630097038.938,-300.293,-32.715,-295.898,-279.297
1630097038.942,-877.930,-31.738,-854.004,-843.262
1630097038.946,828.125,-45.410,736.328,699.219
1630097038.950,-789.062,-56.641,-895.996,-952.148
1630097038.954,-682.617,-55.176,-540.039,-567.871
1630097038.957,889.648,-43.945,961.426,953.125
1630097038.961,-861.328,-47.852,-892.578,-891.602
1630097038.965,-80.078,-50.781,-185.547,-203.613
1630097038.969,-1000.000,-44.922,-1000.000,-1000.000
1630097038.973,131.348,-33.691,357.910,305.176
1630097038.977,-750.000,-27.344,-762.207,-757.812
1630097038.981,187.988,-40.039,169.434,177.734
1630097038.984,-1000.000,-49.805,-1000.000,-1000.000
1630097038.988,-277.832,-30.762,-145.996,-204.590
1630097038.992,-806.641,-24.414,-773.926,-780.273
1630097038.996,467.773,-33.691,384.277,360.840
1630097039.000,-1000.000,-52.246,-1000.000,-1000.000
1630097039.001,-365.234,-41.016,-310.059,-292.969
1630097039.005,-937.012,-28.320,-908.203,-889.160
1630097039.009,969.238,-31.738,915.527,864.746
1630097039.013,-519.531,-55.176,-623.047,-710.938
1630097039.017,-942.871,-69.824,-769.531,-777.344
1630097039.021,605.469,-30.273,777.344,793.945
1630097039.025,-795.410,-14.160,-823.730,-833.496
1630097039.028,45.898,-35.156,-29.297,-46.387
1630097039.032,-1000.000,-40.039,-1000.000,-1000.000
1630097039.036,14.648,-24.414,229.492,137.207
1630097039.040,-751.465,-13.672,-752.441,-748.535
1630097039.044,195.312,-36.133,181.641,187.988
1630097039.061,-1000.000,-57.129,-1000.000,-1000.000
1630097039.065,-277.832,-19.531,-221.680,-274.414
1630097039.069,-821.289,-8.301,-801.270,-805.664
1630097039.073,579.590,-35.645,533.203,477.539
1630097039.077,-1000.000,-38.086,-1000.000,-1000.000
1630097039.081,-463.867,-15.625,-348.145,-362.305
1630097039.085,999.023,-2.930,-943.848,-939.941
1630097039.088,-921.875,-11.719,-977.051,980.957
1630097039.092,-304.688,-23.438,-424.805,-505.859
1630097039.096,-1000.000,-6.348,-835.449,-909.668
1630097039.100,450.195,12.207,700.684,640.137
1630097039.104,-770.996,10.254,-804.199,-798.340
1630097039.106,169.922,-3.906,95.215,88.379
1630097039.110,-1000.000,-0.488,-1000.000,-1000.000
1630097039.114,-130.371,4.883,63.965,-3.418
1630097039.118,-763.184,-12.207,-749.023,-749.512
1630097039.122,240.723,-20.508,220.703,196.289
1630097039.126,-1000.000,-22.949,-1000.000,-1000.000
1630097039.130,-273.926,-13.184,-257.812,-275.879
1630097039.133,-856.445,-12.695,-835.938,-830.078
1630097039.137,731.934,-21.484,665.039,616.699
1630097039.141,-908.203,-25.879,-963.867,-1000.000
1630097039.145,-667.480,-25.879,-547.363,-541.504
1630097039.149,893.555,-22.949,958.984,964.844
1630097039.151,-866.211,-26.855,-906.250,-908.691
1630097039.155,-176.758,-44.434,-293.945,-307.129
1630097039.159,-1000.000,-48.340,-966.797,-1000.000
1630097039.163,282.227,-29.297,521.973,481.445
1630097039.167,-759.277,-25.879,-782.715,-776.855
1630097039.171,183.594,-41.992,161.133,168.945
1630097039.175,-1000.000,-49.805,-1000.000,-1000.000
1630097039.178,-276.367,-36.621,-137.695,-176.758
1630097039.182,-799.805,-24.414,-770.996,-772.949
1630097039.186,393.066,-37.598,323.730,277.344
1630097039.190,-1000.000,-58.105,-1000.000,-1000.000
1630097039.194,-304.199,-40.527,-288.086,-273.926
1630097039.196,-895.020,-28.809,-874.512,-860.840
1630097039.200,880.371,-41.016,818.359,765.137
1630097039.204,-705.078,-55.664,-789.062,-869.629
1630097039.208,-755.371,-54.688,-601.074,-623.047
1630097039.212,818.848,-41.016,914.551,919.434
1630097039.216,-836.914,-34.668,-860.352,-869.629
1630097039.220,0.000,-40.527,-81.543,-119.141
1630097039.223,-1000.000,-32.715,-1000.000,-1000.000
1630097039.227,81.055,-17.090,295.898,233.887
1630097039.231,-747.559,-30.273,-756.348,-752.441
1630097039.235,190.430,-56.641,178.223,183.105
1630097039.239,-1000.000,-60.547,-1000.000,-1000.000
1630097039.241,-278.320,-41.992,-203.125,-253.906
1630097039.245,-812.988,-40.527,-789.062,-794.922
1630097039.249,506.836,-48.828,436.035,410.156
1630097039.253,-1000.000,-54.199,-1000.000,-1000.000
1630097039.257,-443.359,-41.504,-354.980,-333.008
1630097039.261,-971.191,-27.832,-923.828,-907.715
1630097039.265,-997.070,-41.992,933.594,900.391
1630097039.268,-492.188,-62.012,-611.816,-670.410
1630097039.272,-934.570,-64.453,-756.836,-775.391
1630097039.276,607.910,-65.918,786.133,794.434
1630097039.280,-794.434,-76.660,-826.660,-831.543
1630097039.284,117.676,-88.867,35.156,6.836
1630097039.286,-1000.000,-94.238,-1000.000,-1000.000
1630097039.290,-47.852,-67.383,122.559,66.406
1630097039.294,-753.418,-64.941,-749.023,-748.535
1630097039.298,199.219,-84.473,194.824,192.383
1630097039.302,-1000.000,-88.379,-1000.000,-1000.000
1630097039.306,-277.344,-68.359,-236.816,-277.832
1630097039.310,-827.148,-51.758,-809.082,-812.988
1630097039.313,603.516,-49.805,550.293,518.555
1630097039.317,-1000.000,-55.664,-1000.000,-1000.000
1630097039.321,-545.410,-50.293,-422.363,-430.176
1630097039.325,956.543,-39.551,-975.586,-973.633
1630097039.329,-898.926,-48.340,-963.379,-977.051
1630097039.331,-266.602,-63.477,-404.297,-442.871
1630097039.335,-1000.000,-62.012,-904.297,-941.895
1630097039.339,400.391,-44.434,619.141,594.238
1630097039.343,-764.648,-44.922,-790.527,-787.598
1630097039.347,170.410,-51.758,114.258,127.930
1630097039.351,-1000.000,-45.410,-1000.000,-1000.000
1630097039.355,-140.625,-40.039,29.297,-20.020
1630097039.358,-763.184,-53.223,-748.535,-747.070
1630097039.362,313.965,-56.641,273.438,229.492
1630097039.366,-1000.000,-49.805,-1000.000,-1000.000
1630097039.370,-281.738,-32.715,-274.414,-279.297
1630097039.374,-862.793,-27.832,-842.773,-836.914
1630097039.376,777.344,-40.527,700.684,656.738
1630097039.380,-850.586,-45.410,-925.781,-992.188
1630097039.384,-684.082,-35.156,-556.641,-568.848
1630097039.388,881.348,-23.438,940.918,944.336
1630097039.392,-858.887,-28.809,-884.277,-888.184
1630097039.396,-76.660,-42.969,-175.781,-204.590
1630097039.400,-1000.000,-41.016,-1000.000,-1000.000
1630097039.403,129.883,-28.320,367.676,317.871
1630097039.407,-742.676,-34.180,-757.324,-751.953
1630097039.411,169.434,-56.152,144.531,159.180
1630097039.415,-1000.000,-49.805,-1000.000,-1000.000
1630097039.419,-189.453,-20.508,-60.547,-113.281
1630097039.436,-812.500,-19.531,-784.668,-789.062
1630097039.440,430.664,-27.344,365.723,333.496
1630097039.444,-1000.000,-37.598,-1000.000,-1000.000
1630097039.448,-319.336,-32.715,-292.969,-278.320
1630097039.452,-916.504,-18.066,-892.578,-872.559
1630097039.456,937.500,-21.973,880.371,817.871
1630097039.460,-583.496,-34.668,-686.035,-786.133
1630097039.463,-872.559,-28.809,-697.754,-719.238
1630097039.467,698.730,-19.531,846.680,851.074
1630097039.471,-813.965,-19.531,-846.680,-853.027
1630097039.475,7.324,-38.574,-80.566,-108.887
1630097039.479,-1000.000,-47.852,-1000.000,-1000.000
1630097039.481,40.039,-33.203,237.305,179.688
1630097039.485,-751.465,-31.738,-756.348,-752.441
1630097039.489,193.848,-35.156,183.105,186.523
1630097039.493,-1000.000,-44.922,-1000.000,-1000.000
1630097039.497,-278.320,-29.785,-227.539,-270.020
1630097039.501,-818.848,-14.160,-797.363,-803.223
1630097039.505,555.176,-31.738,490.234,459.961
1630097039.508,-1000.000,-56.152,-1000.000,-1000.000
1630097039.512,-467.285,-41.504,-363.281,-362.793
1630097039.516,-992.188,-23.926,-936.523,-923.828
1630097039.520,-954.102,-41.016,975.586,932.129
1630097039.524,-373.535,-62.012,-512.695,-596.191
1630097039.526,-1000.000,-53.711,-852.539,-878.418
1630097039.530,469.238,-24.902,680.176,673.340
1630097039.534,-770.996,-24.414,-802.246,-804.199
1630097039.538,151.855,-41.504,65.430,50.293
1630097039.542,-1000.000,-43.945,-1000.000,-1000.000
1630097039.546,-48.828,-34.668,121.094,66.895
1630097039.550,-750.000,-34.180,-747.070,-744.629
1630097039.553,202.637,-41.016,210.938,190.430
1630097039.557,-1000.000,-22.949,-1000.000,-1000.000
1630097039.561,-274.902,-2.441,-267.090,-277.832
1630097039.565,-841.797,-16.113,-824.219,-819.336
1630097039.569,665.039,-29.785,603.027,555.664
1630097039.571,-986.816,-40.039,-1000.000,-1000.000
1630097039.575,-610.352,-30.273,-479.492,-489.258
1630097039.579,920.898,-29.297,988.281,991.211
1630097039.583,-875.000,-43.457,-919.922,-934.082
1630097039.587,-216.309,-53.711,-330.566,-375.000
1630097039.591,-1000.000,-52.734,-901.367,-971.191
1630097039.595,380.859,-32.715,616.699,556.641
1630097039.598,-767.090,-17.578,-795.410,-787.598
1630097039.602,180.664,-25.391,150.879,151.855
1630097039.606,-1000.000,-42.969,-1000.000,-1000.000
1630097039.610,-261.719,-31.250,-120.117,-144.043
1630097039.614,-793.457,-17.578,-767.578,-768.066
1630097039.616,343.262,-35.645,293.457,249.023
1630097039.620,-1000.000,-53.223,-1000.000,-1000.000
1630097039.624,-281.250,-38.574,-283.691,-276.367
1630097039.628,-876.953,-36.621,-857.910,-843.750
1630097039.632,826.660,-48.340,751.953,690.918
1630097039.636,-787.109,-46.387,-872.070,-958.984
1630097039.640,-694.336,-35.645,-558.105,-583.984
1630097039.643,880.859,-26.855,944.336,938.965
1630097039.647,-857.910,-31.250,-878.418,-885.254
1630097039.651,-62.012,-46.387,-142.090,-178.223
1630097039.655,-1000.000,-51.758,-1000.000,-1000.000
1630097039.659,102.051,-28.809,337.891,276.855
1630097039.662,-750.977,-21.484,-762.695,-756.348
1630097039.666,190.430,-48.340,172.852,181.152
1630097039.670,-1000.000,-49.805,-1000.000,-1000.000
1630097039.674,-278.320,-25.391,-189.941,-236.328
1630097039.678,-808.105,-26.367,-784.668,-787.598
1630097039.682,490.234,-39.062,434.082,375.000
1630097039.686,-1000.000,-50.293,-1000.000,-1000.000
1630097039.689,-366.699,-41.504,-314.941,-292.480
1630097039.693,-928.223,-36.133,-895.996,-876.465
1630097039.697,951.660,-52.734,892.090,829.590
1630097039.701,-546.875,-60.547,-654.785,-762.207
1630097039.705,-933.594,-50.781,-756.836,-764.160
1630097039.706,612.305,-47.363,783.691,801.758
1630097039.710,-798.340,-47.852,-829.590,-838.379
1630097039.714,63.965,-49.805,-6.348,-48.340
1630097039.718,-1000.000,-47.363,-1000.000,-1000.000
1630097039.722,-21.484,-38.086,161.133,118.164
1630097039.726,-754.883,-41.992,-751.465,-749.023
1630097039.730,198.730,-49.805,190.918,189.453
1630097039.733,-1000.000,-65.918,-1000.000,-1000.000
1630097039.737,-277.344,-68.359,-238.770,-273.926
1630097039.741,-820.801,-48.828,-801.758,-805.664
1630097039.745,571.289,-40.039,506.836,470.215
1630097039.749,-1000.000,-52.734,-1000.000,-1000.000
1630097039.751,-476.562,-46.387,-373.535,-372.559
1630097039.755,-1000.000,-41.992,-945.801,-934.082
1630097039.759,-937.988,-62.500,994.629,957.520
1630097039.763,-352.051,-79.590,-482.422,-564.453
1630097039.767,-1000.000,-76.172,-852.539,-873.047
1630097039.771,486.816,-69.824,685.059,684.570
1630097039.775,-778.320,-71.777,-808.105,-810.059
1630097039.778,172.363,-90.332,98.633,71.777
1630097039.782,-1000.000,-109.375,-1000.000,-1000.000
1630097039.786,-157.227,-87.891,-10.254,-22.461
1630097039.790,-767.578,-65.918,-755.859,-754.395
1630097039.794,269.531,-76.660,246.094,199.219
1630097039.811,-1000.000,-86.914,-1000.000,-1000.000
1630097039.815,-277.832,-62.012,-270.508,-276.367
1630097039.819,-852.051,-50.781,-835.938,-825.195
1630097039.823,727.051,-63.965,667.480,598.145
1630097039.827,-918.457,-70.801,-964.355,-1000.000
1630097039.831,-619.141,-56.641,-485.840,-498.047
1630097039.835,926.758,-54.688,996.094,988.770
1630097039.838,-880.371,-66.406,-927.734,-925.781
1630097039.842,-188.965,-82.520,-310.059,-332.520
1630097039.846,-1000.000,-87.891,-968.262,-1000.000
1630097039.850,282.715,-60.547,520.996,497.070
1630097039.854,-759.766,-58.594,-785.645,-779.785
1630097039.856,183.594,-68.359,156.738,165.039
1630097039.860,-1000.000,-58.594,-1000.000,-1000.000
1630097039.864,-276.367,-36.133,-153.320,-171.387
1630097039.868,-800.293,-31.738,-774.902,-771.973
1630097039.872,394.531,-54.688,322.266,275.879
1630097039.876,-1000.000,-68.359,-1000.000,-1000.000
1630097039.880,-324.219,-51.270,-304.199,-275.879
1630097039.883,-895.020,-41.016,-870.605,-855.469
1630097039.887,857.910,-55.664,777.344,739.746
1630097039.891,-724.121,-59.570,-831.055,-897.461
1630097039.895,-801.270,-63.477,-667.480,-644.043
1630097039.899,766.113,-61.523,862.305,904.297
1630097039.901,-829.102,-39.551,-853.516,-865.234
1630097039.905,-21.973,-57.129,-107.910,-137.207
1630097039.909,-1000.000,-59.570,-1000.000,-1000.000
1630097039.913,86.426,-31.738,271.484,257.324
1630097039.917,-749.023,-38.574,-758.789,-753.906
1630097039.921,190.430,-52.734,181.641,182.129
1630097039.925,-1000.000,-56.152,-1000.000,-1000.000
1630097039.928,-278.320,-41.992,-221.191,-254.395
1630097039.932,-812.988,-34.668,-793.457,-794.922
1630097039.936,503.906,-49.805,433.594,400.391
1630097039.940,-1000.000,-59.082,-1000.000,-1000.000
1630097039.944,-458.984,-39.551,-377.441,-338.379
1630097039.946,-979.980,-37.109,-933.594,-908.203
1630097039.950,-993.652,-48.828,932.129,891.113
1630097039.954,-478.516,-45.410,-601.074,-673.828
1630097039.958,-965.820,-31.250,-813.477,-812.012
1630097039.962,562.988,-30.762,717.285,749.023
1630097039.966,-785.645,-49.805,-812.012,-820.312
1630097039.970,138.184,-57.129,56.152,15.625
1630097039.973,-1000.000,-51.758,-1000.000,-1000.000
1630097039.977,-46.387,-34.180,118.164,83.984
1630097039.981,-751.465,-37.109,-749.023,-747.070
1630097039.985,198.242,-43.945,190.430,190.430
1630097039.989,-1000.000,-48.828,-1000.000,-1000.000
1630097039.991,-277.344,-31.250,-247.559,-277.832
1630097039.995,-827.148,-19.531,-813.477,-812.012
1630097039.999,605.469,-47.852,561.035,519.531
1630097040.003,-1000.000,-59.082,-1000.000,-1000.000
1630097040.007,-528.320,-31.738,-413.086,-408.203
1630097040.011,960.938,-15.137,-979.980,-969.238
1630097040.015,-894.531,-28.809,-943.359,-967.773
1630097040.018,-232.422,-41.504,-349.121,-417.480
1630097040.022,-1000.000,-37.598,-919.434,-946.777
1630097040.026,388.184,-27.832,598.145,592.285
1630097040.030,-766.113,-24.414,-792.969,-791.504
1630097040.034,176.758,-35.645,120.117,125.488
1630097040.036,-1000.000,-45.410,-1000.000,-1000.000
1630097040.040,-211.426,-30.762,-61.035,-75.684
1630097040.044,-779.785,-25.391,-760.742,-757.812
1630097040.048,298.828,-27.344,263.184,214.844
1630097040.052,-1000.000,-44.434,-1000.000,-1000.000
1630097040.056,-278.809,-45.410,-272.949,-275.879
1630097040.060,-854.492,-23.438,-839.844,-832.031
1630097040.063,743.652,-29.785,688.477,632.812
1630097040.067,-897.949,-45.898,-946.777,-1000.000
1630097040.071,-641.113,-32.715,-503.906,-520.508
1630097040.075,906.250,-12.695,975.586,971.191
1630097040.079,-869.141,-21.484,-900.391,-903.320
1630097040.081,-100.098,-41.504,-205.566,-240.234
1630097040.085,-1000.000,-37.109,-1000.000,-1000.000
1630097040.089,169.434,-25.391,398.438,373.535
1630097040.093,-750.000,-35.645,-767.090,-763.672
1630097040.097,186.035,-44.434,164.551,175.293
1630097040.101,-1000.000,-41.504,-1000.000,-1000.000
1630097040.105,-278.320,-29.785,-138.672,-187.012
1630097040.108,-806.152,-45.410,-773.926,-775.391
1630097040.112,458.496,-48.828,385.254,339.355
1630097040.116,-1000.000,-40.039,-1000.000,-1000.000
1630097040.120,-366.699,-19.531,-322.754,-289.551
1630097040.124,-924.316,-6.836,-890.625,-870.605
1630097040.127,930.664,-32.227,853.027,803.223
1630097040.131,-603.027,-40.039,-725.098,-805.664
1630097040.135,-877.930,-28.320,-723.633,-717.773
1630097040.139,684.082,-21.484,815.918,847.168
1630097040.143,-810.547,-36.133,-839.844,-850.586
1630097040.147,24.902,-41.504,-56.641,-97.168
1630097040.151,-1000.000,-21.484,-1000.000,-1000.000
1630097040.154,32.715,-22.461,213.867,177.246
1630097040.158,-750.977,-41.992,-755.859,-751.953
1630097040.162,194.336,-50.293,185.059,186.523
1630097040.166,-1000.000,-43.457,-1000.000,-1000.000
1630097040.170,-278.320,-30.762,-240.234,-270.996
1630097040.186,-815.918,-22.949,-798.828,-801.270
1630097040.190,532.715,-36.621,470.215,439.941
1630097040.194,-1000.000,-54.688,-1000.000,-1000.000
1630097040.198,-450.195,-35.645,-361.816,-339.355
1630097040.202,-992.188,-26.367,-942.871,-918.945
1630097040.206,-946.289,-31.250,985.352,933.594
1630097040.210,-360.352,-39.551,-496.094,-588.867
1630097040.213,-1000.000,-57.129,-859.375,-879.883
1630097040.217,485.840,-43.457,677.734,680.664
1630097040.221,-778.809,-31.250,-812.012,-812.500
1630097040.225,140.625,-46.387,53.223,21.973
1630097040.229,-1000.000,-49.316,-1000.000,-1000.000
1630097040.231,-129.883,-33.203,17.578,7.812
1630097040.235,-767.090,-24.414,-755.859,-754.395
1630097040.239,214.844,-32.715,217.773,197.754
1630097040.243,-1000.000,-45.410,-1000.000,-1000.000
1630097040.247,-270.508,-43.457,-257.324,-277.344
1630097040.251,-852.051,-30.273,-834.473,-820.801
1630097040.255,713.379,-20.996,663.086,569.336
1630097040.258,-937.500,-25.391,-968.750,-1000.000
1630097040.262,-591.797,-3.906,-468.262,-499.023
1630097040.266,942.383,-1.465,-995.605,995.117
1630097040.270,-888.672,-17.090,-932.617,-952.637
1630097040.274,-186.523,-27.832,-304.688,-367.188
1630097040.276,-1000.000,-28.809,-987.793,-1000.000
1630097040.280,260.254,-18.066,499.023,426.758
1630097040.284,-757.324,-28.320,-780.762,-776.367
1630097040.288,182.129,-50.293,131.348,139.648
1630097040.292,-1000.000,-51.758,-1000.000,-1000.000
1630097040.296,-254.395,-39.551,-96.191,-180.176
1630097040.300,-791.504,-49.805,-765.625,-778.320
1630097040.303,355.957,-84.961,279.785,242.188
1630097040.307,-1000.000,-104.980,-1000.000,-1000.000
1630097040.311,-280.273,-90.332,-290.039,-275.391
1630097040.315,-871.582,-93.750,-848.145,-837.891
1630097040.319,810.059,-131.836,687.012,640.625
1630097040.321,-772.949,-149.902,-921.387,-976.562
1630097040.325,-804.688,-133.789,-685.547,-737.305
1630097040.329,756.836,-136.719,835.449,815.918
1630097040.333,-829.102,-158.203,-863.770,-875.488
1630097040.337,-46.875,-166.992,-193.359,-215.820
1630097040.341,-1000.000,-177.246,-1000.000,-1000.000
1630097040.345,122.559,-182.129,356.934,165.039
1630097040.348,-748.047,-161.621,-768.066,-759.766
1630097040.352,187.988,-145.020,171.875,187.988
1630097040.356,-1000.000,-169.434,-1000.000,-1000.000
1630097040.360,-278.809,-181.641,-195.801,-273.926
1630097040.364,-812.988,-158.691,-789.062,-804.688
1630097040.367,506.348,-164.062,417.969,370.117
1630097040.371,-1000.000,-167.480,-1000.000,-1000.000
1630097040.375,-452.148,-150.391,-393.066,-430.664
1630097040.379,-974.609,-149.902,-917.969,-933.594
1630097040.383,996.582,-170.410,853.516,846.191
1630097040.387,-447.754,-185.059,-648.926,-681.641
1630097040.391,-1000.000,-166.992,-984.375,-1000.000
1630097040.394,439.453,-148.926,528.809,479.492
1630097040.398,-790.039,-145.020,-862.793,-817.383
1630097040.402,56.641,-154.297,-148.926,-71.777
1630097040.406,-1000.000,-161.621,-1000.000,-1000.000
1630097040.410,-208.496,-145.996,-154.785,-174.805
1630097040.411,-795.898,-145.020,-859.375,-800.293
1630097040.415,223.633,-156.250,33.203,224.609
1630097040.419,-1000.000,-158.691,-1000.000,-1000.000
1630097040.423,-273.438,-150.391,-462.891,-284.668
1630097040.427,-821.289,-158.691,-970.703,-817.871
1630097040.431,518.555,-158.203,85.449,401.367
1630097040.435,-1000.000,-134.766,-1000.000,-1000.000
1630097040.438,-754.883,-126.465,-1000.000,-711.914
1630097040.442,791.016,-139.648,241.211,847.656
1630097040.446,-910.156,-131.348,220.703,969.727
1630097040.450,-309.082,-130.859,-1000.000,-513.672
1630097040.454,-1000.000,-132.324,-1000.000,-1000.000
1630097040.456,109.863,-107.910,-657.715,161.133
1630097040.460,-765.625,-94.727,-594.238,-770.996
1630097040.464,193.359,-103.027,-1000.000,176.270
1630097040.468,-1000.000,-117.676,-1000.000,-1000.000
1630097040.472,-274.902,-97.656,-780.762,-230.957
1630097040.476,-801.270,-91.309,-458.496,-791.016
1630097040.480,381.348,-113.281,-937.988,340.332
1630097040.483,-1000.000,-105.469,-1000.000,-1000.000
1630097040.487,-357.910,-74.707,-960.938,-334.473
1630097040.491,-902.344,-80.566,-979.004,-892.090
1630097040.495,843.750,-83.496,-1000.000,821.777
1630097040.499,-753.418,-91.309,-1000.000,-790.039
1630097040.501,-798.340,-100.098,-999.512,-706.543
1630097040.505,761.230,-71.289,-1000.000,829.590
1630097040.509,-829.102,-71.777,-1000.000,-836.914
1630097040.513,4.395,-112.793,-1000.000,35.645
1630097040.517,-1000.000,-122.070,-1000.000,-1000.000
1630097040.521,41.992,-76.660,-1000.000,116.699
1630097040.525,-751.465,-90.332,-1000.000,-747.070
1630097040.528,194.336,-112.305,-1000.000,188.965
1630097040.532,-1000.000,-78.613,-1000.000,-1000.000
1630097040.536,-277.832,-51.758,-1000.000,-270.508
1630097040.540,-817.383,-52.246,-1000.000,-824.219
1630097040.544,525.391,-83.984,-1000.000,592.285
1630097040.561,-1000.000,-110.352,-1000.000,-1000.000
1630097040.565,-530.762,-81.055,-1000.000,-503.418
1630097040.569,983.887,-65.918,-1000.000,983.887
1630097040.573,-974.609,-72.754,-1000.000,-927.734
1630097040.577,-432.617,-75.195,-1000.000,-328.613
1630097040.581,-1000.000,-88.867,-1000.000,-1000.000
1630097040.585,450.195,-82.520,-1000.000,488.770
1630097040.588,-782.715,-81.543,-1000.000,-782.715
1630097040.592,151.855,-90.332,-1000.000,174.316
1630097040.596,-1000.000,-87.891,-1000.000,-1000.000
1630097040.600,-226.562,-72.266,-1000.000,-224.121
1630097040.604,-791.016,-68.359,-1000.000,-788.086
1630097040.606,223.145,-70.801,-1000.000,317.383
1630097040.610,-1000.000,-76.660,-1000.000,-1000.000
1630097040.614,-293.945,-58.105,-1000.000,-337.402
1630097040.618,-839.844,-59.082,-1000.000,-885.254
1630097040.622,607.910,-88.379,-1000.000,779.297
1630097040.626,-1000.000,-92.773,-1000.000,-803.711
1630097040.630,-764.160,-68.848,-1000.000,-854.004
1630097040.633,786.133,-52.734,-1000.000,686.523
1630097040.637,-879.883,-56.641,-1000.000,-831.055
1630097040.641,-230.957,-71.777,-1000.000,-72.754
1630097040.645,-1000.000,-56.152,-1000.000,-1000.000
1630097040.649,109.863,-51.270,-1000.000,49.316
1630097040.651,-761.719,-66.406,-1000.000,-758.301
1630097040.655,192.383,-56.641,-1000.000,196.289
1630097040.659,-1000.000,-51.270,-1000.000,-1000.000
1630097040.663,-271.484,-39.062,-1000.000,-268.066
1630097040.667,-804.688,-34.180,-1000.000,-812.988
1630097040.671,310.547,-71.777,-1000.000,478.516
1630097040.675,-1000.000,-90.332,-1000.000,-1000.000
1630097040.678,-455.078,-42.969,-1000.000,-573.242
1630097040.682,-926.270,-15.137,-1000.000,979.004
1630097040.686,763.184,-40.527,-1000.000,955.078
1630097040.690,-820.312,-68.359,-1000.000,-521.973
1630097040.694,-959.473,-48.340,-1000.000,-1000.000
1630097040.696,545.898,-23.438,-1000.000,328.613
1630097040.700,-821.777,-39.062,-1000.000,-781.738
1630097040.704,-79.590,-52.246,-999.023,103.027
1630097040.708,-1000.000,-45.410,-1000.000,-1000.000
1630097040.712,-79.590,-35.156,-955.566,-225.586
1630097040.716,-778.809,-33.691,-961.426,-794.922
1630097040.720,210.449,-28.320,-977.539,252.930
1630097040.723,-1000.000,-35.156,-1000.000,-1000.000
1630097040.727,-273.926,-45.898,-654.785,-295.410
1630097040.731,-809.570,-46.387,-417.480,-826.172
1630097040.735,425.293,-74.219,-965.332,537.598
1630097040.739,-1000.000,-74.707,-1000.000,-1000.000
1630097040.741,-502.930,-18.555,-777.832,-641.602
1630097040.745,-987.793,6.836,-417.969,889.648
1630097040.749,939.453,-13.672,-840.332,-926.270
1630097040.753,-556.152,-32.227,-1000.000,-272.949
1630097040.757,-1000.000,-25.879,-981.445,-1000.000
1630097040.761,408.203,-1.465,-763.672,125.488
1630097040.765,-783.203,-4.395,-833.496,-765.137
1630097040.768,54.688,-33.203,-1000.000,176.758
1630097040.772,-1000.000,-38.574,-1000.000,-1000.000
1630097040.776,-105.469,33.203,-547.852,-240.723
1630097040.780,-770.996,67.383,-517.578,-800.781
1630097040.784,209.473,32.227,-1000.000,261.719
1630097040.787,-1000.000,41.504,-1000.000,-1000.000
1630097040.791,-275.879,71.289,-833.496,-495.117
1630097040.795,-825.195,71.289,-608.398,-930.176
1630097040.799,568.848,45.410,-907.715,665.039
1630097040.803,-1000.000,26.367,-1000.000,-920.898
1630097040.807,-623.047,26.367,-894.531,-961.426
1630097040.811,922.852,44.922,-818.359,512.695
1630097040.814,-927.734,62.012,-995.605,-844.727
1630097040.818,-305.664,56.152,-1000.000,-142.090
1630097040.822,-1000.000,54.199,-992.676,-1000.000
1630097040.826,201.172,66.895,-1000.000,-139.648
1630097040.830,-763.184,65.430,-1000.000,-799.805
1630097040.832,187.012,42.480,-1000.000,222.656
1630097040.836,-1000.000,41.504,-1000.000,-1000.000
1630097040.840,-259.766,63.965,-1000.000,-305.176
1630097040.844,-794.922,50.781,-1000.000,-839.355
1630097040.848,310.059,37.598,-1000.000,571.289
1630097040.852,-1000.000,28.809,-1000.000,-1000.000
1630097040.856,-310.547,49.316,-1000.000,-651.855
1630097040.859,-884.277,65.918,-1000.000,882.812
1630097040.863,801.758,49.805,-1000.000,-928.711
1630097040.867,-794.922,45.898,-1000.000,-285.156
1630097040.871,-800.781,49.805,-1000.000,-1000.000
1630097040.875,766.113,63.477,-1000.000,164.062
1630097040.876,-843.262,65.918,-1000.000,-769.043
1630097040.880,-91.309,38.086,-1000.000,155.273
1630097040.884,-1000.000,19.043,-1000.000,-1000.000
1630097040.888,72.754,37.109,-1000.000,-237.793
1630097040.892,-756.348,51.270,-1000.000,-800.781
1630097040.896,193.848,46.387,-1000.000,326.172
1630097040.900,-1000.000,47.363,-1000.000,-1000.000
1630097040.903,-276.855,55.176,-1000.000,-464.844
1630097040.907,-808.594,41.992,-1000.000,-922.852
1630097040.911,448.730,16.602,-1000.000,723.145
1630097040.915,-1000.000,7.324,-1000.000,-858.398
1630097040.919,-446.289,31.738,-1000.000,-934.082
1630097040.936,-958.984,53.223,-1000.000,561.523
1630097040.940,938.965,33.691,-1000.000,-839.844
1630097040.944,-562.500,18.066,-1000.000,-110.840
1630097040.948,-1000.000,16.113,-1000.000,-1000.000
1630097040.952,503.418,27.344,-1000.000,-85.449
1630097040.956,-793.945,37.598,-1000.000,-784.668
1630097040.960,49.316,17.090,-1000.000,212.891
1630097040.963,-1000.000,7.812,-1000.000,-1000.000
1630097040.967,-106.445,22.461,-1000.000,-272.949
1630097040.971,-771.973,31.738,-1000.000,-816.406
1630097040.975,209.473,12.695,-1000.000,461.426
1630097040.979,-1000.000,-4.395,-1000.000,-1000.000
1630097040.981,-275.879,13.672,-1000.000,-603.516
1630097040.985,-823.730,6.348,-1000.000,938.965
1630097040.989,559.570,-8.789,-1000.000,972.656
1630097040.993,-1000.000,0.977,-1000.000,-483.887
1630097040.997,-603.027,21.973,-1000.000,-1000.000
1630097041.001,938.965,10.742,-1000.000,293.945
1630097041.005,-943.848,2.441,-1000.000,-784.180
1630097041.008,-333.496,24.414,-1000.000,92.773
1630097041.012,-1000.000,21.973,-1000.000,-1000.000
1630097041.016,225.586,22.949,-1000.000,-224.121
1630097041.020,-766.602,19.531,-1000.000,-801.270
1630097041.024,161.621,2.441,-1000.000,298.340
1630097041.026,-1000.000,1.953,-1000.000,-1000.000
1630097041.030,-256.836,19.531,-1000.000,-405.762
1630097041.034,-799.805,26.367,-1000.000,-915.039
1630097041.038,255.859,20.020,-1000.000,755.371
1630097041.042,-1000.000,7.324,-1000.000,-831.543
1630097041.046,-328.613,20.996,-1000.000,-821.289
1630097041.050,-863.281,33.203,-1000.000,734.863
1630097041.053,674.805,0.977,-995.605,-898.926
1630097041.057,-929.199,4.883,-1000.000,-218.750
1630097041.061,-833.984,12.695,-970.703,-1000.000
1630097041.065,708.984,1.953,-859.863,13.184
1630097041.069,-856.445,0.977,-908.203,-775.879
1630097041.071,-179.688,-10.742,-1000.000,182.129
1630097041.075,-1000.000,-12.207,-926.270,-1000.000
1630097041.079,44.922,0.000,-730.957,-263.672
1630097041.083,-766.602,-11.230,-723.633,-816.895
1630097041.087,198.242,-20.996,-839.355,459.473
1630097041.091,-1000.000,-5.859,-738.770,-1000.000
1630097041.095,-274.902,-1.465,-526.855,-501.953
1630097041.098,-804.688,-7.324,-501.953,976.562
1630097041.102,400.391,-16.602,-596.680,-989.746
1630097041.106,-1000.000,-29.297,-593.750,-383.301
1630097041.110,-416.504,-24.902,-398.926,-1000.000
1630097041.114,-932.617,-1.953,-300.293,439.453
1630097041.116,873.047,-4.395,-418.457,-794.922
1630097041.120,-677.246,-36.133,-488.281,73.242
1630097041.124,-938.477,-46.387,-356.445,-1000.000
1630097041.128,598.633,-27.344,-316.895,-206.543
1630097041.132,-820.312,-11.230,-541.992,-797.852
1630097041.136,-22.949,-26.367,-765.137,306.641
1630097041.140,-1000.000,-24.414,-759.277,-1000.000
1630097041.143,-117.188,10.254,-600.098,-334.961
1630097041.147,-781.738,7.324,-575.684,999.023
1630097041.151,213.867,-33.203,-713.379,-935.059
1630097041.155,-1000.000,-42.480,-729.492,-251.465
1630097041.159,-275.391,-27.832,-556.152,-768.555
1630097041.161,-823.730,-22.461,-490.234,750.000
1630097041.165,552.246,-24.902,-583.984,-974.609
1630097041.169,-1000.000,-42.480,-636.230,-971.680
1630097041.173,-626.953,-41.504,-521.484,-295.898
1630097041.177,908.691,-26.855,-412.109,-412.109
1630097041.181,-915.039,-21.973,-402.344,-989.746
1630097041.185,-309.082,-25.391,-443.359,-900.879
1630097041.188,-1000.000,-28.809,-390.625,115.723
1630097041.192,295.898,-22.949,-283.203,-1000.000
1630097041.196,-765.625,-32.715,-270.508,-190.430
1630097041.200,171.875,-41.016,-299.316,-797.363
1630097041.204,-1000.000,-40.039,-291.992,418.457
1630097041.206,-238.770,-47.852,-207.031,-1000.000
1630097041.210,-790.039,-30.762,-177.246,-165.039
1630097041.214,278.809,-34.668,-247.070,-792.480
1630097041.218,-1000.000,-56.641,-282.715,-45.410
1630097041.222,-291.504,-43.945,-172.363,-1000.000
1630097041.226,-857.422,-28.320,-82.520,193.848
1630097041.230,719.727,-24.414,-155.273,-768.066
1630097041.233,-913.574,-46.875,-211.426,104.980
1630097041.237,-697.754,-61.523,-145.020,-1000.000
1630097041.241,858.398,-33.691,-42.969,-183.594
1630097041.245,-870.605,-29.297,1.465,-987.305
1630097041.249,-134.766,-41.992,5.859,-932.129
1630097041.251,-1000.000,-63.965,84.961,-89.355
1630097041.255,108.398,-43.945,171.387,-811.035
1630097041.259,-757.324,-13.672,161.133,612.793
1630097041.263,191.895,-49.316,83.984,-787.598
1630097041.267,-1000.000,-67.871,83.984,295.410
1630097041.271,-274.902,-46.875,191.895,-1000.000
1630097041.275,-807.617,-45.410,188.965,-143.555
1630097041.278,385.742,-61.035,73.730,-869.629
1630097041.282,-1000.000,-59.570,60.059,886.719
1630097041.286,-497.070,-50.781,149.414,-651.855
1630097041.290,-953.613,-55.664,197.754,-442.871
1630097041.294,825.684,-57.617,136.719,988.281
1630097041.297,-729.004,-52.246,96.191,-847.168
1630097041.301,-1000.000,-55.176,164.551,-13.672
1630097041.305,470.703,-44.434,197.266,-746.094
1630097041.309,-811.035,-40.527,139.160,677.246
1630097041.313,-48.340,-45.410,67.871,-804.199
1630097041.317,-1000.000,-49.805,116.699,144.531
1630097041.321,-117.188,-50.293,175.781,-982.910
1630097041.324,-803.223,-48.340,125.000,-1000.000
1630097041.328,60.059,-68.848,54.688,-588.867
1630097041.332,-1000.000,-45.898,38.086,839.355
1630097041.336,-247.070,-15.625,88.379,-48.340
1630097041.340,-822.266,-33.691,87.402,-1000.000
1630097041.356,330.566,-42.969,7.812,-128.418
1630097041.360,-1000.000,-45.898,-26.367,-910.645
1630097041.364,-586.914,-54.199,11.719,-69.336
1630097041.368,908.691,-47.852,28.320,-1000.000
1630097041.372,-958.008,-28.320,6.836,-208.496
1630097041.376,-354.980,-37.109,-33.203,-849.609
1630097041.380,-1000.000,-52.734,-22.949,157.227
1630097041.383,243.652,-35.645,17.090,-1000.000
1630097041.387,-874.512,-20.020,-26.855,-931.641
1630097041.391,-532.715,-31.738,-58.594,-1000.000
1630097041.395,-916.016,-43.945,-15.137,-82.520
1630097041.399,636.230,-22.949,24.414,977.051
1630097041.401,-816.406,-8.301,17.090,-928.223
1630097041.405,191.895,-34.180,-30.273,287.598
1630097041.409,-1000.000,-48.828,-51.758,-998.047
1630097041.413,-419.922,-24.414,25.879,-1000.000
1630097041.417,-872.070,-21.484,56.152,68.848
1630097041.421,538.086,-39.062,-9.766,-887.207
1630097041.425,-979.004,-50.293,-60.059,836.426
1630097041.428,-1000.000,-43.457,-17.578,-676.758
1630097041.432,419.434,-14.160,47.363,-674.805
1630097041.436,-917.480,-3.906,8.789,-937.988
1630097041.440,-367.676,-14.648,-64.941,381.836
1630097041.444,-1000.000,-32.227,-32.227,-1000.000
1630097041.446,-69.824,-28.320,42.480,-608.398
1630097041.450,-799.805,-22.461,28.809,895.020
1630097041.454,174.316,-35.645,-40.527,883.301
1630097041.458,-1000.000,-32.715,-42.969,-604.004
1630097041.462,-259.277,-21.973,37.109,-1000.000
1630097041.466,-809.082,-10.254,58.594,567.383
1630097041.470,255.859,-32.715,-34.180,839.844
1630097041.473,-1000.000,-34.668,-47.363,-675.781
1630097041.477,-449.219,-17.090,42.480,-1000.000
1630097041.481,-914.551,-35.156,61.523,-39.551
1630097041.485,692.871,-40.527,-21.973,-851.074
1630097041.489,-891.113,-29.297,-77.637,5.371
1630097041.491,-968.750,-29.785,-9.766,-1000.000
1630097041.495,516.602,-35.156,59.570,-272.949
1630097041.499,-828.125,-32.715,21.973,-835.449
1630097041.503,-128.418,-30.762,-73.730,371.094
1630097041.507,-1000.000,-38.086,-49.316,-1000.000
1630097041.511,-54.688,-35.156,36.621,-784.180
1630097041.515,-778.320,-24.414,12.207,775.879
1630097041.518,208.496,-26.855,-55.664,766.113
1630097041.522,-1000.000,-36.133,-59.082,-665.527
1630097041.526,-274.414,-36.133,6.836,-1000.000
1630097041.530,-812.500,-33.203,17.578,-283.691
1630097041.534,440.918,-33.203,-41.016,949.219
1630097041.537,-1000.000,-28.320,-77.637,-166.016
1630097041.541,-549.805,-25.879,-33.691,-1000.000
1630097041.545,989.258,-46.875,10.254,-441.895
1630097041.549,949.707,-54.688,-34.180,-947.754
1630097041.553,-594.727,-36.621,-120.117,159.180
1630097041.557,-976.562,-37.109,-59.570,-1000.000
1630097041.561,528.320,-35.156,10.742,-1000.000
1630097041.564,-793.457,-17.578,-27.832,-286.133
1630097041.568,112.793,-31.250,-85.449,-949.219
1630097041.572,-1000.000,-47.852,-82.031,141.113
1630097041.576,-116.699,-44.434,-25.391,-1000.000
1630097041.580,-767.578,-31.738,-22.461,-237.793
1630097041.581,216.797,-25.879,-86.914,915.039
1630097041.585,-1000.000,-28.809,-100.098,-384.277
1630097041.589,-271.484,-21.973,-21.973,-1000.000
1630097041.593,-846.191,-15.625,-5.371,-148.926
1630097041.597,699.219,-5.859,-74.707,-944.336
1630097041.601,-943.359,-8.789,-138.672,-280.273
1630097041.605,-535.156,8.789,-81.055,-1000.000
1630097041.608,-920.410,29.785,-46.387,-934.082
1630097041.612,831.055,28.320,-144.531,-1000.000
1630097041.616,-807.617,23.926,-250.000,-935.059
1630097041.620,-743.652,48.340,-207.520,-1000.000
1630097041.624,779.297,74.219,-164.062,-333.008
1630097041.626,-815.918,77.148,-251.953,-851.074
1630097041.630,144.043,77.637,-354.492,189.453
1630097041.634,-1000.000,89.844,-358.887,-1000.000
1630097041.638,108.887,104.980,-282.227,-1000.000
1630097041.642,-743.652,109.375,-322.266,388.672
1630097041.646,480.957,118.652,-494.141,600.586
1630097041.650,-1000.000,113.770,-541.016,-912.109
1630097041.653,-255.371,95.215,-447.266,-1000.000
1630097041.657,-897.461,102.051,-430.664,-63.477
1630097041.661,-997.070,111.816,-511.719,962.402
1630097041.665,-493.652,104.492,-579.590,-419.922
1630097041.669,-372.559,118.164,-474.609,-1000.000
1630097041.686,-950.684,132.324,-392.090,-62.988
1630097041.690,-873.047,119.629,-500.977,937.988
1630097041.694,-232.422,106.934,-621.094,-430.664
1630097041.698,-640.625,119.141,-544.922,-1000.000
1630097041.702,881.836,136.230,-422.363,-204.102
1630097041.706,-818.848,133.301,-475.098,-842.773
1630097041.710,142.090,114.746,-642.578,151.855
1630097041.713,-1000.000,111.328,-632.324,-1000.000
1630097041.717,162.598,128.418,-473.145,-320.312
1630097041.721,-740.723,143.066,-467.773,-836.914
1630097041.725,430.176,131.348,-641.602,332.520
1630097041.729,-1000.000,110.840,-695.801,-1000.000
1630097041.731,-255.371,125.977,-514.160,-496.094
1630097041.735,-906.250,133.789,-472.656,-972.656
1630097041.739,-992.676,129.395,-629.395,836.914
1630097041.743,-500.977,121.582,-732.422,-787.598
1630097041.747,-426.758,125.977,-551.758,-784.668
1630097041.751,-993.164,147.461,-450.684,763.184
1630097041.755,-869.629,144.531,-610.840,-859.375
1630097041.758,89.844,122.559,-809.082,-78.125
1630097041.762,-1000.000,131.836,-807.129,-1000.000
1630097041.766,283.691,150.879,-812.988,-41.016
1630097041.770,-745.117,131.348,-980.957,-771.973
1630097041.774,179.199,112.793,-1000.000,206.055
1630097041.776,-1000.000,116.699,-994.629,-1000.000
1630097041.780,-274.902,130.859,-1000.000,-274.414
1630097041.784,-838.867,129.395,-1000.000,-820.312
1630097041.788,677.734,110.840,-1000.000,557.617
1630097041.792,-982.910,107.910,-1000.000,-1000.000
1630097041.796,-414.062,113.770,-1000.000,-404.785
1630097041.800,985.840,105.957,-1000.000,986.816
1630097041.803,-842.285,97.656,-1000.000,-860.352
1630097041.807,-100.586,85.938,-1000.000,-199.219
1630097041.811,-631.348,83.496,-1000.000,-592.285
1630097041.815,869.141,65.918,-1000.000,886.230
1630097041.819,-897.461,40.527,-1000.000,-851.562
1630097041.821,817.383,31.738,-1000.000,566.406
1630097041.825,-69.336,24.902,-1000.000,-351.562
1630097041.829,580.566,21.484,-1000.000,643.555
1630097041.833,-887.207,11.230,-1000.000,-898.926
1630097041.837,897.461,-2.930,-1000.000,895.508
1630097041.841,991.211,-8.301,-1000.000,995.605
1630097041.845,926.758,-9.277,-1000.000,900.879
1630097041.848,969.238,-16.602,-1000.000,-953.125
1630097041.852,-979.004,-21.484,-1000.000,736.328
1630097041.856,-500.977,-23.926,-1000.000,-882.812
1630097041.860,-634.277,-12.207,-1000.000,-625.000
1630097041.864,-909.180,-7.324,-1000.000,-886.719
1630097041.866,744.141,-15.625,-1000.000,500.488
1630097041.870,-682.129,-12.207,-1000.000,-913.574
1630097041.874,-1000.000,-30.273,-1000.000,-1000.000
1630097041.878,-188.965,-43.945,-1000.000,-169.434
1630097041.882,-878.418,-25.879,-998.047,-933.105
1630097041.886,-61.523,-41.992,-1000.000,-206.543
1630097041.890,-1000.000,-58.594,-1000.000,-1000.000
1630097041.893,-224.121,-38.086,-932.617,-201.660
1630097041.897,-818.848,-31.738,-951.660,-820.312
1630097041.901,232.422,-51.758,-1000.000,230.469
1630097041.905,-1000.000,-69.336,-1000.000,-1000.000
1630097041.909,-260.254,-69.336,-807.129,-256.836
1630097041.911,-866.211,-59.570,-741.699,-841.309
1630097041.915,785.156,-62.012,-967.285,702.148
1630097041.919,-856.445,-77.148,-1000.000,-931.641
1630097041.923,-459.473,-86.426,-774.414,-333.008
1630097041.927,985.352,-72.266,-525.391,-954.590
1630097041.931,-850.586,-66.895,-783.691,-893.555
1630097041.935,-113.770,-77.148,-1000.000,-254.883
1630097041.938,-811.035,-81.543,-811.035,-662.598
1630097041.942,703.125,-69.336,-425.781,856.934
1630097041.946,-781.738,-63.965,-571.777,-811.523
1630097041.950,148.438,-84.473,-945.801,127.441
1630097041.954,-1000.000,-91.309,-872.070,-1000.000
1630097041.956,53.711,-71.289,-405.273,209.473
1630097041.960,-737.305,-70.801,-416.016,-739.746
1630097041.964,373.047,-82.520,-831.055,245.605
1630097041.968,-1000.000,-84.473,-958.984,-1000.000
1630097041.972,-310.547,-62.500,-479.492,-286.133
1630097041.976,-798.340,-55.664,-292.969,-801.758
1630097041.980,504.395,-77.637,-713.867,380.371
1630097041.983,-894.531,-83.008,-1000.000,-1000.000
1630097041.987,-1000.000,-71.289,-598.145,-1000.000
1630097041.991,195.801,-59.082,-234.375,424.316
1630097041.995,589.844,-65.430,-525.879,494.141
1630097041.999,-987.305,-72.266,-931.641,-1000.000
1630097042.002,-1000.000,-62.988,-678.711,-1000.000
1630097042.006,-947.266,-56.152,-212.891,-957.520
1630097042.010,-1000.000,-54.199,-361.816,-1000.000
1630097042.014,-1000.000,-62.988,-821.777,-1000.000
1630097042.018,-1000.000,-61.523,-794.434,-1000.000
1630097042.022,-1000.000,-55.176,-257.324,-1000.000
1630097042.026,-1000.000,-68.359,-224.609,-1000.000
1630097042.029,-1000.000,-62.988,-642.090,-1000.000
1630097042.033,-1000.000,-51.270,-767.578,-1000.000
1630097042.037,-1000.000,-44.922,-239.746,-1000.000
1630097042.041,-1000.000,-46.875,-45.410,-1000.000
1630097042.045,-1000.000,-45.898,-395.020,-978.516
1630097042.061,-1000.000,-55.664,-694.336,-964.355
1630097042.065,-1000.000,-85.449,-288.574,-1000.000
1630097042.069,-1000.000,-74.219,65.918,163.086
1630097042.073,-1000.000,-39.551,-231.445,850.098
1630097042.077,-1000.000,-37.109,-595.703,-680.664
1630097042.081,-1000.000,-53.223,-369.141,-1000.000
1630097042.085,-1000.000,-74.219,100.098,10.742
1630097042.088,-1000.000,-64.941,29.785,-777.832
1630097042.092,-1000.000,-35.156,-431.641,181.152
1630097042.096,-1000.000,-27.344,-521.484,-1000.000
1630097042.100,-1000.000,-15.625,11.719,-32.715
1630097042.104,-1000.000,14.648,87.891,-802.246
1630097042.106,-1000.000,29.785,-407.715,698.242
1630097042.110,-1000.000,27.344,-639.160,-856.934
1630097042.114,-1000.000,36.133,-76.172,-217.773
1630097042.118,-1000.000,50.781,123.535,-927.246
1630097042.122,-1000.000,61.035,-335.938,-895.508
1630097042.126,-1000.000,52.246,-785.645,-139.648
1630097042.130,-1000.000,56.152,-368.164,-343.750
1630097042.133,-1000.000,82.031,109.375,989.746
1630097042.137,-944.824,82.520,-154.297,-818.359
1630097042.141,-1000.000,71.777,-742.188,52.246
1630097042.145,-831.543,74.707,-501.953,-510.254
1630097042.149,550.293,99.121,416.504,906.738
1630097042.151,-951.172,97.168,438.477,-946.777
1630097042.155,-959.473,69.336,-328.125,923.828
1630097042.159,-165.039,62.012,-423.340,-233.887
1630097042.163,-66.406,76.660,721.191,167.969
1630097042.167,-926.270,56.152,959.961,-911.621
1630097042.171,-869.141,38.086,277.344,-898.438
1630097042.175,39.062,33.203,-299.805,-10.254
1630097042.178,-397.461,22.949,392.578,-329.102
1630097042.182,937.012,20.508,-915.039,985.352
1630097042.186,-796.875,11.230,599.609,-818.359
1630097042.190,42.480,-18.066,-307.129,-29.785
1630097042.194,-729.492,-30.273,186.523,-577.148
1630097042.196,724.609,-12.207,-942.383,864.746
1630097042.200,-798.340,-11.719,840.332,-830.078
1630097042.204,242.188,-25.879,-42.480,180.176
1630097042.208,-1000.000,-38.086,82.520,-1000.000
1630097042.212,-277.344,-28.320,975.098,-151.855
1630097042.216,-792.480,-27.344,-933.105,-782.715
1630097042.220,162.109,-53.223,255.859,172.363
1630097042.223,-1000.000,-55.176,-209.961,-1000.000
1630097042.227,-1000.000,-48.340,752.930,-1000.000
1630097042.231,-71.289,-42.480,-910.156,345.703
1630097042.235,658.691,-45.898,526.367,566.895
1630097042.239,-808.105,-56.641,-227.539,-945.801
1630097042.242,-1000.000,-60.059,404.785,-1000.000
1630097042.246,-758.301,-65.430,-924.316,-130.859
1630097042.250,703.125,-58.594,805.664,-882.812
1630097042.254,136.230,-55.664,-198.242,-44.434
1630097042.258,-1000.000,-62.988,11.719,-1000.000
1630097042.262,-955.078,-71.777,-946.289,-271.973
1630097042.266,-983.398,-74.219,797.852,691.895
1630097042.269,-1000.000,-69.336,-272.949,-639.648
1630097042.273,-1000.000,-68.848,-315.918,-1000.000
1630097042.277,-1000.000,-65.918,829.590,-791.992
1630097042.281,-1000.000,-68.359,915.527,573.242
1630097042.285,-1000.000,-73.730,-97.656,-62.012
1630097042.286,-1000.000,-72.266,-547.852,-1000.000
1630097042.290,-1000.000,-73.242,493.652,-1000.000
1630097042.294,-1000.000,-69.824,959.961,117.676
1630097042.298,-1000.000,-72.754,250.488,323.242
1630097042.302,-1000.000,-79.590,-561.035,-1000.000
1630097042.306,-1000.000,-82.031,124.512,-1000.000
1630097042.310,-1000.000,-66.895,980.469,449.707
1630097042.313,-990.234,-33.691,525.391,739.258
1630097042.317,-948.242,-59.570,-474.121,-964.355
1630097042.321,-1000.000,-82.520,-181.152,-866.211
1630097042.325,-63.477,-66.406,963.867,625.977
1630097042.329,-870.605,-61.523,831.055,-879.395
1630097042.331,-200.195,-65.918,-137.207,-204.590
1630097042.335,-1000.000,-68.359,-244.141,-1000.000
1630097042.339,-220.215,-56.152,788.086,1.465
1630097042.343,-825.195,-67.383,967.285,-778.320
1630097042.347,228.516,-82.520,111.816,166.016
1630097042.351,-1000.000,-75.195,-416.016,-1000.000
1630097042.355,-270.020,-48.828,497.559,-96.680
1630097042.358,-814.453,-41.992,993.652,-776.367
1630097042.362,448.730,-57.129,365.234,393.555
1630097042.366,-1000.000,-69.336,-482.910,-1000.000
1630097042.370,-550.781,-63.965,113.770,-328.613
1630097042.374,877.441,-57.129,-939.941,-968.262
1630097042.376,-847.168,-73.730,816.895,-970.215
1630097042.380,87.891,-75.195,-107.910,-296.387
1630097042.384,-1000.000,-73.730,-44.434,-821.777
1630097042.388,123.535,-73.730,937.988,642.090
1630097042.392,-721.191,-77.637,993.164,-783.691
1630097042.396,149.414,-76.660,198.242,-22.949
1630097042.400,-1000.000,-70.801,-141.113,-975.586
1630097042.403,85.938,-76.172,718.750,444.824
1630097042.407,-868.164,-79.102,-918.457,-838.867
1630097042.411,863.770,-74.219,681.152,564.941
1630097042.415,983.398,-72.754,65.430,692.383
1630097042.419,920.410,-79.590,514.648,902.344
1630097042.436,-368.652,-83.008,-939.453,-458.008
1630097042.440,-1000.000,-65.918,887.207,-1000.000
1630097042.444,-227.539,-52.734,610.352,-196.777
1630097042.448,-852.539,-62.988,820.312,-870.605
1630097042.452,576.660,-63.965,-994.141,613.770
1630097042.456,-1000.000,-53.223,950.195,-971.680
1630097042.460,-359.863,-51.270,968.750,-377.441
1630097042.463,-793.945,-46.875,967.285,-796.875
1630097042.467,370.117,-64.941,966.797,333.984
1630097042.471,-1000.000,-58.594,967.285,-1000.000
1630097042.475,-601.074,-29.297,967.285,-561.523
1630097042.479,-954.590,-37.598,966.797,-935.059
1630097042.481,629.395,-47.852,967.285,524.902
1630097042.485,-933.105,-50.293,967.285,-991.699
1630097042.489,-1000.000,-61.523,967.285,-1000.000
1630097042.493,379.883,-60.547,966.797,452.148
1630097042.497,-915.039,-49.316,966.797,935.547
1630097042.501,-357.422,-51.270,967.285,-568.359
1630097042.505,-1000.000,-45.410,967.285,-1000.000
1630097042.508,-141.602,-49.316,967.285,-113.281
1630097042.512,-812.988,-46.387,966.797,-835.938
1630097042.516,193.848,-38.574,966.797,58.105
1630097042.520,-1000.000,-54.199,967.285,-1000.000
1630097042.524,-258.301,-54.199,967.285,-242.676
1630097042.526,-813.477,-52.734,966.797,-822.754
1630097042.530,239.258,-58.594,967.285,232.422
1630097042.534,-1000.000,-57.617,967.285,-1000.000
1630097042.538,-590.820,-49.805,967.285,-575.195
1630097042.542,-962.402,-41.992,966.797,-949.219
1630097042.546,578.613,-51.270,967.285,433.105
1630097042.550,-982.910,-76.660,967.285,-1000.000
1630097042.553,-1000.000,-84.961,966.797,-1000.000
1630097042.557,416.992,-48.828,966.797,466.309
1630097042.561,-985.352,-35.645,966.797,829.102
1630097042.565,-465.332,-62.012,967.285,-707.520
1630097042.569,-1000.000,-62.988,967.285,-1000.000
1630097042.571,-153.809,-55.176,967.285,-120.117
1630097042.575,-821.777,-58.105,966.797,-848.633
1630097042.579,178.711,-67.871,966.797,9.766
1630097042.583,-1000.000,-62.988,966.797,-1000.000
1630097042.587,-255.371,-46.875,966.797,-262.695
1630097042.591,-815.918,-49.805,966.797,-835.938
1630097042.595,235.840,-64.941,967.285,241.211
1630097042.598,-1000.000,-59.082,967.285,-1000.000
1630097042.602,-697.754,-49.316,967.285,-697.754
1630097042.606,945.801,-47.363,966.797,947.754
1630097042.610,616.699,-46.875,967.285,467.773
1630097042.614,-947.266,-55.176,967.285,-1000.000
1630097042.616,-1000.000,-51.270,967.285,-1000.000
1630097042.620,246.094,-41.016,967.285,300.293
1630097042.624,-897.461,-41.992,966.797,905.762
1630097042.628,-322.266,-44.434,967.285,-614.746
1630097042.632,-1000.000,-43.457,967.285,-1000.000
1630097042.636,-204.102,-35.645,967.285,-166.016
1630097042.640,-833.496,-38.574,966.797,-859.375
1630097042.643,190.918,-43.457,966.797,12.207
1630097042.647,-1000.000,-42.480,967.285,-1000.000
1630097042.651,-317.871,-40.039,967.285,-297.852
1630097042.655,-837.402,-31.250,966.797,-850.586
1630097042.659,242.676,-39.551,966.797,240.723
1630097042.662,-1000.000,-48.828,967.285,-1000.000
1630097042.666,-755.859,-42.969,967.285,-750.977
1630097042.670,884.766,-35.645,966.797,889.648
1630097042.674,621.094,-47.363,966.797,467.285
1630097042.678,-939.453,-57.129,967.285,-1000.000
1630097042.682,-1000.000,-53.711,967.285,-1000.000
1630097042.686,167.969,-44.434,966.797,226.562
1630097042.689,-897.461,-39.062,967.285,907.715
1630097042.693,-309.082,-46.875,967.285,-605.469
1630097042.697,-1000.000,-44.434,967.285,-1000.000
1630097042.701,-198.730,-36.621,967.285,-179.688
1630097042.705,-893.555,-37.109,966.797,-917.480
1630097042.707,142.090,-46.875,966.797,-15.137
1630097042.711,-1000.000,-45.898,967.285,-1000.000
1630097042.715,-408.691,-26.367,967.285,-368.652
1630097042.719,-870.117,-5.859,967.285,-874.023
1630097042.723,246.582,-18.066,966.797,249.512
1630097042.727,-1000.000,-17.090,967.285,-1000.000
1630097042.731,-866.211,-8.301,967.285,-841.309
1630097042.734,712.891,-30.762,967.285,781.738
1630097042.738,763.184,-48.340,967.285,568.359
1630097042.742,-805.664,-39.062,967.285,-959.961
1630097042.746,-1000.000,-33.203,967.285,-1000.000
1630097042.750,10.254,-33.691,967.285,60.059
1630097042.751,-831.543,-28.809,966.797,-960.449
1630097042.755,-173.828,-49.316,967.285,-434.082
1630097042.759,-1000.000,-40.527,967.285,-1000.000
1630097042.763,-42.969,-13.184,967.285,-26.855
1630097042.767,-850.586,-14.160,967.285,-867.676
1630097042.771,241.699,-23.438,967.285,152.832
1630097042.775,-1000.000,-19.043,967.285,-1000.000
1630097042.778,-496.094,-16.602,967.285,-448.730
1630097042.782,-901.367,-7.324,967.285,-895.020
1630097042.786,306.641,-18.555,967.285,249.512
1630097042.790,-1000.000,-39.551,967.285,-1000.000
1630097042.794,-997.559,-29.297,967.285,-953.125
1630097042.811,538.086,-25.879,967.285,622.559
1630097042.815,770.996,-39.551,965.820,587.402
1630097042.819,-809.082,-41.992,971.680,-958.008
1630097042.823,-1000.000,-43.457,946.777,-1000.000
1630097042.827,-51.270,-32.715,928.711,19.043
1630097042.831,-854.004,-14.160,-978.027,-952.148
1630097042.835,-116.699,-25.391,629.395,-348.145
1630097042.838,-1000.000,-33.691,237.793,-1000.000
1630097042.842,-223.633,-31.250,587.891,-209.961
1630097042.846,-834.961,-10.742,-936.035,-847.656
1630097042.850,244.629,-11.230,525.391,180.664
1630097042.854,-1000.000,-39.062,-404.785,-1000.000
1630097042.856,-606.934,-27.344,-29.785,-527.832
1630097042.860,-960.938,-14.160,949.219,-928.223
1630097042.864,434.570,-33.691,846.680,301.270
1630097042.868,-1000.000,-44.434,-75.684,-1000.000
1630097042.872,-1000.000,-35.645,-299.805,-1000.000
1630097042.876,379.883,-28.809,651.855,511.719
1630097042.880,854.980,-28.320,950.195,672.363
1630097042.883,-702.637,-38.574,-75.684,-894.043
1630097042.887,-1000.000,-26.367,-685.059,-1000.000
1630097042.891,-173.828,-7.324,147.949,-97.656
1630097042.895,-851.074,-23.438,-860.352,-878.906
1630097042.899,43.945,-40.527,342.285,-138.672
1630097042.901,-1000.000,-32.227,-820.312,-1000.000
1630097042.905,-242.676,-36.621,-105.469,-220.703
1630097042.909,-828.125,-57.129,-877.930,-835.449
1630097042.913,243.652,-72.754,556.641,234.375
1630097042.917,-1000.000,-92.285,-415.527,-1000.000
1630097042.921,-624.023,-99.609,153.320,-573.242
1630097042.925,-971.191,-94.238,-937.012,-943.359
1630097042.928,472.168,-117.188,739.258,302.734
1630097042.932,-1000.000,-126.953,-395.508,-1000.000
1630097042.936,-1000.000,-112.793,-719.238,-1000.000
1630097042.940,263.184,-118.652,459.473,382.812
1630097042.944,910.645,-129.395,971.680,736.816
1630097042.947,-624.512,-139.648,-405.273,-834.961
1630097042.951,-1000.000,-144.531,-1000.000,-1000.000
1630097042.955,-202.148,-133.301,-149.414,-160.156
1630097042.959,-856.934,-106.445,-848.145,-880.859
1630097042.963,69.824,-108.398,66.406,-99.609
1630097042.967,-1000.000,-104.492,-1000.000,-1000.000
1630097042.971,-289.551,-85.938,-318.848,-229.004
1630097042.974,-842.285,-76.172,-848.633,-837.402
1630097042.978,242.188,-92.285,272.949,241.699
1630097042.982,-1000.000,-101.074,-1000.000,-1000.000
1630097042.986,-776.367,-91.309,-800.781,-707.520
1630097042.990,871.582,-74.707,796.387,948.730
1630097042.991,559.570,-77.148,609.863,392.090
1630097042.995,-964.355,-86.426,-880.859,-1000.000
1630097042.999,-1000.000,-70.312,-1000.000,-1000.000
1630097043.003,68.359,-61.523,41.016,185.059
1630097043.007,-901.367,-66.406,-943.848,916.016
1630097043.011,-291.016,-78.125,-250.488,-603.516
1630097043.015,-1000.000,-85.449,-1000.000,-1000.000
1630097043.018,-209.473,-60.547,-216.797,-191.895
1630097043.022,-846.191,-44.434,-863.770,-874.512
1630097043.026,154.297,-75.195,79.590,-5.859
1630097043.030,-1000.000,-76.660,-1000.000,-1000.000
1630097043.034,-465.332,-51.758,-525.391,-385.254
1630097043.036,-902.832,-50.293,-958.496,-887.207
1630097043.040,251.953,-68.359,328.125,252.930
1630097043.044,-1000.000,-66.406,-1000.000,-1000.000
1630097043.048,-955.078,-57.129,-972.656,-873.047
1630097043.052,597.168,-43.945,515.137,747.070
1630097043.056,732.422,-67.383,801.758,545.410
1630097043.060,-843.262,-78.125,-700.195,-975.098
1630097043.063,-1000.000,-39.551,-1000.000,-1000.000
1630097043.067,-63.477,-33.203,-55.176,36.133
1630097043.071,-866.211,-51.758,-940.430,-981.445
1630097043.075,-148.438,-58.594,-204.102,-408.691
1630097043.079,-1000.000,-46.387,-1000.000,-1000.000
1630097043.081,-220.703,-49.316,-241.699,-207.520
1630097043.085,-835.938,-61.035,-844.727,-850.098
1630097043.089,244.629,-71.777,195.801,165.039
1630097043.093,-1000.000,-66.895,-1000.000,-1000.000
1630097043.097,-560.059,-47.852,-588.379,-496.094
1630097043.101,-932.129,-43.457,-984.863,-916.016
1630097043.105,361.816,-33.203,423.340,254.883
1630097043.108,-1000.000,-36.133,-1000.000,-1000.000
1630097043.112,-1000.000,-52.734,-1000.000,-984.375
1630097043.116,400.879,-47.363,379.883,563.477
1630097043.120,902.832,-37.598,921.387,685.059
1630097043.124,-639.160,-44.922,-542.480,-882.812
1630097043.126,-1000.000,-48.340,-1000.000,-1000.000
1630097043.130,-169.922,-30.762,-123.535,-84.961
1630097043.134,-862.793,-35.645,-917.480,-909.180
1630097043.138,-24.902,-60.547,-121.094,-223.633
1630097043.142,-1000.000,-65.918,-1000.000,-1000.000
1630097043.146,-228.516,-40.527,-310.059,-214.355
1630097043.150,-831.055,-27.344,-870.605,-842.773
1630097043.153,237.793,-44.434,172.852,217.773
1630097043.157,-1000.000,-49.316,-1000.000,-1000.000
1630097043.161,-737.793,-45.898,-861.816,-633.789
1630097043.165,916.016,-40.527,708.008,-989.258
1630097043.169,510.742,-46.875,512.207,328.613
1630097043.172,-1000.000,-47.363,-998.047,-1000.000
1630097043.176,-1000.000,-32.227,-1000.000,-1000.000
1630097043.180,196.289,-27.832,173.340,326.172
1630097043.184,-954.102,-32.227,-1000.000,839.355
1630097043.188,-416.504,-36.621,-383.301,-717.285
1630097043.192,-1000.000,-18.555,-1000.000,-1000.000
1630097043.196,-205.566,-3.906,-181.152,-180.664
1630097043.199,-850.098,-19.531,-879.395,-879.395
1630097043.203,118.164,-41.992,27.344,-56.152
1630097043.207,-1000.000,-32.227,-1000.000,-1000.000
1630097043.211,-387.695,-14.160,-470.215,-295.898
1630097043.215,-874.023,-13.672,-924.805,-856.934
1630097043.231,249.023,-24.414,298.340,246.582
1630097043.235,-1000.000,-25.879,-1000.000,-1000.000
1630097043.239,-861.328,-13.184,-909.180,-777.832
1630097043.243,736.816,-2.930,596.191,868.652
1630097043.247,701.660,-7.324,798.828,493.164
1630097043.251,-866.211,-19.531,-677.734,-998.535
1630097043.255,-1000.000,-22.461,-1000.000,-1000.000
1630097043.258,22.949,-18.066,-41.016,125.000
1630097043.262,-859.863,-4.883,-937.500,975.586
1630097043.266,-181.152,-12.207,-215.332,-502.441
1630097043.270,-1000.000,-30.762,-1000.000,-1000.000
1630097043.274,-221.191,-11.230,-237.793,-201.172
1630097043.276,-835.938,-9.766,-848.633,-858.887
1630097043.280,244.141,-31.738,175.293,89.355
1630097043.284,-1000.000,-29.297,-1000.000,-1000.000
1630097043.288,-524.414,-20.508,-582.031,-435.547
1630097043.292,-915.527,-14.648,993.652,-897.949
1630097043.296,363.770,-19.043,522.949,253.418
1630097043.300,-1000.000,-28.320,-981.445,-1000.000
1630097043.303,-1000.000,-26.367,-1000.000,-925.781
1630097043.307,541.016,-7.324,488.281,666.016
1630097043.311,783.691,0.977,793.945,588.379
1630097043.315,-787.598,-23.926,-697.754,-952.148
1630097043.319,-1000.000,-35.645,-1000.000,-1000.000
1630097043.321,-102.539,-18.555,-116.699,-23.438
1630097043.325,-850.098,-11.719,-906.250,-929.688
1630097043.329,-49.805,-26.367,-91.309,-299.316
1630097043.333,-1000.000,-29.297,-1000.000,-1000.000
1630097043.337,-229.004,-25.391,-281.738,-212.891
1630097043.341,-832.031,-31.250,-849.609,-843.750
1630097043.345,243.652,-57.617,251.465,217.773
1630097043.348,-1000.000,-61.035,-1000.000,-1000.000
1630097043.352,-628.906,-31.738,-733.398,-562.012
1630097043.356,-973.633,-27.344,873.535,-940.430
1630097043.360,454.590,-41.504,525.391,290.039
1630097043.364,-1000.000,-35.156,-941.895,-1000.000
1630097043.367,-1000.000,-23.926,-1000.000,-1000.000
1630097043.371,273.926,-23.438,169.434,402.832
1630097043.375,910.645,-40.527,808.594,715.820
1630097043.379,-626.953,-58.594,-651.367,-855.469
1630097043.383,-1000.000,-41.016,-1000.000,-1000.000
1630097043.387,-200.684,-39.062,-162.598,-146.973
1630097043.391,-860.352,-38.086,-912.109,-894.531
1630097043.394,58.594,-25.391,-50.293,-142.578
1630097043.398,-1000.000,-28.320,-1000.000,-1000.000
1630097043.402,-314.941,-31.250,-430.176,-243.652
1630097043.406,-852.539,-28.320,-918.945,-846.191
1630097043.410,246.582,-33.691,219.238,239.746
1630097043.412,-1000.000,-40.527,-1000.000,-1000.000
1630097043.416,-774.414,-37.598,-868.652,-687.012
1630097043.420,873.535,-24.414,689.941,965.332
1630097043.424,544.922,-41.016,552.246,378.906
1630097043.428,-978.027,-65.430,-934.082,-1000.000
1630097043.432,-1000.000,-52.734,-1000.000,-1000.000
1630097043.436,151.855,-28.320,89.355,251.953
1630097043.439,-1000.000,-27.832,826.172,816.406
1630097043.443,-476.074,-48.828,-611.328,-737.305
1630097043.447,-1000.000,-44.434,-1000.000,-1000.000
1630097043.451,-208.008,-26.855,-206.543,-193.359
1630097043.455,-851.074,-33.203,-898.926,-878.418
1630097043.456,153.320,-58.594,22.461,-20.996
1630097043.460,-1000.000,-65.430,-1000.000,-1000.000
1630097043.464,-443.848,-48.828,-569.824,-360.352
1630097043.468,-892.578,-33.691,-1000.000,-878.418
1630097043.472,251.465,-46.875,344.238,250.977
1630097043.476,-1000.000,-44.922,-1000.000,-1000.000
1630097043.480,-924.316,-25.391,-1000.000,-854.980
1630097043.483,654.785,-21.973,454.102,771.973
1630097043.487,692.871,-37.109,725.098,518.066
1630097043.491,-877.930,-52.246,-770.996,-991.699
1630097043.495,-1000.000,-52.246,-1000.000,-1000.000
1630097043.499,-34.668,-37.109,-70.801,89.844
1630097043.501,-880.371,-47.852,991.211,976.562
1630097043.505,-197.266,-62.012,-309.570,-490.723
1630097043.509,-1000.000,-51.758,-1000.000,-1000.000
1630097043.513,-218.750,-38.086,-294.434,-207.520
1630097043.517,-837.891,-37.109,-872.559,-852.051
1630097043.521,244.629,-53.711,214.355,161.133
1630097043.525,-1000.000,-52.734,-1000.000,-1000.000
1630097043.528,-545.898,-44.922,-642.578,-475.098
1630097043.532,-924.316,-35.156,968.750,-906.250
1630097043.536,311.035,-41.016,355.957,250.977
1630097043.540,-1000.000,-52.246,-1000.000,-1000.000
1630097043.544,-1000.000,-53.223,-1000.000,-987.305
1630097043.561,360.840,-35.156,199.707,560.059
1630097043.565,910.645,-33.691,903.809,683.105
1630097043.569,-633.789,-51.758,-540.039,-886.719
1630097043.573,-1000.000,-53.711,-1000.000,-1000.000
1630097043.577,-167.480,-41.504,-152.344,-68.848
1630097043.581,-859.863,-34.180,-905.762,-906.250
1630097043.585,-14.648,-59.570,-54.199,-226.562
1630097043.588,-1000.000,-59.082,-1000.000,-1000.000
1630097043.592,-229.980,-28.320,-345.215,-214.844
1630097043.596,-830.566,-14.648,-875.000,-841.309
1630097043.600,240.723,-27.344,242.676,226.074
1630097043.604,-1000.000,-44.434,-1000.000,-1000.000
1630097043.606,-687.012,-35.156,-809.570,-602.051
1630097043.610,971.680,-21.973,778.809,-961.914
1630097043.614,469.238,-27.832,534.668,307.617
1630097043.618,-1000.000,-39.062,-963.379,-1000.000
1630097043.622,-1000.000,-37.598,-1000.000,-1000.000
1630097043.626,228.027,-22.949,194.824,377.441
1630097043.630,-997.559,-34.180,943.848,776.855
1630097043.633,-492.188,-53.711,-469.727,-793.457
1630097043.637,-1000.000,-41.992,-1000.000,-1000.000
1630097043.641,-208.496,-21.484,-201.172,-179.688
1630097043.645,-847.168,-15.625,-854.004,-872.559
1630097043.649,146.973,-18.555,120.117,-38.086
1630097043.655,-1000.000,-15.625,-1000.000,-1000.000
1630097043.659,-338.867,-18.066,-406.738,-265.137
1630097043.663,-850.098,-6.836,-883.789,-844.238
1630097043.667,244.141,-7.812,318.848,245.117
1630097043.671,-1000.000,-18.555,-1000.000,-1000.000
1630097043.675,-808.594,-10.742,-861.328,-719.238
1630097043.679,830.078,-5.859,710.938,935.059
1630097043.682,568.848,-17.090,602.051,404.785
1630097043.686,-962.402,-16.602,-872.559,-1000.000
1630097043.690,-1000.000,-15.625,-1000.000,-1000.000
1630097043.694,61.523,-20.020,6.348,186.035
1630097043.698,-910.156,-15.137,988.770,906.738
1630097043.696,-303.711,-29.297,-340.332,-613.770
1630097043.700,-1000.000,-34.180,-1000.000,-1000.000
1630097043.704,-214.844,-13.672,-246.582,-199.219
1630097043.708,-842.285,-5.371,-866.211,-864.258
1630097043.712,220.703,-21.973,146.484,59.570
1630097043.716,-1000.000,-37.598,-1000.000,-1000.000
1630097043.720,-505.371,-36.621,-623.047,-401.855
1630097043.723,-912.598,-22.461,967.773,-885.742
1630097043.727,259.766,-24.902,360.840,250.977
1630097043.731,-1000.000,-34.668,-1000.000,-1000.000
1630097043.735,-988.281,-24.414,-1000.000,-898.926
1630097043.739,541.504,-14.648,388.672,708.008
1630097043.741,754.395,-19.043,804.688,567.383
1630097043.745,-823.242,-30.762,-679.688,-964.844
1630097043.749,-1000.000,-26.855,-1000.000,-1000.000
1630097043.753,-71.777,-17.578,-83.008,39.062
1630097043.757,-869.141,-20.508,-972.656,-997.070
1630097043.761,-150.879,-24.902,-230.957,-430.664
1630097043.765,-1000.000,-20.508,-1000.000,-1000.000
1630097043.768,-220.215,-14.160,-274.414,-205.566
1630097043.772,-837.891,-16.602,-864.746,-853.516
1630097043.776,244.629,-38.086,154.297,147.461
1630097043.780,-1000.000,-35.156,-1000.000,-1000.000
1630097043.784,-624.512,-26.367,-801.270,-525.879
1630097043.787,-970.215,-17.578,774.902,-933.594
1630097043.791,384.277,-24.902,462.402,254.395
1630097043.795,-1000.000,-32.715,-1000.000,-1000.000
1630097043.799,-1000.000,-33.203,-1000.000,-1000.000
1630097043.803,287.598,-20.996,161.621,460.938
1630097043.807,960.938,-21.484,979.004,731.934
1630097043.811,-560.547,-38.574,-418.945,-837.891
1630097043.814,-1000.000,-37.109,-1000.000,-1000.000
1630097043.818,-195.801,-33.691,-179.688,-125.488
1630097043.822,-862.793,-29.785,-899.414,-899.414
1630097043.826,17.578,-34.668,-24.414,-172.852
1630097043.830,-1000.000,-42.969,-1000.000,-1000.000
1630097043.831,-272.461,-32.715,-399.414,-216.797
1630097043.835,-842.285,-27.344,-899.902,-839.355
1630097043.839,243.164,-43.457,219.238,229.004
1630097043.843,-1000.000,-37.598,-1000.000,-1000.000
1630097043.847,-745.117,-23.926,-871.582,-642.578
1630097043.851,907.227,-32.227,694.336,-994.141
1630097043.855,518.066,-38.574,532.227,327.148
1630097043.858,-990.723,-35.156,-956.543,-1000.000
1630097043.862,-1000.000,-35.645,-1000.000,-1000.000
1630097043.866,190.918,-25.879,114.746,305.176
1630097043.870,956.055,-26.855,816.406,757.324
1630097043.874,-548.340,-39.551,-626.465,-807.129
1630097043.877,-1000.000,-40.527,-1000.000,-1000.000
1630097043.881,-203.125,-27.344,-200.195,-190.430
1630097043.885,-856.445,-19.531,-926.758,-884.766
1630097043.889,98.145,-38.574,-45.898,-63.965
1630097043.893,-1000.000,-35.645,-1000.000,-1000.000
1630097043.897,-391.113,-25.879,-475.586,-295.410
1630097043.901,-877.441,-25.879,-945.312,-857.422
1630097043.904,248.047,-35.645,220.703,245.117
1630097043.908,-1000.000,-40.039,-1000.000,-1000.000
1630097043.912,-891.602,-31.738,-977.051,-794.434
1630097043.916,717.773,-27.832,522.461,848.145
1630097043.920,612.305,-40.039,588.379,440.918
1630097043.936,-940.430,-49.805,-904.785,-1000.000
1630097043.940,-1000.000,-38.574,-1000.000,-1000.000
1630097043.944,13.184,-25.391,-47.852,132.812
1630097043.948,-917.969,-39.551,936.035,920.898
1630097043.952,-296.387,-54.688,-421.875,-582.520
1630097043.956,-1000.000,-51.758,-1000.000,-1000.000
1630097043.960,-214.844,-42.969,-248.047,-199.707
1630097043.963,-842.285,-40.527,-890.625,-862.305
1630097043.967,229.980,-53.223,97.656,72.754
1630097043.971,-1000.000,-43.945,-1000.000,-1000.000
1630097043.975,-525.391,-35.156,-643.555,-419.922
1630097043.979,-918.945,-29.785,946.289,-892.578
1630097043.981,309.570,-46.875,389.648,250.488
1630097043.985,-1000.000,-56.641,-1000.000,-1000.000
1630097043.989,-1000.000,-37.598,-1000.000,-928.223
1630097043.993,523.926,-38.086,373.535,664.551
1630097043.997,760.254,-52.734,714.844,575.195
1630097044.001,-812.988,-60.547,-761.719,-960.449
1630097044.005,-1000.000,-64.941,-1000.000,-1000.000
1630097044.008,-108.887,-60.059,-115.723,-2.441
1630097044.012,-870.605,-54.688,-998.047,-961.426
1630097044.016,-120.605,-65.918,-270.508,-359.375
1630097044.020,-1000.000,-62.012,-1000.000,-1000.000
1630097044.024,-221.680,-45.898,-320.801,-208.496
1630097044.026,-836.914,-51.270,-890.625,-849.609
1630097044.030,244.629,-64.941,153.809,177.246
1630097044.034,-1000.000,-57.617,-1000.000,-1000.000
1630097044.038,-642.578,-46.387,-819.336,-561.035
1630097044.042,-980.957,-49.316,754.883,-947.754
1630097044.046,415.039,-50.293,469.727,273.438
1630097044.050,-1000.000,-48.828,-998.535,-1000.000
1630097044.053,-1000.000,-53.711,-1000.000,-1000.000
1630097044.057,271.484,-43.457,165.039,422.363
1630097044.061,881.836,-38.574,743.652,680.664
1630097044.065,-663.574,-48.828,-718.750,-887.207
1630097044.069,-1000.000,-50.781,-1000.000,-1000.000
1630097044.071,-193.848,-42.969,-166.992,-146.973
1630097044.075,-871.582,-33.203,-959.473,-910.156
1630097044.079,-3.906,-47.852,-152.344,-180.664
1630097044.083,-1000.000,-52.246,-1000.000,-1000.000
1630097044.087,-314.453,-33.203,-429.199,-238.770
1630097044.091,-859.375,-23.438,-922.852,-847.168
1630097044.095,247.559,-38.574,219.238,236.816
1630097044.098,-1000.000,-46.875,-1000.000,-1000.000
1630097044.102,-790.527,-30.762,-920.898,-695.801
1630097044.106,856.445,-18.555,626.953,955.566
1630097044.110,518.555,-32.715,501.953,350.586
1630097044.114,-991.211,-47.852,-975.098,-1000.000
1630097044.117,-1000.000,-43.945,-1000.000,-1000.000
1630097044.121,109.375,-22.461,0.977,233.398
1630097044.125,-960.938,-18.555,945.801,868.164
1630097044.129,-405.762,-43.945,-424.316,-674.316
1630097044.133,-1000.000,-43.945,-1000.000,-1000.000
1630097044.137,-204.102,-35.645,-196.289,-188.965
1630097044.141,-852.539,-35.645,-893.555,-881.348
1630097044.144,113.770,-46.875,5.371,-41.016
1630097044.148,-1000.000,-45.410,-1000.000,-1000.000
1630097044.152,-430.664,-25.879,-539.551,-347.168
1630097044.156,-892.090,-13.672,-977.539,-875.488
1630097044.160,250.977,-38.086,289.551,250.488
1630097044.161,-1000.000,-54.199,-1000.000,-1000.000
1630097044.165,-926.758,-42.480,-993.164,-839.355
1630097044.169,661.621,-33.691,483.398,790.527
1630097044.173,656.738,-39.551,715.820,509.277
1630097044.177,-916.992,-42.480,-788.086,-996.094
1630097044.181,-1000.000,-38.574,-1000.000,-1000.000
1630097044.185,6.348,-28.809,1.953,121.094
1630097044.188,-905.273,-25.879,958.984,945.312
1630097044.192,-269.043,-33.691,-402.832,-543.945
1630097044.196,-1000.000,-34.180,-1000.000,-1000.000
1630097044.200,-216.797,-28.320,-269.531,-206.543
1630097044.204,-840.820,-27.832,-868.652,-854.492
1630097044.206,245.117,-40.039,192.871,143.066
1630097044.210,-1000.000,-41.992,-1000.000,-1000.000
1630097044.214,-545.410,-28.809,-626.953,-464.355
1630097044.218,-925.293,-27.832,978.027,-903.809
1630097044.222,305.176,-44.922,370.117,250.977
1630097044.226,-1000.000,-46.387,-1000.000,-1000.000
1630097044.230,-1000.000,-44.434,-1000.000,-975.586
1630097044.233,420.410,-38.574,288.574,588.867
1630097044.237,833.496,-36.621,817.383,630.371
1630097044.241,-727.051,-36.621,-663.574,-928.711
1630097044.245,-1000.000,-29.297,-1000.000,-1000.000
1630097044.249,-160.156,-21.973,-129.883,-48.828
1630097044.251,-876.465,-14.648,-991.211,-946.777
1630097044.255,-86.426,-27.344,-228.516,-311.523
1630097044.259,-1000.000,-34.668,-1000.000,-1000.000
1630097044.263,-222.656,-28.809,-372.559,-212.891
1630097044.267,-835.449,-26.367,-896.484,-844.727
1630097044.271,239.746,-35.645,265.625,227.539
1630097044.275,-1000.000,-44.434,-1000.000,-1000.000
1630097044.278,-714.355,-40.039,-878.906,-605.957
1630097044.282,943.848,-28.809,707.520,-965.332
1630097044.286,434.570,-39.062,467.773,287.598
1630097044.290,-1000.000,-48.340,-1000.000,-1000.000
1630097044.294,-1000.000,-44.434,-1000.000,-1000.000
1630097044.310,209.473,-32.715,111.328,364.746
1630097044.314,962.402,-42.480,904.297,758.789
1630097044.318,-546.387,-51.270,-527.344,-812.988
1630097044.322,-1000.000,-31.738,-1000.000,-1000.000
1630097044.326,-204.102,-19.043,-196.777,-176.270
1630097044.330,-854.004,-18.066,-869.629,-880.371
1630097044.334,101.074,-40.527,76.660,-71.289
1630097044.337,-1000.000,-52.246,-1000.000,-1000.000
1630097044.341,-349.609,-39.062,-437.988,-270.020
1630097044.345,-859.863,-32.715,-907.227,-849.609
1630097044.349,245.605,-49.805,219.238,246.582
1630097044.353,-1000.000,-51.270,-1000.000,-1000.000
1630097044.357,-837.891,-28.809,-930.664,-725.586
1630097044.361,792.480,-26.367,604.980,928.711
1630097044.365,553.711,-43.945,564.453,396.484
1630097044.369,-978.027,-43.457,-937.988,-1000.000
1630097044.373,-1000.000,-29.297,-1000.000,-1000.000
1630097044.377,94.238,-20.996,52.734,222.168
1630097044.381,-936.523,-25.391,948.242,886.719
1630097044.384,-359.863,-48.340,-438.965,-649.414
1630097044.388,-1000.000,-48.828,-1000.000,-1000.000
1630097044.392,-211.426,-25.879,-220.215,-195.312
1630097044.396,-845.703,-20.508,-877.930,-871.094
1630097044.400,185.059,-27.832,75.684,16.113
1630097044.401,-1000.000,-29.785,-1000.000,-1000.000
1630097044.405,-475.586,-25.391,-567.383,-384.766
1630097044.409,-903.320,-18.555,-987.305,-884.277
1630097044.413,251.465,-36.621,325.195,252.441
1630097044.417,-1000.000,-39.062,-1000.000,-1000.000
1630097044.421,-968.262,-29.297,-1000.000,-870.605
1630097044.425,596.680,-28.320,471.191,751.465
1630097044.428,662.109,-41.016,631.348,520.020
1630097044.432,-910.645,-48.828,-864.258,-987.305
1630097044.436,-1000.000,-33.203,-1000.000,-1000.000
1630097044.440,-79.590,-36.133,-109.375,38.574
1630097044.444,-869.629,-43.457,-986.816,999.023
1630097044.446,-149.902,-48.828,-261.230,-439.941
1630097044.450,-1000.000,-44.434,-1000.000,-1000.000
1630097044.454,-220.215,-35.645,-287.598,-205.566
1630097044.458,-837.402,-21.973,-882.324,-853.027
1630097044.462,244.629,-20.996,143.066,146.484
1630097044.466,-1000.000,-24.414,-1000.000,-1000.000
1630097044.470,-601.074,-19.531,-722.168,-504.395
1630097044.473,-956.543,-14.648,878.906,-921.875
1630097044.477,332.520,-24.902,384.766,253.418
1630097044.481,-1000.000,-36.621,-1000.000,-1000.000
1630097044.485,-1000.000,-33.203,-1000.000,-1000.000
1630097044.489,317.383,-14.160,203.125,509.277
1630097044.491,900.879,-13.184,858.398,688.477
1630097044.495,-645.020,-37.598,-601.562,-880.859
1630097044.499,-1000.000,-31.738,-1000.000,-1000.000
1630097044.503,-197.754,-18.066,-167.969,-110.352
1630097044.507,-862.793,-27.344,-894.043,-892.578
1630097044.511,27.344,-37.598,-5.371,-169.434
1630097044.515,-1000.000,-36.133,-1000.000,-1000.000
1630097044.518,-269.043,-20.020,-391.113,-216.797
1630097044.522,-840.332,-9.277,-894.531,-839.355
1630097044.526,242.188,-23.438,202.148,224.609
1630097044.530,-1000.000,-28.320,-1000.000,-1000.000
1630097044.534,-750.000,-15.625,-881.348,-632.324
1630097044.536,902.832,-3.418,685.059,-986.328
1630097044.540,487.793,-14.160,491.699,312.988
1630097044.544,-1000.000,-34.180,-988.281,-1000.000
1630097044.548,-1000.000,-32.227,-1000.000,-1000.000
1630097044.552,165.527,-15.625,50.781,293.945
1630097044.556,-970.703,-16.113,981.934,834.473
1630097044.560,-439.941,-26.855,-379.395,-720.215
1630097044.563,-1000.000,-31.738,-1000.000,-1000.000
1630097044.567,-206.055,-28.320,-213.379,-190.430
1630097044.571,-850.586,-25.391,-875.488,-878.906
1630097044.575,129.395,-33.203,65.918,-41.504
1630097044.579,-1000.000,-34.668,-1000.000,-1000.000
1630097044.583,-399.414,-29.785,-501.465,-297.363
1630097044.587,-876.953,-21.484,-942.871,-855.957
1630097044.591,248.047,-30.762,290.039,245.117
1630097044.595,-1000.000,-36.133,-1000.000,-1000.000
1630097044.599,-896.484,-22.461,-993.652,-793.945
1630097044.603,707.520,-3.906,503.906,848.145
1630097044.607,640.137,-7.324,676.758,468.262
1630097044.610,-927.734,-26.367,-836.426,-1000.000
1630097044.614,-1000.000,-29.297,-1000.000,-1000.000
1630097044.618,36.621,-1.953,-15.137,149.414
1630097044.622,-904.785,3.906,975.586,924.805
1630097044.626,-282.227,-16.113,-372.559,-579.590
1630097044.626,-1000.000,-11.719,-1000.000,-1000.000
1630097044.630,-213.867,0.977,-236.328,-196.777
1630097044.634,-842.773,-0.488,-881.836,-865.723
1630097044.638,205.078,-19.043,81.055,45.898
1630097044.642,-1000.000,-27.344,-1000.000,-1000.000
1630097044.646,-499.512,-14.160,-541.016,-400.391
1630097044.650,-911.621,-6.348,-965.332,-886.230
1630097044.653,249.023,-20.508,286.621,248.047
1630097044.657,-1000.000,-22.949,-1000.000,-1000.000
1630097044.661,-1000.000,-24.902,-1000.000,-930.176
1630097044.665,503.906,-17.578,360.840,662.598
1630097044.669,733.887,-16.113,684.082,569.336
1630097044.686,-844.238,-27.344,-818.848,-963.867
1630097044.690,-1000.000,-26.855,-1000.000,-1000.000
1630097044.694,-120.605,-15.625,-115.723,-2.930
1630097044.698,-875.977,-12.207,995.605,-971.191
1630097044.702,-126.953,-26.367,-278.809,-375.488
1630097044.706,-1000.000,-29.785,-1000.000,-1000.000
1630097044.710,-220.703,-22.461,-318.848,-209.961
1630097044.713,-837.402,-11.719,-881.836,-847.656
1630097044.717,244.629,-19.531,206.055,199.219
1630097044.721,-1000.000,-24.902,-1000.000,-1000.000
1630097044.725,-633.789,-19.043,-772.949,-552.246
1630097044.729,-976.562,-16.113,831.055,-940.918
1630097044.731,375.488,-27.832,398.438,256.348
1630097044.735,-1000.000,-29.297,-1000.000,-1000.000
1630097044.739,-1000.000,-28.809,-1000.000,-1000.000
1630097044.743,295.898,-7.324,229.492,455.078
1630097044.747,917.480,10.742,870.605,709.473
1630097044.751,-623.047,-8.789,-587.402,-858.887
1630097044.755,-1000.000,-10.254,-1000.000,-1000.000
1630097044.758,-195.312,4.883,-169.434,-142.578
1630097044.762,-867.676,1.953,-912.109,-902.832
1630097044.766,11.719,-14.160,-61.035,-166.016
1630097044.770,-1000.000,-9.766,-1000.000,-1000.000
1630097044.774,-315.918,-0.977,-430.176,-239.258
1630097044.776,-857.910,0.000,-917.480,-846.191
1630097044.780,249.512,-16.602,238.770,241.211
1630097044.784,-1000.000,-20.508,-1000.000,-1000.000
1630097044.788,-760.742,-11.230,-838.867,-662.109
1630097044.792,888.672,-18.555,743.652,989.746
1630097044.796,533.691,-31.250,536.621,364.746
1630097044.800,-982.422,-40.039,-951.172,-1000.000
1630097044.803,-1000.000,-33.203,-1000.000,-1000.000
1630097044.807,124.023,-18.066,51.758,236.816
1630097044.811,-942.383,-23.926,972.168,865.723
1630097044.815,-378.418,-42.480,-407.227,-677.734
1630097044.819,-1000.000,-41.992,-1000.000,-1000.000
1630097044.822,-213.379,-29.785,-205.078,-196.289
1630097044.826,-843.750,-31.738,-848.145,-870.117
1630097044.830,204.102,-42.480,150.879,19.043
1630097044.834,-1000.000,-43.945,-1000.000,-1000.000
1630097044.838,-447.266,-39.551,-500.977,-363.281
1630097044.842,-886.719,-28.320,-928.711,-875.488
1630097044.846,248.047,-36.133,348.145,249.512
1630097044.849,-1000.000,-49.805,-1000.000,-1000.000
1630097044.853,-942.383,-48.340,-990.234,-858.887
1630097044.857,637.695,-37.598,524.902,766.602
1630097044.861,651.855,-45.410,703.613,505.859
1630097044.865,-921.387,-53.223,-808.594,-1000.000
1630097044.866,-1000.000,-39.551,-1000.000,-1000.000
1630097044.870,-32.715,-36.133,-51.270,89.355
1630097044.874,-860.840,-45.410,-900.879,-982.422
1630097044.878,-156.738,-55.176,-140.137,-432.617
1630097044.882,-1000.000,-53.223,-1000.000,-1000.000
1630097044.886,-221.191,-43.457,-233.398,-205.566
1630097044.890,-836.426,-41.992,-840.332,-853.516
1630097044.893,245.117,-45.898,185.547,135.254
1630097044.897,-1000.000,-43.457,-1000.000,-1000.000
1630097044.901,-566.406,-45.410,-652.344,-481.445
1630097044.905,-938.477,-41.504,957.520,-913.574
1630097044.909,297.363,-44.434,358.398,255.371
1630097044.911,-1000.000,-51.270,-1000.000,-1000.000
1630097044.915,-1000.000,-52.246,-1000.000,-969.727
1630097044.919,433.594,-43.945,364.258,598.145
1630097044.923,781.250,-44.922,736.328,619.629
1630097044.927,-796.875,-58.105,-781.738,-940.918
1630097044.931,-1000.000,-47.852,-1000.000,-1000.000
1630097044.935,-137.207,-35.156,-121.094,-41.016
1630097044.938,-850.098,-41.992,-874.023,-881.836
1630097044.942,-6.836,-49.316,-4.395,-195.801
1630097044.946,-1000.000,-41.504,-1000.000,-1000.000
1630097044.950,-231.934,-29.297,-308.105,-217.285
1630097044.954,-830.078,-27.832,-859.375,-839.844
1630097044.956,242.188,-48.828,184.082,217.773
1630097044.960,-1000.000,-48.828,-1000.000,-1000.000
1630097044.964,-664.062,-25.879,-772.949,-586.914
1630097044.968,997.070,-20.020,824.219,-954.590
1630097044.972,467.773,-48.340,500.000,307.129
1630097044.976,-1000.000,-57.129,-979.980,-1000.000
1630097044.980,-1000.000,-29.785,-1000.000,-1000.000
1630097044.983,210.938,-17.090,127.441,369.629
1630097044.987,-991.211,-29.297,965.820,791.504
1630097044.991,-479.004,-49.316,-441.895,-777.832
1630097044.995,-1000.000,-48.828,-1000.000,-1000.000
1630097044.999,-201.660,-36.133,-183.105,-164.551
1630097045.002,-855.469,-34.180,-887.207,-883.789
1630097045.006,82.031,-46.387,3.418,-96.680
1630097045.010,-1000.000,-52.734,-1000.000,-1000.000
1630097045.014,-350.098,-53.711,-451.660,-266.602
1630097045.018,-862.305,-43.457,-915.039,-850.586
1630097045.022,244.141,-42.969,313.477,246.094
1630097045.026,-1000.000,-41.992,-1000.000,-1000.000
1630097045.029,-861.816,-39.062,-979.980,-737.305
1630097045.033,762.207,-32.227,570.801,916.016
1630097045.037,548.828,-36.133,518.066,390.137
1630097045.041,-980.469,-48.340,-970.215,-1000.000
1630097045.045,-1000.000,-46.387,-1000.000,-1000.000
1630097045.061,56.641,-31.738,-12.695,199.707
1630097045.065,-912.109,-33.203,987.793,902.344
1630097045.069,-307.617,-50.781,-354.004,-625.488
1630097045.073,-1000.000,-52.246,-1000.000,-1000.000
1630097045.077,-215.332,-43.945,-234.375,-200.684
1630097045.081,-840.332,-37.109,-853.027,-861.816
1630097045.085,226.074,-41.504,166.992,67.871
1630097045.088,-1000.000,-52.734,-1000.000,-1000.000
1630097045.092,-454.102,-41.504,-502.930,-371.094
1630097045.096,-886.230,-24.902,-926.758,-872.559
1630097045.100,245.117,-40.039,282.715,248.535
1630097045.104,-1000.000,-54.199,-1000.000,-1000.000
1630097045.106,-964.355,-51.270,-1000.000,-865.723
1630097045.110,597.168,-38.086,462.402,756.836
1630097045.114,686.035,-41.992,673.340,532.227
1630097045.118,-892.578,-52.734,-840.820,-986.816
1630097045.122,-1000.000,-39.551,-1000.000,-1000.000
1630097045.126,-36.133,-17.578,-38.574,92.285
1630097045.130,-875.000,-15.137,-982.422,995.117
1630097045.133,-185.059,-36.621,-302.734,-466.309
1630097045.137,-1000.000,-32.715,-1000.000,-1000.000
1630097045.141,-219.238,-14.160,-269.043,-204.590
1630097045.145,-838.867,-13.672,-872.559,-855.469
1630097045.149,244.629,-36.133,146.973,128.906
1630097045.151,-1000.000,-46.875,-1000.000,-1000.000
1630097045.155,-602.051,-28.809,-714.844,-501.465
1630097045.159,-958.496,-11.230,887.695,-923.828
1630097045.163,331.055,-23.926,383.301,256.836
1630097045.167,-1000.000,-32.227,-1000.000,-1000.000
1630097045.171,-1000.000,-22.949,-1000.000,-993.652
1630097045.175,365.234,-17.578,316.895,558.594
1630097045.178,833.984,-19.043,781.738,636.230
1630097045.182,-726.074,-25.879,-712.402,-921.875
1630097045.186,-1000.000,-33.691,-1000.000,-1000.000
1630097045.190,-192.871,-19.043,-155.762,-104.004
1630097045.194,-874.023,-15.137,-952.637,-930.664
1630097045.196,-29.785,-33.203,-155.762,-255.859
1630097045.200,-1000.000,-21.973,-1000.000,-1000.000
1630097045.204,-260.254,-8.301,-358.887,-212.402
1630097045.208,-843.262,-12.207,-892.578,-843.750
1630097045.212,242.676,-27.344,199.219,221.680
1630097045.216,-1000.000,-18.066,-1000.000,-1000.000
1630097045.220,-741.699,-10.254,-839.844,-616.699
1630097045.223,913.086,-6.348,747.559,-973.145
1630097045.227,450.684,-11.719,443.848,300.781
1630097045.231,-1000.000,-14.648,-1000.000,-1000.000
1630097045.235,-1000.000,-12.695,-1000.000,-1000.000
1630097045.239,176.758,-5.859,114.258,321.289
1630097045.241,-999.023,-0.488,914.551,790.039
1630097045.245,-485.840,-12.695,-524.902,-776.855
1630097045.249,-1000.000,-6.836,-1000.000,-1000.000
1630097045.253,-203.613,-1.953,-187.012,-180.176
1630097045.257,-854.492,-9.766,-892.090,-883.789
1630097045.261,104.492,-21.973,16.602,-71.777
1630097045.265,-1000.000,-23.438,-1000.000,-1000.000
1630097045.268,-393.555,-16.602,-480.469,-290.527
1630097045.272,-877.930,-10.742,-931.641,-855.957
1630097045.276,248.535,-23.926,250.977,246.094
1630097045.280,-1000.000,-23.926,-1000.000,-1000.000
1630097045.284,-888.672,-1.465,-969.238,-779.785
1630097045.286,719.727,17.090,548.340,867.188
1630097045.290,623.535,5.371,623.047,452.637
1630097045.294,-937.988,-17.090,-888.184,-1000.000
1630097045.298,-1000.000,-15.137,-1000.000,-1000.000
1630097045.302,35.645,-1.465,-26.367,156.250
1630097045.306,-895.996,3.906,-997.559,949.707
1630097045.310,-267.578,-12.695,-330.566,-548.340
1630097045.313,-1000.000,-20.508,-1000.000,-1000.000
1630097045.317,-214.355,-17.578,-225.586,-197.754
1630097045.321,-842.285,-10.742,-868.164,-863.770
1630097045.325,208.984,-12.207,98.145,54.199
1630097045.329,-1000.000,-15.625,-1000.000,-1000.000
1630097045.331,-508.789,-0.977,-577.148,-401.855
1630097045.335,-915.527,9.277,-989.258,-886.230
1630097045.339,268.066,-4.395,321.289,250.488
1630097045.343,-1000.000,-16.113,-1000.000,-1000.000
1630097045.347,-994.629,-6.836,-1000.000,-905.762
1630097045.351,524.902,11.719,417.480,695.801
1630097045.355,782.715,-3.906,801.270,586.914
1630097045.358,-791.504,-26.367,-703.125,-952.148
1630097045.362,-1000.000,-15.137,-1000.000,-1000.000
1630097045.366,-88.867,-6.836,-89.355,12.207
1630097045.370,-868.164,-7.324,-983.398,-968.750
1630097045.374,-133.301,-7.324,-270.996,-376.953
1630097045.376,-1000.000,-1.953,-1000.000,-1000.000
1630097045.380,-221.191,10.742,-288.086,-209.473
1630097045.384,-836.914,11.230,-871.094,-848.145
1630097045.388,246.094,-6.836,190.430,186.523
1630097045.392,-1000.000,-7.812,-1000.000,-1000.000
1630097045.396,-589.355,4.395,-631.836,-496.582
1630097045.400,984.375,7.812,903.320,-976.562
1630097045.403,306.152,-15.625,315.918,170.410
1630097045.407,-1000.000,-31.250,-1000.000,-1000.000
1630097045.411,-1000.000,-18.555,-1000.000,-1000.000
1630097045.415,286.621,-5.859,216.309,447.754
1630097045.419,901.367,-17.090,816.895,703.613
1630097045.436,-643.066,-33.691,-662.598,-866.211
1630097045.440,-1000.000,-23.926,-1000.000,-1000.000
1630097045.444,-195.801,-22.949,-160.645,-133.301
1630097045.448,-866.211,-23.438,-909.668,-898.926
1630097045.452,11.719,-26.855,-65.918,-167.480
1630097045.456,-1000.000,-22.461,-1000.000,-1000.000
1630097045.460,-289.551,-3.418,-365.723,-218.262
1630097045.463,-849.121,-9.277,-883.301,-838.379
1630097045.467,243.652,-23.438,242.676,241.699
1630097045.471,-1000.000,-19.531,-1000.000,-1000.000
1630097045.475,-781.738,-13.672,-876.465,-684.082
1630097045.479,867.188,-2.930,707.031,969.238
1630097045.481,523.926,-22.461,502.441,349.609
1630097045.485,-991.211,-46.387,-983.398,-1000.000
1630097045.489,-1000.000,-35.156,-1000.000,-1000.000
1630097045.493,141.113,-23.926,68.848,258.301
1630097045.497,-962.402,-26.367,966.797,855.957
1630097045.501,-417.480,-31.738,-424.805,-691.406
1630097045.505,-1000.000,-36.133,-1000.000,-1000.000
1630097045.508,-208.008,-20.508,-208.496,-192.383
1630097045.512,-848.633,-21.973,-872.070,-875.488
1630097045.516,148.438,-42.480,65.918,-21.973
1630097045.520,-1000.000,-37.598,-1000.000,-1000.000
1630097045.524,-417.480,-19.043,-483.398,-316.406
1630097045.527,-881.348,-18.066,-929.688,-860.840
1630097045.531,246.582,-40.039,290.039,244.141
1630097045.535,-1000.000,-43.457,-1000.000,-1000.000
1630097045.539,-932.129,-40.039,-1000.000,-844.238
1630097045.543,654.297,-34.180,472.168,786.133
1630097045.547,654.297,-41.016,661.133,495.117
1630097045.551,-919.922,-53.711,-854.492,-1000.000
1630097045.554,-1000.000,-40.527,-1000.000,-1000.000
1630097045.558,7.324,-18.555,-23.438,118.164
1630097045.562,-891.602,-28.809,982.910,956.543
1630097045.566,-246.094,-41.992,-359.863,-527.344
1630097045.570,-1000.000,-32.715,-1000.000,-1000.000
1630097045.571,-215.820,-25.391,-252.441,-200.684
1630097045.575,-840.820,-20.020,-869.629,-860.840
1630097045.579,229.980,-36.133,137.695,84.961
1630097045.583,-1000.000,-45.410,-1000.000,-1000.000
1630097045.587,-543.457,-31.738,-606.445,-455.566
1630097045.591,-926.758,-16.113,992.188,-907.227
1630097045.595,299.805,-33.691,356.934,251.953
1630097045.598,-1000.000,-44.434,-1000.000,-1000.000
1630097045.602,-1000.000,-30.762,-1000.000,-974.121
1630097045.606,434.570,-32.227,349.609,594.238
1630097045.610,769.531,-34.180,723.633,604.004
1630097045.614,-804.199,-32.227,-787.598,-946.777
1630097045.616,-1000.000,-35.156,-1000.000,-1000.000
1630097045.620,-157.715,-31.250,-135.742,-44.434
1630097045.624,-870.117,-27.344,-919.922,-920.410
1630097045.628,-64.453,-39.551,-119.141,-274.902
1630097045.632,-1000.000,-43.945,-1000.000,-1000.000
1630097045.636,-225.098,-28.320,-291.992,-212.891
1630097045.640,-833.984,-22.461,-864.258,-843.750
1630097045.643,243.652,-31.738,177.246,213.867
1630097045.647,-1000.000,-32.715,-1000.000,-1000.000
1630097045.651,-653.809,-31.738,-751.953,-584.961
1630097045.655,-990.723,-38.086,853.027,-954.102
1630097045.659,427.246,-37.598,416.504,295.410
1630097045.661,-1000.000,-42.969,-1000.000,-1000.000
1630097045.665,-1000.000,-39.062,-1000.000,-1000.000
1630097045.669,228.027,-19.531,166.992,374.512
1630097045.673,938.477,-32.227,839.844,758.301
1630097045.677,-583.496,-51.270,-626.465,-813.477
1630097045.681,-1000.000,-45.898,-1000.000,-1000.000
1630097045.685,-202.148,-31.250,-177.734,-171.387
1630097045.688,-856.934,-32.715,-902.832,-881.348
1630097045.692,82.520,-49.316,-30.273,-83.008
1630097045.696,-1000.000,-52.246,-1000.000,-1000.000
1630097045.700,-335.449,-40.039,-400.391,-260.742
1630097045.704,-856.445,-31.738,-895.996,-847.168
1630097045.707,245.117,-57.617,244.629,245.117
1630097045.711,-1000.000,-60.059,-1000.000,-1000.000
1630097045.715,-822.754,-39.551,-895.508,-728.516
1630097045.719,812.500,-30.273,674.316,927.246
1630097045.723,556.641,-43.945,531.738,411.133
1630097045.727,-975.098,-51.758,-961.426,-1000.000
1630097045.731,-1000.000,-38.086,-1000.000,-1000.000
1630097045.734,67.383,-37.109,16.602,197.266
1630097045.738,-884.277,-53.711,-962.402,958.008
1630097045.742,-261.719,-57.617,-297.363,-548.828
1630097045.746,-1000.000,-54.199,-1000.000,-1000.000
1630097045.750,-215.332,-44.922,-218.750,-197.754
1630097045.751,-840.820,-38.086,-863.281,-863.770
1630097045.755,208.984,-54.688,101.562,50.293
1630097045.759,-1000.000,-58.594,-1000.000,-1000.000
1630097045.763,-475.586,-43.945,-561.035,-388.184
1630097045.767,-899.414,-37.109,-977.539,-881.348
1630097045.771,254.883,-43.457,324.707,250.000
1630097045.775,-1000.000,-34.668,-1000.000,-1000.000
1630097045.778,-981.934,-31.738,-1000.000,-887.207
1630097045.782,569.824,-28.320,448.730,727.051
1630097045.786,691.406,-33.691,635.254,538.574
1630097045.790,-886.719,-46.875,-873.535,-983.398
1630097045.794,-1000.000,-44.922,-1000.000,-1000.000
1630097045.826,-70.801,-36.621,-93.262,39.062
1630097045.830,-859.863,-30.762,-945.801,-948.242
1630097045.834,-122.559,-35.156,-206.543,-357.422
1630097045.838,-1000.000,-38.086,-1000.000,-1000.000
1630097045.842,-222.656,-24.414,-263.672,-209.961
1630097045.846,-834.961,-19.531,-855.957,-847.168
1630097045.850,244.629,-35.645,194.336,182.129
1630097045.853,-1000.000,-38.086,-1000.000,-1000.000
1630097045.857,-579.102,-28.320,-641.602,-504.883
1630097045.861,-942.871,-28.809,969.238,-916.504
1630097045.865,327.148,-44.922,353.516,250.977
1630097045.869,-1000.000,-41.992,-1000.000,-1000.000
1630097045.856,-1000.000,-26.367,-1000.000,-1000.000
1630097045.860,323.730,-17.090,255.859,504.883
1630097045.864,875.488,-25.879,817.383,678.711
1630097045.868,-678.711,-42.969,-678.711,-891.602
1630097045.872,-1000.000,-39.551,-1000.000,-1000.000
1630097045.876,-188.477,-25.879,-141.113,-101.562
1630097045.880,-870.605,-24.414,-926.758,-906.738
1630097045.883,-21.973,-38.574,-127.930,-207.520
1630097045.887,-1000.000,-35.645,-1000.000,-1000.000
1630097045.891,-258.789,-24.414,-346.191,-215.332
1630097045.895,-841.797,-31.250,-885.254,-840.820
1630097045.899,243.164,-40.039,208.984,230.957
1630097045.901,-1000.000,-33.691,-1000.000,-1000.000
1630097045.905,-725.586,-14.160,-790.527,-614.258
1630097045.909,930.176,-2.930,813.477,-966.797
1630097045.913,472.656,-22.461,451.660,316.895
1630097045.917,-1000.000,-24.902,-1000.000,-1000.000
1630097045.921,-1000.000,-19.043,-1000.000,-1000.000
1630097045.925,191.895,-24.414,165.039,313.477
1630097045.928,961.426,-25.391,830.566,770.020
1630097045.932,-542.969,-35.645,-642.090,-796.875
1630097045.936,-1000.000,-30.762,-1000.000,-1000.000
1630097045.940,-205.078,-17.090,-196.289,-192.871
1630097045.944,-854.492,-26.855,-893.066,-880.371
1630097045.946,114.746,-34.668,19.531,-44.434
1630097045.950,-1000.000,-30.762,-1000.000,-1000.000
1630097045.954,-396.484,-14.160,-472.656,-296.387
1630097045.958,-877.930,-8.789,-927.246,-855.469
1630097045.962,248.047,-33.691,274.902,243.652
1630097045.966,-1000.000,-30.762,-1000.000,-1000.000
1630097045.970,-896.973,-23.438,-961.914,-816.406
1630097045.973,708.008,-19.043,560.547,822.266
1630097045.977,630.371,-25.879,659.180,460.449
1630097045.981,-935.059,-34.668,-863.281,-1000.000
1630097045.985,-1000.000,-34.668,-1000.000,-1000.000
1630097045.989,25.879,-30.762,-3.418,120.117
1630097045.991,-877.441,-32.227,-901.855,957.520
1630097045.995,-226.074,-44.434,-158.691,-529.297
1630097045.999,-1000.000,-41.504,-1000.000,-1000.000
1630097046.003,-218.750,-33.691,-227.539,-200.684
1630097046.007,-838.379,-31.250,-835.938,-860.352
1630097046.011,244.629,-47.852,196.777,83.984
1630097046.015,-1000.000,-47.363,-1000.000,-1000.000
1630097046.018,-532.715,-14.648,-570.312,-439.453
1630097046.022,-919.434,-11.230,-971.680,-899.902
1630097046.026,311.523,-40.039,414.551,250.488
1630097046.030,-1000.000,-49.316,-1000.000,-1000.000
1630097046.034,-1000.000,-30.762,-1000.000,-958.496
1630097046.036,485.840,-14.648,390.625,618.164
1630097046.040,771.973,-32.227,822.266,595.215
1630097046.044,-800.781,-47.363,-672.852,-950.684
1630097046.048,-1000.000,-39.062,-1000.000,-1000.000
1630097046.052,-136.719,-27.344,-132.324,-29.785
1630097046.056,-869.141,-26.855,-887.207,-931.641
1630097046.060,-85.449,-41.016,-42.969,-299.805
1630097046.063,-1000.000,-35.645,-1000.000,-1000.000
1630097046.067,-224.121,-27.832,-302.246,-210.449
1630097046.071,-834.961,-31.250,-860.352,-845.703
1630097046.075,244.141,-46.875,193.848,192.383
1630097046.079,-1000.000,-49.316,-1000.000,-1000.000
1630097046.081,-632.812,-34.180,-680.176,-548.828
1630097046.085,-975.586,-23.926,929.688,-937.988
1630097046.089,410.645,-40.039,443.359,280.762
1630097046.093,-1000.000,-55.664,-1000.000,-1000.000
1630097046.097,-1000.000,-51.758,-1000.000,-1000.000
1630097046.101,288.086,-43.945,256.348,440.918
1630097046.105,920.898,-40.527,875.977,730.957
1630097046.108,-618.652,-52.734,-602.539,-839.355
1630097046.112,-1000.000,-58.105,-1000.000,-1000.000
1630097046.116,-199.707,-46.875,-163.086,-142.090
1630097046.120,-861.328,-35.156,-888.184,-887.207
1630097046.124,50.293,-46.387,-6.836,-130.371
1630097046.126,-1000.000,-62.012,-1000.000,-1000.000
1630097046.130,-316.895,-44.922,-396.484,-236.816
1630097046.134,-854.004,-35.156,-893.066,-842.285
1630097046.138,248.535,-54.688,252.930,245.605
1630097046.142,-1000.000,-71.289,-1000.000,-1000.000
1630097046.146,-760.742,-55.176,-787.109,-659.668
1630097046.150,890.137,-33.203,820.801,994.141
1630097046.153,514.160,-56.152,491.211,356.445
1630097046.157,-991.699,-68.359,-975.098,-1000.000
1630097046.161,-1000.000,-56.152,-1000.000,-1000.000
1630097046.165,105.469,-40.039,37.109,229.004
1630097046.169,-918.457,-41.016,-986.816,898.438
1630097046.177,-335.449,-57.129,-348.145,-637.207
1630097046.181,-1000.000,-50.781,-1000.000,-1000.000
1630097046.185,-206.543,-33.691,-201.172,-191.406
1630097046.189,-848.633,-30.762,-876.465,-874.023
1630097046.193,125.000,-52.734,46.875,-16.113
1630097046.197,-1000.000,-53.223,-1000.000,-1000.000
1630097046.201,-426.758,-39.551,-490.234,-334.961
1630097046.204,-888.672,-36.621,-933.594,-867.676
1630097046.208,248.535,-48.340,295.898,246.582
1630097046.212,-1000.000,-60.547,-1000.000,-1000.000
1630097046.216,-937.500,-48.828,-1000.000,-852.051
1630097046.220,647.461,-31.250,502.930,776.855
1630097046.231,639.648,-41.504,607.910,498.535
1630097046.235,-928.711,-60.059,-899.414,-1000.000
1630097046.239,-1000.000,-55.176,-1000.000,-1000.000
1630097046.243,-19.043,-30.273,-44.922,99.609
1630097046.247,-874.512,-29.785,-965.820,998.047
1630097046.251,-198.242,-47.363,-263.672,-465.820
1630097046.255,-1000.000,-44.922,-1000.000,-1000.000
1630097046.258,-218.262,-35.156,-260.742,-202.148
1630097046.262,-838.867,-31.250,-871.582,-856.445
1630097046.266,234.375,-41.016,127.930,101.562
1630097046.270,-1000.000,-41.504,-1000.000,-1000.000
1630097046.274,-545.898,-22.461,-612.793,-456.543
1630097046.276,-926.758,-5.859,983.887,-905.273
1630097046.280,311.035,-20.508,362.305,251.465
1630097046.284,-1000.000,-26.367,-1000.000,-1000.000
1630097046.288,-1000.000,-15.137,-1000.000,-976.562
1630097046.292,397.461,-9.766,304.199,585.938
1630097046.296,854.980,-13.672,859.863,645.508
1630097046.300,-703.613,-27.832,-630.859,-921.875
1630097046.303,-1000.000,-35.645,-1000.000,-1000.000
1630097046.307,-153.809,-20.020,-122.559,-40.527
1630097046.311,-872.070,7.324,-954.590,-920.898
1630097046.315,-78.613,-12.207,-188.477,-273.926
1630097046.319,-1000.000,-32.227,-1000.000,-1000.000
1630097046.321,-223.633,-17.090,-314.453,-212.891
1630097046.325,-834.961,-8.301,-878.418,-843.750
1630097046.329,244.141,-29.297,183.594,214.355
1630097046.333,-1000.000,-32.715,-1000.000,-1000.000
1630097046.337,-645.996,-16.113,-728.027,-574.219
1630097046.341,-982.422,-5.859,882.324,-948.242
1630097046.345,409.668,-31.250,405.762,289.062
1630097046.348,-1000.000,-43.945,-1000.000,-1000.000
1630097046.352,-1000.000,-40.039,-1000.000,-1000.000
1630097046.356,231.934,-29.785,179.688,383.301
1630097046.360,921.387,-13.184,824.219,757.324
1630097046.364,-608.887,-17.090,-649.902,-813.965
1630097046.366,-1000.000,-19.043,-1000.000,-1000.000
1630097046.370,-202.637,-20.508,-188.477,-174.316
1630097046.374,-856.934,-19.043,-892.578,-879.395
1630097046.378,83.984,-28.320,1.465,-73.242
1630097046.382,-1000.000,-37.598,-1000.000,-1000.000
1630097046.386,-330.566,-18.066,-379.883,-256.348
1630097046.390,-854.004,-19.043,-885.742,-844.727
1630097046.393,239.746,-54.688,201.660,243.164
1630097046.397,-1000.000,-46.387,-1000.000,-1000.000
1630097046.401,-871.582,-24.414,-955.566,-746.582
1630097046.405,749.512,-21.484,577.148,907.227
1630097046.409,562.988,-34.180,545.410,418.945
1630097046.411,-971.680,-37.598,-953.613,-1000.000
1630097046.415,-1000.000,-27.344,-1000.000,-1000.000
1630097046.419,68.359,-16.602,22.949,195.801
1630097046.423,-960.938,-19.043,896.973,896.973
1630097046.427,-392.090,-40.527,-513.672,-629.883
1630097046.431,-1000.000,-41.016,-1000.000,-1000.000
1630097046.435,-211.426,-22.949,-208.496,-199.219
1630097046.438,-846.191,-17.090,-877.441,-864.258
1630097046.442,196.777,-35.645,71.289,54.688
1630097046.446,-1000.000,-33.691,-1000.000,-1000.000
1630097046.450,-473.633,-26.855,-548.828,-383.789
1630097046.454,-900.391,-27.344,-974.121,-879.395
1630097046.456,251.465,-31.738,304.199,250.977
1630097046.460,-1000.000,-33.691,-1000.000,-1000.000
1630097046.464,-965.820,-26.855,-1000.000,-872.559
1630097046.468,584.961,-18.555,490.234,747.070
1630097046.472,720.703,-26.855,638.672,560.547
1630097046.476,-854.004,-33.691,-863.281,-966.309
1630097046.480,-1000.000,-24.902,-1000.000,-1000.000
1630097046.483,-100.098,-19.531,-137.695,-0.977
1630097046.487,-859.375,-19.043,-948.730,-924.805
1630097046.491,-92.285,-32.715,-165.039,-301.758
1630097046.495,-1000.000,-37.109,-1000.000,-1000.000
1630097046.499,-224.609,-26.855,-312.500,-209.473
1630097046.501,-834.473,-27.344,-883.789,-847.168
1630097046.505,244.141,-41.992,144.043,174.805
1630097046.509,-1000.000,-48.828,-1000.000,-1000.000
1630097046.513,-620.605,-36.621,-738.281,-527.344
1630097046.517,-967.773,-19.531,859.375,-928.711
1630097046.521,402.832,-25.391,421.875,271.484
1630097046.525,-1000.000,-34.668,-1000.000,-1000.000
1630097046.528,-1000.000,-39.062,-1000.000,-1000.000
1630097046.532,309.570,-38.574,210.938,467.285
1630097046.536,894.043,-34.180,773.438,707.031
1630097046.540,-652.344,-40.527,-708.496,-863.281
1630097046.544,-1000.000,-44.434,-1000.000,-1000.000
1630097046.561,-198.730,-28.809,-166.016,-129.395
1630097046.565,-862.305,-29.785,-915.527,-886.719
1630097046.569,34.180,-41.016,-62.500,-142.090
1630097046.573,-1000.000,-46.875,-1000.000,-1000.000
1630097046.577,-276.367,-36.621,-365.723,-218.750
1630097046.581,-842.285,-33.203,-885.254,-837.402
1630097046.585,244.141,-53.711,218.262,236.328
1630097046.588,-1000.000,-59.570,-1000.000,-1000.000
1630097046.592,-729.980,-48.340,-802.246,-621.582
1630097046.596,924.805,-27.344,799.805,-972.656
1630097046.600,492.676,-42.480,439.453,327.637
1630097046.604,-1000.000,-67.871,-1000.000,-1000.000
1630097046.606,-1000.000,-63.965,-1000.000,-1000.000
1630097046.610,162.109,-42.480,66.406,281.250
1630097046.614,-976.074,-35.645,921.387,855.469
1630097046.618,-446.777,-55.176,-501.953,-694.336
1630097046.622,-1000.000,-50.293,-1000.000,-1000.000
1630097046.626,-208.008,-32.227,-192.383,-188.477
1630097046.630,-848.633,-37.109,-874.512,-872.070
1630097046.633,150.391,-51.270,60.059,-18.066
1630097046.637,-1000.000,-54.199,-1000.000,-1000.000
1630097046.641,-404.297,-40.039,-489.258,-297.852
1630097046.645,-876.465,-36.133,-935.059,-854.004
1630097046.649,248.535,-49.316,265.625,245.605
1630097046.652,-1000.000,-46.875,-1000.000,-1000.000
1630097046.656,-889.160,-51.270,-974.609,-785.156
1630097046.660,716.797,-52.246,544.434,858.887
1630097046.664,641.113,-48.340,606.934,490.723
1630097046.668,-927.246,-56.152,-898.926,-1000.000
1630097046.672,-1000.000,-52.246,-1000.000,-1000.000
1630097046.676,32.715,-41.504,-11.719,143.555
1630097046.679,-882.324,-44.434,965.820,977.539
1630097046.683,-242.188,-52.246,-385.742,-504.883
1630097046.687,-1000.000,-45.898,-1000.000,-1000.000
1630097046.691,-217.773,-48.828,-254.395,-203.125
1630097046.695,-838.379,-45.410,-878.418,-855.469
1630097046.696,244.629,-57.129,119.629,106.445
1630097046.700,-1000.000,-62.988,-1000.000,-1000.000
1630097046.704,-515.625,-50.293,-581.543,-413.086
1630097046.708,-910.645,-38.086,-990.234,-883.789
1630097046.712,312.012,-50.293,354.980,245.605
1630097046.716,-1000.000,-64.453,-1000.000,-1000.000
1630097046.720,-1000.000,-57.129,-1000.000,-949.707
1630097046.723,487.305,-26.855,307.617,629.883
1630097046.727,789.062,-16.602,730.469,614.746
1630097046.731,-784.668,-41.016,-766.113,-939.453
1630097046.735,-1000.000,-36.133,-1000.000,-1000.000
1630097046.739,-129.883,-28.320,-131.836,-29.785
1630097046.741,-855.957,-38.574,-955.078,-912.598
1630097046.745,-42.480,-51.758,-158.203,-263.672
1630097046.749,-1000.000,-47.363,-1000.000,-1000.000
1630097046.753,-228.516,-37.109,-341.309,-214.844
1630097046.757,-832.031,-28.809,-878.418,-841.797
1630097046.761,243.164,-37.109,244.141,229.492
1630097046.765,-1000.000,-45.898,-1000.000,-1000.000
1630097046.768,-653.809,-31.738,-825.684,-581.543
1630097046.772,-991.211,-24.902,771.973,-950.195
1630097046.776,430.664,-44.922,461.426,295.898
1630097046.780,-1000.000,-57.129,-1000.000,-1000.000
1630097046.784,-1000.000,-46.387,-1000.000,-1000.000
1630097046.786,235.840,-28.809,119.141,394.043
1630097046.790,967.773,-31.738,878.418,766.113
1630097046.794,-543.945,-46.387,-552.734,-805.664
1630097046.798,-1000.000,-48.340,-1000.000,-1000.000
1630097046.802,-205.566,-40.527,-200.195,-170.410
1630097046.806,-851.074,-35.156,-867.188,-872.070
1630097046.810,116.211,-41.016,86.426,-47.363
1630097046.813,-1000.000,-47.852,-1000.000,-1000.000
1630097046.817,-333.008,-41.016,-437.500,-259.277
1630097046.821,-852.051,-26.367,-902.832,-843.262
1630097046.825,244.141,-30.762,276.367,244.629
1630097046.829,-1000.000,-35.156,-1000.000,-1000.000
1630097046.831,-812.988,-33.691,-923.828,-718.262
1630097046.835,821.777,-32.715,614.746,936.523
1630097046.839,591.797,-41.992,614.746,418.945
1630097046.843,-954.590,-51.270,-882.812,-1000.000
1630097046.847,-1000.000,-49.805,-1000.000,-1000.000
1630097046.851,106.934,-40.039,55.664,226.074
1630097046.855,-923.828,-38.086,959.961,899.414
1630097046.858,-341.797,-43.457,-422.852,-632.812
1630097046.862,-1000.000,-46.875,-1000.000,-1000.000
1630097046.866,-211.914,-36.621,-210.449,-196.289
1630097046.870,-844.238,-27.344,-892.090,-868.164
1630097046.874,189.453,-43.945,41.504,25.879
1630097046.877,-1000.000,-52.246,-1000.000,-1000.000
1630097046.881,-458.008,-36.133,-586.914,-368.164
1630097046.885,-894.043,-26.367,985.840,-876.953
1630097046.889,250.488,-36.621,321.777,250.000
1630097046.893,-1000.000,-46.875,-1000.000,-1000.000
1630097046.897,-942.871,-47.363,-998.535,-860.840
1630097046.901,625.977,-25.879,482.422,763.672
1630097046.904,693.848,-33.203,673.340,534.180
1630097046.908,-877.441,-46.387,-817.871,-980.957
1630097046.912,-1000.000,-40.039,-1000.000,-1000.000
1630097046.916,-74.707,-38.086,-110.352,37.109
1630097046.920,-864.258,-42.480,-992.676,-969.238
1630097046.936,-133.789,-48.340,-236.328,-389.160
1630097046.940,-1000.000,-45.898,-1000.000,-1000.000
1630097046.944,-221.680,-39.551,-274.902,-208.496
1630097046.948,-834.961,-38.574,-870.117,-848.145
1630097046.952,244.629,-56.641,152.344,171.875
1630097046.956,-1000.000,-47.852,-1000.000,-1000.000
1630097046.960,-552.246,-27.344,-676.270,-479.004
1630097046.963,-926.270,-35.645,903.320,-904.297
1630097046.967,408.691,-52.246,506.348,277.344
1630097046.971,-1000.000,-43.945,-958.008,-1000.000
1630097046.975,-1000.000,-35.156,-1000.000,-1000.000
1630097046.979,354.004,-39.551,219.238,529.785
1630097046.980,882.812,-35.156,804.688,673.828
1630097046.984,-665.527,-44.922,-649.414,-892.578
1630097046.988,-1000.000,-52.246,-1000.000,-1000.000
1630097046.992,-190.430,-45.898,-167.969,-104.004
1630097046.996,-859.375,-42.480,-904.297,-888.672
1630097047.000,30.762,-51.270,-10.254,-164.062
1630097047.004,-1000.000,-49.805,-1000.000,-1000.000
1630097047.007,-262.207,-38.574,-431.152,-218.750
1630097047.011,-837.402,-31.250,-913.086,-837.891
1630097047.015,239.258,-35.156,284.180,237.793
1630097047.019,-1000.000,-39.551,-1000.000,-1000.000
1630097047.023,-771.484,-40.527,-955.566,-665.039
1630097047.026,878.418,-34.180,564.453,985.352
1630097047.030,527.832,-40.527,606.445,366.211
1630097047.034,-994.141,-53.711,-893.066,-1000.000
1630097047.038,-1000.000,-48.828,-1000.000,-1000.000
1630097047.042,151.367,-37.109,39.062,289.551
1630097047.046,-906.250,-33.691,-944.336,895.020
1630097047.050,-327.637,-44.922,-220.703,-644.531
1630097047.053,-1000.000,-54.199,-1000.000,-1000.000
1630097047.057,-206.543,-32.715,-199.219,-178.223
