timestamps,TP9,AF7,AF8,TP10
1630096287.683,-19.531,0.977,-53.223,-90.820
1630096287.687,-37.109,-27.832,-52.734,-520.996
1630096287.691,-38.574,-64.941,-20.020,-56.641
1630096287.695,2.441,-43.457,-20.508,398.926
1630096287.699,27.832,-50.781,-45.898,81.543
1630096287.703,22.949,-57.617,-52.246,-434.570
1630096287.707,-51.758,-57.129,-22.949,-190.430
1630096287.710,-51.758,-26.855,-6.348,359.863
1630096287.714,31.738,14.648,-20.996,310.547
1630096287.718,7.324,-57.617,-55.176,-293.457
1630096287.722,-25.879,-93.750,-20.508,-398.926
1630096287.726,-24.902,-51.758,6.836,214.844
1630096287.726,-24.902,-51.758,6.836,214.844
1630096287.728,-46.387,-29.297,-17.578,362.305
1630096287.732,-68.359,-31.250,-53.223,-161.621
1630096287.736,-48.828,-42.969,-51.270,-497.070
1630096287.740,-0.977,-16.602,-6.348,65.430
1630096287.744,-21.973,-14.160,-19.531,450.684
1630096287.748,-66.406,-38.574,-64.941,40.527
1630096287.752,-40.039,-65.430,-53.711,-462.402
1630096287.755,10.254,18.555,12.695,-21.973
1630096287.759,17.090,99.121,29.785,489.258
1630096287.763,-11.719,-28.809,-27.832,168.945
1630096287.767,-32.227,-83.008,-62.988,-443.359
1630096287.771,-28.320,-62.988,-33.203,-327.148
1630096287.772,7.812,-59.082,-21.973,302.734
1630096287.776,2.930,-56.152,-44.434,356.934
1630096287.780,-36.621,-47.852,-56.152,-251.465
1630096287.784,-36.133,-44.434,-28.320,-410.645
1630096287.788,-32.227,-34.668,-15.625,226.562
1630096287.792,-24.902,-41.016,-45.898,381.348
1630096287.796,-5.859,-46.387,-65.430,-136.230
1630096287.799,-20.996,51.758,-33.203,-442.383
1630096287.803,-26.367,29.785,-13.672,15.625
1630096287.807,-13.184,-57.129,-17.578,336.426
1630096287.811,-5.859,-40.527,-28.320,16.113
1630096287.815,-16.602,-39.062,-40.527,-474.121
1630096287.817,-9.766,-59.570,-16.113,-114.746
1630096287.821,-9.277,-86.914,-24.414,378.418
1630096287.825,-27.832,-76.172,-36.621,189.453
1630096287.829,-38.086,-50.293,-43.457,-372.070
1630096287.833,-41.504,-37.109,-23.438,-335.449
1630096287.837,-45.898,-41.504,-14.160,312.988
1630096287.841,-20.508,18.066,-21.484,405.762
1630096287.844,-6.348,60.547,-30.273,-208.496
1630096287.848,-29.297,-38.086,-41.016,-499.023
1630096287.852,-19.043,-59.570,-31.250,119.141
1630096287.856,-21.484,-29.297,-12.695,425.781
1630096287.860,-39.062,-51.270,-35.645,-91.309
1630096287.862,-24.902,-71.777,-62.500,-554.688
1630096287.866,-27.344,-62.012,-13.672,-24.414
1630096287.870,-14.160,-62.500,-5.371,442.383
1630096287.874,-24.902,-64.941,-51.270,122.559
1630096287.878,-73.242,-68.359,-69.336,-504.883
1630096287.882,-33.203,-30.762,-27.344,-192.871
1630096287.886,-0.488,48.340,-5.371,451.660
1630096287.889,-16.113,13.184,-35.156,232.910
1630096287.893,-62.988,-59.570,-67.383,-445.801
1630096287.897,-83.496,-43.945,-27.344,-408.203
1630096287.901,-21.484,-29.297,-4.883,317.871
1630096287.905,-11.719,-70.312,-49.316,387.207
1630096287.923,-44.434,-79.102,-91.309,-251.465
1630096287.927,-45.410,-63.477,-58.594,-503.418
1630096287.931,-33.203,-64.941,-17.578,149.902
1630096287.935,-46.387,-61.523,-34.180,433.105
1630096287.939,-56.641,-57.129,-56.641,-78.125
1630096287.943,-50.781,-17.090,-37.109,-495.117
1630096287.947,-44.434,-5.859,-0.488,-6.348
1630096287.950,-29.297,-35.645,-15.625,430.176
1630096287.954,-28.809,-62.988,-61.523,69.824
1630096287.958,1.465,13.184,-50.293,-494.629
1630096287.962,6.348,41.016,7.324,-199.707
1630096287.966,-20.996,-46.875,-3.418,386.719
1630096287.973,-27.344,-33.691,-38.574,298.340
1630096287.977,-34.668,-10.742,-59.570,-343.750
1630096287.981,-55.176,-44.434,-42.969,-455.566
1630096287.985,-34.668,-66.406,-35.645,216.309
1630096287.989,-16.113,-41.504,-26.855,415.039
1630096287.993,-36.133,-37.109,-28.809,-151.367
1630096287.997,-54.688,-48.340,-28.809,-497.070
1630096288.000,-46.387,-49.316,-6.348,82.031
1630096288.004,-10.742,-21.973,-3.418,456.543
1630096288.008,-25.879,8.301,-28.320,-3.418
1630096288.012,-49.805,-33.203,-34.180,-576.660
1630096288.016,-35.156,-44.922,-6.836,-131.836
1630096288.013,-55.176,-25.391,-25.879,444.824
1630096288.017,-52.734,-35.645,-59.570,165.527
1630096288.021,-39.062,-49.316,-60.059,-485.352
1630096288.025,-24.414,-56.641,-16.113,-282.227
1630096288.029,-7.812,-7.324,-6.348,388.672
1630096288.033,-34.180,2.930,-36.621,339.844
1630096288.037,-37.109,-43.457,-56.152,-283.691
1630096288.040,-20.020,-67.383,-29.785,-392.090
1630096288.044,-14.648,-4.883,11.719,259.766
1630096288.048,-24.414,54.688,-3.906,384.766
1630096288.052,-53.711,-39.551,-67.383,-228.027
1630096288.056,-75.684,-67.871,-56.152,-599.121
1630096288.058,-43.457,-49.805,-19.043,12.207
1630096288.062,-20.508,-53.223,-36.621,418.457
1630096288.066,-40.527,-47.363,-64.453,17.578
1630096288.070,-52.246,-43.457,-53.711,-500.977
1630096288.074,-43.457,-49.316,-8.789,-140.625
1630096288.078,-32.715,-45.410,-15.137,446.777
1630096288.082,-56.152,-61.035,-54.688,262.695
1630096288.085,-40.039,-41.016,-54.199,-413.574
1630096288.089,5.859,64.453,10.254,-289.551
1630096288.093,-15.137,5.859,4.883,340.332
1630096288.097,-25.391,-77.148,-41.016,330.078
1630096288.101,-16.602,-50.781,-55.664,-282.715
1630096288.102,-21.484,-56.641,-29.785,-484.863
1630096288.106,-34.668,-61.035,-20.996,167.969
1630096288.110,-68.359,-44.434,-43.945,413.574
1630096288.114,-59.570,-38.086,-61.035,-124.023
1630096288.118,-58.105,-41.504,-41.992,-541.504
1630096288.122,-56.152,-45.898,-14.160,23.926
1630096288.126,-58.594,-68.848,-32.227,458.008
1630096288.129,-39.551,-20.020,-50.781,89.844
1630096288.133,-9.277,25.879,-34.668,-477.051
1630096288.137,-38.574,-34.180,0.000,-174.316
1630096288.141,-33.691,-57.617,-10.254,414.551
1630096288.145,-33.203,-41.016,-50.293,236.328
1630096288.147,-26.367,-49.805,-61.523,-426.758
1630096288.151,-26.367,-62.988,-20.508,-365.234
1630096288.155,-45.898,-50.781,-0.488,317.871
1630096288.159,-30.762,-56.152,-14.160,367.676
1630096288.163,-42.480,-65.918,-54.688,-266.113
1630096288.167,-44.922,-73.242,-54.199,-519.531
1630096288.171,-18.555,-40.039,-24.414,156.738
1630096288.174,-23.926,33.691,-35.645,438.965
1630096288.178,-23.926,-8.301,-66.895,-89.355
1630096288.182,-20.508,-38.086,-50.293,-559.570
1630096288.186,-36.133,-21.973,-8.789,-59.082
1630096288.190,-37.598,-36.133,-31.250,414.551
1630096288.207,-33.203,-47.852,-59.082,126.953
1630096288.211,-37.109,-58.105,-58.105,-484.863
1630096288.215,5.371,-8.301,-10.742,-235.840
1630096288.219,1.953,1.953,-1.953,405.762
1630096288.223,-33.691,-54.199,-30.273,309.570
1630096288.227,-42.480,-77.148,-49.316,-329.590
1630096288.231,-32.715,16.113,-2.441,-362.793
1630096288.234,-13.184,86.914,30.762,316.895
1630096288.238,-28.320,-35.645,-17.578,384.766
1630096288.242,-66.895,-90.332,-78.125,-256.348
1630096288.246,-83.008,-59.570,-77.148,-592.773
1630096288.250,-51.758,-34.180,-35.645,53.711
1630096288.237,-11.230,-31.250,-37.109,479.980
1630096288.241,-35.645,-46.875,-56.152,-0.977
1630096288.245,-69.824,-55.664,-46.387,-573.242
1630096288.249,-50.293,-49.316,-2.930,-90.332
1630096288.253,-49.316,-62.500,-3.418,454.102
1630096288.257,-61.035,-44.434,-42.969,159.668
1630096288.261,-50.781,-2.930,-54.688,-494.141
1630096288.264,-60.547,-43.457,-23.926,-294.922
1630096288.268,-65.918,-71.289,-8.789,375.977
1630096288.272,-37.598,-19.531,-23.926,296.875
1630096288.276,-41.016,17.578,-44.434,-354.492
1630096288.280,-61.035,-67.383,-23.926,-471.191
1630096288.297,-28.320,-84.473,1.953,202.637
1630096288.301,-21.484,-60.059,-22.461,400.391
1630096288.305,-42.480,-63.965,-58.594,-152.344
1630096288.309,-37.598,-60.547,-35.156,-553.223
1630096288.313,-27.832,-60.059,2.441,29.297
1630096288.317,-37.598,-2.930,-8.789,470.215
1630096288.321,-43.457,10.254,-41.992,46.387
1630096288.324,-37.109,-44.434,-56.152,-523.438
1630096288.328,-51.758,-70.801,-47.363,-170.898
1630096288.332,-15.625,18.066,-18.555,378.418
1630096288.336,-5.371,83.984,-2.441,198.242
1630096288.340,-57.129,-28.320,-36.133,-471.191
1630096288.342,-48.828,-62.988,-12.695,-370.117
1630096288.346,-27.832,-41.016,-1.465,296.387
1630096288.350,-47.363,-41.504,-25.391,336.426
1630096288.354,-38.574,-59.570,-47.363,-272.461
1630096288.358,-17.578,-66.895,-15.137,-456.543
1630096288.362,-15.625,-59.082,5.371,209.961
1630096288.366,-28.320,-57.617,-25.879,410.645
1630096288.369,-24.902,-90.820,-68.359,-189.941
1630096288.373,-31.250,-59.570,-45.898,-583.008
1630096288.377,-15.625,40.527,3.906,75.195
1630096288.381,-31.250,10.254,-24.414,485.840
1630096288.385,-58.594,-40.527,-58.105,-4.395
1630096288.389,-37.598,-9.766,-52.734,-586.914
1630096288.393,-35.645,-8.789,-12.207,-221.680
1630096288.397,-57.617,-55.176,-15.625,351.074
1630096288.401,-49.805,-55.176,-40.527,180.176
1630096288.405,-26.367,-57.617,-62.012,-464.844
1630096288.409,-35.156,-57.129,-32.715,-383.301
1630096288.413,-38.574,-56.152,-12.695,349.609
1630096288.416,-28.320,-76.660,-54.688,370.605
1630096288.420,-14.648,-10.254,-61.523,-259.277
1630096288.424,-14.160,40.039,-13.184,-503.906
1630096288.428,-24.902,-45.410,-10.742,112.305
1630096288.432,-25.391,-52.246,-37.109,376.953
1630096288.434,-38.086,-33.691,-62.500,-121.582
1630096288.438,-50.293,-47.363,-62.012,-570.312
1630096288.442,-52.246,-59.082,-30.762,-93.262
1630096288.446,-46.875,-61.523,-31.250,392.090
1630096288.450,-46.875,-49.805,-57.129,75.684
1630096288.454,-64.941,-62.500,-56.152,-500.977
1630096288.458,-30.762,-64.941,-16.602,-195.312
1630096288.461,-15.137,-31.738,-21.484,408.691
1630096288.465,-23.438,45.410,-39.062,279.785
1630096288.469,-41.016,-1.953,-57.129,-383.789
1630096288.473,-49.805,-71.777,-37.109,-406.738
1630096288.477,-21.973,-51.758,-6.348,270.020
1630096288.477,-4.395,-48.340,-19.531,371.094
1630096288.481,-7.324,-68.359,-64.941,-204.590
1630096288.485,-46.875,-80.078,-66.406,-498.047
1630096288.489,-78.125,-58.105,-26.367,103.516
1630096288.493,-84.473,-41.504,-33.691,369.629
1630096288.497,-51.758,-30.762,-62.500,-72.754
1630096288.501,-61.523,-58.594,-62.500,-483.398
1630096288.504,-38.574,21.973,-5.859,-40.039
1630096288.508,14.160,172.852,24.414,424.316
1630096288.512,-45.410,37.109,-42.969,72.754
1630096288.516,-77.148,-96.680,-75.195,-520.020
1630096288.520,-65.918,-73.242,-20.020,-294.922
1630096288.522,-52.734,-60.547,-17.578,303.711
1630096288.526,-28.809,-46.387,-50.293,211.914
1630096288.530,-47.363,-28.320,-64.453,-354.004
1630096288.534,-40.527,-33.203,-41.504,-373.047
1630096288.538,-4.883,-59.082,-21.973,212.891
1630096288.542,-34.180,-75.684,-55.664,304.199
1630096288.546,-54.688,-47.363,-91.309,-185.059
1630096288.549,-23.438,89.355,-33.691,-415.527
1630096288.553,-23.926,49.805,-4.883,51.758
1630096288.557,-67.871,-64.453,-42.969,292.969
1630096288.561,-89.844,-52.246,-62.988,-55.664
1630096288.565,-62.988,-58.105,-57.617,-481.445
1630096288.567,-35.156,-61.523,-11.230,-123.535
1630096288.571,-53.223,-52.246,-11.230,352.051
1630096288.575,-77.637,-53.711,-55.176,105.469
1630096288.579,-67.871,-66.406,-69.336,-428.711
1630096288.583,-53.223,-56.641,-25.879,-292.480
1630096288.587,-50.781,-74.707,-30.273,266.602
1630096288.591,-13.184,6.348,-50.781,321.777
1630096288.594,25.391,111.328,-33.203,-181.152
1630096288.598,-24.902,-10.254,-15.137,-399.902
1630096288.602,-47.852,-71.289,-16.602,101.562
1630096288.606,-30.273,-44.922,-40.527,296.387
1630096288.610,-49.805,-60.059,-77.148,-166.504
1630096288.612,-25.879,-60.059,-51.270,-437.500
1630096288.616,-25.879,-42.969,-7.812,49.805
1630096288.620,-41.992,-22.949,-17.090,377.930
1630096288.624,-45.410,-38.574,-53.223,10.254
1630096288.628,-53.711,-63.965,-75.684,-496.582
1630096288.632,-24.414,-36.133,-25.879,-137.207
1630096288.636,-24.414,31.250,1.465,401.367
1630096288.639,-57.129,-11.230,-38.574,172.363
1630096288.643,-82.031,-69.824,-72.266,-420.410
1630096288.647,-48.828,-53.711,-31.738,-327.637
1630096288.651,-15.137,-58.105,-4.883,246.582
1630096288.655,-49.805,-78.613,-32.227,274.902
1630096288.659,-55.176,-84.961,-61.523,-229.004
1630096288.663,-38.574,-37.598,-23.438,-381.348
1630096288.667,-58.105,-13.672,10.742,133.789
1630096288.671,-57.129,-62.988,-21.973,326.172
1630096288.675,-51.270,-79.102,-68.359,-99.121
1630096288.679,-47.363,-52.246,-62.012,-453.125
1630096288.683,-15.625,-33.691,-26.367,16.602
1630096288.686,-41.992,-40.527,-33.691,371.094
1630096288.690,-72.754,-74.219,-72.754,8.301
1630096288.694,-46.875,14.160,-55.176,-462.402
1630096288.698,-31.738,90.820,6.836,-139.160
1630096288.702,-66.406,-38.086,-20.996,311.035
1630096288.717,-73.242,-76.172,-56.152,168.457
1630096288.721,-46.387,-60.547,-58.105,-321.777
1630096288.725,-31.250,-54.199,-25.879,-308.105
1630096288.729,-27.832,-55.176,-31.250,258.789
1630096288.733,-18.066,-36.621,-59.570,333.496
1630096288.737,-43.457,-1.465,-61.523,-145.020
1630096288.741,-52.734,-50.293,-41.016,-389.160
1630096288.744,-37.598,-103.027,-18.555,64.453
1630096288.748,-51.758,-56.152,-23.926,339.844
1630096288.752,-40.527,17.090,-51.758,-62.012
1630096288.756,-33.691,-22.949,-62.988,-463.379
1630096288.760,-22.461,-46.875,-25.391,-62.988
1630096288.762,-34.180,-35.645,-22.461,330.078
1630096288.766,-38.086,-44.922,-52.734,106.445
1630096288.770,-40.039,-54.199,-67.871,-395.020
1630096288.774,-56.641,-66.406,-22.949,-169.922
1630096288.778,-38.574,-70.801,-7.812,363.281
1630096288.782,-47.363,-57.617,-46.387,236.816
1630096288.786,-60.547,-46.875,-58.594,-259.277
1630096288.789,-39.551,-67.383,-27.832,-295.898
1630096288.793,4.883,-18.066,-5.859,254.883
1630096288.797,15.137,55.176,-9.766,411.621
1630096288.801,-15.625,-17.090,-61.523,-138.672
1630096288.805,-37.109,-57.617,-71.289,-442.383
1630096288.807,-25.391,-32.227,-34.668,88.379
1630096288.811,-14.648,-48.340,-18.066,373.047
1630096288.815,-30.762,-63.965,-31.738,5.859
1630096288.819,-36.621,-37.598,-41.992,-395.996
1630096288.823,-41.504,-37.598,-15.137,-80.566
1630096288.827,-36.133,-46.875,-21.973,327.148
1630096288.831,-31.250,-53.223,-66.406,105.469
1630096288.834,-31.738,-44.434,-58.594,-383.789
1630096288.838,0.977,12.207,2.441,-184.570
1630096288.842,-15.625,-18.555,-13.672,284.668
1630096288.846,-57.617,-59.082,-57.129,190.918
1630096288.850,-27.344,-12.695,-72.754,-257.324
1630096288.852,-2.930,0.977,-54.688,-306.641
1630096288.856,-12.207,-53.711,-39.551,183.105
1630096288.860,-28.320,-62.500,-40.527,289.062
1630096288.864,-40.527,-50.293,-43.945,-139.648
1630096288.868,-49.316,-42.480,-25.879,-419.922
1630096288.872,-53.711,-45.898,-3.906,12.695
1630096288.876,-24.902,-63.965,-19.531,331.055
1630096288.879,-29.785,11.230,-26.855,29.785
1630096288.883,-27.344,69.824,-14.160,-367.676
1630096288.887,-36.621,-37.598,-24.902,-132.324
1630096288.891,-55.664,-61.523,-41.016,253.906
1630096288.895,-71.289,-41.504,-53.223,87.891
1630096288.898,-40.527,-44.922,-58.594,-342.773
1630096288.902,-20.996,-52.246,-24.902,-238.770
1630096288.906,-42.969,-44.922,-17.578,217.285
1630096288.910,-34.180,-19.531,-41.504,257.324
1630096288.914,-37.598,-40.039,-61.035,-215.332
1630096288.918,-55.176,-64.453,-25.391,-350.586
1630096288.922,-37.109,-26.367,1.953,152.344
1630096288.925,-15.625,20.996,-13.184,325.684
1630096288.929,-35.156,-38.574,-62.988,-100.098
1630096288.933,-41.992,-61.035,-67.383,-431.641
1630096288.937,-40.039,-42.480,-21.484,2.441
1630096288.941,-59.082,-52.246,-18.066,295.410
1630096288.942,-50.293,-64.453,-46.875,-20.508
1630096288.946,-38.086,-69.336,-58.594,-434.082
1630096288.950,-15.625,-52.246,-27.344,-145.996
1630096288.954,-9.277,-42.480,-22.461,312.988
1630096288.958,-21.973,-43.945,-41.016,202.637
1630096288.962,-42.969,-58.105,-54.199,-291.504
1630096288.966,-19.043,21.973,-6.836,-230.469
1630096288.969,33.691,155.762,31.250,343.750
1630096288.973,-5.371,43.457,-18.066,298.340
1630096288.977,-46.387,-81.055,-60.059,-246.094
1630096288.981,-58.594,-66.406,-43.945,-421.875
1630096288.985,-38.086,-64.453,-21.484,72.754
1630096288.988,-39.551,-59.082,-35.645,304.199
1630096288.992,-55.176,-50.781,-68.359,-79.590
1630096288.996,-45.410,-60.547,-62.012,-426.270
1630096289.000,-44.434,-77.637,-32.715,-24.414
1630096289.004,-47.852,-80.566,-36.621,301.270
1630096289.008,-56.641,-49.316,-55.664,24.902
1630096289.012,-54.688,29.297,-45.410,-357.910
1630096289.015,-46.875,14.160,-20.020,-144.531
1630096289.019,-55.176,-60.059,-35.645,228.516
1630096289.023,-40.527,-23.438,-43.457,142.578
1630096289.027,-30.273,6.348,-47.363,-296.387
1630096289.031,-44.922,-60.547,-35.156,-341.309
1630096289.048,-26.855,-69.824,-27.344,180.176
1630096289.052,-11.230,-50.781,-49.805,267.578
1630096289.056,-35.156,-50.781,-77.637,-181.152
1630096289.060,-45.410,-63.477,-62.012,-403.809
1630096289.064,-39.551,-69.336,-26.367,39.062
1630096289.068,-46.387,-27.344,-22.461,316.406
1630096289.072,-66.895,-19.043,-40.039,-9.277
1630096289.075,-71.289,-55.664,-44.434,-431.152
1630096289.079,-51.758,-72.266,-18.555,-122.559
1630096289.083,-0.977,28.320,-4.395,333.984
1630096289.087,-21.484,83.496,-28.320,152.832
1630096289.091,-76.660,-43.945,-69.336,-398.438
1630096289.093,-21.484,-59.082,-26.855,-222.168
1630096289.097,-26.855,-39.062,-13.184,283.691
1630096289.101,-59.570,-55.664,-39.551,199.707
1630096289.105,-44.434,-65.918,-58.594,-294.922
1630096289.109,-26.855,-58.105,-36.621,-355.469
1630096289.113,-20.996,-58.105,-9.277,193.359
1630096289.117,-17.578,-66.406,-35.645,311.035
1630096289.120,-25.391,-66.895,-72.266,-166.504
1630096289.124,-26.855,-31.250,-44.434,-401.855
1630096289.128,-23.438,23.438,-9.277,53.711
1630096289.132,-52.246,-23.926,-27.344,290.527
1630096289.136,-39.062,-67.383,-46.875,-21.484
1630096289.138,-25.391,-65.918,-47.363,-420.898
1630096289.142,-47.852,-54.199,-23.438,-107.422
1630096289.146,-33.203,-43.457,-33.691,284.668
1630096289.150,-22.949,-44.434,-71.289,76.172
1630096289.154,-39.062,8.301,-59.570,-364.258
1630096289.158,-34.668,4.883,-7.812,-250.000
1630096289.162,-45.898,-58.105,-3.418,236.328
1630096289.165,-61.523,-89.844,-34.180,193.848
1630096289.169,-41.504,13.184,-41.992,-274.414
1630096289.173,-14.648,107.910,-11.230,-327.148
1630096289.177,-13.184,-11.230,-19.043,155.273
1630096289.181,-33.691,-63.477,-40.527,307.129
1630096289.183,-48.828,-68.848,-59.570,-128.906
1630096289.187,-38.574,-65.430,-51.270,-419.922
1630096289.191,-38.574,-56.641,-28.809,-10.254
1630096289.195,-58.105,-38.574,-22.949,284.180
1630096289.199,-57.617,-32.227,-42.969,0.977
1630096289.203,-51.270,-51.758,-56.152,-414.062
1630096289.207,-51.758,-64.941,-26.367,-165.527
1630096289.210,-17.578,-36.133,-24.902,254.883
1630096289.214,-13.672,59.570,-29.297,153.320
1630096289.218,-69.336,-11.719,-47.363,-335.938
1630096289.222,-62.988,-96.191,-30.273,-284.668
1630096289.226,-43.457,-67.871,-20.508,226.074
1630096289.228,-57.617,-60.059,-48.828,228.027
1630096289.232,-51.758,-56.152,-63.965,-244.141
1630096289.236,-33.203,-46.875,-33.203,-378.418
1630096289.240,-19.043,-51.270,-10.742,117.676
1630096289.244,-26.367,-44.434,-25.879,314.941
1630096289.248,-30.762,-39.551,-54.199,-91.309
1630096289.252,-39.062,-66.895,-48.340,-408.691
1630096289.255,-25.879,-29.785,-15.137,39.062
1630096289.259,-14.160,43.457,-24.902,349.121
1630096289.263,-33.691,-22.949,-65.430,23.438
1630096289.267,-37.598,-69.336,-74.707,-417.969
1630096289.271,-60.059,-59.570,-24.902,-201.660
1630096289.272,-52.246,-67.871,-8.301,233.887
1630096289.276,-50.781,-71.289,-37.598,122.559
1630096289.280,-47.852,-59.570,-57.129,-347.168
1630096289.284,-43.945,-55.176,-30.273,-316.406
1630096289.288,-41.992,-63.477,-19.531,242.188
1630096289.292,-27.832,-50.781,-39.551,307.617
1630096289.296,-8.789,-26.367,-60.059,-189.453
1630096289.299,-0.488,12.207,-36.133,-364.258
1630096289.303,-21.973,-10.742,-25.391,135.254
1630096289.307,-36.621,-62.012,-48.828,304.688
1630096289.311,-37.598,-35.156,-58.594,-79.102
1630096289.315,-45.898,-16.113,-47.363,-432.129
1630096289.317,-48.828,-67.871,-27.344,-75.195
1630096289.321,-36.621,-74.707,-31.738,318.848
1630096289.325,-21.484,-62.012,-49.805,87.891
1630096289.329,-31.738,-51.758,-64.453,-400.879
1630096289.333,-39.551,-36.621,-18.555,-229.492
1630096289.337,-39.551,-57.129,-14.648,267.090
1630096289.341,-48.828,2.930,-36.621,221.191
1630096289.344,-26.367,77.637,-28.320,-244.141
1630096289.348,-33.203,-20.996,-18.555,-337.402
1630096289.352,-48.828,-75.195,-17.090,161.621
1630096289.356,-41.016,-58.594,-41.016,286.133
1630096289.360,-43.457,-44.922,-75.195,-176.758
1630096289.366,-24.902,-53.711,-67.383,-385.742
1630096289.370,15.137,-51.758,-33.203,181.641
1630096289.374,-15.625,-20.996,-27.344,376.953
1630096289.378,-64.941,-38.086,-42.969,-103.516
1630096289.382,-64.453,-54.199,-41.016,-461.426
1630096289.386,-29.297,-32.715,-19.531,-43.945
1630096289.390,-22.949,23.926,-26.367,354.004
1630096289.393,-74.219,-6.348,-62.988,43.457
1630096289.397,-75.195,-68.848,-63.965,-423.340
1630096289.401,-55.176,-63.477,-13.184,-277.344
1630096289.405,-60.547,-59.570,-12.695,219.727
1630096289.409,-65.918,-62.988,-41.504,196.289
1630096289.407,-83.008,-56.641,-61.035,-327.148
1630096289.411,-71.777,-35.645,-27.832,-418.945
1630096289.415,-48.828,-28.320,-6.836,137.695
1630096289.419,-33.691,-30.762,-29.785,322.754
1630096289.423,-54.199,-59.570,-57.617,-136.719
1630096289.427,-53.223,6.348,-43.457,-397.949
1630096289.431,-16.602,79.590,-7.812,92.285
1630096289.434,-30.762,-22.949,-19.531,330.566
1630096289.438,-49.316,-75.684,-52.734,-72.754
1630096289.442,-44.434,-5.371,-41.992,-519.531
1630096289.446,-21.973,14.648,4.395,-172.363
1630096289.450,-27.832,-45.410,-10.742,267.578
1630096289.467,-45.410,-66.895,-40.039,73.730
1630096289.471,-49.805,-72.754,-52.246,-404.785
1630096289.475,-33.203,-65.430,-25.391,-307.129
1630096289.479,-39.551,-72.266,-6.836,250.488
1630096289.483,-42.480,-47.852,-30.273,252.930
1630096289.487,-47.852,-15.137,-66.895,-250.000
1630096289.491,-51.758,-27.344,-53.711,-408.203
1630096289.494,-14.648,-47.852,-28.809,80.566
1630096289.498,-7.812,-16.113,-33.203,291.992
1630096289.502,-34.180,61.035,-41.992,-75.195
1630096289.506,-56.152,-19.531,-45.898,-480.957
1630096289.510,-50.293,-81.055,-19.043,-94.727
1630096289.512,-22.949,-51.270,-22.461,312.500
1630096289.516,-30.762,-47.363,-54.199,39.062
1630096289.520,-53.711,-61.523,-61.035,-429.688
1630096289.524,-35.645,-66.895,-10.254,-213.379
1630096289.528,-7.812,-53.711,-1.465,303.223
1630096289.532,-14.648,-41.992,-35.156,251.953
1630096289.536,-54.199,-42.969,-64.453,-299.805
1630096289.539,-48.828,-81.055,-36.133,-335.938
1630096289.543,11.230,16.113,2.930,268.066
1630096289.547,4.395,112.305,-1.465,344.238
1630096289.551,-33.203,-6.836,-31.250,-212.891
1630096289.555,-41.016,-51.758,-16.602,-456.055
1630096289.573,-30.762,-16.602,6.348,89.355
1630096289.577,-20.996,-30.273,-14.160,380.371
1630096289.581,-62.012,-72.266,-52.734,-44.922
1630096289.585,-63.477,-75.195,-50.781,-469.727
1630096289.589,-49.805,-61.035,-8.301,-64.453
1630096289.593,-25.391,-51.270,-15.137,356.445
1630096289.597,-21.973,-73.242,-63.965,113.770
1630096289.600,-50.781,-51.270,-65.918,-402.832
1630096289.604,0.488,17.090,1.465,-180.176
1630096289.608,6.348,-38.574,-12.695,340.332
1630096289.612,-54.688,-80.078,-55.176,218.750
1630096289.616,-60.059,-51.270,-53.711,-291.992
1630096289.604,-43.945,-47.363,-21.973,-343.750
1630096289.608,-57.129,-50.293,-14.160,183.105
1630096289.612,-66.895,-53.223,-34.180,312.988
1630096289.616,-53.223,-52.734,-60.547,-179.199
1630096289.620,-52.734,-42.480,-44.922,-437.012
1630096289.624,-28.320,-35.156,-14.160,123.535
1630096289.628,-28.320,-37.598,-35.156,418.457
1630096289.631,-67.871,-57.129,-63.477,0.000
1630096289.635,-75.684,-66.895,-52.246,-470.703
1630096289.639,-29.297,-47.852,-6.348,-60.059
1630096289.643,-29.297,-69.824,-15.625,412.109
1630096289.647,-56.641,-4.395,-36.133,187.500
1630096289.647,-49.805,91.309,-28.809,-338.379
1630096289.651,-33.691,3.906,-14.648,-273.926
1630096289.655,-16.113,-69.824,-20.996,292.480
1630096289.659,-28.809,-71.289,-45.410,311.523
1630096289.663,-49.316,-62.500,-78.613,-280.762
1630096289.667,-46.875,-57.129,-45.410,-388.672
1630096289.671,-38.574,-48.828,-21.973,202.148
1630096289.674,-21.484,32.227,-28.320,380.859
1630096289.678,-44.922,1.953,-46.387,-112.793
1630096289.682,-75.684,-76.172,-37.109,-501.953
1630096289.686,-53.711,-60.547,-6.348,18.555
1630096289.690,-21.484,-58.105,-19.043,377.441
1630096289.692,-17.090,-70.801,-47.852,-27.832
1630096289.696,-23.438,-80.078,-57.617,-520.508
1630096289.700,-39.062,-66.406,-19.531,-206.055
1630096289.704,-53.223,-59.082,-16.602,308.594
1630096289.708,-59.570,-62.500,-59.570,183.105
1630096289.712,-59.082,-68.359,-83.008,-410.156
1630096289.716,-28.809,4.883,-35.645,-309.570
1630096289.719,-7.812,68.359,-9.766,328.613
1630096289.723,-40.527,-25.879,-39.062,308.105
1630096289.727,-59.570,-70.312,-68.848,-295.898
1630096289.731,-42.969,-24.414,-27.344,-467.773
1630096289.735,-23.926,-21.973,-3.906,154.297
1630096289.737,-20.996,-55.176,-43.457,385.742
1630096289.741,-27.832,-61.035,-63.965,-50.781
1630096289.745,-39.062,-53.223,-33.691,-442.871
1630096289.749,-28.809,-42.969,7.324,-22.461
1630096289.753,-13.184,-50.293,-12.695,393.555
1630096289.757,-36.133,-40.527,-51.758,106.934
1630096289.761,-41.016,17.090,-49.316,-369.141
1630096289.764,-28.320,-17.578,-29.297,-159.668
1630096289.768,-40.039,-59.570,-36.133,328.613
1630096289.772,-45.898,-45.898,-59.082,214.355
1630096289.776,-60.547,-48.828,-67.871,-318.848
1630096289.780,-49.805,-40.527,-18.555,-297.852
1630096289.783,-68.848,-58.594,0.488,247.559
1630096289.787,-67.871,-46.387,-22.461,304.199
1630096289.791,-30.762,-17.090,-46.387,-182.129
1630096289.795,-56.152,-33.691,-35.156,-377.441
1630096289.799,-53.711,-44.434,-21.973,111.328
1630096289.803,-51.270,-20.508,-23.438,385.254
1630096289.807,-49.316,-19.531,-30.273,29.785
1630096289.810,-64.941,-63.477,-36.133,-415.039
1630096289.814,-63.477,-77.637,-28.809,-54.688
1630096289.818,-30.762,12.207,-40.039,319.824
1630096289.822,-38.086,33.691,-50.781,94.727
1630096289.826,-41.992,-51.758,-52.734,-356.445
1630096289.842,-26.855,-50.293,-12.695,-207.031
1630096289.846,-44.434,-46.387,-23.438,279.785
1630096289.850,-35.645,-46.387,-50.293,195.801
1630096289.854,-28.320,-43.945,-68.359,-334.961
1630096289.858,-43.945,-31.250,-40.039,-344.727
1630096289.862,-28.320,-3.906,-7.324,224.121
1630096289.866,-34.180,-19.531,-40.527,277.344
1630096289.869,-45.410,-67.871,-73.730,-196.777
1630096289.873,-29.297,-45.898,-41.504,-384.766
1630096289.877,-11.719,19.531,1.465,96.191
1630096289.881,-26.855,-12.695,-19.043,311.523
1630096289.885,-63.965,-48.340,-62.500,-77.637
1630096289.888,-61.035,-56.641,-54.688,-419.434
1630096289.892,-19.531,-66.895,-8.301,-58.105
1630096289.896,-1.953,-54.199,-16.602,280.762
1630096289.900,-27.832,-37.598,-59.082,65.918
1630096289.904,-74.707,-3.418,-62.500,-338.867
1630096289.908,-48.828,4.883,-0.488,-196.777
1630096289.912,-26.367,-29.785,-0.488,263.672
1630096289.915,-40.527,-61.523,-48.828,196.777
1630096289.919,-51.758,-13.184,-56.152,-278.809
1630096289.923,-36.621,42.969,-9.277,-314.453
1630096289.927,-14.648,-55.664,-11.719,140.137
1630096289.931,-47.363,-84.961,-43.457,182.617
1630096289.932,-64.453,-55.664,-58.105,-216.309
1630096289.936,-39.551,-48.340,-39.551,-423.340
1630096289.940,-40.039,-41.504,-3.418,-4.395
1630096289.944,-48.340,-46.875,-19.531,259.277
1630096289.948,-53.223,-54.199,-69.824,-73.730
1630096289.952,-29.785,-41.016,-60.059,-421.387
1630096289.956,-16.602,-41.016,-6.348,-98.633
1630096289.959,-31.738,-39.551,0.000,297.363
1630096289.963,-37.109,35.156,-9.766,112.793
1630096289.967,-24.902,1.465,-36.133,-372.070
1630096289.971,-8.301,-72.754,-14.648,-267.090
1630096289.975,-30.762,-65.918,-1.953,192.383
1630096289.977,-50.293,-66.406,-29.297,165.527
1630096289.981,-68.848,-68.848,-61.035,-285.156
1630096289.985,-67.871,-57.617,-39.551,-405.762
1630096289.989,-61.035,-39.551,-9.766,93.750
1630096289.993,-21.973,-33.691,-22.949,291.016
1630096289.997,5.371,-40.039,-58.594,-108.887
1630096290.001,-46.875,-54.199,-58.105,-429.688
1630096290.004,-49.316,15.625,-12.695,-11.230
1630096290.008,-14.648,78.125,-15.137,320.312
1630096290.012,-34.180,-9.766,-53.711,-25.879
1630096290.016,-60.547,-40.039,-45.410,-436.035
1630096290.020,-32.227,-0.977,-2.441,-146.973
1630096290.023,-22.461,-14.160,-5.371,280.762
1630096290.027,-31.250,-57.617,-39.062,120.117
1630096290.031,-34.668,-60.059,-75.195,-354.004
1630096290.035,-34.180,-54.688,-47.852,-295.410
1630096290.039,-19.531,-54.688,-21.973,201.660
1630096290.043,-47.363,-65.430,-45.898,251.953
1630096290.047,-90.820,-44.922,-71.289,-257.324
1630096290.050,-48.828,27.832,-31.738,-439.941
1630096290.054,-23.926,-18.555,-12.207,76.172
1630096290.058,-52.734,-70.801,-43.457,279.785
1630096290.062,-56.152,-51.270,-64.941,-115.234
1630096290.066,-80.566,-34.180,-42.480,-471.680
1630096290.069,-56.641,-22.949,-6.836,-41.504
1630096290.073,-25.391,-47.363,-24.414,331.543
1630096290.077,-36.621,-4.883,-42.480,59.082
1630096290.081,-44.922,16.602,-46.875,-412.598
1630096290.085,-49.805,-28.320,-24.414,-221.191
1630096290.089,-46.387,-41.504,-33.691,264.160
1630096290.093,-28.320,17.578,-43.945,221.680
1630096290.096,-35.645,73.730,-44.434,-265.137
1630096290.100,-42.480,-28.809,-20.508,-350.098
1630096290.104,-28.320,-73.242,-7.324,158.691
1630096290.108,-26.855,-62.500,-49.805,247.559
1630096290.112,-48.828,-48.828,-84.961,-214.355
1630096290.112,-26.855,-30.762,-52.246,-447.754
1630096290.116,22.949,-37.109,-23.926,68.359
1630096290.120,-37.598,-57.129,-37.109,311.035
1630096290.124,-72.754,-45.898,-54.688,-108.887
1630096290.128,-47.363,-42.969,-47.852,-483.887
1630096290.132,-25.879,-46.387,-9.277,-63.477
1630096290.136,-5.371,72.754,-0.977,393.555
1630096290.139,-34.668,46.875,-43.945,116.699
1630096290.143,-59.570,-71.777,-75.195,-450.195
1630096290.147,-37.109,-55.176,-18.555,-280.762
1630096290.151,-22.949,-46.875,0.977,286.133
1630096290.155,-25.879,-61.035,-58.105,215.332
1630096290.172,-29.785,-63.477,-86.426,-347.656
1630096290.176,-30.762,-36.621,-24.414,-376.953
1630096290.180,-27.832,-41.504,-1.953,142.578
1630096290.184,-39.551,-60.547,-28.809,228.027
1630096290.188,-51.270,-63.477,-60.059,-250.977
1630096290.192,-44.434,-22.461,-54.199,-463.867
1630096290.196,-22.461,2.930,-16.113,116.699
1630096290.199,-20.508,-23.438,-24.414,368.164
1630096290.203,-22.461,-53.711,-69.824,-70.312
1630096290.207,-21.484,11.230,-50.293,-464.844
1630096290.211,-5.859,80.566,19.043,-74.707
1630096290.215,-22.461,-21.484,-4.883,310.547
1630096290.218,-48.340,-74.707,-37.109,85.938
1630096290.222,-31.738,-79.102,-43.457,-379.395
1630096290.226,-21.484,-70.312,-11.719,-276.855
1630096290.230,-35.645,-47.363,0.000,244.629
1630096290.234,-33.203,-42.969,-45.898,242.188
1630096290.238,-42.480,-46.387,-77.637,-254.883
1630096290.242,-28.320,-38.574,-26.855,-363.770
1630096290.245,-47.852,-62.012,8.301,149.902
1630096290.249,-35.645,-31.250,-15.625,323.242
1630096290.253,-2.441,55.664,-51.758,-92.773
1630096290.257,-46.387,-6.836,-38.086,-417.969
1630096290.261,-56.152,-72.754,-5.371,3.418
1630096290.262,-21.973,-18.555,-5.371,360.840
1630096290.266,-19.531,-11.230,-26.367,49.805
1630096290.270,-49.316,-75.684,-22.461,-419.922
1630096290.274,-6.348,-66.406,30.273,-99.609
1630096290.278,-10.254,-64.941,9.277,360.352
1630096290.282,-46.875,-76.660,-46.875,204.590
1630096290.286,-39.062,-63.477,-74.219,-300.293
1630096290.289,-56.641,-67.871,-35.645,-305.176
1630096290.293,-52.734,54.688,-8.301,229.980
1630096290.297,-33.691,157.715,-27.832,295.898
1630096290.301,-57.617,-3.418,-69.336,-249.512
1630096290.305,-41.016,-76.660,-40.527,-458.008
1630096290.308,-19.531,-67.383,3.906,86.426
1630096290.312,-39.551,-69.336,-7.812,329.590
1630096290.316,-68.359,-67.871,-47.363,-116.699
1630096290.320,-52.734,-60.059,-34.180,-514.648
1630096290.324,-9.766,-24.414,26.367,-20.508
1630096290.328,-5.371,-32.227,9.766,389.160
1630096290.332,-26.855,-52.734,-46.875,77.148
1630096290.335,-49.316,-27.832,-55.176,-420.410
1630096290.339,-17.578,45.410,1.953,-180.176
1630096290.343,-12.207,5.371,-8.789,325.684
1630096290.347,-37.109,-51.270,-59.082,207.520
1630096290.351,-45.898,-52.246,-83.008,-328.613
1630096290.353,-26.855,-62.500,-36.621,-330.078
1630096290.357,-37.598,-73.242,-4.883,218.262
1630096290.361,-45.410,-74.219,-34.180,300.781
1630096290.365,-14.648,-66.895,-63.965,-212.891
1630096290.369,-9.766,-55.664,-35.645,-449.707
1630096290.373,-20.508,-39.551,-2.930,103.027
1630096290.377,-25.391,-66.406,-18.555,358.398
1630096290.380,-30.762,12.695,-42.969,-54.688
1630096290.384,0.000,172.852,-14.160,-422.852
1630096290.388,-2.930,52.734,4.883,-62.012
1630096290.392,-43.945,-73.730,-22.949,304.199
1630096290.396,-55.176,-59.570,-54.688,24.902
1630096290.397,-34.668,-61.523,-66.895,-465.332
1630096290.401,-11.230,-66.406,-22.949,-260.742
1630096290.405,-23.438,-68.848,-22.461,288.574
1630096290.409,-38.574,-71.289,-52.734,213.379
1630096290.413,-59.570,-83.008,-61.523,-354.492
1630096290.417,-64.941,-89.844,-18.066,-373.535
1630096290.421,-32.715,-62.012,3.906,196.289
1630096290.424,-32.715,47.363,-14.160,312.988
1630096290.428,-44.922,15.625,-48.340,-157.227
1630096290.432,-41.504,-64.453,-32.715,-437.500
1630096290.436,-20.508,-23.438,13.672,57.617
1630096290.440,-9.766,-23.438,-3.418,356.445
1630096290.442,-41.504,-70.312,-60.059,-49.316
1630096290.446,-41.504,-69.336,-63.965,-499.023
1630096290.450,-15.137,-31.250,-25.879,-124.023
1630096290.454,-21.973,-36.621,-41.504,336.426
1630096290.458,-50.293,-62.012,-64.453,106.934
1630096290.462,-61.523,-81.055,-63.477,-410.156
1630096290.466,-32.715,9.277,1.465,-233.398
1630096290.469,-15.137,107.422,20.996,323.242
1630096290.473,-39.062,-10.742,-48.828,221.191
1630096290.477,-46.875,-66.406,-88.867,-329.102
1630096290.481,-41.504,-54.688,-36.133,-362.793
1630096290.485,-38.574,-73.242,-11.230,202.148
1630096290.488,-41.016,-86.426,-23.926,336.914
1630096290.492,-46.875,-77.637,-40.039,-134.277
1630096290.496,-45.410,-24.902,-37.598,-449.707
1630096290.500,-50.293,-10.254,-14.648,28.320
1630096290.504,-38.574,-49.805,-35.645,347.656
1630096290.508,-40.039,-47.363,-62.988,37.598
1630096290.512,-46.875,26.855,-52.734,-381.836
1630096290.515,-45.410,-3.418,-20.508,-100.098
1630096290.519,-37.109,-63.965,-19.531,380.859
1630096290.523,-19.531,-73.730,-34.180,244.141
1630096290.527,-54.688,-90.332,-56.152,-341.797
1630096290.531,-67.871,-74.219,-31.250,-304.199
1630096290.534,-30.762,-53.223,-16.113,281.250
1630096290.538,-20.508,-13.672,-29.297,345.703
1630096290.542,-37.598,-8.301,-62.500,-178.223
1630096290.546,-49.316,-40.527,-42.969,-366.699
1630096290.550,-49.316,-49.805,-9.277,177.734
1630096290.554,-42.969,-11.719,-29.297,398.926
1630096290.558,-65.430,-19.043,-62.012,-43.945
1630096290.561,-45.898,-78.613,-58.105,-445.312
1630096290.565,1.953,-71.777,-21.484,-5.371
1630096290.569,-21.484,34.180,-19.043,416.016
1630096290.573,-46.387,53.711,-46.875,116.211
1630096290.577,-57.617,-61.523,-60.059,-428.223
1630096290.593,-49.316,-56.641,-15.137,-192.871
1630096290.597,-29.785,-39.062,-25.391,338.379
1630096290.601,-20.996,-49.316,-58.594,226.562
1630096290.605,-29.785,-93.262,-75.684,-314.941
1630096290.609,-37.598,-68.848,-31.738,-288.574
1630096290.613,-46.387,30.762,-1.953,286.621
1630096290.617,-53.223,10.254,-34.668,309.082
1630096290.620,-62.012,-60.059,-65.430,-243.164
1630096290.624,-42.480,-27.832,-36.133,-419.922
1630096290.628,-22.949,24.414,0.000,111.816
1630096290.632,-30.273,-37.598,-30.273,349.609
1630096290.636,-40.039,-76.660,-80.078,-50.781
1630096290.637,-46.875,-60.547,-60.059,-430.664
1630096290.641,-35.156,-56.152,-8.301,-47.363
1630096290.645,-19.043,-61.035,-20.508,321.289
1630096290.649,-31.250,-69.336,-57.617,54.688
1630096290.653,-40.527,-65.918,-72.754,-432.129
1630096290.657,-27.344,-44.922,-25.879,-207.031
1630096290.661,-23.438,-38.574,-7.812,306.641
1630096290.664,-21.484,-60.547,-41.504,246.582
1630096290.668,-41.504,14.648,-76.660,-276.855
1630096290.672,-4.883,162.109,-11.230,-322.266
1630096290.676,9.766,47.852,21.973,217.773
1630096290.680,-37.598,-75.195,-21.973,262.695
1630096290.683,-41.504,-52.734,-55.176,-243.164
1630096290.687,-28.809,-50.293,-33.691,-457.031
1630096290.691,-21.973,-54.688,-10.254,52.734
1630096290.695,-38.086,-52.734,-36.621,314.941
1630096290.699,-42.969,-52.734,-65.918,-40.527
1630096290.703,-33.691,-61.523,-51.758,-392.090
1630096290.707,-23.438,-77.148,-12.695,-64.941
1630096290.710,-23.926,-54.199,-27.344,282.227
1630096290.714,-28.809,23.438,-59.082,105.469
1630096290.718,-31.250,-27.344,-71.777,-366.699
1630096290.722,-39.062,-96.680,-17.090,-248.535
1630096290.726,-36.133,-34.180,-1.953,254.395
1630096290.727,-23.926,13.672,-41.016,216.797
1630096290.731,-39.062,-40.527,-64.941,-279.297
1630096290.735,-62.500,-53.223,-27.344,-363.281
1630096290.739,-56.152,-39.062,-3.418,153.320
1630096290.743,-47.363,-44.922,-20.508,319.336
1630096290.747,-38.574,-44.922,-54.688,-114.746
1630096290.751,-29.297,-67.383,-43.945,-372.559
1630096290.754,-16.113,-0.488,11.719,115.234
1630096290.758,-28.809,75.195,-13.672,360.352
1630096290.762,-44.434,-24.902,-73.730,-44.922
1630096290.766,-42.969,-60.547,-72.266,-456.055
1630096290.770,-31.738,-55.664,-20.996,-133.301
1630096290.774,-20.020,-67.871,-2.930,319.824
1630096290.778,-8.301,-62.500,-28.320,145.996
1630096290.782,-29.297,-64.941,-65.918,-381.348
1630096290.786,-40.039,-49.805,-30.273,-298.340
1630096290.790,-4.395,-39.551,-9.766,239.746
1630096290.794,-24.902,-57.617,-41.992,265.137
1630096290.798,-59.570,-56.641,-71.289,-262.207
1630096290.801,-40.527,16.602,-42.480,-391.602
1630096290.805,-27.832,-13.672,-16.602,141.113
1630096290.809,-36.133,-69.824,-55.176,281.738
1630096290.813,-37.109,-60.059,-102.051,-167.969
1630096290.817,-30.273,-53.711,-72.754,-456.055
1630096290.817,-29.297,-54.199,-12.695,9.766
1630096290.821,-33.203,-53.223,-21.484,335.938
1630096290.825,-22.461,-45.898,-59.570,3.906
1630096290.829,-27.344,-58.594,-61.035,-476.562
1630096290.833,-29.297,-52.734,-20.996,-162.109
1630096290.837,-27.832,-56.641,-35.645,339.844
1630096290.841,-59.082,-11.719,-55.664,184.570
1630096290.844,-40.527,109.375,-55.664,-331.543
1630096290.848,15.625,42.480,-31.738,-285.645
1630096290.852,2.441,-76.172,-8.789,260.254
1630096290.856,-57.129,-68.848,-21.973,241.699
1630096290.860,-82.520,-66.406,-64.941,-263.184
1630096290.862,-53.711,-65.430,-33.691,-407.227
1630096290.866,-25.879,-54.199,3.906,134.766
1630096290.870,-37.598,-57.617,-28.809,330.566
1630096290.874,-80.566,-68.848,-55.176,-123.047
1630096290.878,-81.055,-81.543,-36.621,-468.262
1630096290.882,-39.551,-63.477,10.742,15.137
1630096290.886,-33.691,-0.488,5.371,428.711
1630096290.889,-53.223,-34.180,-41.504,104.004
1630096290.893,-58.105,-91.797,-63.477,-437.988
1630096290.897,-32.227,-37.109,-12.695,-214.355
1630096290.901,-23.438,3.906,9.766,330.078
1630096290.905,-76.660,-48.340,-33.691,215.820
1630096290.923,-79.102,-64.453,-63.477,-333.984
1630096290.927,-34.180,-57.129,-25.391,-354.980
1630096290.931,-24.902,-52.246,-5.859,262.207
1630096290.935,-33.691,-42.480,-32.227,339.844
1630096290.939,-55.176,-39.062,-59.082,-199.219
1630096290.943,-49.805,-29.785,-30.762,-414.551
1630096290.947,-19.531,-35.156,4.395,137.695
1630096290.950,-23.438,-60.059,-22.461,414.062
1630096290.954,-39.551,-98.145,-72.266,-32.227
1630096290.958,-42.969,10.742,-49.316,-473.633
1630096290.962,-17.578,104.492,22.461,-7.324
1630096290.966,-27.832,-41.016,-2.441,400.391
1630096290.967,-57.129,-83.496,-58.105,102.051
1630096290.971,-32.227,-25.391,-64.453,-439.941
1630096290.975,-23.438,-26.855,-8.301,-283.203
1630096290.979,-37.598,-53.711,0.000,299.316
1630096290.983,-34.180,-54.199,-33.691,301.270
1630096290.987,-48.828,-57.129,-59.570,-279.297
1630096290.991,-43.945,-61.035,-22.949,-408.203
1630096290.994,-33.691,-66.895,-1.465,210.449
1630096290.998,-29.297,-27.344,-30.273,368.652
1630096291.002,-34.180,39.062,-61.523,-128.906
1630096291.006,-41.504,-23.926,-41.992,-483.887
1630096291.010,-38.086,-63.965,0.488,1.465
1630096291.014,-14.160,-29.297,-26.855,379.395
1630096291.018,-8.789,-35.156,-73.730,44.434
1630096291.022,-42.480,-52.246,-73.242,-486.816
1630096291.026,-41.992,-48.340,-14.648,-155.762
1630096291.030,-17.578,-2.930,0.488,407.715
1630096291.034,-23.438,-0.977,-49.805,209.473
1630096291.038,-41.504,-30.762,-82.031,-412.598
1630096291.041,-55.176,-61.035,-39.551,-353.027
1630096291.045,-40.039,20.508,-5.371,301.270
1630096291.049,-26.367,111.816,-17.090,351.074
1630096291.053,-43.945,-28.809,-65.918,-269.531
1630096291.057,-41.504,-67.383,-38.086,-462.891
1630096291.057,-41.504,-34.668,0.488,137.695
1630096291.061,-48.340,-55.664,-33.203,355.957
1630096291.065,-50.781,-72.266,-80.078,-145.996
1630096291.069,-46.387,-59.082,-61.035,-517.090
1630096291.073,-28.809,-49.316,-4.395,20.020
1630096291.077,-20.996,-54.199,-11.230,464.844
1630096291.081,-55.176,-59.570,-59.570,75.684
1630096291.084,-67.871,-31.738,-60.059,-514.648
1630096291.088,-25.879,92.285,0.977,-155.273
1630096291.092,-26.367,36.133,-11.719,385.254
1630096291.096,-40.527,-86.914,-53.223,182.617
1630096291.100,-36.133,-41.504,-52.246,-382.324
1630096291.102,-5.859,-12.695,-12.207,-337.891
1630096291.106,-8.301,-33.203,-21.973,276.367
1630096291.110,-19.043,-51.758,-43.945,354.004
1630096291.114,-48.340,-67.871,-61.523,-231.934
1630096291.118,-54.688,-62.012,-40.039,-502.930
1630096291.122,-46.387,-36.621,-5.859,115.234
1630096291.126,-57.617,-62.988,-26.855,409.180
1630096291.129,-46.875,-1.953,-45.898,-47.852
1630096291.133,-10.254,135.254,-12.207,-446.777
1630096291.137,-18.555,38.086,17.578,-32.715
1630096291.141,-42.969,-64.453,-13.672,362.305
1630096291.145,-41.016,-43.945,-64.453,35.645
1630096291.148,-46.875,-53.711,-79.590,-531.250
1630096291.152,-39.551,-61.523,-18.555,-284.180
1630096291.156,-39.062,-44.434,-6.348,358.887
1630096291.160,-35.645,-35.156,-41.016,309.082
1630096291.164,-31.738,-38.086,-70.312,-353.027
1630096291.168,-41.504,-63.965,-43.457,-424.805
1630096291.172,-48.340,-58.105,-14.160,237.305
1630096291.175,-34.668,22.949,-28.320,366.699
1630096291.179,-22.949,-10.742,-64.453,-214.355
1630096291.183,-32.227,-82.031,-42.480,-516.602
1630096291.187,-27.832,-41.504,6.836,95.215
1630096291.191,-33.203,-10.254,-13.184,421.387
1630096291.193,-58.105,-62.988,-70.801,-93.262
1630096291.197,-74.219,-67.871,-59.570,-564.941
1630096291.201,-75.684,-42.969,-11.719,-81.543
1630096291.205,-41.504,-38.086,-41.504,372.559
1630096291.209,-28.320,-41.016,-66.895,90.820
1630096291.213,-64.941,-76.660,-68.848,-482.422
1630096291.217,-18.555,-9.277,-23.926,-270.020
1630096291.220,22.461,101.074,-4.883,382.324
1630096291.224,-54.688,-11.719,-48.340,272.949
1630096291.228,-76.660,-86.426,-70.312,-335.449
1630096291.232,-48.340,-58.105,-28.320,-417.480
1630096291.236,-55.176,-50.781,-16.113,178.223
1630096291.239,-65.430,-65.430,-69.336,326.660
1630096291.243,-53.711,-65.430,-96.191,-221.191
1630096291.247,-38.086,-26.367,-43.945,-520.020
1630096291.251,-30.273,-41.992,-2.930,79.102
1630096291.255,-13.184,-75.195,-28.809,414.551
1630096291.259,-22.461,-68.848,-64.941,-36.133
1630096291.263,-30.762,-39.062,-46.387,-500.488
1630096291.266,-2.441,-56.152,0.000,-109.863
1630096291.270,-19.531,-61.035,-26.367,375.977
1630096291.274,-53.223,-20.996,-70.312,138.672
1630096291.278,-39.062,-17.090,-79.590,-395.020
1630096291.282,-4.883,-34.180,-31.738,-266.602
1630096291.283,-10.254,-40.039,-28.809,297.852
1630096291.287,-44.434,-33.691,-49.805,286.133
1630096291.291,-55.176,-53.711,-58.594,-299.805
1630096291.295,-47.852,-79.102,-22.461,-455.566
1630096291.299,-23.438,-93.262,7.324,171.387
1630096291.303,-7.324,-9.277,-12.695,434.082
1630096291.307,-24.414,63.477,-50.293,-83.008
1630096291.310,-41.992,-33.203,-49.805,-525.879
1630096291.314,-34.180,-69.336,-9.766,-30.273
1630096291.318,-30.762,0.488,-18.066,404.297
1630096291.322,-36.621,1.953,-66.406,44.922
1630096291.326,-46.875,-66.895,-78.613,-555.176
1630096291.342,-42.969,-58.594,-38.574,-213.867
1630096291.346,-21.484,-45.410,-36.133,380.371
1630096291.350,-24.902,-50.293,-60.547,197.266
1630096291.354,-47.852,-59.082,-68.848,-439.453
1630096291.358,-42.969,-45.898,-6.836,-386.719
1630096291.362,-31.738,-24.414,12.207,278.320
1630096291.366,-52.734,-49.316,-23.438,337.402
1630096291.369,-55.664,-86.914,-56.152,-258.301
1630096291.373,-24.902,-52.246,-30.273,-479.004
1630096291.377,-24.902,60.059,0.977,126.465
1630096291.381,-24.414,13.672,-25.391,394.043
1630096291.385,-34.668,-60.547,-61.035,-107.910
1630096291.388,-45.898,-42.969,-53.223,-535.645
1630096291.392,-13.184,-37.598,-8.301,-28.809
1630096291.396,-3.906,-44.434,-14.160,400.391
1630096291.400,-11.230,-42.969,-64.941,71.777
1630096291.404,-26.855,-40.527,-81.543,-497.070
1630096291.408,9.766,-39.551,-47.852,-190.918
1630096291.412,45.410,-37.109,-24.414,464.355
1630096291.415,-26.855,-85.938,-24.902,297.363
1630096291.419,-67.383,-7.324,-29.297,-380.371
1630096291.423,-40.039,91.797,28.320,-380.859
1630096291.427,-55.664,-20.020,22.461,216.309
1630096291.431,-65.430,-83.008,-18.066,313.965
1630096291.433,-61.523,-47.852,-24.902,-201.172
1630096291.437,-72.266,-54.688,6.836,-510.254
1630096291.441,-62.012,-93.750,26.855,54.199
1630096291.445,-63.965,-90.820,-3.418,368.652
1630096291.449,-86.914,-86.426,-36.621,-107.422
1630096291.453,-46.875,-87.402,-26.367,-527.344
1630096291.457,-35.645,-111.816,11.230,-91.309
1630096291.460,-72.754,-78.613,-1.465,371.582
1630096291.464,-54.688,22.949,-48.828,144.043
1630096291.468,-41.016,-18.555,-64.453,-458.496
1630096291.472,-43.945,-71.777,5.371,-287.598
1630096291.476,-59.082,-64.941,20.996,314.453
1630096291.479,-69.824,-71.777,-18.555,232.422
1630096291.483,-60.547,-81.055,-41.016,-363.281
1630096291.487,-42.969,-92.285,-12.207,-425.293
1630096291.491,-43.945,-32.715,15.137,206.543
1630096291.495,-19.531,-10.254,-5.371,365.234
1630096291.499,-34.668,-44.434,-42.969,-178.223
1630096291.503,-74.219,-72.754,-34.180,-480.957
1630096291.506,-23.438,-0.488,21.973,103.516
1630096291.510,-7.324,98.145,34.180,444.336
1630096291.514,-51.270,-24.414,-33.691,-79.590
1630096291.518,-40.039,-67.871,-33.691,-541.504
1630096291.522,-7.812,-40.527,5.371,-99.121
1630096291.523,-36.133,-52.246,-16.602,373.047
1630096291.527,-47.363,-58.594,-45.410,123.047
1630096291.531,-49.316,-62.988,-47.363,-448.730
1630096291.535,-45.410,-56.152,-5.371,-304.688
1630096291.539,-28.320,-56.152,2.930,294.922
1630096291.543,-35.156,-70.312,-30.762,308.594
1630096291.547,-44.434,-73.242,-71.289,-280.273
1630096291.550,-35.156,29.297,-17.090,-419.922
1630096291.554,-16.602,14.160,18.066,187.500
1630096291.558,-14.648,-86.426,-33.203,346.680
1630096291.562,-38.086,-60.059,-67.871,-166.016
1630096291.566,-48.340,-37.109,-40.527,-533.203
1630096291.567,-33.691,-44.922,10.742,-0.977
1630096291.571,-2.930,-38.086,-8.789,416.992
1630096291.575,-12.695,-40.527,-57.129,26.855
1630096291.579,-40.527,-61.035,-58.105,-553.223
1630096291.583,-9.766,-56.152,0.488,-215.820
1630096291.587,-21.973,-64.941,-8.789,375.000
1630096291.591,-32.715,20.020,-41.016,230.469
1630096291.594,-16.113,117.188,-38.574,-322.754
1630096291.598,-24.902,-7.812,-2.930,-291.504
1630096291.602,-27.832,-78.613,2.930,269.043
1630096291.606,-31.738,-20.508,-33.203,313.477
1630096291.610,-39.551,-37.598,-68.359,-294.922
1630096291.612,-25.391,-86.914,-29.297,-496.582
1630096291.616,-21.484,-73.242,8.301,107.910
1630096291.620,-38.086,-60.059,-11.230,334.473
1630096291.624,-23.926,-60.059,-52.734,-143.066
1630096291.628,-16.602,-69.336,-56.641,-518.066
1630096291.632,-3.906,-47.852,-5.371,34.668
1630096291.636,2.441,25.879,-4.395,474.121
1630096291.639,-22.949,-14.648,-54.199,69.336
1630096291.643,-54.199,-81.543,-76.660,-552.246
1630096291.647,-51.758,-63.965,-25.879,-304.688
1630096291.651,-17.090,-55.664,-18.066,325.195
1630096291.655,1.465,-46.387,-50.781,285.645
1630096291.659,-27.344,-56.641,-68.359,-336.914
1630096291.663,-4.395,-23.926,-22.949,-365.234
1630096291.667,12.695,-16.113,-4.395,257.812
1630096291.671,-41.504,-71.777,-41.016,321.289
1630096291.675,-73.730,-76.172,-76.172,-242.676
1630096291.679,-56.152,0.488,-41.504,-448.730
1630096291.683,-37.109,19.043,4.883,147.949
1630096291.686,-62.500,-54.199,-22.461,362.305
1630096291.690,-43.457,-74.219,-71.289,-125.977
1630096291.694,-8.301,2.930,-48.340,-500.977
1630096291.698,-13.184,24.414,-12.207,-25.879
1630096291.702,-17.578,-64.941,-45.898,365.723
1630096291.719,-26.367,-54.199,-58.594,61.523
1630096291.723,-41.016,-47.852,-49.805,-469.727
1630096291.727,-29.785,-47.852,-5.859,-232.422
1630096291.731,-27.832,-57.617,-9.766,337.402
1630096291.735,-55.664,-57.129,-52.246,238.770
1630096291.739,-59.570,13.672,-67.383,-335.938
1630096291.743,-45.898,-13.672,-32.227,-396.484
1630096291.746,-39.062,-80.078,-11.719,173.340
1630096291.750,-32.227,-39.551,-21.484,333.984
1630096291.754,-54.688,-4.883,-54.688,-203.613
1630096291.758,-54.199,-33.691,-43.945,-505.371
1630096291.762,-20.996,-42.969,-8.789,67.383
1630096291.763,-25.391,-46.875,-22.461,371.582
1630096291.767,-47.363,-49.805,-59.082,-44.922
1630096291.771,-39.551,-46.875,-61.035,-495.117
1630096291.775,-32.715,-50.293,-11.719,-79.102
1630096291.779,-37.109,-57.617,-12.695,403.320
1630096291.783,-48.340,-43.945,-51.758,153.320
1630096291.787,-66.895,-30.273,-71.289,-419.434
1630096291.790,-58.594,-61.523,-32.227,-322.266
1630096291.794,-33.691,-8.789,-2.441,291.016
1630096291.798,-22.461,106.445,-8.789,333.008
1630096291.802,-43.945,19.531,-62.500,-327.148
1630096291.806,-62.012,-67.383,-52.246,-495.117
1630096291.807,-39.062,-53.223,-6.348,166.504
1630096291.811,-40.527,-54.688,-32.227,351.074
1630096291.815,-68.359,-60.547,-68.359,-151.367
1630096291.819,-74.707,-58.105,-39.062,-491.211
1630096291.823,-44.922,-40.527,0.488,29.785
1630096291.827,-41.016,-40.039,-14.160,425.293
1630096291.831,-45.410,-56.152,-55.176,18.066
1630096291.834,-50.781,-54.688,-62.012,-549.316
1630096291.838,-19.043,45.410,3.906,-136.230
1630096291.842,-15.137,14.160,-5.371,373.535
1630096291.846,-39.062,-79.102,-62.012,132.812
1630096291.850,-37.109,-49.805,-73.242,-418.457
1630096291.853,-60.059,-41.016,-46.387,-381.348
1630096291.857,-51.758,-44.434,-37.598,238.281
1630096291.861,-49.316,-51.270,-45.898,309.082
1630096291.865,-73.242,-56.152,-66.406,-299.805
1630096291.869,-48.340,-57.617,-33.203,-408.203
1630096291.873,-28.809,-54.688,-2.930,235.352
1630096291.877,-36.133,-60.547,-36.133,392.578
1630096291.880,-34.180,12.695,-53.711,-75.195
1630096291.884,-12.695,69.824,-18.555,-465.820
1630096291.888,-17.578,-30.762,0.977,-42.969
1630096291.892,-26.855,-69.336,-23.926,382.812
1630096291.896,-31.738,-41.016,-42.480,72.754
1630096291.897,-38.086,-63.965,-49.805,-510.254
1630096291.901,-42.480,-68.848,-8.301,-236.328
1630096291.905,-52.734,-38.086,-3.418,354.492
1630096291.909,-58.105,-42.480,-55.664,215.332
1630096291.913,-73.242,-52.734,-89.355,-417.480
1630096291.917,-70.801,-59.082,-40.527,-395.508
1630096291.921,-53.711,-37.598,-33.691,245.117
1630096291.924,-25.879,26.367,-45.410,344.238
1630096291.928,-37.598,-20.020,-56.641,-214.355
1630096291.932,-37.109,-70.801,-48.340,-484.375
1630096291.936,-6.348,-54.688,-20.508,104.492
1630096291.940,-19.531,-63.477,-34.668,381.836
1630096291.943,-45.898,-65.430,-56.641,-68.359
1630096291.947,-35.645,-71.777,-50.293,-508.789
1630096291.951,-18.066,-2.930,7.324,-29.785
1630096291.955,-39.062,21.484,1.953,436.035
1630096291.959,-70.801,-38.086,-62.500,59.082
1630096291.963,-80.078,-64.941,-67.383,-519.531
1630096291.967,-30.762,24.902,0.000,-208.984
1630096291.970,20.996,140.625,15.137,450.195
1630096291.974,-28.320,-0.977,-46.875,261.230
1630096291.978,-61.523,-79.102,-66.895,-406.250
1630096291.982,-43.945,-53.711,-17.578,-381.836
1630096291.986,-24.414,-71.777,-16.113,236.328
1630096291.988,-32.227,-78.613,-53.223,305.176
1630096291.992,-44.922,-64.453,-81.543,-230.469
1630096291.996,-33.691,-58.105,-44.922,-499.512
1630096292.000,-22.461,-49.805,2.930,98.145
1630096292.004,-28.809,-51.270,-11.230,446.289
1630096292.008,-50.781,-69.824,-61.035,-3.906
1630096292.012,-14.648,87.402,-32.227,-422.363
1630096292.015,6.348,92.773,26.855,-11.719
1630096292.019,-28.320,-67.871,-15.137,366.699
1630096292.023,-37.109,-49.316,-48.340,114.746
1630096292.027,-39.551,-48.828,-57.617,-437.500
1630096292.031,-7.324,-64.453,-13.672,-270.020
1630096292.032,0.977,-54.688,-11.230,356.934
1630096292.036,-47.852,-51.758,-54.688,271.973
1630096292.040,-38.086,-60.059,-69.824,-318.848
1630096292.044,-35.156,-63.965,-38.086,-395.508
1630096292.048,-28.320,-72.754,-17.090,202.148
1630096292.052,-4.395,17.090,-19.043,439.941
1630096292.056,-7.324,33.203,-47.363,-81.055
1630096292.059,-8.301,-62.012,-40.039,-511.719
1630096292.063,-11.230,-83.496,-6.348,18.066
1630096292.067,-0.488,41.504,-7.324,412.109
1630096292.071,-10.254,110.840,-29.297,27.832
1630096292.075,-48.828,-66.406,-51.758,-523.438
1630096292.097,-21.484,-79.102,-1.953,-173.340
1630096292.101,-8.789,-34.180,-6.348,362.793
1630096292.105,-29.297,-46.387,-55.664,192.871
1630096292.109,-43.945,-70.312,-83.984,-403.809
1630096292.113,-49.805,-64.453,-35.645,-323.242
1630096292.117,-27.344,-34.668,-2.930,332.031
1630096292.121,-28.320,-44.922,-39.062,345.703
1630096292.124,-30.273,-67.383,-69.336,-272.461
1630096292.128,-20.996,-15.137,-26.855,-453.613
1630096292.132,-16.113,51.758,15.625,147.949
1630096292.136,-41.016,-21.973,-9.766,405.762
1630096292.140,-54.199,-83.984,-66.406,-114.258
1630096292.137,-24.902,-29.785,-56.152,-527.832
1630096292.141,-31.738,-0.977,-7.812,-2.930
1630096292.145,-39.062,-60.059,-28.809,387.207
1630096292.149,-20.996,-64.941,-61.035,15.137
1630096292.153,-44.922,-53.711,-53.223,-489.258
1630096292.157,-32.227,-46.875,-0.977,-162.109
1630096292.161,-49.805,-44.434,-5.859,391.113
1630096292.164,-90.820,-78.125,-57.129,192.871
1630096292.168,-55.176,-4.395,-71.777,-411.133
1630096292.172,2.441,104.004,-5.371,-330.078
1630096292.176,-5.859,-5.371,3.906,252.930
1630096292.180,0.000,-59.082,-40.527,286.133
1630096292.183,-22.949,-49.805,-67.383,-250.488
1630096292.187,-43.945,-57.617,-33.203,-459.961
1630096292.191,4.883,-51.758,2.441,146.484
1630096292.195,-19.043,-46.875,-20.996,387.695
1630096292.199,-35.156,-8.301,-56.641,-116.211
1630096292.203,-40.527,-32.715,-43.457,-532.227
1630096292.207,-50.781,-77.148,-20.508,-77.637
1630096292.210,-27.344,-58.105,-28.320,380.371
1630096292.214,-21.484,23.926,-36.133,134.766
1630096292.218,-45.410,-14.160,-47.852,-464.355
1630096292.222,-32.715,-67.383,-9.277,-261.719
1630096292.226,-22.949,-40.527,1.465,354.004
1630096292.227,-41.992,-46.387,-28.809,260.254
1630096292.231,-60.059,-69.824,-57.617,-372.070
1630096292.235,-42.969,-61.523,-26.855,-383.789
1630096292.239,-21.973,-49.316,-22.949,242.188
1630096292.243,-44.434,-60.547,-57.129,304.199
1630096292.247,-27.832,-60.059,-57.617,-213.867
1630096292.251,-14.160,-62.988,-30.762,-456.543
1630096292.254,-33.203,15.625,-9.766,113.770
1630096292.258,-25.879,143.066,-22.461,412.109
1630096292.262,-42.969,38.574,-62.988,-86.426
1630096292.266,-56.152,-72.266,-56.641,-554.688
1630096292.270,-4.883,-51.270,-9.277,-67.871
1630096292.272,-19.043,-65.430,-26.855,389.648
1630096292.276,-61.523,-78.613,-64.941,66.406
1630096292.280,-54.199,-75.195,-66.895,-499.023
1630096292.284,-18.555,-75.195,-13.184,-291.504
1630096292.288,12.207,-64.941,-6.836,330.566
1630096292.292,-41.504,-59.570,-56.641,306.152
1630096292.296,-78.125,-57.129,-88.379,-310.547
1630096292.299,-21.484,1.465,-34.180,-395.996
1630096292.303,-13.184,-23.926,6.836,232.422
1630096292.307,-32.227,-82.031,-25.391,347.168
1630096292.311,-33.203,-44.922,-50.293,-167.969
1630096292.315,-34.180,-13.184,-18.555,-496.582
1630096292.318,-6.348,-49.316,6.348,26.855
1630096292.322,-23.438,-59.082,-21.973,418.457
1630096292.326,-63.965,-38.574,-68.848,1.465
1630096292.330,-52.734,-31.250,-82.031,-543.945
1630096292.334,-19.043,-37.109,-30.273,-167.480
1630096292.338,-18.555,-61.035,-13.184,394.531
1630096292.342,-35.156,-20.996,-36.621,205.078
1630096292.345,-35.645,33.203,-51.758,-435.547
1630096292.349,-50.293,-35.645,-9.277,-361.328
1630096292.353,-39.551,-59.570,-7.324,257.324
1630096292.357,-27.344,-47.363,-53.223,270.020
1630096292.361,-46.875,-48.828,-72.754,-274.902
1630096292.366,-44.434,-55.176,-30.273,-440.430
1630096292.370,-16.602,-79.102,-5.859,132.324
1630096292.374,-34.668,-47.363,-36.621,349.609
1630096292.378,-53.223,-23.926,-66.895,-140.137
1630096292.382,-39.551,-44.922,-37.598,-519.043
1630096292.386,-33.203,-39.062,4.883,2.441
1630096292.390,-27.344,4.395,-19.531,389.160
1630096292.393,-34.668,-22.461,-73.242,-21.484
1630096292.397,-77.148,-71.289,-76.172,-555.664
1630096292.401,-53.223,-67.383,-5.859,-220.703
1630096292.405,-9.277,-65.918,0.000,361.816
1630096292.409,-43.457,-62.988,-49.805,221.191
1630096292.423,-57.617,-62.500,-81.543,-413.086
1630096292.427,-50.781,-52.246,-26.367,-337.402
1630096292.431,-36.621,-41.992,-10.742,316.895
1630096292.435,-16.602,-46.387,-53.711,348.145
1630096292.439,-45.410,-70.312,-87.402,-257.812
1630096292.443,-2.930,-17.090,-28.809,-418.457
1630096292.447,41.504,27.832,20.020,248.047
1630096292.450,1.953,-31.250,-38.086,435.059
1630096292.454,-56.152,-47.852,-91.309,-178.223
1630096292.458,-94.727,-2.930,-53.223,-638.184
1630096292.462,-29.785,20.996,9.766,-48.828
1630096292.466,-24.902,-36.133,-21.973,378.418
1630096292.467,-98.633,-38.086,-81.543,-7.324
1630096292.471,-95.215,-31.738,-86.426,-584.473
1630096292.475,-93.262,-31.250,-24.414,-314.453
1630096292.479,-99.609,-30.762,-33.203,270.508
1630096292.483,-82.520,-45.410,-82.031,138.184
1630096292.487,-79.590,-53.223,-96.680,-441.406
1630096292.491,-68.359,-44.434,-48.340,-408.691
1630096292.494,-42.969,-30.273,-35.156,244.141
1630096292.498,-32.227,-2.441,-57.617,333.984
1630096292.502,-36.133,62.500,-64.453,-216.797
1630096292.506,-39.062,9.277,-43.945,-506.836
1630096292.510,-18.555,-52.734,-3.906,51.758
1630096292.512,-40.527,-31.250,-11.230,361.816
1630096292.516,-68.848,-13.184,-63.965,-77.637
1630096292.520,-52.246,-30.762,-72.266,-549.316
1630096292.524,-58.105,-62.988,-25.879,-114.746
1630096292.528,-70.312,-44.922,-29.785,372.070
1630096292.532,-51.270,-23.926,-59.570,112.305
1630096292.536,-37.109,-31.738,-79.590,-420.898
1630096292.539,-33.203,-49.316,-53.223,-259.766
1630096292.543,-32.715,0.488,-32.227,308.105
1630096292.547,14.648,106.934,-35.156,288.574
1630096292.551,14.160,44.434,-62.988,-353.516
1630096292.555,-42.969,-38.574,-32.227,-483.398
1630096292.557,-43.945,-44.434,-18.066,209.473
1630096292.561,-37.598,-50.293,-55.664,370.117
1630096292.565,-44.922,-40.039,-89.844,-230.469
1630096292.569,-44.434,-27.832,-59.082,-521.484
1630096292.573,-47.363,-20.508,-4.883,61.523
1630096292.577,-41.504,-33.203,-22.461,416.992
1630096292.581,-29.785,-43.457,-73.730,11.230
1630096292.584,-22.461,-43.945,-77.148,-524.902
1630096292.588,8.789,9.766,-8.789,-123.047
1630096292.592,-9.277,-6.348,-11.230,406.250
1630096292.596,-26.367,-74.219,-71.777,169.922
1630096292.600,-20.996,-42.969,-76.172,-434.082
1630096292.602,-25.391,-3.906,-14.648,-327.148
1630096292.606,-25.391,-41.992,-21.973,285.645
1630096292.610,-25.879,-42.969,-43.945,299.805
1630096292.614,-25.879,-29.785,-49.805,-268.555
1630096292.618,-45.898,-36.133,-22.949,-457.520
1630096292.622,-17.578,-35.156,7.324,160.156
1630096292.626,-3.418,-36.133,-23.926,427.246
1630096292.629,-35.645,-2.441,-46.875,-93.262
1630096292.633,-25.391,34.180,-8.789,-495.605
1630096292.637,-27.832,-19.043,-3.906,-38.574
1630096292.641,-46.875,-59.082,-38.574,332.520
1630096292.645,-68.848,-69.336,-69.824,-6.348
1630096292.647,-62.500,-66.406,-71.777,-529.785
1630096292.651,-40.039,-62.012,-24.414,-210.938
1630096292.655,-41.016,-59.570,-29.785,385.254
1630096292.659,-44.922,-36.133,-53.711,239.746
1630096292.663,-44.922,-37.598,-57.617,-407.715
1630096292.667,-45.410,-51.270,-11.719,-358.398
1630096292.671,-20.020,-32.227,9.277,300.781
1630096292.674,26.855,22.949,-8.301,373.047
1630096292.678,-20.508,-12.207,-47.852,-270.508
1630096292.682,-47.852,-58.594,-41.016,-509.766
1630096292.686,-35.645,-41.016,-13.672,144.531
1630096292.690,-59.570,-41.992,-20.996,404.297
1630096292.693,-34.668,-53.711,-55.176,-105.957
1630096292.697,-17.090,-54.688,-56.641,-546.387
1630096292.701,-19.043,-45.898,-18.555,-34.668
1630096292.705,-45.898,-52.246,-40.039,404.785
1630096292.709,-34.668,-50.781,-78.125,38.574
1630096292.713,-38.086,-59.570,-68.848,-483.887
1630096292.717,-37.109,-20.996,-10.254,-152.344
1630096292.720,-1.465,69.824,-3.906,447.266
1630096292.724,-14.648,16.602,-41.016,262.207
1630096292.728,-33.691,-58.105,-72.266,-420.898
1630096292.732,-12.695,-48.340,-24.902,-405.273
1630096292.736,18.066,-35.156,1.953,264.648
1630096292.736,18.066,-35.156,1.953,264.648
1630096292.737,-6.348,-31.250,-27.832,365.723
1630096292.741,-43.945,-34.668,-55.176,-170.410
1630096292.745,-16.113,-37.598,-49.316,-465.332
1630096292.749,-1.953,-34.180,-31.250,83.984
1630096292.753,-18.555,-42.480,-39.551,407.715
1630096292.757,-29.785,-58.594,-51.270,-16.113
1630096292.761,-44.434,-16.602,-49.805,-507.812
1630096292.764,-21.484,-10.742,-17.578,-128.906
1630096292.768,4.395,-38.086,-26.855,407.227
1630096292.772,-31.250,-22.461,-64.453,152.832
1630096292.776,-73.242,-8.301,-67.383,-501.465
1630096292.780,-44.922,-34.668,-13.672,-322.266
1630096292.783,-41.016,-41.992,0.488,320.801
1630096292.787,-35.156,-35.645,-34.668,278.809
1630096292.791,-9.766,-45.898,-71.289,-333.984
1630096292.795,-31.738,-54.199,-39.062,-375.488
1630096292.799,-43.945,-51.270,-14.648,269.043
1630096292.803,-28.809,-29.785,-30.273,432.129
1630096292.807,-33.203,-38.574,-56.152,-117.188
1630096292.810,-34.180,-68.848,-41.992,-497.559
1630096292.814,-29.785,-72.754,-17.090,6.348
1630096292.818,-32.227,1.465,-32.227,383.301
1630096292.822,-21.484,50.293,-56.152,15.625
1630096292.826,-42.969,-33.691,-64.941,-525.391
1630096292.842,-69.336,-71.777,-21.484,-130.859
1630096292.846,-32.227,-54.199,-18.555,385.254
1630096292.850,-8.789,-46.387,-64.453,131.836
1630096292.854,-35.645,-50.781,-90.820,-465.332
1630096292.858,-53.711,-35.645,-23.926,-284.180
1630096292.862,-24.902,-24.414,-2.930,357.422
1630096292.866,-19.043,-43.457,-37.109,320.801
1630096292.869,-36.621,-63.965,-57.617,-315.918
1630096292.873,-33.203,-47.363,-17.090,-460.938
1630096292.877,-32.227,-12.207,1.953,185.059
1630096292.881,-24.902,-26.855,-32.227,395.996
1630096292.885,-27.832,-42.480,-66.406,-131.348
1630096292.888,-20.508,-54.199,-43.945,-491.699
1630096292.892,-20.508,-49.316,-5.859,48.340
1630096292.896,-35.645,-36.621,-29.785,420.898
1630096292.900,-26.855,-53.223,-60.547,4.395
1630096292.904,-41.992,-36.133,-45.410,-537.598
1630096292.908,-48.828,-24.902,12.207,-137.695
1630096292.912,-9.766,-39.551,7.324,456.543
1630096292.915,-6.348,-50.781,-59.570,196.289
1630096292.919,-46.387,-3.906,-85.449,-478.027
1630096292.923,-40.039,51.758,-2.441,-377.441
1630096292.927,-29.785,-16.602,24.902,273.438
1630096292.931,-23.926,-51.270,-24.414,323.730
1630096292.932,-36.621,-59.082,-70.801,-245.117
1630096292.936,-42.480,-67.383,-37.598,-471.680
1630096292.940,-46.875,-65.918,5.859,106.445
1630096292.944,-45.898,-44.434,-6.836,397.949
1630096292.948,-66.406,-39.062,-46.875,-114.258
1630096292.952,-67.383,-50.293,-45.410,-549.805
1630096292.956,-36.621,-41.992,-8.301,1.953
1630096292.959,-26.855,-36.133,-32.227,420.898
1630096292.963,-45.410,45.898,-67.871,50.781
1630096292.967,-82.031,25.391,-60.059,-532.227
1630096292.971,-51.270,-57.129,-2.441,-236.816
1630096292.975,-19.043,-43.945,-1.953,386.230
1630096292.977,-20.020,-50.781,-43.945,240.234
1630096292.981,-45.410,-61.035,-57.617,-410.645
1630096292.985,-43.945,-49.805,-6.348,-407.715
1630096292.989,-11.719,-54.199,7.812,268.555
1630096292.993,-31.250,-60.059,-31.250,370.605
1630096292.997,-54.688,-47.363,-61.523,-224.121
1630096293.001,-36.621,-59.570,-35.645,-477.539
1630096293.004,-22.461,6.836,1.953,145.996
1630096293.008,-15.137,131.836,-13.672,460.449
1630096293.012,-19.531,27.832,-63.477,-56.641
1630096293.016,-38.086,-80.078,-49.316,-593.750
1630096293.020,-27.832,-42.969,9.766,-111.816
1630096293.023,-10.254,-39.551,-17.578,401.367
1630096293.027,-44.434,-70.801,-68.848,79.102
1630096293.031,-44.922,-75.684,-62.500,-506.836
1630096293.035,-17.578,-48.828,3.418,-239.746
1630096293.039,-30.273,-35.156,14.648,380.859
1630096293.043,-41.016,-44.434,-33.203,283.203
1630096293.047,-41.504,-47.852,-63.965,-321.777
1630096293.050,-18.066,0.488,-12.695,-377.930
1630096293.054,-18.066,-28.809,9.277,248.047
1630096293.058,-43.945,-60.547,-30.762,352.539
1630096293.062,-46.387,-29.785,-51.270,-203.613
1630096293.066,-46.387,-31.250,-21.484,-482.422
1630096293.068,-17.578,-39.062,0.488,115.234
1630096293.072,-21.973,-53.711,-15.625,445.312
1630096293.076,-45.410,-13.184,-40.039,9.277
1630096293.080,-41.992,16.113,-35.156,-505.859
1630096293.084,-20.020,-27.832,7.812,-118.652
1630096293.088,-5.859,-70.801,4.395,441.406
1630096293.092,-24.902,-4.395,-52.734,233.887
1630096293.095,-54.688,107.910,-76.660,-414.062
1630096293.099,-42.480,15.137,-17.090,-325.684
1630096293.103,-38.574,-45.898,-0.977,330.078
1630096293.107,-51.758,-44.434,-44.434,291.016
1630096293.111,-23.438,-40.039,-71.777,-346.680
1630096293.112,-18.555,-43.945,-29.297,-436.523
1630096293.116,-50.781,-70.801,4.883,196.777
1630096293.120,-61.035,-65.430,-20.020,396.484
1630096293.124,-55.664,-68.359,-69.824,-159.668
1630096293.128,-65.430,-71.289,-44.434,-562.012
1630096293.132,-43.457,-53.711,19.043,82.031
1630096293.136,-18.555,10.742,2.930,528.809
1630096293.139,-27.344,-2.930,-60.547,69.336
1630096293.143,-52.246,-68.848,-78.613,-547.852
1630096293.147,-34.180,-58.594,-19.531,-190.918
1630096293.151,-6.348,-51.758,-19.531,439.453
1630096293.155,-38.086,-48.340,-61.523,229.980
1630096293.158,-58.594,-50.293,-70.801,-425.293
1630096293.162,-16.113,-41.016,-11.719,-319.824
1630096293.166,-8.301,-40.039,1.465,313.965
1630096293.170,-32.715,-63.965,-40.527,321.289
1630096293.174,-38.574,-68.359,-73.730,-301.758
1630096293.178,-32.227,-15.625,-31.738,-466.797
1630096293.182,-19.531,0.977,0.977,221.680
1630096293.185,-2.441,-29.297,-41.992,467.773
1630096293.189,-5.859,-57.129,-76.172,-119.141
1630096293.193,-28.809,13.184,-46.387,-586.426
1630096293.197,-28.809,91.309,6.348,-20.020
1630096293.201,-38.086,-16.602,-11.719,428.711
1630096293.217,-47.852,-62.988,-63.965,49.316
1630096293.221,-41.016,-67.383,-73.730,-532.227
1630096293.225,-21.973,-64.941,-14.160,-231.445
1630096293.229,-4.395,-62.988,-20.508,374.023
1630096293.233,-12.207,-62.500,-74.219,223.633
1630096293.237,-54.688,-40.039,-88.379,-409.180
1630096293.241,-44.434,-46.387,-36.621,-400.391
1630096293.244,-22.461,-63.965,-13.184,231.934
1630096293.248,-18.066,-42.969,-29.297,346.680
1630096293.252,-22.949,42.480,-56.641,-216.309
1630096293.256,-59.082,-0.977,-41.992,-510.742
1630096293.260,-56.152,-68.359,-15.137,80.078
1630096293.263,-44.922,-68.848,-37.109,402.832
1630096293.267,-33.691,-66.895,-68.848,-93.750
1630096293.271,-44.922,-50.293,-52.734,-568.359
1630096293.275,-34.668,-50.293,-5.371,-51.758
1630096293.279,2.441,-62.988,-20.508,459.473
1630096293.283,-26.367,-64.941,-57.617,134.277
1630096293.287,-59.570,-58.594,-63.477,-463.867
1630096293.290,-56.152,-71.289,-25.391,-254.883
1630096293.294,-58.594,6.348,-24.414,345.703
1630096293.298,-45.898,83.496,-49.316,255.859
1630096293.302,-62.500,-18.066,-82.031,-402.344
1630096293.306,-58.105,-57.617,-35.645,-435.059
1630096293.307,-16.602,-13.184,-4.395,277.832
1630096293.311,-9.766,-20.508,-44.434,411.621
1630096293.315,-14.648,-64.941,-81.055,-199.219
1630096293.319,-11.719,-75.684,-51.758,-540.527
1630096293.323,-26.367,-52.246,-5.371,70.801
1630096293.327,-56.152,-44.922,-28.320,446.777
1630096293.331,-63.477,-76.660,-73.730,-7.324
1630096293.334,-60.059,-65.918,-70.312,-543.945
1630096293.338,-54.688,20.020,-11.230,-104.004
1630096293.342,-34.668,-1.465,-10.254,448.730
1630096293.346,-19.043,-53.711,-48.828,187.500
1630096293.350,-25.879,-47.363,-60.547,-455.078
1630096293.352,-46.387,-47.363,-4.883,-327.637
1630096293.356,-64.941,-53.711,-0.977,324.707
1630096293.360,-53.223,-59.082,-46.387,322.754
1630096293.364,-28.809,-11.230,-90.332,-341.309
1630096293.368,10.254,11.719,-45.898,-469.727
1630096293.372,-17.090,-35.156,-0.977,260.254
1630096293.376,-48.828,-58.594,-32.227,438.965
1630096293.379,-57.129,-14.160,-64.453,-151.855
1630096293.383,-72.754,37.109,-50.293,-544.434
1630096293.387,-19.043,-16.602,5.859,35.156
1630096293.391,-8.301,-63.477,-4.883,462.891
1630096293.395,-48.828,-69.336,-43.457,-11.719
1630096293.398,-46.387,-55.176,-36.133,-604.004
1630096293.402,-26.367,-42.480,12.695,-186.035
1630096293.406,-25.391,-37.598,16.602,430.664
1630096293.410,-34.668,-48.828,-46.387,229.004
1630096293.414,-83.496,-52.246,-81.543,-444.824
1630096293.418,-74.707,-54.199,-9.277,-333.984
1630096293.422,-29.297,-66.406,17.090,357.910
1630096293.425,-23.926,12.207,-37.109,352.539
1630096293.429,-37.598,19.043,-69.824,-347.168
1630096293.433,-30.762,-51.270,-17.578,-559.570
1630096293.437,-6.836,-33.691,27.344,187.012
1630096293.441,-7.812,-45.410,-1.953,467.773
1630096293.442,-26.855,-76.660,-61.035,-140.137
1630096293.446,-51.270,-75.684,-54.688,-627.441
1630096293.450,-25.879,-55.664,3.418,-18.066
1630096293.454,-12.695,-51.270,-4.883,517.578
1630096293.458,-35.156,-53.711,-51.758,94.727
1630096293.462,-48.828,-73.730,-56.152,-556.152
1630096293.466,-39.062,-9.277,-11.230,-192.871
1630096293.469,-32.715,86.914,-20.020,439.941
1630096293.473,-21.484,-7.812,-52.734,268.555
1630096293.477,-55.176,-68.848,-60.059,-425.293
1630096293.481,-31.738,-18.555,-8.789,-430.176
1630096293.485,9.766,-30.273,16.113,295.410
1630096293.488,-17.578,-59.082,-17.578,424.316
1630096293.492,-41.992,-50.781,-57.129,-231.934
1630096293.496,-53.711,-42.480,-30.762,-544.434
1630096293.500,-23.438,-36.621,-5.371,142.090
1630096293.504,-31.250,-51.758,-20.996,460.449
1630096293.508,-59.082,-60.547,-55.664,-81.543
1630096293.512,-57.617,0.977,-60.059,-579.590
1630096293.515,-26.367,-8.301,-3.906,-82.520
1630096293.519,-20.020,-63.965,-14.648,434.082
1630096293.523,-40.527,-68.848,-66.895,124.023
1630096293.527,-50.781,-66.406,-69.824,-469.238
1630096293.531,-24.414,-37.598,2.441,-236.328
1630096293.534,-16.113,-41.016,20.996,404.297
1630096293.538,-48.340,-25.879,-40.527,294.434
1630096293.542,-50.293,-5.371,-79.102,-405.273
1630096293.546,-17.578,-32.227,-25.879,-441.895
1630096293.550,-22.949,-50.781,0.000,263.672
1630096293.554,-50.781,-2.441,-30.762,397.461
1630096293.558,-74.707,16.113,-58.105,-196.289
1630096293.561,-50.781,-50.293,-34.180,-516.602
1630096293.565,-12.695,-63.965,-3.906,79.102
1630096293.569,-27.832,6.348,-33.203,423.340
1630096293.573,-39.551,21.484,-80.078,-42.969
1630096293.577,-44.434,-53.223,-68.359,-565.430
1630096293.593,-36.133,-49.316,-0.488,-109.863
1630096293.597,-22.949,-54.199,6.836,428.711
1630096293.601,-24.414,-59.570,-39.551,149.902
1630096293.605,-28.320,-65.430,-65.918,-478.516
1630096293.609,-32.227,-58.105,-9.766,-305.664
1630096293.613,-21.484,12.207,9.277,389.648
1630096293.617,-26.855,-8.301,-38.574,343.750
1630096293.620,-83.008,-82.031,-74.219,-350.586
1630096293.624,-67.871,-53.711,-37.598,-480.957
1630096293.628,-20.996,-20.020,-16.602,184.082
1630096293.632,-30.273,-53.223,-36.133,384.766
1630096293.636,-43.945,-71.777,-64.941,-175.781
1630096293.637,-21.973,-45.410,-37.598,-518.555
1630096293.641,0.000,-21.484,19.043,80.566
1630096293.645,-5.859,-34.180,-1.953,445.801
1630096293.649,-20.508,-48.828,-56.641,-15.625
1630096293.653,-30.273,-43.457,-58.594,-508.789
1630096293.657,-27.344,-35.645,-1.953,-115.723
1630096293.661,-6.348,-33.203,9.766,424.805
1630096293.664,-32.715,-39.551,-31.250,212.891
1630096293.668,-89.844,-19.531,-67.383,-438.965
1630096293.672,-52.246,51.270,-41.504,-331.055
1630096293.676,-3.906,13.672,-27.832,296.387
1630096293.680,-39.062,-56.152,-44.922,267.578
1630096293.683,-62.012,-61.035,-70.312,-330.078
1630096293.687,-25.879,-58.594,-21.484,-428.711
1630096293.691,-5.371,-55.176,18.555,219.238
1630096293.695,-28.809,-57.617,-24.414,387.207
1630096293.699,-70.312,-59.570,-67.871,-176.270
1630096293.703,-56.152,-51.270,-44.922,-504.395
1630096293.707,-28.320,-38.574,-11.719,34.180
1630096293.710,-38.086,-30.762,-27.344,375.977
1630096293.714,-44.434,10.742,-63.477,18.066
1630096293.718,-41.504,-19.531,-60.547,-521.973
1630096293.722,-26.855,-69.336,0.000,-182.617
1630096293.726,-17.090,-24.414,-16.602,387.207
1630096293.727,-44.922,4.883,-55.176,187.500
1630096293.731,-56.152,-38.574,-49.805,-400.391
1630096293.735,-32.715,-49.316,2.930,-325.684
1630096293.739,-32.227,-49.316,18.555,299.805
1630096293.743,-29.297,-40.039,-23.438,320.312
1630096293.747,-21.484,-24.902,-62.988,-248.535
1630096293.751,-25.879,-48.828,-44.922,-435.547
1630096293.754,-33.203,-27.344,-25.391,138.672
1630096293.758,-38.086,30.762,-29.785,360.840
1630096293.762,-27.344,-9.766,-41.992,-100.098
1630096293.766,-38.574,-41.016,-36.133,-529.297
1630096293.770,-34.180,-32.227,-0.488,-78.613
1630096293.773,-27.832,-44.434,-9.277,346.191
1630096293.777,-40.527,-54.199,-49.316,28.320
1630096293.781,-31.250,-56.641,-60.059,-494.141
1630096293.785,-33.691,-29.297,-8.301,-261.230
1630096293.789,-25.391,-22.949,1.953,298.340
1630096293.793,-30.273,-37.598,-37.598,226.074
1630096293.797,-40.039,-40.527,-71.289,-335.449
1630096293.800,-18.066,-27.832,-41.992,-447.266
1630096293.804,-28.809,-40.039,-17.090,135.742
1630096293.808,-37.109,-58.105,-24.902,291.504
1630096293.812,-34.180,-45.410,-54.199,-256.836
1630096293.816,-40.527,-37.598,-45.410,-529.297
1630096293.818,-17.578,-36.621,-11.230,52.734
1630096293.822,-11.719,-52.734,-19.531,358.887
1630096293.826,-43.457,-41.016,-51.758,-67.383
1630096293.830,-29.297,-37.109,-41.016,-520.508
1630096293.834,0.977,-48.828,9.766,-125.488
1630096293.838,-4.883,-44.434,1.953,385.742
1630096293.842,-12.207,-5.859,-54.688,140.625
1630096293.845,-47.363,55.176,-75.195,-467.773
1630096293.849,-44.434,-0.977,-6.348,-309.570
1630096293.853,13.672,-55.176,11.719,320.801
1630096293.857,-3.906,-48.828,-35.645,301.758
1630096293.861,-20.996,-58.105,-72.266,-315.918
1630096293.862,1.465,-70.312,-19.043,-406.250
1630096293.866,-18.066,-57.617,13.184,212.402
1630096293.870,-26.367,-32.715,-21.484,360.352
1630096293.874,-37.598,-40.039,-57.129,-188.965
1630096293.878,-31.738,-58.594,-42.969,-547.363
1630096293.882,-24.902,-49.316,-3.906,-4.395
1630096293.886,-43.945,24.902,-19.531,384.277
1630096293.889,-39.062,1.465,-63.965,-69.336
1630096293.893,-34.180,-70.801,-61.523,-622.559
1630096293.897,-22.949,-27.832,-6.348,-222.168
1630096293.901,-23.926,-8.789,-13.672,312.500
1630096293.905,-48.340,-65.918,-64.941,77.148
1630096293.907,-53.223,-77.637,-87.402,-501.953
1630096293.911,-50.293,-45.898,-33.691,-393.066
1630096293.915,-27.344,-34.180,-5.371,234.375
1630096293.919,-9.277,-39.551,-35.645,256.836
1630096293.923,-26.367,-55.176,-61.035,-312.500
1630096293.927,-35.645,-19.043,-39.551,-438.965
1630096293.931,-32.227,-2.441,-28.320,176.270
1630096293.934,-34.180,-45.410,-49.316,342.773
1630096293.938,-48.340,-62.500,-69.824,-168.457
1630096293.942,-55.176,-5.859,-41.504,-484.863
1630096293.946,-35.645,41.016,-5.859,-10.742
1630096293.950,-35.156,-30.273,-24.902,369.141
1630096293.967,-29.785,-39.062,-62.012,39.551
1630096293.971,-34.180,-34.668,-59.570,-460.449
1630096293.975,-46.875,-45.898,-3.418,-176.270
1630096293.979,-24.902,-60.547,-3.906,322.266
1630096293.983,-12.695,-60.547,-35.156,191.895
1630096293.987,-33.203,-28.320,-53.711,-310.547
1630096293.991,-56.641,-43.945,-28.320,-292.969
1630096293.994,-39.062,-73.242,-23.926,197.754
1630096293.998,-17.578,-41.016,-53.223,253.906
1630096294.002,-40.527,12.207,-73.242,-217.285
1630096294.006,-43.457,-24.902,-51.758,-411.621
1630096294.010,-41.992,-53.223,-12.207,98.145
1630096294.012,-38.086,-24.414,-8.301,349.609
1630096294.016,-38.574,-21.484,-42.969,-84.473
1630096294.020,-35.156,-64.941,-43.457,-481.445
1630096294.024,-21.484,-72.754,-4.883,-101.074
1630096294.028,-34.180,-41.016,-17.090,291.992
1630096294.032,-37.109,-34.180,-51.758,39.551
1630096294.036,-41.504,-43.457,-52.734,-373.535
1630096294.039,-47.363,-55.664,-15.625,-192.383
1630096294.043,-36.621,5.371,-13.672,236.816
1630096294.047,-31.738,77.148,-35.645,143.066
1630096294.051,-48.340,-24.902,-38.086,-314.453
1630096294.055,-46.387,-65.918,-7.812,-329.590
1630096294.057,-27.344,-47.852,-7.812,110.352
1630096294.061,-21.484,-62.988,-34.180,187.988
1630096294.065,-41.992,-57.617,-53.711,-180.176
1630096294.069,-59.082,-52.246,-27.344,-357.422
1630096294.073,-51.270,-31.250,1.953,14.160
1630096294.077,-33.691,-25.879,-10.742,243.652
1630096294.081,-36.133,-55.664,-51.270,-60.059
1630096294.084,-40.527,-47.363,-49.316,-382.812
1630096294.088,-12.695,1.953,9.766,-92.285
1630096294.092,-22.949,-28.809,0.488,190.430
1630096294.096,-52.246,-64.941,-51.758,-20.508
1630096294.100,-32.227,-39.062,-65.430,-299.316
1630096294.102,-20.996,-28.320,-12.695,-167.480
1630096294.106,-36.133,-60.547,-1.465,137.207
1630096294.110,-33.203,-72.754,-33.691,85.938
1630096294.114,-37.598,-56.641,-52.734,-262.695
1630096294.118,-40.527,-42.969,-35.645,-328.613
1630096294.122,-25.879,-21.973,-17.090,14.160
1630096294.126,-16.602,-24.902,-34.180,125.000
1630096294.129,-9.277,-9.277,-52.734,-119.141
1630096294.133,-11.230,75.195,-20.508,-249.023
1630096294.137,-2.441,24.902,1.465,-84.473
1630096294.141,-23.438,-64.941,-21.973,43.945
1630096294.145,-65.918,-53.711,-47.363,-143.066
1630096294.147,-60.547,-49.805,-56.641,-358.887
1630096294.151,-42.480,-50.293,-32.227,-166.504
1630096294.155,-26.855,-42.480,-16.113,105.469
1630096294.159,-17.578,-30.762,-37.109,-13.184
1630096294.163,-27.344,-43.945,-69.336,-294.922
1630096294.167,-34.668,-59.082,-45.410,-226.074
1630096294.171,-45.410,-54.199,-23.438,51.758
1630096294.174,-31.738,3.418,-37.598,28.809
1630096294.178,2.930,-2.441,-62.500,-227.539
1630096294.182,-34.180,-70.312,-42.480,-262.695
1630096294.186,-65.918,-43.945,-8.301,-35.645
1630096294.190,-34.668,-2.930,-27.832,46.387
1630096294.192,-31.738,-44.434,-61.523,-160.156
1630096294.196,-47.363,-49.805,-38.086,-245.605
1630096294.200,-41.992,-44.922,-0.488,-32.227
1630096294.204,-47.363,-52.734,-17.578,90.332
1630096294.208,-32.715,-36.133,-56.152,-49.316
1630096294.212,-15.137,-52.246,-66.406,-175.293
1630096294.216,-18.555,-34.180,-34.668,-70.312
1630096294.219,-29.785,32.715,-25.879,119.629
1630096294.223,-29.297,-12.207,-44.434,40.527
1630096294.227,-36.621,-60.547,-55.176,-190.918
1630096294.231,-53.223,-57.617,-26.367,-177.734
1630096294.235,-58.594,-54.199,-16.113,1.953
1630096294.238,-44.922,-63.965,-40.527,10.742
1630096294.242,-19.531,-54.199,-57.129,-139.648
1630096294.246,-21.484,-13.672,-36.133,-97.656
1630096294.250,-28.809,-13.184,-20.020,37.109
1630096294.254,-30.273,-38.086,-29.297,34.668
1630096294.258,-42.969,-51.758,-47.852,-62.988
1630096294.262,-37.598,-26.855,-33.691,-37.598
1630096294.265,-31.738,-29.297,-2.441,46.875
1630096294.269,-20.508,-57.617,-20.996,44.922
1630096294.273,-25.391,-62.988,-56.641,-125.977
1630096294.277,-19.043,-72.754,-51.270,-137.207
1630096294.281,-33.203,-67.383,-13.672,-19.531
1630096294.283,-61.523,-54.688,-25.391,-70.312
1630096294.287,-41.504,-61.035,-52.246,-166.504
1630096294.291,-34.668,-74.219,-51.270,-92.773
1630096294.295,-43.945,-61.523,-26.855,21.484
1630096294.299,-44.922,-48.828,-9.766,37.598
1630096294.303,-20.996,-25.879,-23.926,-5.859
1630096294.307,-12.695,-8.789,-45.898,-41.504
1630096294.310,-24.902,-36.621,-22.949,61.523
1630096294.314,-29.785,-63.477,-11.230,69.336
1630096294.318,-44.922,-32.715,-35.156,3.418
1630096294.322,-32.227,-15.625,-54.199,-61.035
1630096294.326,-13.184,-43.457,-34.668,4.883
1630096294.342,-18.066,-40.527,-4.395,133.789
1630096294.346,-14.160,-34.668,-20.996,147.461
1630096294.350,-17.090,-33.691,-51.758,19.043
1630096294.354,-23.438,-36.621,-62.012,-30.273
1630096294.358,-6.836,-34.180,-39.062,74.707
1630096294.362,-12.695,-33.691,-26.855,204.590
1630096294.366,-26.367,-38.086,-36.621,176.270
1630096294.369,-17.578,-47.363,-53.223,13.184
1630096294.373,-13.672,-46.387,-19.531,55.664
1630096294.377,-29.785,0.488,-4.395,208.984
1630096294.381,-21.973,-20.020,-31.250,164.062
1630096294.385,-18.066,-55.176,-56.152,-49.805
1630096294.388,-16.602,-33.203,-36.621,-15.137
1630096294.392,-9.277,-27.832,-11.230,178.223
1630096294.396,3.418,-37.598,-19.043,197.266
1630096294.400,24.902,-40.527,-45.898,11.719
1630096294.404,-7.324,-22.949,-40.527,-15.625
1630096294.408,-24.902,-22.461,-2.441,145.996
1630096294.412,-15.625,-30.273,-9.766,233.887
1630096294.415,-30.273,-44.434,-49.805,52.734
1630096294.419,-19.531,-16.602,-60.547,-120.605
1630096294.423,-31.250,58.594,-21.484,28.809
1630096294.427,-18.066,18.555,-23.438,166.016
1630096294.431,15.625,-38.574,-43.457,84.473
1630096294.432,2.441,-39.062,-51.270,-44.434
1630096294.436,-8.301,-43.945,-28.320,23.926
1630096294.440,-14.648,-41.016,-17.578,198.730
1630096294.444,-26.367,-46.387,-38.086,195.801
1630096294.448,0.488,-65.430,-50.781,31.738
1630096294.452,28.320,-57.129,-17.578,95.703
1630096294.456,-12.207,-40.527,-1.953,216.309
1630096294.459,-19.043,-31.738,-26.855,168.457
1630096294.463,-7.324,-2.930,-66.895,-46.875
1630096294.467,-29.785,-18.066,-70.801,-100.098
1630096294.471,-12.695,-47.363,-20.508,115.723
1630096294.475,-17.090,-44.434,-17.578,252.441
1630096294.478,-57.129,-44.922,-66.895,88.379
1630096294.482,-57.617,-59.570,-94.238,-134.277
1630096294.486,-54.688,-35.156,-48.340,37.109
1630096294.490,-56.152,-8.301,-35.645,258.301
1630096294.494,-17.578,-4.395,-64.453,153.320
1630096294.498,-19.531,-13.672,-88.867,-76.660
1630096294.502,-57.129,-20.996,-52.734,53.223
1630096294.505,-38.086,-3.418,-20.508,242.676
1630096294.509,-23.438,35.645,-31.250,113.281
1630096294.513,-5.859,-9.766,-61.035,-191.406
1630096294.517,-18.066,-44.434,-43.457,-226.074
1630096294.521,-28.320,-30.273,-9.277,68.848
1630096294.523,4.883,-39.062,-41.992,144.531
1630096294.527,-6.836,-35.156,-86.426,-102.539
1630096294.531,-19.043,-39.551,-82.031,-199.707
1630096294.535,10.742,-51.270,-24.414,64.453
1630096294.539,34.180,-46.875,-19.531,243.652
1630096294.543,31.738,-26.855,-47.852,67.383
1630096294.547,1.953,-26.367,-68.848,-181.641
1630096294.550,-7.324,28.320,-23.926,-21.484
1630096294.554,3.906,10.742,-2.930,269.043
1630096294.558,-9.277,-53.223,-41.992,151.855
1630096294.562,-21.973,-38.086,-81.055,-156.250
1630096294.566,-15.137,-36.133,-46.875,-55.664
1630096294.567,-3.418,-40.039,-12.695,289.062
1630096294.571,-1.465,-44.922,-35.645,299.805
1630096294.575,-19.043,-35.156,-74.707,-37.598
1630096294.579,-11.719,-21.484,-59.082,-130.371
1630096294.583,20.508,-18.555,-8.301,225.586
1630096294.587,6.836,-32.227,-15.137,410.645
1630096294.591,-2.441,-2.441,-53.711,145.020
1630096294.594,7.324,67.383,-71.289,-123.047
1630096294.598,-3.906,15.137,-25.879,107.910
1630096294.602,8.789,-49.316,-10.742,403.809
1630096294.606,32.715,-33.691,-27.344,209.961
1630096294.610,19.043,-31.250,-53.223,-176.270
1630096294.612,5.859,-47.363,-11.230,-16.602
1630096294.616,-37.598,-53.711,6.348,342.773
1630096294.620,-49.805,-56.152,-30.762,250.000
1630096294.624,-38.086,-60.059,-63.477,-153.320
1630096294.628,-18.066,-61.035,-33.203,-146.973
1630096294.632,20.508,-46.875,6.836,312.988
1630096294.636,12.207,14.160,-28.320,371.094
1630096294.639,-17.578,0.488,-64.453,-86.914
1630096294.643,-6.348,-46.387,-41.992,-243.652
1630096294.647,-22.949,-15.137,-0.488,132.324
1630096294.651,-30.762,-7.812,-21.484,315.430
1630096294.655,-14.160,-48.340,-71.777,18.555
1630096294.657,-17.090,-55.176,-81.055,-257.324
1630096294.661,-22.949,-48.340,1.465,7.812
1630096294.665,3.418,-39.062,31.250,329.590
1630096294.669,-17.578,-35.156,-16.113,114.258
1630096294.673,-39.062,-60.059,-53.711,-261.719
1630096294.677,-2.441,-11.230,-5.859,-60.059
1630096294.681,-6.348,21.484,19.531,326.660
1630096294.684,-32.715,-44.434,-34.180,171.875
1630096294.688,-24.414,-59.082,-75.684,-228.027
1630096294.692,-12.207,-6.836,-37.598,-189.453
1630096294.696,-12.207,9.277,2.441,225.098
1630096294.700,-26.367,-51.270,-41.016,267.578
1630096294.719,-41.016,-58.105,-88.867,-123.047
1630096294.723,-39.062,-28.320,-77.148,-266.113
1630096294.727,-21.973,-45.410,-14.648,68.359
1630096294.731,-11.719,-88.379,-13.184,220.703
1630096294.735,-22.461,-58.105,-58.594,-58.105
1630096294.739,-47.852,-23.438,-77.637,-280.762
1630096294.743,-40.039,-29.785,-23.926,-51.270
1630096294.746,-20.996,-46.875,0.488,203.613
1630096294.750,-8.789,-47.852,-36.621,42.969
1630096294.754,-20.508,-5.371,-71.289,-229.980
1630096294.758,-45.410,-24.414,-41.992,-109.375
1630096294.762,-46.875,-55.176,-11.719,126.953
1630096294.762,-33.203,-51.758,-27.832,31.738
1630096294.766,-49.805,-60.547,-70.312,-273.926
1630096294.770,-47.852,-57.617,-62.988,-215.820
1630096294.774,-24.902,-43.457,-23.438,115.234
1630096294.778,-38.086,-35.156,-31.738,128.906
1630096294.782,-43.457,-41.992,-56.152,-163.086
1630096294.786,-24.902,-54.199,-47.852,-233.398
1630096294.789,-41.504,-67.383,-0.488,4.395
1630096294.793,-63.965,-15.625,-21.484,48.828
1630096294.797,-43.457,126.953,-56.641,-173.828
1630096294.801,-12.695,78.125,-59.570,-312.500
1630096294.805,-15.137,-50.293,-32.715,-119.629
1630096294.807,-24.902,-45.898,-20.508,36.621
1630096294.811,-16.602,-50.293,-38.086,-113.281
1630096294.815,-20.020,-72.266,-82.520,-301.270
1630096294.819,-28.320,-68.848,-62.500,-156.250
1630096294.823,-29.785,-68.848,-35.156,9.277
1630096294.827,-44.434,-68.848,-55.664,-91.797
1630096294.831,-25.879,-67.383,-69.336,-285.156
1630096294.834,-12.695,-62.988,-49.805,-247.070
1630096294.838,-36.621,41.016,3.906,-29.785
1630096294.842,-38.086,36.621,-12.695,-26.855
1630096294.846,-44.434,-54.199,-71.289,-276.367
1630096294.850,-31.738,-48.340,-66.895,-276.367
1630096294.854,-53.223,-53.711,-16.602,-39.551
1630096294.858,-62.012,-54.688,-19.043,-27.832
1630096294.862,-42.480,-50.293,-53.223,-210.449
1630096294.866,-54.199,-70.801,-69.336,-303.711
1630096294.870,-35.645,-62.988,-27.832,-64.941
1630096294.874,-32.227,-44.922,-16.602,42.480
1630096294.878,-42.480,-64.941,-57.617,-100.586
1630096294.881,-21.484,-15.137,-85.449,-204.102
1630096294.885,-10.742,46.387,-47.363,-60.059
1630096294.889,-35.645,-47.852,-20.996,24.902
1630096294.893,-42.480,-84.961,-30.762,-84.961
1630096294.897,-18.555,-17.578,-56.152,-202.148
1630096294.898,-27.344,-20.996,-59.082,-62.012
1630096294.902,-41.992,-59.082,-19.531,80.566
1630096294.906,-31.250,-38.574,-28.320,-6.836
1630096294.910,-30.762,-41.016,-55.664,-179.199
1630096294.914,-18.555,-64.453,-60.059,-113.281
1630096294.918,-6.836,-63.965,-16.602,111.328
1630096294.922,-38.574,-48.828,-3.906,81.543
1630096294.925,-22.461,14.648,-25.879,-100.098
1630096294.929,-1.953,-2.441,-52.246,-146.484
1630096294.933,-24.414,-45.898,-45.410,58.105
1630096294.937,-30.762,-42.480,-25.879,91.309
1630096294.941,-21.484,-46.875,-39.062,-60.059
1630096294.943,-12.207,-49.316,-63.477,-105.957
1630096294.947,-8.301,-67.383,-47.363,44.434
1630096294.951,-18.555,-32.715,-16.602,110.840
1630096294.955,-28.809,-9.766,-24.414,4.395
1630096294.959,-27.832,-40.039,-53.711,-142.090
1630096294.963,-18.066,-55.664,-40.527,36.621
1630096294.967,-16.602,-1.953,0.488,211.426
1630096294.970,-27.344,74.219,-16.602,44.434
1630096294.974,-36.621,-6.348,-58.105,-197.754
1630096294.978,-15.625,-59.570,-62.988,-108.887
1630096294.982,-17.578,-58.105,-27.832,96.680
1630096294.986,-49.805,-62.988,-26.367,6.348
1630096294.988,-31.250,-56.641,-49.805,-127.930
1630096294.992,-20.996,-51.270,-66.406,-133.301
1630096294.996,-34.668,-45.410,-36.133,60.547
1630096295.000,-34.180,-48.340,-12.207,74.219
1630096295.004,-37.598,-46.387,-34.180,-112.793
1630096295.008,-24.414,-51.758,-44.922,-154.785
1630096295.012,-18.066,0.977,-29.785,61.035
1630096295.015,-55.664,2.441,-7.324,69.336
1630096295.019,-53.711,-61.035,-21.973,-58.594
1630096295.023,-30.273,-57.129,-52.246,-155.762
1630096295.027,-27.344,-48.828,-49.316,-43.945
1630096295.031,-35.645,-58.594,-7.812,69.336
1630096295.032,-49.316,-63.965,-12.207,-19.531
1630096295.036,-43.457,-52.734,-47.363,-133.301
1630096295.040,-14.160,-40.039,-69.824,-104.004
1630096295.044,9.277,-44.434,-40.039,54.688
1630096295.048,-24.902,-72.754,-10.254,53.711
1630096295.052,-35.645,-26.367,-17.090,-44.922
1630096295.056,-31.250,3.906,-31.738,-131.348
1630096295.059,-48.828,-46.387,-16.602,-36.621
1630096295.063,-50.781,-77.637,-9.766,1.465
1630096295.067,-36.133,-30.762,-23.926,-101.074
1630096295.071,-62.988,14.160,-43.457,-206.055
1630096295.075,-76.660,-67.871,-28.320,-160.156
1630096295.093,-53.223,-84.473,15.625,-21.973
1630096295.097,-52.734,-73.242,3.906,26.367
1630096295.101,-33.691,-79.102,-31.738,-104.492
1630096295.105,-51.758,-74.707,-34.668,-146.973
1630096295.109,-63.965,-67.871,-9.277,-75.684
1630096295.113,-32.715,-50.293,-4.395,0.488
1630096295.117,-24.414,-62.988,-24.902,-23.438
1630096295.120,-40.527,-88.379,-45.410,-148.926
1630096295.124,-50.781,-78.613,-15.625,-101.074
1630096295.128,-50.293,-2.441,-6.836,40.527
1630096295.132,-41.016,-33.203,-24.902,19.043
1630096295.136,-25.879,-88.867,-36.133,-165.527
1630096295.137,-22.949,-61.035,-7.812,-160.645
1630096295.141,-29.297,-59.570,10.254,11.719
1630096295.145,-40.527,-72.266,-22.949,80.566
1630096295.149,-37.598,-75.195,-47.852,-83.496
1630096295.153,-52.734,-65.918,-31.250,-199.707
1630096295.157,-62.012,-62.500,1.465,-52.246
1630096295.161,-36.133,-56.641,-8.789,143.066
1630096295.164,-32.227,-65.918,-38.574,40.039
1630096295.168,-34.180,-17.578,-46.387,-212.891
1630096295.172,-42.480,43.457,-5.371,-170.410
1630096295.176,-35.645,-25.879,3.418,73.730
1630096295.180,-14.160,-67.383,-24.902,94.238
1630096295.183,-17.090,-30.762,-57.617,-136.230
1630096295.187,-22.461,-30.273,-35.156,-225.098
1630096295.191,-42.969,-67.871,-10.254,17.090
1630096295.195,-26.855,-69.336,-29.297,155.273
1630096295.199,-4.395,-62.012,-58.594,-121.094
1630096295.203,-18.066,-47.852,-37.109,-251.953
1630096295.207,-31.250,-53.223,-3.418,-29.785
1630096295.210,-30.762,-52.246,-17.090,131.348
1630096295.214,-4.395,18.066,-41.504,-20.508
1630096295.218,-5.371,-8.301,-41.992,-260.254
1630096295.222,-29.785,-60.059,1.953,-129.395
1630096295.226,-36.133,-41.016,1.953,99.609
1630096295.227,-55.664,-42.480,-49.316,-16.602
1630096295.231,-52.734,-53.711,-65.918,-283.203
1630096295.235,-52.246,-66.895,-18.066,-246.094
1630096295.239,-53.223,-42.969,-13.184,-12.207
1630096295.243,-56.152,-28.809,-49.316,-47.363
1630096295.247,-39.551,-48.340,-67.871,-284.668
1630096295.251,-48.828,-57.617,-48.828,-317.383
1630096295.254,-76.660,-20.020,-26.855,-97.656
1630096295.258,-52.734,40.039,-29.785,-9.277
1630096295.262,-39.551,-24.414,-57.129,-205.078
1630096295.266,-32.227,-61.035,-53.223,-285.156
1630096295.270,-39.551,-55.664,-26.855,-137.695
1630096295.272,-33.203,-66.895,-27.832,6.348
1630096295.276,-33.203,-71.289,-51.758,-69.824
1630096295.280,-42.969,-71.777,-58.105,-213.867
1630096295.284,-47.363,-45.898,-23.926,-148.438
1630096295.288,-47.363,-32.227,-30.273,4.395
1630096295.292,-41.504,-40.527,-57.617,-26.855
1630096295.296,-37.598,-51.270,-69.336,-121.582
1630096295.299,-35.156,14.648,-35.156,-113.770
1630096295.303,-35.645,13.184,-19.043,-24.414
1630096295.307,-26.855,-56.641,-38.574,8.789
1630096295.311,-12.695,-43.457,-65.430,-80.566
1630096295.315,-21.484,-46.387,-46.875,-150.879
1630096295.318,-40.039,-60.547,-10.742,-70.312
1630096295.322,-28.809,-46.387,-22.461,34.180
1630096295.326,-22.949,-36.621,-65.918,-29.297
1630096295.330,-19.043,-47.363,-72.754,-60.547
1630096295.334,3.418,-46.387,-23.926,-40.527
1630096295.338,-38.574,-62.500,-8.301,18.066
1630096295.342,-65.918,-13.184,-35.645,22.949
1630096295.345,-61.035,62.012,-50.293,-7.812
1630096295.349,-67.383,-18.555,-22.949,-40.527
1630096295.353,-45.410,-74.219,-25.391,-18.066
1630096295.357,-29.785,-30.762,-43.945,9.277
1630096295.361,-23.926,-34.180,-56.152,-5.371
1630096295.362,-43.457,-66.895,-37.109,-59.570
1630096295.366,-54.199,-58.105,-16.602,-77.637
1630096295.370,-43.945,-49.805,-34.668,-54.199
1630096295.374,-19.531,-39.551,-57.129,-35.156
1630096295.378,-11.719,-46.387,-45.410,-15.137
1630096295.382,-41.992,-56.152,-17.090,-53.711
1630096295.386,-39.551,-10.742,-14.648,-33.691
1630096295.389,1.465,-10.254,-41.992,-53.223
1630096295.393,-7.324,-41.016,-38.086,-24.414
1630096295.397,-30.762,-36.133,-0.977,-85.449
1630096295.401,-46.875,-37.109,-8.301,-114.258
1630096295.405,-19.043,-36.621,-37.598,-84.961
1630096295.408,0.488,-46.875,-44.922,18.066
1630096295.412,-34.668,-41.016,-29.785,-14.160
1630096295.416,-51.270,-31.738,-25.879,-127.930
1630096295.420,-45.410,-56.641,-41.992,-142.090
1630096295.424,-23.438,-69.824,-49.805,0.977
1630096295.428,-11.719,-40.039,-22.949,96.680
1630096295.432,-31.250,-28.809,-13.672,-45.410
1630096295.435,-42.480,-51.758,-27.832,-123.535
1630096295.439,-11.230,-52.246,-48.340,-45.410
1630096295.443,-7.812,-25.391,-46.387,82.520
1630096295.447,-40.039,-27.344,-23.438,-81.055
1630096295.451,-25.391,-48.340,-22.461,-160.645
1630096295.469,-11.719,-40.527,-41.504,-55.176
1630096295.473,-32.715,-37.109,-39.551,116.699
1630096295.477,-32.227,-39.062,-25.879,-44.434
1630096295.481,-27.344,-51.270,-36.621,-186.035
1630096295.485,-26.367,-67.871,-53.223,-119.629
1630096295.489,-18.066,-20.996,-45.410,136.719
1630096295.493,-44.922,-7.812,-27.832,113.281
1630096295.496,-58.105,-53.223,-38.086,-227.539
1630096295.500,-39.551,-37.109,-55.664,-259.766
1630096295.504,-13.184,-30.762,-58.105,32.227
1630096295.508,-28.809,-49.805,-43.945,119.141
1630096295.512,-50.781,-48.828,-32.227,-198.242
1630096295.512,-50.293,-32.715,-35.156,-276.855
1630096295.516,-4.883,-33.203,-41.504,-40.039
1630096295.520,19.043,-35.156,-35.156,209.473
1630096295.524,-29.297,-38.086,-29.785,-112.305
1630096295.528,-49.316,-35.156,-38.574,-381.836
1630096295.532,-21.973,-38.086,-46.387,-189.453
1630096295.536,13.184,-45.410,-54.199,225.586
1630096295.539,-17.090,-52.734,-34.668,49.805
1630096295.543,-53.711,-4.883,-29.785,-362.305
1630096295.547,-30.762,75.684,-40.527,-357.422
1630096295.551,-0.977,16.113,-38.574,52.734
1630096295.555,-27.344,-66.895,-44.434,97.168
1630096295.557,-56.152,-70.312,-54.199,-364.746
1630096295.561,-44.922,-58.594,-56.152,-443.359
1630096295.565,-25.391,-37.109,-44.434,23.438
1630096295.569,-29.785,-34.668,-26.367,308.105
1630096295.573,-47.363,-37.598,-15.625,-164.551
1630096295.577,-41.504,-28.809,-32.715,-424.805
1630096295.581,-14.160,-32.227,-57.129,-96.680
1630096295.584,-0.977,-35.156,-52.246,354.004
1630096295.588,-28.320,-5.371,-34.180,-40.039
1630096295.592,-25.391,-27.832,-23.926,-436.035
1630096295.596,-13.672,-65.430,-40.039,-209.473
1630096295.600,4.883,-33.203,-56.641,337.402
1630096295.602,-30.762,-18.066,-64.941,156.738
1630096295.606,-52.734,-46.875,-52.246,-406.738
1630096295.610,-28.320,-53.223,-31.738,-356.445
1630096295.614,-14.160,-46.387,-33.203,258.301
1630096295.618,-35.645,-52.246,-32.227,358.887
1630096295.622,-42.969,-51.758,-30.762,-263.184
1630096295.626,-24.902,-53.223,-45.898,-414.062
1630096295.629,-20.996,-18.066,-54.688,106.445
1630096295.633,-23.926,32.715,-57.129,497.070
1630096295.637,-24.902,-19.531,-50.293,-104.004
1630096295.641,-23.438,-58.594,-30.762,-448.242
1630096295.645,-16.602,-50.293,-26.855,-33.203
1630096295.649,-15.137,-53.223,-33.203,547.363
1630096295.653,-35.645,-81.055,-39.062,146.973
1630096295.657,-35.645,-85.449,-47.363,-424.316
1630096295.661,-47.363,-50.293,-53.711,-252.930
1630096295.665,-38.574,-37.109,-54.199,429.199
1630096295.669,-40.039,-27.344,-48.828,344.238
1630096295.673,-54.688,-22.949,-42.969,-309.082
1630096295.676,-45.898,-5.859,-45.410,-358.398
1630096295.680,-16.602,-19.531,-34.668,259.277
1630096295.684,-28.320,-58.594,-28.809,477.539
1630096295.688,-63.477,-50.293,-41.504,-180.176
1630096295.692,-48.340,-35.645,-44.922,-428.223
1630096295.692,-26.855,-40.039,-44.434,77.148
1630096295.696,-22.461,-48.340,-50.781,496.094
1630096295.700,-54.688,-62.500,-47.363,-60.059
1630096295.704,-64.453,-56.152,-46.387,-442.871
1630096295.708,-35.645,-40.527,-42.969,-111.816
1630096295.712,-36.133,-52.734,-33.691,494.629
1630096295.716,-56.641,-41.992,-46.387,174.316
1630096295.719,-41.504,15.137,-63.965,-404.297
1630096295.723,-33.691,-19.043,-53.223,-308.105
1630096295.727,-15.137,-70.801,-36.621,338.867
1630096295.731,-25.391,-47.363,-35.645,306.641
1630096295.735,-54.688,-39.551,-35.645,-328.613
1630096295.737,-20.996,-37.109,-41.992,-363.281
1630096295.741,-13.672,-45.410,-47.852,195.801
1630096295.745,-40.039,-50.293,-60.059,442.383
1630096295.749,-60.547,-49.316,-64.941,-217.773
1630096295.753,-80.566,-59.570,-44.922,-505.859
1630096295.757,-13.184,-81.055,-26.855,72.754
1630096295.761,7.812,1.465,-32.715,632.324
1630096295.764,-89.844,31.250,-49.805,-40.039
1630096295.768,-104.004,-43.457,-47.852,-599.609
1630096295.772,-51.758,-38.086,-43.945,-262.695
1630096295.776,-56.641,-38.574,-40.039,425.293
1630096295.780,-104.980,-47.852,-33.691,109.863
1630096295.783,-103.027,-41.016,-37.109,-543.945
1630096295.787,-59.570,-30.762,-51.270,-457.520
1630096295.791,-12.695,-17.578,-51.270,287.598
1630096295.795,-74.219,-18.555,-63.965,326.172
1630096295.799,-121.094,-37.109,-67.871,-449.219
1630096295.803,-93.262,-3.906,-43.457,-559.082
1630096295.807,-72.266,9.766,-32.715,135.742
1630096295.810,-96.680,-35.156,-49.805,481.934
1630096295.814,-118.652,-59.082,-63.965,-292.969
1630096295.818,-101.074,-14.160,-64.453,-663.574
1630096295.822,-73.730,20.020,-53.223,-112.793
1630096295.826,-33.691,-37.109,-52.246,522.461
1630096295.842,-57.617,-45.898,-64.941,-37.109
1630096295.846,-74.707,-40.039,-65.918,-609.863
1630096295.850,-50.293,-41.016,-55.176,-298.340
1630096295.854,-38.574,-48.340,-52.246,516.113
1630096295.858,-72.266,-44.922,-62.012,270.020
1630096295.862,-94.238,-30.762,-50.293,-490.723
1630096295.866,-52.246,-33.203,-37.598,-432.617
1630096295.869,-26.367,-42.480,-25.391,358.398
1630096295.873,-52.246,-44.434,-39.062,447.266
1630096295.877,-72.266,-24.414,-47.852,-423.340
1630096295.881,-42.969,-37.109,-47.852,-583.008
1630096295.885,3.906,-58.105,-47.363,107.910
1630096295.887,-12.207,-45.898,-43.457,615.723
1630096295.891,-62.012,-30.762,-59.082,-150.879
1630096295.895,-60.059,-35.156,-50.781,-648.926
1630096295.899,-23.926,-38.086,-27.832,-85.938
1630096295.903,-18.066,-38.574,-28.809,644.531
1630096295.907,-52.246,-43.945,-43.945,85.938
1630096295.911,-47.363,-38.574,-55.176,-557.617
1630096295.914,-1.953,-32.715,-49.316,-267.578
1630096295.918,11.230,-47.852,-50.781,527.344
1630096295.922,-62.988,-50.781,-60.547,296.875
1630096295.926,-72.754,-42.969,-38.086,-531.738
1630096295.930,-37.598,-41.016,-34.668,-515.625
1630096295.932,-42.480,-28.320,-40.039,270.020
1630096295.936,-53.223,-31.738,-39.062,494.141
1630096295.940,-66.895,-43.457,-34.180,-344.727
1630096295.944,-35.645,-42.969,-31.738,-605.469
1630096295.948,-2.930,-26.367,-25.391,90.332
1630096295.952,-25.879,-32.227,-22.949,639.160
1630096295.956,-52.246,-52.734,-43.457,-148.926
1630096295.959,-60.547,-64.453,-49.805,-705.078
1630096295.963,-43.945,-23.438,-35.156,-163.574
1630096295.967,-0.977,-9.277,-40.527,654.297
1630096295.971,-6.836,-38.086,-45.898,123.047
1630096295.975,-48.340,-48.340,-38.574,-597.656
1630096295.977,-64.453,-58.105,-39.062,-370.605
1630096295.981,-30.273,-52.246,-25.879,490.234
1630096295.985,-35.156,-41.016,-29.297,430.664
1630096295.989,-74.219,-40.039,-37.109,-440.918
1630096295.993,-67.383,-43.457,-36.621,-558.594
1630096295.997,-19.531,-26.367,-23.926,289.551
1630096296.001,-24.414,-27.832,-23.926,675.293
1630096296.004,-60.547,-14.160,-41.016,-254.395
1630096296.008,-53.711,66.895,-52.734,-647.461
1630096296.012,-27.832,22.949,-36.621,38.574
1630096296.016,-2.441,-50.293,-37.109,724.121
1630096296.020,-23.438,-50.781,-62.012,-57.129
1630096296.022,-46.387,-55.664,-48.828,-632.324
1630096296.026,-33.203,-53.223,-29.297,-131.836
1630096296.030,2.441,-52.246,-25.391,718.262
1630096296.034,-20.508,-49.316,-40.527,262.695
1630096296.038,-52.734,-46.387,-46.387,-557.129
1630096296.042,-27.832,-37.598,-24.902,-336.426
1630096296.046,0.000,-41.504,-8.301,580.566
1630096296.049,-46.387,-41.504,-44.434,513.184
1630096296.053,-85.449,-41.504,-59.570,-465.820
1630096296.057,-55.176,-47.363,-41.992,-605.469
1630096296.061,-8.301,-26.855,-32.715,260.254
1630096296.065,-20.508,-15.137,-35.645,724.609
1630096296.067,-55.176,-48.828,-26.367,-212.891
1630096296.071,-53.223,-78.613,-29.297,-687.500
1630096296.075,-47.363,-59.570,-32.715,-3.906
1630096296.079,-48.340,-38.574,-37.109,776.855
1630096296.083,-85.449,-44.434,-54.199,15.137
1630096296.087,-83.984,-61.523,-43.457,-669.434
1630096296.091,-22.949,-34.180,-31.250,-180.176
1630096296.094,0.488,23.926,-42.969,739.258
1630096296.098,-47.363,-18.066,-55.176,315.918
1630096296.102,-67.383,-54.688,-46.875,-567.383
1630096296.106,-33.203,-44.434,-46.875,-447.266
1630096296.110,1.465,-34.180,-40.527,513.184
1630096296.114,-16.113,-40.039,-51.758,709.961
1630096296.118,-30.273,-48.340,-65.430,-270.020
1630096296.122,-25.879,-29.297,-77.148,-540.527
1630096296.126,22.461,-17.578,-68.848,274.902
1630096296.130,25.879,-33.691,-67.383,860.840
1630096296.134,-22.461,-39.551,-73.242,38.086
1630096296.138,-12.695,2.441,-76.172,-500.000
1630096296.141,19.043,-10.254,-62.012,75.684
1630096296.145,43.945,-36.133,-43.457,937.500
1630096296.149,9.766,-26.367,-62.012,337.402
1630096296.153,-12.695,-36.133,-64.453,-429.199
1630096296.157,16.602,-35.156,-51.758,-102.539
1630096296.157,35.645,-33.203,-45.410,788.574
1630096296.161,3.906,-36.133,-59.570,559.570
1630096296.165,-5.371,-31.250,-55.176,-382.324
1630096296.169,32.715,-30.273,-48.828,-419.434
1630096296.173,63.965,-45.410,-51.758,440.430
1630096296.177,11.230,-31.250,-65.918,635.254
1630096296.181,-42.480,17.578,-70.312,-377.441
1630096296.184,-19.531,-8.301,-41.992,-714.844
1630096296.188,36.133,-41.992,-23.438,19.531
1630096296.192,23.438,-15.137,-42.969,584.961
1630096296.196,-28.320,-22.461,-58.105,-259.766
1630096296.200,0.488,-48.828,-59.082,-808.594
1630096296.218,43.945,-28.809,-59.082,-298.828
1630096296.222,43.945,-17.090,-41.504,529.297
1630096296.226,-18.066,-29.297,-40.039,23.438
1630096296.230,-22.949,-39.551,-37.598,-808.594
1630096296.234,9.277,-40.527,-25.879,-613.770
1630096296.238,43.457,-32.227,-23.926,382.324
1630096296.242,16.113,-31.250,-44.434,320.312
1630096296.245,-43.945,-40.527,-57.617,-672.363
1630096296.249,-24.902,-36.621,-50.293,-800.293
1630096296.253,17.090,34.668,-38.574,50.781
1630096296.257,1.465,14.160,-41.016,412.598
1630096296.261,-22.949,-49.316,-48.828,-505.859
1630096296.263,-24.902,-32.715,-44.922,-882.324
1630096296.267,6.348,-20.020,-23.926,-180.176
1630096296.271,22.949,-23.438,-31.738,479.980
1630096296.275,-7.324,-42.480,-46.875,-238.770
1630096296.279,-29.297,-59.082,-35.645,-824.707
1630096296.283,-8.789,-50.293,-24.902,-414.551
1630096296.287,22.949,-33.203,-35.645,410.645
1630096296.290,-23.926,-40.527,-49.316,-7.812
1630096296.294,-66.406,-9.277,-55.176,-770.020
1630096296.298,-20.996,62.500,-53.711,-596.680
1630096296.302,28.320,35.156,-37.109,261.719
1630096296.306,-34.668,-30.273,-51.270,277.344
1630096296.307,-73.242,-40.039,-57.129,-563.965
1630096296.311,-26.367,-47.363,-57.129,-685.547
1630096296.315,13.672,-51.270,-44.434,87.402
1630096296.319,-8.789,-50.781,-40.527,540.527
1630096296.323,-54.688,-46.387,-47.363,-289.551
1630096296.327,-57.129,-41.992,-46.875,-721.191
1630096296.331,-41.992,-54.688,-37.109,-92.773
1630096296.334,-6.348,-58.105,-21.973,605.469
1630096296.338,-52.734,-39.551,-41.016,-43.945
1630096296.342,-58.105,-28.320,-56.152,-653.320
1630096296.346,0.488,-25.391,-40.527,-278.809
1630096296.350,-8.789,-14.648,-30.273,504.395
1630096296.353,-49.316,-25.391,-38.086,246.094
1630096296.357,-43.945,-46.875,-34.180,-503.906
1630096296.361,-10.254,-59.082,-29.785,-462.891
1630096296.365,5.371,-28.320,-35.645,336.426
1630096296.369,-50.781,-6.348,-46.875,447.754
1630096296.373,-89.844,-28.320,-32.227,-373.535
1630096296.377,-54.199,-40.039,-32.715,-526.367
1630096296.380,41.016,14.160,-48.340,214.844
1630096296.384,62.012,63.965,-40.527,674.316
1630096296.388,-43.945,-21.973,-22.949,-194.336
1630096296.392,-117.676,-67.383,-23.926,-729.492
1630096296.396,-75.195,-61.035,-23.438,-181.152
1630096296.397,-55.176,-72.266,-14.160,566.895
1630096296.401,-134.277,-89.355,-14.648,11.230
1630096296.405,-138.184,-89.355,-8.789,-649.414
1630096296.409,-94.727,-67.871,3.906,-353.516
1630096296.413,-104.004,-56.641,0.000,406.738
1630096296.417,-140.137,-77.148,-22.461,229.492
1630096296.421,-160.156,-106.445,-37.109,-508.789
1630096296.424,-163.086,-20.508,-27.344,-559.082
1630096296.428,-105.957,-6.836,10.254,230.957
1630096296.432,-114.746,-93.262,22.949,470.703
1630096296.436,-152.832,-92.285,19.043,-347.168
1630096296.440,-118.164,-82.031,2.441,-601.074
1630096296.442,-91.797,-70.312,-10.742,30.762
1630096296.446,-65.918,-67.871,-28.809,551.758
1630096296.450,-100.586,-71.289,-44.434,-134.277
1630096296.454,-87.402,-75.684,-35.156,-611.816
1630096296.458,-37.598,-78.125,-15.137,-183.105
1630096296.462,-56.152,-74.219,-3.418,585.938
1630096296.466,-92.773,-28.320,-23.438,145.020
1630096296.469,-122.070,68.359,-47.852,-563.477
1630096296.473,-93.262,28.320,-44.922,-398.438
1630096296.477,-39.551,-70.312,-33.203,368.164
1630096296.481,-43.457,-81.543,-31.250,363.281
1630096296.485,-52.246,-74.219,-32.715,-442.871
1630096296.487,-69.824,-60.059,-29.297,-546.387
1630096296.491,-66.895,-62.012,-12.207,211.914
1630096296.495,-77.637,-67.871,-14.648,497.070
1630096296.499,-91.797,-62.988,-19.043,-279.785
1630096296.503,-57.617,-52.246,-17.578,-595.215
1630096296.507,-23.926,-50.781,-13.184,21.973
1630096296.511,-22.461,-3.418,-21.484,625.977
1630096296.514,-58.105,-33.203,-16.113,-47.852
1630096296.518,-62.500,-100.098,-21.973,-609.863
1630096296.522,-50.293,-59.570,-42.480,-221.680
1630096296.526,-18.066,-37.598,-38.086,569.824
1630096296.530,-45.410,-49.316,-32.715,201.172
1630096296.532,-75.195,-46.387,-20.020,-509.277
1630096296.536,-45.410,-40.527,-22.949,-418.457
1630096296.540,-3.418,-43.457,-29.297,375.977
1630096296.544,-8.789,-49.805,-35.156,453.125
1630096296.548,-56.641,-62.012,-38.086,-379.395
1630096296.552,-66.895,-38.086,-35.156,-540.527
1630096296.556,-36.133,-10.254,-28.320,195.312
1630096296.559,9.277,-53.711,-29.297,592.773
1630096296.563,-40.527,-84.961,-34.668,-196.289
1630096296.567,-82.520,-41.992,-52.734,-623.047
1630096296.571,-38.574,-15.625,-60.059,-100.098
1630096296.575,-24.902,-46.387,-37.109,590.820
1630096296.592,-69.824,-39.551,-39.551,36.621
1630096296.596,-61.523,-34.668,-39.551,-530.273
1630096296.600,-11.230,-42.969,-43.457,-214.844
1630096296.604,-8.301,-47.852,-55.176,546.875
1630096296.608,-42.480,-52.734,-53.711,287.109
1630096296.612,-43.945,-49.805,-39.062,-458.984
1630096296.616,-45.898,-54.688,-24.902,-419.434
1630096296.619,-31.250,-67.383,-35.645,343.750
1630096296.623,-27.344,-54.688,-55.176,493.164
1630096296.627,-60.059,-27.344,-45.898,-309.082
1630096296.631,-51.270,-40.039,-33.203,-536.621
1630096296.635,-45.410,-61.035,-30.762,58.594
1630096296.637,-36.621,-50.781,-28.320,543.945
1630096296.641,-68.848,-41.504,-37.109,-135.254
1630096296.645,-76.660,-35.645,-53.711,-607.422
1630096296.649,-51.270,-43.457,-47.363,-116.699
1630096296.653,-29.785,-21.973,-41.016,571.289
1630096296.657,-43.457,-8.789,-52.734,69.824
1630096296.661,-45.410,-37.598,-62.012,-540.527
1630096296.664,-17.090,-54.688,-56.641,-315.918
1630096296.668,-0.977,-14.648,-44.434,450.195
1630096296.672,-42.480,47.363,-57.617,258.301
1630096296.676,-78.125,-11.719,-47.852,-486.816
1630096296.680,-61.523,-65.430,-24.414,-456.055
1630096296.683,-25.879,-80.566,-21.484,265.625
1630096296.687,-36.621,-72.266,-45.410,437.012
1630096296.691,-66.895,-50.293,-46.387,-308.105
1630096296.695,-70.312,-39.062,-37.598,-550.781
1630096296.699,-31.738,-30.273,-43.945,48.340
1630096296.703,-7.324,-30.273,-40.039,608.398
1630096296.707,-45.410,-43.457,-28.809,-58.105
1630096296.710,-51.270,-51.758,-35.156,-515.625
1630096296.714,-28.809,28.809,-51.270,-68.848
1630096296.718,-25.391,26.855,-50.293,635.742
1630096296.722,-49.805,-54.199,-43.945,188.965
1630096296.726,-34.180,-47.852,-46.875,-443.848
1630096296.727,7.324,-48.340,-46.875,-251.465
1630096296.731,-37.109,-58.105,-46.387,473.633
1630096296.735,-69.336,-61.035,-43.457,412.598
1630096296.739,-75.684,-58.594,-38.086,-334.473
1630096296.743,-68.359,-55.176,-37.109,-425.781
1630096296.747,-18.066,-39.551,-21.484,280.762
1630096296.751,-14.648,-50.781,-22.461,592.773
1630096296.754,-64.941,-27.832,-52.246,-187.012
1630096296.758,-64.941,25.879,-79.102,-575.684
1630096296.762,-32.715,-20.020,-62.012,-66.406
1630096296.766,-76.172,-62.012,-39.551,535.156
1630096296.770,-135.742,-40.039,-39.551,-60.547
1630096296.772,-112.305,-46.387,-42.969,-621.582
1630096296.776,-54.688,-67.871,-41.016,-294.922
1630096296.780,-23.926,-53.711,-40.527,406.738
1630096296.784,-48.340,-54.688,-42.480,88.379
1630096296.788,-67.871,-62.500,-37.598,-550.293
1630096296.792,-84.473,-61.035,-32.227,-443.359
1630096296.796,-79.590,-53.223,-18.066,307.129
1630096296.799,-65.918,-17.578,-34.668,294.922
1630096296.803,-76.660,-33.203,-43.945,-416.504
1630096296.807,-77.637,-73.242,-27.344,-502.441
1630096296.811,-48.828,-62.012,-28.320,148.438
1630096296.815,-41.016,-52.246,-30.273,521.973
1630096296.819,-69.824,-54.199,-24.902,-173.340
1630096296.823,-39.551,-52.246,-40.039,-524.902
1630096296.827,8.301,-21.973,-52.246,-53.711
1630096296.831,-13.184,-17.090,-37.109,533.203
1630096296.835,-47.852,-51.758,-31.250,25.879
1630096296.839,-32.715,-57.129,-31.250,-448.730
1630096296.843,-14.648,-34.180,-41.992,-179.688
1630096296.846,-25.879,-5.371,-66.406,464.355
1630096296.850,-83.008,-36.621,-52.246,210.449
1630096296.854,-86.914,-60.059,-35.156,-449.707
1630096296.858,-27.832,-50.293,-35.156,-374.023
1630096296.862,2.930,-45.410,-27.344,353.027
1630096296.862,-29.297,-47.852,-33.691,453.613
1630096296.866,-95.703,-54.199,-43.457,-307.129
1630096296.870,-71.289,-43.945,-42.480,-534.668
1630096296.874,-35.645,-46.387,-31.738,69.824
1630096296.878,-40.527,-56.641,-29.785,495.117
1630096296.882,-36.621,-60.547,-28.320,-180.176
1630096296.886,-96.680,-9.766,-57.617,-609.863
1630096296.889,-108.887,-4.395,-63.477,-223.145
1630096296.893,0.000,-55.176,-27.344,479.004
1630096296.897,-21.484,-37.109,-38.574,23.438
1630096296.901,-90.332,-24.902,-53.223,-602.539
1630096296.905,-72.266,-35.645,-49.316,-405.273
1630096296.907,-39.062,-31.250,-43.945,312.012
1630096296.911,-23.926,-30.762,-49.805,157.227
1630096296.915,-48.828,-22.949,-52.246,-528.320
1630096296.919,-48.340,-12.207,-54.688,-519.043
1630096296.923,-17.578,-19.043,-57.617,146.484
1630096296.927,-19.531,17.578,-69.336,312.500
1630096296.931,-8.789,37.598,-76.660,-349.609
1630096296.934,-24.902,-9.277,-78.125,-555.176
1630096296.938,23.438,-27.832,-78.125,-72.266
1630096296.942,41.992,35.645,-82.031,360.840
1630096296.946,-28.809,77.637,-88.867,-163.574
1630096296.950,13.672,0.000,-75.684,-529.785
1630096296.967,6.836,-28.320,-57.617,-211.914
1630096296.971,5.859,-23.438,-50.293,399.902
1630096296.975,8.789,-27.832,-58.105,74.707
1630096296.979,-2.441,-37.109,-61.523,-460.938
1630096296.983,13.184,-31.738,-68.848,-327.148
1630096296.987,-5.371,-13.184,-58.105,311.035
1630096296.991,-0.488,-25.391,-45.410,268.066
1630096296.994,-3.906,-40.039,-47.363,-361.816
1630096296.998,-9.766,-26.367,-41.504,-353.516
1630096297.002,29.297,-8.789,-46.875,208.984
1630096297.006,21.484,-34.668,-45.898,372.070
1630096297.010,-30.273,-58.594,-37.598,-173.340
1630096297.013,-52.734,-42.969,-48.828,-407.227
1630096297.017,0.000,-17.578,-43.945,-17.090
1630096297.021,41.016,-27.344,-27.344,445.801
1630096297.025,-8.301,-50.293,-31.250,-11.719
1630096297.029,-37.109,-47.852,-32.227,-379.883
1630096297.033,-41.016,-40.527,-30.273,-131.836
1630096297.037,-25.391,-24.902,-30.273,411.621
1630096297.040,-9.766,-45.898,-25.879,190.430
1630096297.044,-21.484,-4.883,-34.180,-280.273
1630096297.048,-26.855,83.496,-51.758,-251.465
1630096297.052,-8.301,-2.930,-39.062,214.355
1630096297.056,3.906,-55.664,-29.785,273.926
1630096297.058,-37.598,-44.922,-33.691,-178.711
1630096297.062,-43.457,-54.199,-31.738,-274.414
1630096297.066,39.062,-47.363,-19.531,140.625
1630096297.070,45.410,-44.434,-5.371,407.227
1630096297.074,11.230,-33.203,-7.324,-76.660
1630096297.078,-28.320,-37.109,-28.320,-334.473
1630096297.082,-42.480,-62.988,-47.852,-52.246
1630096297.085,-20.996,-59.082,-38.086,337.402
1630096297.089,-52.734,-25.391,-34.668,29.785
1630096297.093,-79.590,-41.992,-40.527,-308.594
1630096297.097,-58.105,-58.594,-38.574,-187.500
1630096297.101,-38.574,-30.762,-33.691,294.922
1630096297.102,-60.547,-32.227,-28.320,169.434
1630096297.106,-43.945,-41.016,-35.645,-288.086
1630096297.110,4.883,-56.152,-37.109,-273.438
1630096297.114,-3.418,-50.293,-29.297,241.699
1630096297.118,-52.734,-31.250,-33.203,340.820
1630096297.122,-58.594,-48.340,-32.715,-160.156
1630096297.126,-42.480,-49.805,-33.691,-298.340
1630096297.129,-40.039,-13.184,-56.641,70.801
1630096297.133,-61.523,32.227,-83.008,309.570
1630096297.137,-92.773,-6.348,-56.152,-154.297
1630096297.141,-49.316,-44.434,-25.391,-356.934
1630096297.145,15.137,-30.762,-26.855,-44.922
1630096297.147,1.953,-37.109,-22.461,396.484
1630096297.151,-76.172,-49.805,-24.902,41.992
1630096297.155,-60.547,-42.969,-30.762,-354.004
1630096297.159,-11.719,-33.691,-32.715,-215.820
1630096297.163,-41.504,-30.762,-40.527,301.270
1630096297.167,-50.781,-36.133,-43.945,228.027
1630096297.171,-29.785,-50.293,-30.273,-230.469
1630096297.174,-41.504,-4.883,-53.711,-295.898
1630096297.178,-29.785,24.414,-61.523,142.090
1630096297.182,-10.254,-15.137,-24.902,277.832
1630096297.186,-51.270,-36.133,-22.461,-229.004
1630096297.190,-51.758,-52.246,-40.039,-406.738
1630096297.193,-40.527,-48.828,-36.133,-34.668
1630096297.197,-38.574,-31.250,-29.297,350.586
1630096297.201,-65.430,-37.109,-41.504,-53.223
1630096297.205,-51.758,-36.621,-48.340,-380.859
1630096297.209,-9.277,-24.902,-53.223,-195.801
1630096297.213,-9.766,-30.762,-31.250,315.918
1630096297.217,-39.551,-21.484,-25.879,80.566
1630096297.220,-96.680,5.371,-86.426,-416.504
1630096297.224,-54.199,-19.531,-83.496,-334.473
1630096297.228,8.789,-32.227,-37.109,246.582
1630096297.232,-53.223,-24.414,-46.387,205.566
1630096297.236,-65.430,-51.270,-55.176,-360.840
1630096297.237,-25.391,-57.129,-34.668,-395.996
1630096297.241,-20.508,-41.504,-9.277,88.867
1630096297.245,-31.250,-40.527,-3.418,283.203
1630096297.249,-61.035,-45.410,-9.277,-227.539
1630096297.253,-42.480,-37.109,-8.301,-411.133
1630096297.257,-11.230,-25.879,-14.648,-38.086
1630096297.261,-28.320,-1.465,-44.434,314.941
1630096297.264,-73.242,-17.578,-46.875,-93.262
1630096297.268,-88.867,-39.551,-38.574,-392.578
1630096297.272,-52.246,-29.785,-60.059,-183.105
1630096297.276,-26.855,-44.434,-53.711,309.082
1630096297.280,-57.129,-60.059,-37.109,98.145
1630096297.284,-48.828,-59.570,-20.508,-329.102
1630096297.288,-31.250,-40.527,-21.973,-242.676
1630096297.292,-41.992,-25.391,-37.109,187.500
1630096297.296,-40.039,-59.570,-26.855,155.762
1630096297.300,-62.012,-99.121,-30.762,-284.180
1630096297.304,-43.945,-46.875,-32.227,-313.965
1630096297.308,-28.809,-6.348,-21.484,78.125
1630096297.311,-75.684,-24.414,-22.461,258.301
1630096297.315,-108.887,-34.180,-26.855,-225.586
1630096297.319,-65.430,-10.742,-30.273,-448.730
1630096297.323,-50.781,-0.977,-35.645,-102.051
1630096297.327,-44.922,-41.016,-27.344,311.523
1630096297.342,-60.059,-62.012,-30.273,-24.414
1630096297.346,-58.105,-65.918,-60.547,-372.559
1630096297.350,-27.832,-55.664,-58.594,-228.516
1630096297.354,-21.973,-42.969,-31.250,256.348
1630096297.358,-59.570,-42.480,-28.320,143.555
1630096297.362,-80.566,-4.395,-28.809,-273.438
1630096297.366,-44.922,-1.953,-25.391,-279.297
1630096297.369,-19.531,-53.223,-16.602,165.039
1630096297.373,-50.293,-47.852,-18.066,220.215
1630096297.377,-76.660,-49.316,-30.273,-284.180
1630096297.381,-42.480,-66.406,-40.039,-392.090
1630096297.385,-11.230,-65.918,-46.875,11.230
1630096297.388,-20.508,-56.152,-33.691,302.246
1630096297.392,-31.738,-46.875,-31.250,-135.254
1630096297.396,-61.035,-39.062,-37.109,-400.879
1630096297.400,-79.102,-35.156,-35.645,-126.953
1630096297.404,-18.555,-30.273,-33.691,288.086
1630096297.408,-10.742,-37.109,-32.227,-16.602
1630096297.412,-29.785,-50.781,-42.480,-372.559
1630096297.415,-30.762,-51.270,-50.781,-252.441
1630096297.419,26.367,-0.488,-52.246,266.602
1630096297.423,45.410,93.750,-27.832,177.246
1630096297.427,-46.387,19.531,-16.602,-375.977
1630096297.431,-98.145,-74.219,-26.855,-457.031
1630096297.432,-62.012,-43.457,-7.812,5.859
1630096297.436,-66.895,-59.570,0.977,164.551
1630096297.440,-104.980,-95.215,-7.812,-315.918
1630096297.444,-90.820,-81.543,-28.320,-497.559
1630096297.448,-106.934,-68.848,-39.551,-104.980
1630096297.452,-164.062,-68.848,-29.297,203.125
1630096297.456,-191.406,-67.383,-23.438,-229.004
1630096297.459,-165.039,-60.547,-36.621,-470.215
1630096297.463,-131.836,-1.465,-38.086,-232.422
1630096297.467,-156.738,-35.645,0.000,191.895
1630096297.471,-162.109,-100.586,13.184,-26.855
1630096297.475,-117.188,-73.730,-14.160,-422.852
1630096297.477,-110.840,-35.645,-23.438,-351.562
1630096297.481,-111.816,-56.152,-16.113,163.574
1630096297.485,-115.234,-68.359,-14.648,145.508
1630096297.489,-102.051,-53.223,-21.484,-347.656
1630096297.493,-83.008,-63.965,-39.062,-365.234
1630096297.497,-58.594,-77.637,-31.250,108.887
1630096297.501,-44.434,-83.008,-15.137,276.367
1630096297.504,-72.754,-32.715,-39.551,-230.957
1630096297.508,-84.961,49.805,-59.570,-474.121
1630096297.512,-44.922,-21.973,-28.809,-103.027
1630096297.516,-48.340,-93.750,-14.160,295.898
1630096297.520,-84.473,-73.730,-27.832,-113.281
1630096297.524,-78.613,-50.781,-31.250,-417.480
1630096297.528,-51.270,-49.316,-35.156,-155.762
1630096297.532,-43.945,-50.781,-30.273,337.402
1630096297.536,-77.637,-31.738,-20.020,79.590
1630096297.540,-44.434,-37.109,-25.879,-365.723
1630096297.544,-42.969,-54.688,-33.203,-312.988
1630096297.548,-38.574,-53.711,-33.203,246.094
1630096297.551,-28.320,-18.066,-36.621,251.953
1630096297.555,-63.477,-38.574,-26.855,-320.801
1630096297.559,-81.055,-70.312,-24.414,-380.371
1630096297.563,-36.133,-45.410,-39.551,115.723
1630096297.567,-23.926,-47.363,-33.203,390.625
1630096297.567,-46.875,-70.312,-21.484,-143.555
1630096297.571,-49.316,-72.754,-33.203,-406.250
1630096297.575,-10.254,-51.758,-34.180,-37.598
1630096297.579,41.016,-45.898,-18.066,420.898
1630096297.583,21.973,-63.477,-20.020,37.109
1630096297.587,-20.996,-65.918,-22.461,-321.289
1630096297.591,-39.551,-38.574,-25.879,-120.605
1630096297.594,-18.066,7.812,-52.246,325.684
1630096297.598,-52.246,-3.906,-54.688,88.379
1630096297.602,-62.500,-47.852,-37.598,-353.027
1630096297.606,-0.488,-57.617,-47.363,-312.500
1630096297.610,-0.488,-59.082,-38.574,221.680
1630096297.612,-40.039,-64.453,-30.273,307.617
1630096297.616,-38.086,-59.082,-32.227,-243.652
1630096297.620,-2.930,-42.480,-30.762,-361.328
1630096297.624,14.160,-34.180,-20.996,94.727
1630096297.628,18.066,-50.293,-14.648,396.484
1630096297.632,-0.977,-73.242,-21.484,-117.676
1630096297.636,-53.711,-20.996,-50.781,-411.133
1630096297.639,-40.039,-18.555,-65.430,-62.988
1630096297.643,0.000,-70.801,-44.922,418.457
1630096297.647,-26.367,-61.523,-25.391,42.969
1630096297.651,-26.855,-40.039,-29.297,-382.812
1630096297.655,8.301,-63.965,-28.320,-189.453
1630096297.657,10.254,-91.309,-21.484,394.043
1630096297.661,-36.621,-76.172,-26.855,217.773
1630096297.665,-38.086,-60.059,-27.832,-284.180
1630096297.669,-42.969,-56.152,-40.527,-280.762
1630096297.673,-22.461,-49.805,-48.340,215.332
