timestamps,TP9,AF7,AF8,TP10
1630086908.760,-518.066,-26.367,-9.277,-531.250
1630086908.764,-911.621,-5.371,4.395,634.766
1630086908.768,370.605,-23.438,-12.207,628.906
1630086908.772,-1000.000,-62.500,-26.367,-508.789
1630086908.776,-1000.000,-56.152,-18.066,-763.184
1630086908.780,506.348,0.977,-0.977,306.641
1630086908.784,885.742,11.230,-1.465,817.871
1630086908.787,-665.039,-37.598,-18.555,-236.816
1630086908.791,-1000.000,-41.504,-13.672,-849.121
1630086908.795,-94.238,0.488,0.000,-27.344
1630086908.799,-838.867,13.184,-6.836,867.676
1630086908.803,-16.113,-26.367,-14.648,59.570
1630086908.819,-1000.000,-49.805,-3.906,-820.312
1630086908.823,-232.422,-18.555,2.441,-354.004
1630086908.827,-829.102,11.719,-8.301,798.828
1630086908.831,243.164,-29.785,-20.508,392.578
1630086908.835,-1000.000,-67.383,-32.227,-693.359
1630086908.839,-612.793,-31.738,-19.043,-622.559
1630086908.843,-966.309,15.625,17.090,552.734
1630086908.846,494.141,-15.137,7.324,652.832
1630086908.850,-1000.000,-45.898,-6.348,-461.426
1630086908.854,-1000.000,-22.949,11.719,-779.785
1630086908.858,283.203,11.230,23.926,214.355
1630086908.862,-977.051,6.836,14.648,827.637
1630086908.864,-464.355,-37.109,1.465,-163.574
1630086908.868,-1000.000,-42.480,-14.648,-855.469
1630086908.872,-206.543,-3.906,-13.672,-138.672
1630086908.876,-846.191,11.719,-7.324,860.840
1630086908.880,119.629,-22.461,-11.719,160.156
1630086908.884,-1000.000,-42.480,-9.766,-763.184
1630086908.888,-297.852,-12.695,2.441,-384.277
1630086908.891,-839.844,13.184,7.812,774.902
1630086908.895,242.188,-26.855,-11.230,502.441
1630086908.899,-1000.000,-52.246,-19.531,-602.051
1630086908.903,-764.648,-31.250,-7.324,-642.578
1630086908.907,877.930,-7.324,0.000,483.887
1630086908.909,608.887,-24.414,-14.160,743.652
1630086908.913,-943.359,-56.152,-13.184,-341.797
1630086908.917,-1000.000,-49.316,-5.371,-787.598
1630086908.921,121.582,-18.066,5.859,135.742
1630086908.925,-873.047,-18.555,2.441,862.793
1630086908.929,-255.371,-52.734,-17.578,-41.992
1630086908.933,-1000.000,-53.223,-12.695,-796.387
1630086908.936,-219.238,-20.996,-10.742,-193.848
1630086908.940,-835.938,5.371,0.488,879.395
1630086908.944,242.188,-31.250,11.230,308.105
1630086908.948,-1000.000,-68.848,-11.719,-718.750
1630086908.952,-434.082,-34.180,-9.766,-490.723
1630086908.954,-874.512,-2.930,13.184,678.223
1630086908.958,290.527,-31.738,-0.977,549.316
1630086908.962,-1000.000,-50.293,-25.879,-554.199
1630086908.966,-895.020,-36.621,-16.602,-714.844
1630086908.970,680.176,-2.441,-3.906,365.234
1630086908.974,787.109,0.000,-17.090,787.109
1630086908.978,-780.762,-45.898,-31.738,-268.066
1630086908.981,-1000.000,-42.480,-21.973,-826.660
1630086908.985,-7.324,0.488,-6.836,20.996
1630086908.989,-840.332,-4.883,-25.879,853.027
1630086908.993,-101.074,-49.316,-37.109,7.324
1630086908.997,-1000.000,-61.035,-30.273,-812.500
1630086908.999,-226.562,-29.297,-22.461,-290.527
1630086909.003,-832.031,-15.625,-11.719,792.480
1630086909.007,244.141,-48.828,-20.020,318.848
1630086909.011,-1000.000,-69.824,-22.949,-681.152
1630086909.015,-542.969,-54.688,-20.508,-557.129
1630086909.019,-923.828,-15.137,-6.836,593.750
1630086909.023,420.898,-25.879,-14.648,617.676
1630086909.026,-1000.000,-40.527,-9.277,-470.215
1630086909.030,-1000.000,-23.438,5.859,-729.004
1630086909.034,459.473,-18.555,-14.160,264.160
1630086909.038,917.480,-23.926,-21.484,789.062
1630086909.042,-618.652,-53.223,-26.855,-216.797
1630086909.044,-1000.000,-63.965,-18.555,-850.098
1630086909.048,-156.250,-36.133,-9.766,-104.004
1630086909.052,-842.773,-8.789,-17.090,837.891
1630086909.056,55.176,-45.898,-17.090,95.703
1630086909.060,-1000.000,-74.219,-13.184,-807.129
1630086909.064,-238.770,-41.992,-5.371,-382.324
1630086909.068,-825.195,-4.395,3.906,765.137
1630086909.071,242.188,-32.227,-24.414,414.062
1630086909.075,-1000.000,-76.172,-48.828,-659.180
1630086909.079,-637.207,-62.012,-29.785,-645.020
1630086909.083,-982.422,-21.973,-9.766,503.418
1630086909.087,523.926,-27.832,-10.254,666.992
1630086909.089,-986.816,-62.012,-23.438,-429.688
1630086909.093,-1000.000,-52.734,-32.227,-791.504
1630086909.097,225.586,-9.766,-21.973,174.316
1630086909.101,-919.922,-2.930,-19.531,827.148
1630086909.105,-364.746,-45.898,-33.203,-133.301
1630086909.109,-1000.000,-68.848,-48.828,-853.027
1630086909.113,-212.891,-6.348,-6.836,-132.812
1630086909.116,-838.379,24.414,30.273,883.301
1630086909.120,184.570,-58.105,-9.766,166.504
1630086909.124,-1000.000,-95.215,-13.672,-757.324
1630086909.128,-329.590,-41.992,-3.906,-416.992
1630086909.132,-842.285,1.953,-18.066,675.293
1630086909.134,241.699,-32.227,-43.457,414.551
1630086909.138,-1000.000,-48.828,-43.945,-636.719
1630086909.142,-795.410,-14.648,-35.645,-721.680
1630086909.146,829.590,14.648,-41.504,362.793
1630086909.150,670.410,-1.465,-48.340,691.895
1630086909.154,-895.508,-24.414,-40.039,-362.793
1630086909.158,-1000.000,-17.090,-42.480,-837.402
1630086909.161,77.148,4.395,-39.551,35.156
1630086909.165,-841.309,11.719,-32.715,806.152
1630086909.169,-160.645,-15.137,-33.691,-58.594
1630086909.173,-1000.000,-36.621,-32.227,-835.938
1630086909.177,-223.633,-11.719,-41.016,-266.113
1630086909.194,-832.031,7.812,-36.133,784.180
1630086909.198,242.188,-31.250,-33.203,240.234
1630086909.202,-1000.000,-55.176,-38.086,-739.746
1630086909.206,-450.195,-35.156,-32.715,-530.273
1630086909.210,-878.906,0.000,-16.113,633.789
1630086909.214,336.426,-15.625,-15.625,554.199
1630086909.218,-1000.000,-55.176,-32.227,-530.762
1630086909.221,-939.941,-50.781,-38.086,-728.516
1630086909.225,601.562,-16.602,-22.461,320.312
1630086909.229,864.258,-5.371,15.625,799.805
1630086909.233,-687.988,-32.227,13.184,-223.145
1630086909.237,-1000.000,-44.434,-30.762,-799.805
1630086909.239,-45.410,-7.812,-27.832,10.742
1630086909.243,-834.473,2.930,-10.254,871.094
1630086909.247,-44.922,-41.504,-15.625,45.898
1630086909.251,-1000.000,-56.152,-19.043,-813.477
1630086909.255,-230.957,-13.184,-5.371,-311.035
1630086909.259,-829.590,22.461,1.953,793.945
1630086909.263,243.652,-22.461,-16.113,360.352
1630086909.266,-1000.000,-63.477,-31.738,-672.363
1630086909.270,-568.359,-23.926,-21.484,-581.543
1630086909.274,-937.988,16.113,-10.254,576.660
1630086909.278,450.195,-21.973,-34.180,631.836
1630086909.282,-1000.000,-58.594,-46.875,-481.445
1630086909.284,-1000.000,-45.898,-37.109,-770.996
1630086909.288,360.352,-18.066,-17.090,236.328
1630086909.292,996.582,-23.438,-18.066,802.734
1630086909.296,-506.348,-57.617,-38.574,-188.477
1630086909.300,-1000.000,-50.781,-33.203,-830.566
1630086909.304,-174.316,-3.906,-18.066,-89.844
1630086909.308,-841.309,4.395,-23.926,849.121
1630086909.311,81.543,-44.922,-42.969,114.258
1630086909.315,-1000.000,-34.180,-18.066,-743.164
1630086909.319,-249.512,-5.859,6.836,-351.074
1630086909.323,-826.660,-17.090,-16.602,741.211
1630086909.327,239.258,-53.223,-35.156,431.641
1630086909.329,-1000.000,-86.914,-49.316,-625.000
1630086909.333,-708.008,-62.012,-47.363,-634.277
1630086909.337,944.336,-16.113,-24.414,476.074
1630086909.341,556.641,-22.461,-20.996,673.340
1630086909.345,-971.680,-59.570,-37.109,-417.969
1630086909.349,-1000.000,-51.270,-59.570,-816.895
1630086909.353,172.363,-20.508,-56.152,134.766
1630086909.356,-900.391,-14.160,-32.227,825.195
1630086909.360,-319.336,-28.809,-13.184,-108.398
1630086909.364,-1000.000,-44.922,-8.789,-824.219
1630086909.368,-215.820,-16.113,-6.348,-186.523
1630086909.372,-837.891,8.301,-5.859,795.898
1630086909.374,213.379,-32.715,-20.996,170.898
1630086909.378,-1000.000,-57.129,-16.113,-763.672
1630086909.382,-380.371,-35.645,-10.742,-503.418
1630086909.386,-857.910,-15.625,-19.531,632.324
1630086909.390,244.141,-49.316,-34.668,465.820
1630086909.394,-1000.000,-68.848,-33.203,-594.727
1630086909.398,-850.586,-43.945,-36.133,-720.703
1630086909.401,751.465,3.906,-2.441,375.000
1630086909.405,703.125,1.953,2.441,728.516
1630086909.409,-868.164,-52.246,-46.875,-357.910
1630086909.413,-1000.000,-55.664,-39.062,-847.656
1630086909.417,41.504,-15.625,-7.812,12.207
1630086909.419,-846.191,-12.207,-11.719,772.461
1630086909.423,-157.715,-62.012,-29.297,-88.379
1630086909.427,-1000.000,-67.383,-28.320,-848.145
1630086909.431,-223.145,-27.832,-28.320,-312.988
1630086909.435,-833.984,-6.348,-24.902,745.117
1630086909.439,243.652,-39.551,-25.391,258.301
1630086909.443,-1000.000,-52.734,-32.227,-708.496
1630086909.446,-502.441,-28.320,-23.438,-536.621
1630086909.450,-903.809,-20.020,-12.695,571.289
1630086909.454,356.445,-36.133,-15.625,514.648
1630086909.458,-1000.000,-57.617,-25.879,-561.035
1630086909.462,-981.445,-54.199,-18.066,-763.672
1630086909.465,539.551,-29.785,-3.418,272.949
1630086909.469,873.047,-31.250,-26.855,741.699
1630086909.473,-679.688,-54.199,-38.574,-265.137
1630086909.477,-1000.000,-59.082,-30.273,-862.305
1630086909.481,-85.449,-25.391,-23.438,-84.961
1630086909.485,-835.449,-12.207,-16.602,813.477
1630086909.489,-10.254,-34.668,-9.766,52.734
1630086909.492,-1000.000,-41.992,-11.719,-780.762
1630086909.496,-233.887,-30.762,-25.391,-359.863
1630086909.500,-828.613,-15.137,-20.020,714.355
1630086909.504,245.117,-41.016,-31.250,312.500
1630086909.508,-1000.000,-60.059,-32.715,-692.871
1630086909.509,-597.168,-38.086,-19.531,-619.141
1630086909.513,976.074,-0.977,-7.324,460.449
1630086909.517,398.926,-25.391,-11.230,562.500
1630086909.521,-998.535,-59.570,-24.902,-451.660
1630086909.525,-1000.000,-51.270,-27.344,-779.297
1630086909.529,289.062,-13.672,-8.789,187.012
1630086909.533,-982.910,-4.395,-2.441,808.105
1630086909.536,-473.633,-62.988,-23.438,-166.504
1630086909.540,-1000.000,-80.566,-34.668,-825.684
1630086909.544,-205.078,-35.156,-30.273,-132.324
1630086909.548,-848.145,-14.648,-30.762,812.988
1630086909.552,107.910,-54.199,-34.180,151.855
1630086909.569,-1000.000,-75.684,-32.227,-744.141
1630086909.573,-300.293,-38.574,-22.949,-405.762
1630086909.577,-842.285,0.488,-11.230,715.820
1630086909.581,244.629,-28.320,-29.297,459.473
1630086909.585,-1000.000,-56.641,-41.504,-596.680
1630086909.589,-743.164,-22.949,-18.555,-630.371
1630086909.593,900.391,8.789,4.883,479.492
1630086909.596,609.863,-19.531,-4.883,696.777
1630086909.600,-942.383,-62.988,-33.691,-386.230
1630086909.604,-1000.000,-27.344,-12.695,-781.250
1630086909.608,145.508,23.926,12.207,135.742
1630086909.612,-876.953,-5.859,-15.137,819.824
1630086909.614,-269.531,-49.316,-20.020,-83.984
1630086909.618,-1000.000,-55.664,-12.207,-787.598
1630086909.622,-217.773,-23.926,-8.301,-180.176
1630086909.626,-836.426,0.488,-3.418,804.199
1630086909.630,228.516,-36.621,-1.953,215.820
1630086909.634,-1000.000,-59.570,-11.719,-707.520
1630086909.638,-415.527,-31.250,-11.719,-474.609
1630086909.641,-868.164,-5.859,1.953,643.066
1630086909.645,294.434,-12.207,8.301,532.715
1630086909.649,-1000.000,-24.902,0.977,-499.512
1630086909.653,-888.672,-38.086,-26.367,-690.918
1630086909.657,697.754,-9.766,-12.207,333.984
1630086909.659,764.160,-10.254,-1.465,734.375
1630086909.663,-806.641,-50.781,-18.066,-295.898
1630086909.667,-1000.000,-50.781,-25.391,-795.898
1630086909.671,4.395,-21.484,-4.883,21.973
1630086909.675,-837.891,-11.719,1.465,826.172
1630086909.679,-98.633,-42.969,-10.742,6.836
1630086909.683,-1000.000,-57.129,-11.719,-784.180
1630086909.686,-227.539,-35.156,-7.812,-266.602
1630086909.690,-831.543,13.672,17.578,798.340
1630086909.694,243.652,-0.977,20.996,322.754
1630086909.698,-1000.000,-51.270,-11.230,-673.340
1630086909.702,-532.715,-30.762,-12.207,-538.086
1630086909.704,-918.945,-1.953,-0.977,586.426
1630086909.708,403.320,-34.668,-10.742,578.613
1630086909.712,-1000.000,-71.777,-15.137,-490.234
1630086909.716,-1000.000,-43.457,-8.301,-723.145
1630086909.720,493.164,0.000,-2.930,283.691
1630086909.724,920.410,-13.184,-13.184,778.809
1630086909.728,-617.188,-61.035,-33.203,-230.469
1630086909.731,-1000.000,-42.480,-10.254,-800.781
1630086909.735,-121.094,14.160,25.879,-36.133
1630086909.739,-834.961,-0.977,5.371,819.824
1630086909.743,40.039,-46.875,-18.066,85.938
1630086909.747,-1000.000,-62.500,-12.695,-744.629
1630086909.749,-238.281,-33.691,-5.371,-342.285
1630086909.753,-826.172,-12.695,1.465,739.746
1630086909.757,242.188,-43.945,-1.465,375.977
1630086909.761,-1000.000,-56.152,-6.836,-619.141
1630086909.765,-632.324,-39.551,-5.859,-579.590
1630086909.769,-980.469,-11.719,6.836,516.113
1630086909.773,527.344,-21.484,2.930,667.969
1630086909.776,-991.211,-45.898,5.859,-380.371
1630086909.780,-1000.000,-29.785,12.695,-728.516
1630086909.784,268.555,-14.648,-2.930,182.129
1630086909.788,-934.082,-16.602,-13.672,807.617
1630086909.792,-392.090,-57.617,-12.695,-122.559
1630086909.794,-1000.000,-81.055,-3.418,-767.090
1630086909.798,-212.402,-36.133,4.883,-125.000
1630086909.802,-839.355,-5.371,0.488,795.898
1630086909.806,178.711,-25.391,-18.066,143.066
1630086909.810,-1000.000,-30.273,-22.949,-750.977
1630086909.814,-320.801,-0.977,-13.672,-433.594
1630086909.818,-840.332,46.875,-2.930,706.543
1630086909.821,242.188,34.668,12.695,510.742
1630086909.825,-1000.000,-19.531,-10.742,-557.129
1630086909.829,-779.297,-15.137,-22.949,-665.039
1630086909.833,858.398,22.949,-11.230,393.555
1630086909.837,635.254,4.395,-26.855,678.711
1630086909.839,-927.734,-37.109,-42.969,-349.121
1630086909.843,-1000.000,-19.043,-38.574,-785.645
1630086909.847,92.285,21.973,-9.277,80.078
1630086909.851,-845.703,19.043,-4.883,824.219
1630086909.855,-177.734,-23.438,-25.391,-56.641
1630086909.859,-1000.000,-32.227,-29.297,-804.688
1630086909.863,-222.656,23.438,6.836,-181.152
1630086909.866,-832.520,43.457,20.996,839.355
1630086909.870,242.188,-33.203,-20.508,233.398
1630086909.874,-1000.000,-58.105,-30.762,-722.168
1630086909.878,-446.777,-22.949,-8.301,-504.883
1630086909.882,-878.418,-3.418,-2.441,619.141
1630086909.884,308.105,-36.133,-27.832,525.391
1630086909.888,-1000.000,-65.430,-20.996,-530.762
1630086909.892,-937.012,-47.852,-5.859,-710.938
1630086909.896,609.863,-8.301,5.859,318.848
1630086909.900,831.543,-9.766,10.254,757.812
1630086909.904,-728.516,-33.203,8.301,-235.352
1630086909.908,-1000.000,-28.809,-5.371,-757.812
1630086909.911,-52.246,-16.113,-8.789,-6.348
1630086909.915,-825.195,-17.090,-8.789,790.527
1630086909.919,-99.609,-24.414,-9.766,10.254
1630086909.923,-1000.000,-21.973,1.953,-683.594
1630086909.927,-48.340,-18.066,12.207,-207.031
1630086909.944,-848.145,-2.441,20.996,746.582
1630086909.948,242.188,-27.832,20.996,350.098
1630086909.952,-1000.000,-49.805,9.766,-640.137
1630086909.956,-559.570,-36.133,-5.371,-559.570
1630086909.960,-933.105,-10.742,5.859,556.152
1630086909.964,446.289,-25.391,6.836,611.816
1630086909.968,-1000.000,-56.152,-5.371,-453.613
1630086909.971,-1000.000,-46.875,-11.719,-740.723
1630086909.975,381.836,-14.160,-5.371,222.656
1630086909.979,-991.211,25.879,34.180,805.664
1630086909.983,-485.352,-7.812,20.020,-143.066
1630086909.987,-1000.000,-62.988,-21.484,-800.781
1630086909.989,-150.391,-25.391,6.348,-82.031
1630086909.993,-894.531,-3.418,5.371,777.344
1630086909.997,-6.348,-51.270,-16.602,59.570
1630086910.001,-1000.000,-65.918,-14.160,-742.188
1630086910.005,-241.699,-23.438,-0.488,-365.234
1630086910.009,-826.172,3.906,10.742,731.934
1630086910.013,240.234,-41.016,-10.254,397.461
1630086910.016,-1000.000,-78.125,-32.715,-628.418
1630086910.020,-668.457,-38.086,-9.766,-625.488
1630086910.024,983.887,15.137,14.160,469.727
1630086910.028,563.965,-20.996,-18.555,646.484
1630086910.032,-964.355,-53.711,-33.691,-396.973
1630086910.034,-1000.000,-38.574,-21.484,-758.789
1630086910.038,191.895,-3.418,-7.812,154.785
1630086910.042,-892.090,-2.441,-15.137,806.641
1630086910.046,-308.105,-42.480,-24.414,-105.957
1630086910.050,-1000.000,-48.828,-16.113,-797.363
1630086910.054,-216.309,-18.066,0.977,-173.828
1630086910.058,-835.449,0.000,-5.371,796.875
1630086910.061,212.402,-43.945,-33.203,173.828
1630086910.065,-1000.000,-36.133,-6.836,-700.684
1630086910.069,-340.820,21.973,41.504,-392.578
1630086910.073,-841.797,9.766,11.719,650.391
1630086910.077,248.535,-38.574,-27.344,444.336
1630086910.079,-1000.000,-63.477,-31.250,-576.172
1630086910.083,-838.379,-52.246,-29.297,-693.848
1630086910.087,764.160,-25.879,-23.438,349.121
1630086910.091,728.027,-29.297,-34.668,697.754
1630086910.095,-845.215,-65.430,-51.758,-320.801
1630086910.099,-1000.000,-61.523,-44.922,-795.410
1630086910.103,61.523,-21.973,-26.367,31.250
1630086910.106,-837.891,-5.371,-14.160,781.250
1630086910.110,-138.672,-30.273,-16.113,-34.180
1630086910.114,-1000.000,-61.035,-35.645,-805.176
1630086910.118,-225.098,-45.410,-34.180,-290.039
1630086910.122,-832.520,-11.719,-18.555,737.305
1630086910.124,243.164,-42.480,-30.762,231.934
1630086910.128,-1000.000,-74.219,-46.387,-732.422
1630086910.132,-496.094,-47.852,-51.270,-578.613
1630086910.136,-901.367,-12.695,-45.410,520.020
1630086910.140,366.211,-33.203,-47.852,475.098
1630086910.144,-1000.000,-66.895,-45.410,-548.340
1630086910.148,-965.332,-65.918,-38.574,-761.719
1630086910.151,557.617,-7.324,-4.395,236.816
1630086910.155,896.973,1.953,-1.953,708.496
1630086910.159,-647.949,-70.801,-42.969,-328.613
1630086910.163,-1000.000,-64.941,-43.457,-912.109
1630086910.167,-70.312,-16.602,-29.297,-159.668
1630086910.171,-829.102,-1.465,-25.391,690.430
1630086910.175,3.906,-42.480,-44.922,-72.754
1630086910.179,-1000.000,-64.941,-41.992,-904.785
1630086910.183,-235.840,-29.297,-22.949,-467.285
1630086910.187,-827.148,-12.695,-19.531,577.637
1630086910.191,243.164,-54.199,-29.297,188.965
1630086910.195,-1000.000,-55.664,-17.578,-768.066
1630086910.198,-594.727,-20.508,6.836,-695.312
1630086910.202,-955.566,-10.742,-7.812,356.934
1630086910.206,500.000,-25.879,-25.391,458.984
1630086910.210,-1000.000,-52.734,-32.715,-548.828
1630086910.214,-1000.000,-54.199,-30.273,-878.418
1630086910.214,352.051,-27.344,-15.137,75.684
1630086910.218,912.598,-29.297,-22.461,608.887
1630086910.222,-652.832,-63.965,-32.715,-342.285
1630086910.226,-1000.000,-64.941,-27.344,-874.512
1630086910.230,-197.754,-27.832,-22.949,-219.727
1630086910.234,-850.098,-10.742,-22.949,681.641
1630086910.238,118.164,-18.555,2.930,82.031
1630086910.241,-1000.000,-16.113,29.785,-729.492
1630086910.245,-292.969,-32.715,-7.812,-468.262
1630086910.249,-837.891,-15.625,-30.762,576.172
1630086910.253,242.188,-36.133,-31.250,337.402
1630086910.257,-1000.000,-75.195,-31.250,-665.527
1630086910.259,-754.883,-61.523,-31.250,-709.473
1630086910.263,889.648,-23.438,-19.043,355.469
1630086910.267,592.285,-30.762,-16.113,601.074
1630086910.271,-956.055,-60.059,-25.391,-421.387
1630086910.275,-1000.000,-66.406,-41.992,-836.914
1630086910.279,148.926,-7.324,-12.207,66.895
1630086910.283,-875.488,42.969,27.344,794.922
1630086910.286,-268.555,-32.227,-16.602,-132.812
1630086910.290,-1000.000,-67.383,-42.480,-882.812
1630086910.294,-216.797,-9.766,-7.324,-255.859
1630086910.298,-837.402,9.277,7.812,722.168
1630086910.302,218.262,-39.062,-17.578,127.441
1630086910.319,-1000.000,-52.734,-11.230,-785.156
1630086910.323,-416.504,-19.043,-0.977,-574.219
1630086910.327,-872.070,-3.906,2.930,518.066
1630086910.331,257.812,-34.668,-7.324,408.691
1630086910.335,-1000.000,-38.574,-30.273,-649.902
1630086910.339,-892.090,1.465,-26.855,-834.473
1630086910.343,694.336,40.527,-9.766,222.168
1630086910.346,729.004,20.996,-20.020,609.863
1630086910.350,-843.750,-12.207,-47.852,-415.527
1630086910.354,-1000.000,44.434,-17.090,-870.117
1630086910.358,-1.953,95.703,13.672,-33.203
1630086910.362,-850.586,50.293,-30.273,693.359
1630086910.364,-143.555,-0.977,-51.270,-113.281
1630086910.368,-1000.000,-1.953,-53.711,-823.242
1630086910.372,-223.145,41.992,-50.781,-330.078
1630086910.376,-834.961,60.059,-51.270,702.637
1630086910.380,244.141,1.953,-53.223,274.902
1630086910.384,-1000.000,-25.391,-50.781,-672.852
1630086910.388,-540.527,8.789,-35.156,-505.859
1630086910.391,-921.875,17.090,-22.949,599.121
1630086910.395,336.914,4.395,-5.371,612.793
1630086910.399,-1000.000,-13.672,8.789,-378.418
1630086910.403,-1000.000,-30.762,-19.043,-635.742
1630086910.407,410.645,-1.953,-26.367,296.875
1630086910.409,899.414,13.672,-9.766,823.730
1630086910.413,-647.949,-26.855,-16.602,-116.211
1630086910.417,-1000.000,-44.922,-46.875,-707.520
1630086910.421,-149.902,-16.113,-34.668,17.578
1630086910.425,-851.562,-13.184,-19.531,885.254
1630086910.429,0.000,-48.340,-29.297,185.059
1630086910.433,-1000.000,-58.594,-30.762,-628.418
1630086910.436,-232.422,-33.203,-25.391,-247.559
1630086910.440,-829.102,12.207,20.508,827.637
1630086910.444,243.164,-9.766,22.461,513.184
1630086910.448,-1000.000,-64.941,-20.508,-520.508
1630086910.452,-634.766,-47.363,-10.742,-506.348
1630086910.454,-979.980,-10.742,5.371,573.730
1630086910.458,505.371,-32.715,-8.789,710.449
1630086910.462,-994.141,-70.801,-25.391,-322.266
1630086910.466,-1000.000,-46.875,-5.371,-648.438
1630086910.470,236.328,-9.277,25.879,260.742
1630086910.474,-962.891,-26.855,12.207,855.957
1630086910.478,-439.453,-71.777,-23.926,-48.340
1630086910.481,-1000.000,-61.523,-25.391,-694.336
1630086910.485,-207.520,-12.207,3.418,-40.527
1630086910.489,-845.703,-15.137,-14.648,877.441
1630086910.493,135.742,-60.547,-32.715,242.676
1630086910.497,-1000.000,-71.289,-33.691,-638.672
1630086910.499,-319.824,-30.762,-26.855,-336.914
1630086910.503,-845.215,-0.977,-16.602,744.629
1630086910.507,244.629,-29.297,-31.250,526.367
1630086910.511,-1000.000,-55.664,-34.180,-482.422
1630086910.515,-768.555,-44.434,-19.043,-545.410
1630086910.519,870.117,-17.090,-3.418,495.117
1630086910.523,635.254,-37.109,-20.020,760.254
1630086910.526,-924.316,-46.387,-14.160,-211.914
1630086910.530,-1000.000,-23.438,10.254,-647.461
1630086910.534,92.773,-13.672,-15.137,140.625
1630086910.538,-856.934,0.977,-25.391,857.422
1630086910.542,-205.566,-33.691,-22.949,12.695
1630086910.544,-1000.000,-49.316,-24.902,-720.215
1630086910.548,-221.191,-15.625,-18.066,-154.297
1630086910.552,-833.496,0.000,-12.695,843.750
1630086910.556,242.188,-30.762,-20.508,318.359
1630086910.560,-1000.000,-49.805,-20.996,-620.117
1630086910.564,-435.547,-31.738,-9.277,-425.293
1630086910.568,-873.535,10.254,15.625,690.918
1630086910.571,321.777,-5.371,24.414,591.309
1630086910.575,-1000.000,-57.129,-7.812,-474.609
1630086910.579,-922.852,-51.270,-20.508,-653.320
1630086910.583,642.090,4.395,6.836,368.652
1630086910.587,810.059,1.953,8.789,779.297
1630086910.589,-751.953,-55.664,-22.949,-228.027
1630086910.593,-1000.000,-46.875,-37.109,-759.277
1630086910.597,-41.504,-9.277,-18.555,21.973
1630086910.601,-835.449,-1.953,-2.441,843.750
1630086910.605,-49.805,-36.133,-12.695,67.383
1630086910.609,-1000.000,-50.293,-17.090,-728.027
1630086910.613,-230.957,-3.906,8.789,-241.211
1630086910.616,-829.102,17.578,14.160,812.988
1630086910.620,243.652,-45.410,-20.996,352.539
1630086910.624,-1000.000,-74.219,-21.973,-632.324
1630086910.628,-552.734,-49.805,-13.184,-539.551
1630086910.632,-929.688,-7.324,-6.348,545.410
1630086910.635,456.543,-22.949,-17.578,600.098
1630086910.639,-1000.000,-61.035,-14.648,-425.293
1630086910.643,-1000.000,-47.852,1.465,-704.102
1630086910.647,407.715,-11.719,1.953,259.766
1630086910.651,976.562,-16.602,-8.789,786.621
1630086910.655,-532.715,-46.875,-9.766,-168.945
1630086910.659,-1000.000,-41.504,-2.441,-756.836
1630086910.662,-167.969,-24.414,-11.719,-71.777
1630086910.666,-839.355,-16.602,-20.996,812.012
1630086910.670,80.566,-50.293,-27.344,110.352
1630086910.674,-1000.000,-75.195,-28.320,-736.816
1630086910.678,-241.211,-43.457,-13.184,-347.168
1630086910.694,-823.730,-3.418,1.465,733.398
1630086910.698,240.723,-28.320,-4.883,411.621
1630086910.702,-1000.000,-53.223,-8.301,-579.102
1630086910.706,-660.156,-27.344,-8.301,-574.219
1630086910.710,989.746,1.465,-5.371,488.770
1630086910.714,589.844,7.324,17.090,702.148
1630086910.718,-944.824,-22.461,15.137,-315.430
1630086910.721,-1000.000,-49.805,-20.020,-754.395
1630086910.725,188.965,-14.648,-9.277,117.188
1630086910.729,-913.086,10.742,15.137,808.594
1630086910.733,-342.285,-33.203,0.977,-92.285
1630086910.737,-1000.000,-59.570,-20.020,-805.176
1630086910.739,-213.867,-23.438,-13.184,-183.105
1630086910.743,-838.867,-5.859,-0.977,795.898
1630086910.747,191.895,-42.969,-6.836,188.965
1630086910.751,-1000.000,-61.035,-30.762,-726.074
1630086910.755,-357.422,-34.180,-23.438,-438.965
1630086910.759,-851.562,-3.906,-3.418,676.758
1630086910.763,247.070,-25.879,-15.625,489.258
1630086910.766,-1000.000,-62.012,-22.461,-559.570
1630086910.770,-829.102,-37.109,7.812,-656.738
1630086910.774,785.156,32.715,52.734,421.387
1630086910.778,682.129,4.883,11.719,709.473
1630086910.782,-885.254,-47.363,-22.949,-327.637
1630086910.784,-1000.000,-44.434,-11.719,-788.086
1630086910.788,45.898,-20.508,-5.371,34.180
1630086910.792,-843.262,-13.184,-13.184,798.828
1630086910.796,-150.391,-44.922,-34.668,-34.668
1630086910.800,-1000.000,-53.223,-36.133,-788.574
1630086910.804,-223.633,-24.902,-21.484,-237.793
1630086910.808,-832.031,1.465,-9.277,791.504
1630086910.811,242.676,-39.062,-26.855,262.695
1630086910.815,-1000.000,-35.645,-6.836,-654.785
1630086910.819,-466.797,-0.488,15.137,-445.312
1630086910.823,-886.230,-10.254,-16.602,610.352
1630086910.827,341.309,-34.180,-25.879,530.273
1630086910.829,-1000.000,-58.594,-30.273,-519.531
1630086910.833,-966.797,-51.758,-41.992,-739.258
1630086910.837,549.316,-12.695,-25.879,287.109
1630086910.841,897.461,-18.066,-14.648,767.578
1630086910.845,-647.949,-65.430,-22.461,-226.562
1630086910.849,-1000.000,-72.266,-28.809,-791.504
1630086910.853,-71.289,-42.480,-35.645,-38.086
1630086910.856,-832.031,-6.836,-16.602,830.566
1630086910.860,-10.742,-20.996,-2.441,86.914
1630086910.864,-1000.000,-51.758,-29.785,-759.277
1630086910.868,-233.887,-21.484,-24.414,-316.895
1630086910.872,-828.125,8.789,-12.695,748.047
1630086910.875,243.652,-31.250,-23.926,351.562
1630086910.879,-1000.000,-66.406,-28.809,-611.816
1630086910.883,-591.309,-37.598,-24.414,-565.918
1630086910.887,-953.125,9.277,-4.883,514.648
1630086910.891,494.629,-6.348,-2.441,633.301
1630086910.895,-1000.000,-36.133,-14.648,-403.320
1630086910.899,-1000.000,-36.621,-21.484,-730.469
1630086910.902,325.195,11.719,-10.742,229.004
1630086910.906,-986.816,26.855,-2.441,825.684
1630086910.910,-479.004,-47.363,-34.668,-164.551
1630086910.914,-1000.000,-53.223,-35.645,-806.641
1630086910.918,-190.918,-21.973,-8.789,-113.770
1630086910.919,-844.238,-17.090,-5.859,802.246
1630086910.923,103.027,-44.922,-21.973,123.047
1630086910.927,-1000.000,-65.918,-31.250,-754.883
1630086910.931,-285.645,-43.457,-35.156,-414.062
1630086910.935,-837.402,-16.602,-25.391,670.410
1630086910.939,243.652,-49.805,-28.809,391.113
1630086910.943,-1000.000,-55.176,-38.086,-610.840
1630086910.946,-722.656,-2.930,-16.602,-597.168
1630086910.950,926.270,0.000,-0.488,488.770
1630086910.954,576.172,-46.875,-11.230,666.992
1630086910.958,-959.961,-66.895,-29.297,-413.574
1630086910.962,-1000.000,-62.988,-27.832,-827.148
1630086910.964,144.043,-47.852,3.418,65.430
1630086910.968,-869.141,-50.781,5.859,787.109
1630086910.972,-257.324,-82.031,-17.578,-87.891
1630086910.976,-1000.000,-90.332,-22.949,-801.270
1630086910.980,-218.262,-57.617,-9.277,-204.102
1630086910.984,-835.449,-38.086,-8.789,772.949
1630086910.988,230.469,-43.945,1.953,230.957
1630086910.991,-1000.000,-55.176,16.113,-667.969
1630086910.995,-407.227,-59.570,-17.090,-462.891
1630086910.999,-865.234,-27.344,-15.625,641.602
1630086911.003,281.250,-51.758,-6.836,504.395
1630086911.007,-1000.000,-95.215,-23.438,-543.457
1630086911.009,-875.977,-75.684,-20.508,-684.570
1630086911.013,712.402,-27.344,-8.301,345.703
1630086911.017,759.766,-36.133,-18.555,717.773
1630086911.021,-813.477,-73.730,-32.227,-297.363
1630086911.025,-1000.000,-67.383,-20.508,-772.461
1630086911.029,32.227,-35.156,0.000,47.852
1630086911.033,-837.891,-21.484,-6.836,833.984
1630086911.036,-123.047,-72.754,-36.621,-16.602
1630086911.040,-1000.000,-86.914,-40.039,-813.477
1630086911.044,-225.586,-35.645,-18.555,-272.461
1630086911.048,-832.031,-20.508,-2.441,766.602
1630086911.052,243.652,-59.570,-18.555,295.410
1630086911.069,-1000.000,-67.871,-32.715,-680.664
1630086911.073,-518.555,-37.598,-28.320,-546.875
1630086911.077,-911.621,-6.836,-18.555,565.918
1630086911.081,408.691,-36.621,-22.949,555.664
1630086911.085,-1000.000,-77.148,-39.551,-500.488
1630086911.089,-1000.000,-60.547,-30.273,-726.074
1630086911.093,503.906,-18.066,-2.930,270.020
1630086911.096,911.133,-24.902,-5.859,758.301
1630086911.100,-629.883,-72.754,-27.832,-243.164
1630086911.104,-1000.000,-50.293,-7.812,-799.316
1630086911.108,-105.957,-11.719,14.160,-49.316
1630086911.112,-836.426,-31.250,-11.230,790.527
1630086911.114,12.207,-66.406,-18.555,54.199
1630086911.118,-1000.000,-61.523,-4.883,-762.695
1630086911.122,-235.352,-40.039,-18.066,-359.375
1630086911.126,-828.125,-25.879,-37.598,697.754
1630086911.130,242.676,-49.805,-38.574,347.168
1630086911.134,-1000.000,-60.059,-35.645,-657.715
1630086911.138,-631.836,-44.434,-29.785,-634.766
1630086911.141,-978.516,-28.320,-26.367,462.402
1630086911.145,511.230,-20.996,-26.367,622.070
1630086911.149,-994.629,-31.250,-13.672,-401.367
1630086911.153,-1000.000,-45.898,-16.602,-767.090
1630086911.157,254.395,-17.090,-7.812,159.180
1630086911.159,-956.543,-7.324,-4.395,795.898
1630086911.163,-430.176,-48.828,-15.625,-148.438
1630086911.167,-1000.000,-59.082,-18.066,-818.359
1630086911.171,-209.473,-16.602,-13.672,-158.203
1630086911.175,-843.750,5.859,-21.484,813.965
1630086911.179,152.344,-37.598,-46.875,154.297
1630086911.183,-1000.000,-55.176,-55.176,-752.930
1630086911.186,-320.801,-35.645,-50.293,-447.266
1630086911.190,-843.750,11.230,-3.418,674.805
1630086911.194,244.141,-9.766,10.742,449.707
1630086911.198,-1000.000,-67.871,-24.414,-617.676
1630086911.202,-773.438,-53.711,-28.809,-698.242
1630086911.204,864.746,-20.508,-21.484,382.324
1630086911.208,634.766,-27.832,-20.508,682.617
1630086911.212,-928.711,-57.617,-31.738,-369.141
1630086911.216,-1000.000,-49.805,-28.320,-818.848
1630086911.220,105.957,-19.531,-18.066,63.477
1630086911.224,-851.074,-13.672,-27.832,782.227
1630086911.228,-196.289,-52.734,-38.086,-95.703
1630086911.231,-1000.000,-71.289,-44.434,-798.828
1630086911.235,-222.168,-26.855,-19.531,-208.008
1630086911.239,-833.008,-9.766,-10.254,783.691
1630086911.243,242.188,-44.434,-21.973,244.141
1630086911.247,-1000.000,-57.129,-23.438,-696.289
1630086911.249,-437.500,-36.133,-20.020,-516.113
1630086911.253,-874.023,-4.883,-12.695,612.793
1630086911.257,338.867,-24.414,-26.367,532.715
1630086911.261,-1000.000,-56.641,-36.621,-535.156
1630086911.265,-908.203,-40.527,-34.180,-733.398
1630086911.269,656.250,-2.930,-17.578,310.547
1630086911.273,840.332,-14.648,-27.832,738.770
1630086911.276,-711.426,-16.602,-15.137,-250.488
1630086911.280,-1000.000,0.000,10.254,-762.695
1630086911.284,-38.086,-0.488,-8.301,-24.414
1630086911.288,-835.938,1.953,-18.555,789.551
1630086911.292,-56.641,-35.156,-37.109,13.672
1630086911.294,-1000.000,-47.852,-53.223,-801.758
1630086911.298,-230.469,-22.949,-39.062,-324.219
1630086911.302,-829.590,2.930,-20.020,758.789
1630086911.306,243.164,-29.297,-32.715,328.613
1630086911.310,-1000.000,-60.059,-43.457,-671.875
1630086911.314,-543.945,-36.133,-40.039,-566.406
1630086911.318,-924.805,6.836,-20.996,566.895
1630086911.321,456.055,-6.836,-13.672,626.953
1630086911.325,-1000.000,-60.059,-40.039,-461.426
1630086911.329,-1000.000,-59.082,-45.898,-764.648
1630086911.333,399.902,-13.672,-35.156,224.121
1630086911.337,970.703,-0.977,-41.992,778.320
1630086911.340,-541.992,-48.340,-44.922,-202.148
1630086911.344,-1000.000,-69.824,-38.574,-833.984
1630086911.348,-166.504,-20.996,-16.113,-84.961
1630086911.352,-840.332,2.441,-10.254,842.285
1630086911.356,74.219,-39.551,-39.062,106.934
1630086911.360,-1000.000,-64.941,-45.410,-762.695
1630086911.364,-240.723,-6.348,1.953,-336.426
1630086911.367,-824.219,37.109,20.020,781.738
1630086911.371,239.746,-51.758,-30.273,404.785
1630086911.375,-1000.000,-90.332,-49.316,-655.762
1630086911.379,-679.199,-48.340,-50.293,-645.508
1630086911.383,977.051,-10.742,-27.832,459.473
1630086911.384,539.551,-38.574,-32.227,629.883
1630086911.388,-979.980,-82.031,-43.945,-427.734
1630086911.392,-1000.000,-57.617,-43.945,-799.805
1630086911.396,187.500,-3.906,-43.457,112.305
1630086911.400,-902.344,-13.184,-39.551,769.531
1630086911.404,-326.172,-44.922,-21.484,-130.371
1630086911.408,-1000.000,-22.949,20.508,-770.020
1630086911.411,-214.844,-11.719,8.301,-163.086
1630086911.415,-837.891,-9.766,-15.625,787.109
1630086911.419,199.219,-39.551,-20.996,183.594
1630086911.423,-1000.000,-54.199,-36.133,-742.188
1630086911.427,-354.492,-25.879,-45.898,-475.098
1630086911.444,-849.609,-5.371,-36.621,642.090
1630086911.448,241.211,-31.738,-40.527,458.008
1630086911.452,-1000.000,-50.781,-41.992,-588.867
1630086911.456,-843.750,-38.086,-31.738,-704.590
1630086911.460,758.789,-2.441,-29.785,365.723
1630086911.464,710.449,-11.230,-30.762,703.613
1630086911.468,-863.770,-53.223,-35.156,-348.633
1630086911.471,-1000.000,-45.898,-36.621,-820.801
1630086911.475,59.082,-13.672,-25.879,47.852
1630086911.479,-840.820,0.488,-22.461,820.312
1630086911.483,-147.949,-41.992,-33.203,-34.180
1630086911.487,-1000.000,-70.312,-43.457,-812.500
1630086911.489,-224.121,-26.367,-38.574,-269.531
1630086911.493,-832.520,-12.695,-32.227,774.414
1630086911.497,243.164,-54.688,-30.762,288.086
1630086911.501,-1000.000,-55.176,-41.992,-699.707
1630086911.505,-487.793,-19.043,-43.457,-577.637
1630086911.509,-896.484,22.949,-20.996,569.824
1630086911.513,361.328,11.230,-33.203,539.551
1630086911.516,-1000.000,-29.785,-68.848,-555.664
1630086911.520,-979.004,-16.602,-61.035,-764.648
1630086911.524,551.758,34.180,-43.457,250.000
1630086911.528,858.398,24.414,-56.641,708.008
1630086911.532,-697.754,-22.461,-67.383,-279.785
1630086911.534,-1000.000,-19.043,-56.152,-846.191
1630086911.538,-75.195,13.672,-33.203,-76.172
1630086911.542,-833.008,19.531,-33.691,792.969
1630086911.546,-8.789,-21.973,-35.645,33.691
1630086911.550,-1000.000,-35.156,-45.410,-800.293
1630086911.554,-234.375,-2.441,-48.340,-347.656
1630086911.558,-828.125,10.742,-32.227,736.328
1630086911.561,243.164,-33.691,-54.199,323.730
1630086911.565,-1000.000,-38.574,-37.598,-656.250
1630086911.569,-594.238,-0.488,-0.977,-575.684
1630086911.573,-955.078,-2.930,-20.020,474.609
1630086911.577,480.469,-40.527,-43.457,557.617
1630086911.580,-1000.000,-63.965,-57.129,-486.328
1630086911.584,-1000.000,-45.898,-41.992,-807.129
1630086911.588,330.566,-8.301,-25.879,141.602
1630086911.592,-972.656,0.977,-33.203,746.582
1630086911.596,-457.520,-35.645,-40.039,-206.543
1630086911.600,-1000.000,-43.457,-46.387,-864.746
1630086911.604,-187.988,-11.230,-32.715,-163.574
1630086911.607,-840.820,1.953,-21.973,765.625
1630086911.611,107.910,-26.367,-28.320,98.145
1630086911.615,-1000.000,-54.688,-42.480,-784.668
1630086911.619,-270.996,-30.762,-32.715,-428.711
1630086911.623,-831.543,0.000,-21.484,698.242
1630086911.624,239.746,-31.738,-44.434,413.086
1630086911.628,-1000.000,-60.059,-50.781,-618.164
1630086911.632,-738.770,-36.621,-34.180,-648.438
1630086911.636,906.250,6.348,-22.949,438.477
1630086911.640,604.004,-15.625,-25.391,671.875
1630086911.644,-946.777,-63.965,-41.016,-374.512
1630086911.648,-1000.000,-45.898,-44.922,-784.668
1630086911.651,153.320,12.695,-12.695,110.840
1630086911.655,-876.953,25.879,2.930,830.566
1630086911.659,-271.973,-32.227,-29.297,-62.500
1630086911.663,-1000.000,-47.363,-36.621,-807.129
1630086911.667,-216.309,-16.113,-14.160,-214.844
1630086911.669,-837.891,-15.137,-23.438,780.762
1630086911.673,209.473,-62.012,-59.570,168.945
1630086911.677,-1000.000,-70.801,-69.336,-756.836
1630086911.681,-418.945,-41.504,-59.570,-488.281
1630086911.685,-873.535,-9.277,-52.734,635.742
1630086911.689,281.250,-36.621,-71.289,487.793
1630086911.693,-1000.000,-59.570,-72.754,-539.062
1630086911.696,-883.301,-26.367,-31.738,-641.113
1630086911.700,705.078,-6.348,-20.996,373.535
1630086911.704,746.582,-27.344,-38.574,735.840
1630086911.708,-821.777,-60.547,-42.969,-280.762
1630086911.712,-1000.000,-52.734,-41.992,-797.363
1630086911.714,-11.719,-21.484,-32.715,11.230
1630086911.718,-845.215,-13.672,-27.832,826.172
1630086911.722,-117.188,-43.457,-41.016,29.297
1630086911.726,-1000.000,-56.641,-41.504,-749.023
1630086911.730,-225.098,-20.996,-23.926,-262.695
1630086911.734,-833.008,-1.465,-20.508,777.832
1630086911.738,243.652,-22.949,-13.672,333.984
1630086911.741,-1000.000,-38.086,-16.602,-629.883
1630086911.745,-533.691,-41.992,-32.227,-537.109
1630086911.749,-919.434,-7.324,-26.367,563.965
1630086911.753,407.715,-14.648,-25.391,591.797
1630086911.757,-1000.000,-59.570,-35.156,-476.074
1630086911.759,-1000.000,-42.969,-36.133,-730.957
1630086911.763,501.465,3.418,-24.902,272.461
1630086911.767,916.992,0.000,-34.180,788.086
1630086911.771,-620.117,-42.480,-34.668,-199.219
1630086911.775,-1000.000,-53.223,-39.062,-820.801
1630086911.779,-119.629,-4.883,-24.902,-60.059
1630086911.783,-834.961,21.973,-2.441,864.746
1630086911.786,39.551,-35.645,-30.273,94.727
1630086911.790,-1000.000,-52.734,-44.922,-773.926
1630086911.794,-238.281,-16.113,-29.785,-354.980
1630086911.798,-825.684,5.859,-19.043,714.355
1630086911.802,242.188,-32.227,-32.227,368.164
1630086911.805,-1000.000,-63.477,-43.457,-615.723
1630086911.809,-618.164,-37.109,-28.809,-576.172
1630086911.813,-971.191,4.395,-14.648,517.578
1630086911.817,519.531,-17.578,-23.438,634.277
1630086911.821,-994.141,-58.594,-30.762,-424.316
1630086911.825,-1000.000,-46.387,-20.020,-754.883
1630086911.829,279.297,1.465,3.418,198.730
1630086911.832,-944.336,-4.395,-1.465,804.199
1630086911.836,-410.156,-60.547,-23.926,-150.391
1630086911.840,-1000.000,-39.551,-9.277,-790.527
1630086911.844,-209.961,-1.465,-0.977,-134.277
1630086911.848,-842.285,-11.230,-21.484,790.039
1630086911.864,154.785,-43.457,-32.715,137.207
1630086911.868,-1000.000,-62.012,-36.133,-757.812
1630086911.872,-310.059,-33.691,-25.391,-424.805
1630086911.876,-839.355,-4.883,-17.578,678.711
1630086911.880,242.188,-32.715,-23.926,440.430
1630086911.884,-1000.000,-48.828,-17.578,-551.758
1630086911.888,-771.973,-35.645,-13.184,-641.113
1630086911.891,866.211,-8.789,-6.348,388.672
1630086911.895,638.672,-7.324,-4.395,673.828
1630086911.899,-920.898,-39.551,-16.602,-341.797
1630086911.903,-1000.000,-48.828,-19.043,-778.809
1630086911.907,86.426,-16.602,-8.789,65.430
1630086911.909,-857.910,-7.324,-9.766,799.805
1630086911.913,-206.055,-45.898,-22.949,-53.711
1630086911.917,-1000.000,-64.453,-24.902,-813.965
1630086911.921,-221.191,-30.273,-4.395,-233.887
1630086911.925,-833.984,3.906,4.883,788.086
1630086911.929,242.188,-23.438,-12.695,241.211
1630086911.933,-1000.000,-51.758,-20.020,-685.547
1630086911.936,-439.453,-32.715,-2.441,-477.051
1630086911.940,-875.488,5.371,27.344,638.184
1630086911.944,312.988,-8.789,26.367,541.992
1630086911.948,-1000.000,-41.504,9.766,-512.207
1630086911.952,-925.781,-39.551,17.090,-699.219
1630086911.954,645.508,-10.254,24.902,302.734
1630086911.958,783.691,-3.906,-4.883,718.750
1630086911.962,-785.645,-35.156,-24.414,-285.156
1630086911.966,-1000.000,-35.156,-10.742,-816.406
1630086911.970,-38.574,-9.766,6.348,-13.672
1630086911.974,-837.891,-5.371,1.953,819.824
1630086911.978,-61.035,-48.340,-22.461,18.555
1630086911.981,-1000.000,-54.199,-26.367,-800.293
1630086911.985,-229.980,-13.184,-5.859,-321.777
1630086911.989,-830.078,6.836,4.883,743.164
1630086911.993,243.652,-27.344,-8.789,323.730
1630086911.997,-1000.000,-54.199,-11.230,-658.691
1630086911.999,-559.570,-22.949,0.488,-571.777
1630086912.003,-932.129,10.742,2.441,543.945
1630086912.007,421.875,-9.766,-2.441,584.961
1630086912.011,-1000.000,-46.387,-9.277,-460.938
1630086912.015,-1000.000,-40.527,-11.719,-738.281
1630086912.019,375.488,-2.441,1.953,227.539
1630086912.023,980.957,-2.441,-4.883,792.480
1630086912.026,-527.832,-42.480,-19.043,-176.270
1630086912.030,-1000.000,-48.828,-10.254,-805.176
1630086912.034,-175.293,-14.160,-17.578,-113.281
1630086912.038,-841.309,12.207,-16.602,795.898
1630086912.042,81.055,-26.855,-11.719,98.633
1630086912.045,-1000.000,-45.898,-10.254,-745.605
1630086912.049,-241.211,-11.719,-8.301,-378.418
1630086912.053,-823.730,13.184,-12.207,700.684
1630086912.057,240.723,-20.020,-26.855,384.277
1630086912.061,-1000.000,-49.316,-36.621,-635.742
1630086912.065,-663.574,-26.367,-18.066,-618.652
1630086912.069,990.723,4.395,1.465,479.980
1630086912.072,548.828,-20.020,-12.695,655.762
1630086912.076,-968.262,-60.059,-36.133,-419.434
1630086912.080,-1000.000,-51.758,-41.992,-807.129
1630086912.084,183.105,-14.648,-24.902,121.094
1630086912.088,-922.363,-8.789,-18.555,780.762
1630086912.089,-358.398,-51.758,-34.668,-138.184
1630086912.093,-1000.000,-62.988,-39.551,-800.781
1630086912.097,-214.844,-22.461,-25.391,-175.293
1630086912.101,-838.379,3.906,-15.137,804.199
1630086912.105,206.055,-33.203,-29.785,199.707
1630086912.109,-1000.000,-58.594,-46.387,-725.098
1630086912.113,-354.980,-24.902,-29.785,-451.660
1630086912.116,-848.145,14.648,-3.418,685.547
1630086912.120,240.723,-20.020,-26.855,503.906
1630086912.124,-1000.000,-59.570,-51.270,-578.613
1630086912.128,-846.680,-46.875,-46.387,-711.426
1630086912.132,754.883,-14.648,-30.273,353.516
1630086912.134,709.961,-14.648,-34.180,710.449
1630086912.138,-861.328,-57.617,-60.547,-333.984
1630086912.142,-1000.000,-60.547,-65.430,-809.570
1630086912.146,44.434,-11.719,-36.133,44.434
1630086912.150,-842.285,1.465,-30.762,801.270
1630086912.154,-145.020,-37.598,-46.875,-34.180
1630086912.158,-1000.000,-53.223,-42.969,-787.598
1630086912.161,-224.121,-26.855,-26.855,-253.906
1630086912.165,-833.008,-6.836,-25.391,779.785
1630086912.169,243.652,-35.645,-37.109,265.137
1630086912.173,-1000.000,-52.246,-36.621,-694.336
1630086912.177,-499.023,-28.809,-36.621,-531.250
1630086912.194,-901.855,0.977,-28.809,597.168
1630086912.198,365.234,-25.391,-34.668,567.383
1630086912.202,-1000.000,-56.152,-29.785,-505.371
1630086912.206,-986.328,-27.832,-33.691,-721.680
1630086912.210,526.855,5.859,-38.574,312.500
1630086912.214,895.996,-12.207,-24.902,792.969
1630086912.218,-651.367,-50.781,-37.109,-234.375
1630086912.221,-1000.000,-57.617,-30.273,-835.938
1630086912.225,-78.613,-29.785,0.977,-79.590
1630086912.229,-835.449,-26.855,-7.324,786.133
1630086912.233,-17.578,-65.918,-26.855,18.555
1630086912.237,-1000.000,-76.172,-23.438,-800.781
1630086912.242,-232.910,-51.270,-4.395,-344.727
1630086912.246,-829.102,-25.879,0.000,722.168
1630086912.250,243.164,-52.246,-17.578,318.359
1630086912.254,-1000.000,-72.754,-20.020,-674.805
1630086912.258,-608.887,-53.711,-18.555,-617.188
1630086912.262,-964.355,-19.531,-15.137,507.324
1630086912.266,497.070,-34.180,-16.602,626.953
1630086912.269,-1000.000,-64.941,-8.789,-457.520
1630086912.273,-1000.000,-59.570,-2.441,-781.738
1630086912.277,324.219,-24.902,-1.953,183.594
1630086912.281,-978.027,-10.254,-5.371,793.457
1630086912.285,-465.332,-52.246,-23.438,-168.457
1630086912.286,-1000.000,-62.988,-15.625,-817.383
1630086912.290,-197.266,-28.320,5.371,-131.836
1630086912.294,-834.961,-14.648,0.488,810.059
1630086912.298,103.027,-53.711,-17.578,121.094
1630086912.302,-1000.000,-82.031,-36.621,-750.488
1630086912.306,-196.289,-43.457,-37.598,-395.020
1630086912.310,-845.703,5.859,-19.531,687.012
1630086912.313,241.699,-20.996,-19.043,427.734
1630086912.317,-1000.000,-68.359,-20.996,-614.746
1630086912.321,-742.676,-61.523,-9.277,-662.109
1630086912.325,901.367,-9.277,9.277,448.242
1630086912.329,612.793,-11.230,-2.441,707.031
1630086912.329,-941.406,-48.828,-26.367,-340.820
1630086912.333,-1000.000,-46.387,-32.227,-764.648
1630086912.337,144.531,-10.254,-20.996,105.957
1630086912.341,-868.164,-2.441,-13.672,817.871
1630086912.345,-253.418,-42.969,-29.297,-72.754
1630086912.349,-1000.000,-43.457,-39.062,-803.223
1630086912.353,-218.262,-0.488,-30.273,-189.453
1630086912.356,-835.449,4.395,-31.738,812.988
1630086912.360,230.469,-45.898,-41.016,215.820
1630086912.364,-1000.000,-51.758,-43.457,-731.934
1630086912.368,-413.574,-20.508,-41.504,-487.305
1630086912.372,-867.188,2.930,-29.785,649.902
1630086912.374,291.992,-15.625,-30.762,509.277
1630086912.378,-1000.000,-45.410,-36.621,-549.316
1630086912.382,-887.695,-42.969,-24.902,-704.590
1630086912.386,698.730,-12.207,-15.137,334.473
1630086912.390,764.648,-8.789,-26.855,739.258
1630086912.394,-809.570,-39.551,-41.992,-285.156
1630086912.398,-1000.000,-30.762,-28.320,-793.457
1630086912.401,24.414,-19.531,-17.090,20.508
1630086912.405,-835.938,-43.945,-40.039,795.898
1630086912.409,-108.887,-54.688,-40.039,-9.766
1630086912.413,-1000.000,-49.316,-24.414,-799.316
1630086912.417,-227.051,-12.207,-16.113,-304.199
1630086912.419,-832.031,19.531,-25.391,769.043
1630086912.423,244.141,-20.020,-42.969,295.898
1630086912.427,-1000.000,-44.434,-54.199,-686.523
1630086912.431,-534.180,-21.484,-45.898,-567.383
1630086912.435,-919.922,6.836,-26.367,557.617
1630086912.439,408.203,-0.488,-35.645,581.543
1630086912.443,-1000.000,-41.016,-53.711,-503.906
1630086912.446,-1000.000,-53.223,-53.711,-755.371
1630086912.450,476.074,-14.648,-32.715,205.078
1630086912.454,883.789,-5.859,-37.598,691.406
1630086912.458,-627.441,-41.016,-53.223,-238.770
1630086912.462,-1000.000,-49.316,-50.781,-852.051
1630086912.464,-135.742,-11.230,-21.973,-111.328
1630086912.468,-841.309,2.930,-29.785,815.430
1630086912.472,28.320,-37.109,-72.266,89.355
1630086912.476,-1000.000,-55.664,-84.961,-777.832
1630086912.480,-236.328,-19.043,-73.730,-373.047
1630086912.484,-827.148,17.090,-34.668,730.957
1630086912.488,242.676,-35.156,-57.617,373.535
1630086912.491,-1000.000,-80.078,-102.539,-678.711
1630086912.495,-639.160,-28.809,-62.012,-650.391
1630086912.499,-982.910,8.301,-30.762,470.703
1630086912.503,508.301,-16.602,-50.781,623.047
1630086912.507,-996.582,-47.852,-58.105,-435.059
1630086912.510,-1000.000,-42.969,-38.574,-788.574
1630086912.514,250.977,-15.137,-38.086,159.180
1630086912.518,-960.449,-18.066,-59.570,791.992
1630086912.522,-437.500,-50.781,-64.941,-139.160
1630086912.526,-1000.000,-48.828,-51.758,-802.246
1630086912.530,-211.914,-25.391,-42.480,-165.527
1630086912.534,-840.820,-21.484,-48.828,811.523
1630086912.537,185.059,-29.785,-38.574,174.805
1630086912.541,-1000.000,-36.621,-30.762,-756.348
1630086912.545,-325.684,-16.113,-35.645,-446.289
1630086912.549,-841.309,14.160,-41.504,677.734
1630086912.553,244.629,-11.230,-58.105,469.238
1630086912.584,-1000.000,-42.969,-59.082,-580.078
1630086912.588,-752.930,-27.344,-42.969,-643.555
1630086912.592,814.941,10.254,-33.691,411.133
1630086912.596,584.961,2.930,-41.504,682.129
1630086912.600,-890.137,-23.438,-45.898,-323.242
1630086912.604,-1000.000,-43.945,-53.223,-797.363
1630086912.608,85.938,-26.367,-46.875,65.430
1630086912.611,-853.516,0.488,-18.555,831.543
1630086912.615,-195.801,-38.086,-34.668,-64.941
1630086912.619,-1000.000,-45.410,-61.035,-836.426
1630086912.623,-221.680,1.465,-50.293,-244.629
1630086912.627,-833.496,29.785,-29.297,809.570
1630086912.614,242.188,-16.113,-37.109,269.531
1630086912.618,-1000.000,-42.480,-52.246,-711.914
1630086912.622,-444.336,-8.301,-50.293,-513.184
1630086912.626,-876.953,17.578,-32.715,637.695
1630086912.630,320.801,-5.859,-43.945,552.246
1630086912.634,-1000.000,-39.062,-59.570,-526.367
1630086912.638,-935.547,-40.527,-50.293,-721.680
1630086912.641,617.188,-0.977,-32.715,316.406
1630086912.645,828.613,-5.859,-33.691,759.277
1630086912.649,-732.422,-63.477,-41.016,-275.391
1630086912.653,-1000.000,-63.965,-32.715,-837.402
1630086912.657,-39.551,-9.277,-10.742,-12.207
1630086912.660,-837.891,-20.020,-37.598,823.242
1630086912.664,-62.012,-85.938,-87.891,-18.066
1630086912.668,-1000.000,-61.523,-64.453,-812.988
1630086912.672,-229.980,-17.090,-25.391,-300.293
1630086912.676,-830.566,6.348,-11.230,779.785
1630086912.680,243.652,-20.996,-28.320,344.238
1630086912.684,-1000.000,-42.480,-44.922,-652.832
1630086912.687,-559.082,-15.625,-34.180,-555.664
1630086912.691,-932.617,-30.273,-42.480,532.715
1630086912.695,448.730,-66.895,-65.430,567.871
1630086912.699,-1000.000,-55.176,-40.527,-460.938
1630086912.703,-1000.000,-41.504,-29.785,-750.488
1630086912.704,378.418,-14.160,-24.902,208.008
1630086912.708,-998.047,3.906,-22.949,794.922
1630086912.712,-498.047,-17.578,-37.598,-166.016
1630086912.716,-1000.000,-34.180,-34.668,-812.988
1630086912.720,-166.992,-5.859,-10.254,-83.984
1630086912.724,-836.914,11.230,-13.184,854.980
1630086912.728,91.309,-21.973,-36.621,147.949
1630086912.731,-1000.000,-48.828,-48.828,-748.047
1630086912.735,-242.676,-33.691,-35.645,-395.020
1630086912.739,-823.242,4.395,5.371,720.703
1630086912.743,238.770,-16.602,10.254,433.105
1630086912.747,-1000.000,-49.316,-6.348,-597.656
1630086912.750,-688.965,-34.180,-12.207,-626.953
1630086912.754,964.844,6.348,-3.418,473.633
1630086912.758,555.664,-5.371,-25.391,666.992
1630086912.762,-972.656,-51.758,-58.105,-404.785
1630086912.766,-1000.000,-45.410,-45.898,-791.992
1630086912.770,183.594,5.371,-4.883,145.020
1630086912.774,-883.301,22.949,6.348,839.844
1630086912.777,-291.504,-61.035,-49.805,-144.043
1630086912.781,-1000.000,-100.586,-63.477,-882.812
1630086912.785,-216.309,-20.508,-4.395,-187.012
1630086912.789,-835.938,12.207,-6.836,831.055
1630086912.793,208.984,-33.203,-27.344,197.754
1630086912.794,-1000.000,-51.758,-26.367,-744.629
1630086912.798,-355.957,-14.160,-14.648,-446.777
1630086912.802,-847.656,8.301,-8.301,694.336
1630086912.806,261.230,-26.367,-15.137,511.719
1630086912.810,-1000.000,-48.828,-24.414,-548.828
1630086912.814,-844.238,-22.461,-19.531,-668.457
1630086912.818,769.043,-5.859,-10.742,384.766
1630086912.821,690.918,-61.035,-50.781,678.223
1630086912.825,-879.395,-73.242,-37.598,-355.957
1630086912.829,-1000.000,-42.969,-13.672,-810.059
1630086912.833,47.363,-15.137,-17.090,42.480
1630086912.837,-840.332,-0.977,-12.695,828.613
1630086912.839,-139.648,-32.227,-22.461,-28.320
1630086912.843,-1000.000,-46.387,-22.461,-808.105
1630086912.847,-224.609,-20.508,-0.977,-265.625
1630086912.851,-832.031,3.906,4.883,805.664
1630086912.855,243.164,-26.367,-21.484,286.621
1630086912.859,-1000.000,-44.922,-23.926,-694.336
1630086912.863,-493.652,-48.340,-40.527,-541.504
1630086912.866,-899.414,-44.434,-51.270,551.758
1630086912.870,357.910,-31.738,-23.438,528.809
1630086912.874,-1000.000,-44.434,-30.762,-535.156
1630086912.878,-977.539,-34.180,-38.086,-755.859
1630086912.882,540.039,6.348,-8.301,290.039
1630086912.884,890.137,11.230,2.441,790.527
1630086912.888,-659.180,-25.391,-25.879,-245.605
1630086912.892,-1000.000,-26.367,-30.273,-825.684
1630086912.896,-73.242,1.953,0.000,-27.344
1630086912.900,-831.543,4.883,4.883,853.027
1630086912.904,-4.883,-36.133,-17.578,71.289
1630086912.908,-1000.000,-53.711,-29.785,-797.852
1630086912.911,-234.863,-22.461,-14.160,-345.215
1630086912.915,-828.125,0.488,-10.254,766.113
1630086912.919,243.164,-34.668,-26.367,373.535
1630086912.923,-1000.000,-64.941,-26.855,-654.297
1630086912.927,-604.980,-38.086,-10.742,-593.262
1630086912.930,-961.426,-2.441,-5.859,533.691
1630086912.934,492.676,-21.484,-21.973,641.113
1630086912.938,-1000.000,-54.199,-25.879,-443.848
1630086912.942,-1000.000,-48.828,-19.043,-779.297
1630086912.946,302.734,-14.160,-10.742,191.895
1630086912.950,-968.262,-6.348,-23.926,803.711
1630086912.954,-451.172,-37.598,-40.527,-158.691
1630086912.957,-1000.000,-44.922,-33.691,-818.359
1630086912.961,-197.266,-8.301,-12.207,-117.676
1630086912.965,-843.750,-22.949,-36.133,828.125
1630086912.969,109.375,-75.684,-55.664,126.953
1630086912.973,-1000.000,-57.129,-23.438,-746.582
1630086912.989,-282.227,-28.809,-19.043,-393.555
1630086912.993,-836.426,3.906,-11.719,714.355
1630086912.997,246.582,-23.926,-20.996,447.754
1630086913.001,-1000.000,-59.570,-45.410,-631.836
1630086913.005,-700.195,-37.598,-45.898,-595.215
1630086913.009,963.867,-16.602,-30.273,546.387
1630086913.013,605.957,-24.902,-30.762,681.152
1630086913.016,-938.965,-49.316,-25.879,-362.305
1630086913.020,-1000.000,-67.383,-29.785,-798.828
1630086913.024,143.555,-41.016,-32.227,86.914
1630086913.028,-871.582,-13.184,-24.902,822.266
1630086913.032,-259.277,-48.828,-39.551,-87.891
1630086913.034,-1000.000,-49.316,-41.992,-805.176
1630086913.038,-218.262,-10.742,-23.438,-198.730
1630086913.042,-835.449,0.000,-15.625,795.410
1630086913.046,232.422,-37.598,-28.809,221.191
1630086913.050,-1000.000,-65.430,-41.992,-729.980
1630086913.054,-414.551,-37.109,-32.715,-490.723
1630086913.058,-867.188,10.742,-29.785,663.086
1630086913.061,302.246,-10.742,-44.922,538.574
1630086913.065,-1000.000,-68.848,-64.941,-577.148
1630086913.069,-887.695,-72.754,-77.637,-762.695
1630086913.073,699.219,-14.648,-39.062,321.777
1630086913.077,771.484,-20.996,-31.250,722.168
1630086913.079,-798.340,-61.035,-45.410,-309.570
1630086913.083,-1000.000,-50.781,-38.086,-814.941
1630086913.087,8.301,-15.625,-18.555,19.531
1630086913.091,-838.379,-7.812,-22.949,827.148
1630086913.095,-104.492,-48.828,-44.434,-7.324
1630086913.099,-1000.000,-54.199,-42.969,-809.082
1630086913.103,-227.051,-14.160,-0.488,-262.207
1630086913.106,-831.543,-7.324,5.859,832.031
1630086913.110,243.652,-65.918,-63.965,288.086
1630086913.114,-1000.000,-62.012,-64.941,-742.676
1630086913.118,-533.203,-18.555,-24.902,-577.148
1630086913.122,-919.434,20.508,-25.391,579.590
1630086913.124,412.598,16.113,-52.734,594.727
1630086913.128,-1000.000,-25.391,-50.293,-478.516
1630086913.132,-1000.000,-35.645,-34.668,-740.723
1630086913.136,488.281,-7.812,-26.855,258.301
1630086913.140,918.457,-3.418,-42.969,783.203
1630086913.144,-618.652,-31.250,-49.316,-208.984
1630086913.148,-1000.000,-24.902,-28.809,-801.758
1630086913.151,-127.930,-35.156,-57.617,-98.145
1630086913.155,-838.379,-45.898,-83.008,779.297
1630086913.159,32.227,-41.504,-51.758,78.613
1630086913.163,-1000.000,-48.828,-45.898,-788.086
1630086913.167,-237.305,-22.949,-57.129,-395.020
1630086913.169,-826.660,9.766,-41.016,748.535
1630086913.173,242.676,-12.207,-40.527,432.129
1630086913.177,-1000.000,-41.504,-48.828,-633.789
1630086913.181,-637.207,-21.973,-41.504,-640.625
1630086913.185,-982.422,17.090,-33.691,500.000
1630086913.189,523.926,9.277,-48.340,675.781
1630086913.193,-986.328,-36.133,-72.266,-405.273
1630086913.196,-1000.000,-58.105,-86.426,-799.805
1630086913.200,231.934,-9.766,-60.547,141.113
1630086913.204,-931.152,4.883,-50.781,805.176
1630086913.208,-385.254,-37.109,-70.801,-140.625
1630086913.212,-1000.000,-35.645,-65.430,-839.844
1630086913.215,-213.379,-2.441,-47.363,-167.480
1630086913.219,-838.867,11.230,-39.551,830.566
1630086913.223,190.918,-32.227,-61.523,165.039
1630086913.227,-1000.000,-56.641,-69.824,-775.391
1630086913.231,-333.008,-29.297,-42.480,-454.102
1630086913.235,-842.773,7.812,-15.625,694.336
1630086913.239,241.211,-27.832,-44.434,461.914
1630086913.242,-1000.000,-74.707,-66.895,-620.117
1630086913.246,-809.082,-42.969,-30.273,-693.359
1630086913.250,818.359,3.906,-13.184,404.785
1630086913.254,653.809,-3.906,-26.855,716.797
1630086913.258,-912.598,-41.504,-37.109,-329.102
1630086913.259,-1000.000,-43.457,-27.344,-799.805
1630086913.263,72.266,-1.953,-19.043,75.195
1630086913.267,-855.469,15.137,-25.879,824.707
1630086913.271,-192.383,-33.203,-37.109,-72.266
1630086913.275,-1000.000,-39.062,-31.738,-801.758
1630086913.279,-221.680,-17.578,-27.832,-226.074
1630086913.283,-833.496,-47.363,-73.730,750.488
1630086913.286,242.676,-59.570,-58.105,224.609
1630086913.290,-1000.000,-38.086,-15.137,-685.547
1630086913.294,-451.172,-14.160,-7.812,-501.465
1630086913.298,-878.906,18.555,-5.859,644.531
1630086913.302,321.777,-12.207,-19.043,571.777
1630086913.319,-1000.000,-59.570,-26.855,-538.086
1630086913.323,-956.543,-48.340,-25.391,-749.023
1630086913.327,579.102,-4.395,-8.789,316.406
1630086913.331,849.121,-1.465,-9.277,772.949
1630086913.335,-711.914,-45.410,-21.973,-263.184
1630086913.339,-1000.000,-51.758,-23.926,-829.102
1630086913.343,-43.945,-6.348,-14.648,-5.371
1630086913.346,-832.520,7.324,-10.742,872.559
1630086913.350,-36.621,-24.902,-20.996,62.012
1630086913.354,-1000.000,-81.055,-72.266,-834.473
1630086913.358,-232.422,-78.125,-87.402,-387.695
1630086913.362,-829.102,-8.301,-36.621,764.648
1630086913.364,243.652,-35.156,-34.180,353.516
1630086913.368,-1000.000,-57.129,-55.176,-664.062
1630086913.372,-574.219,-22.461,-71.777,-572.266
1630086913.376,-939.941,8.301,-79.102,552.734
1630086913.380,434.570,-13.672,-108.398,604.004
1630086913.384,-1000.000,-47.852,-118.164,-478.516
1630086913.388,-1000.000,-42.969,-97.656,-777.344
1630086913.391,350.586,2.441,-79.102,219.727
1630086913.395,984.375,-9.766,-111.816,794.922
1630086913.399,-525.391,-81.055,-149.902,-211.426
1630086913.403,-1000.000,-57.129,-126.953,-825.684
1630086913.407,-174.805,-7.324,-108.398,-83.496
1630086913.409,-839.844,-20.020,-127.930,831.543
1630086913.413,89.844,-58.594,-140.625,109.863
1630086913.417,-1000.000,-57.617,-118.164,-770.020
1630086913.421,-242.188,-33.203,-107.910,-402.344
1630086913.425,-823.242,-8.301,-92.285,728.027
1630086913.429,238.281,-32.227,-96.191,441.406
1630086913.433,-1000.000,-50.293,-110.840,-610.352
1630086913.436,-701.660,-25.879,-101.074,-632.324
1630086913.440,949.707,-38.086,-100.586,444.824
1630086913.444,573.730,-67.383,-111.328,640.625
1630086913.448,-960.938,-59.570,-85.938,-392.578
1630086913.452,-1000.000,-54.688,-78.613,-786.133
1630086913.455,166.992,-20.508,-66.895,154.297
1630086913.459,-882.812,-7.324,-61.523,840.820
1630086913.463,-286.621,-44.922,-71.777,-88.867
1630086913.467,-1000.000,-57.129,-73.242,-799.316
1630086913.471,-217.773,-30.762,-63.477,-185.547
1630086913.475,-835.449,-6.348,-52.246,828.125
1630086913.479,227.539,-38.086,-64.453,228.027
1630086913.482,-1000.000,-79.590,-69.336,-733.887
1630086913.486,-383.301,-63.477,-55.176,-477.051
1630086913.490,-855.957,-7.812,-27.344,675.781
1630086913.494,274.902,-25.391,-24.414,523.926
1630086913.498,-1000.000,-60.059,-49.805,-550.781
1630086913.499,-845.703,-36.621,-53.711,-680.664
1630086913.503,753.418,-2.441,-34.180,401.855
1630086913.507,746.094,-17.090,-33.691,757.812
1630086913.511,-824.219,-56.152,-44.434,-295.898
1630086913.515,-1000.000,-44.922,-43.945,-795.410
1630086913.519,47.363,0.977,-22.461,62.012
1630086913.523,-838.379,-0.977,-25.391,853.516
1630086913.526,-132.324,-47.852,-41.504,-7.812
1630086913.530,-1000.000,-60.059,-41.504,-810.547
1630086913.534,-225.098,-31.250,-30.762,-289.062
1630086913.538,-832.520,-7.812,-8.789,786.133
1630086913.542,243.164,-32.715,-23.438,292.480
1630086913.544,-1000.000,-57.129,-40.527,-703.125
1630086913.548,-505.859,-37.598,-24.902,-540.039
1630086913.552,-906.250,0.000,-19.531,594.727
1630086913.556,388.184,-18.066,-36.621,560.547
1630086913.560,-1000.000,-55.664,-32.227,-512.207
1630086913.564,-977.539,-38.086,-20.508,-723.145
1630086913.568,543.945,-6.836,-33.203,294.922
1630086913.571,902.344,-38.574,-56.641,754.395
1630086913.575,-641.113,-75.195,-42.480,-248.047
1630086913.579,-1000.000,-54.199,-26.855,-817.871
1630086913.583,-82.031,-7.324,-22.949,-36.133
1630086913.587,-826.660,5.371,-18.555,862.793
1630086913.589,31.738,-29.297,-21.484,91.309
1630086913.593,-1000.000,-52.246,-21.973,-772.949
1630086913.597,-238.770,-27.832,-19.531,-341.797
1630086913.601,-825.684,4.883,-10.742,768.066
1630086913.605,242.676,-30.273,-20.996,372.070
1630086913.609,-1000.000,-62.012,-39.062,-660.156
1630086913.613,-606.445,-39.062,-38.574,-601.074
1630086913.616,-963.379,-9.277,-16.602,523.438
1630086913.620,507.812,-27.344,-18.555,645.508
1630086913.624,-998.047,-63.965,-30.762,-438.965
1630086913.628,-1000.000,-50.781,-19.043,-777.832
1630086913.632,286.133,-16.602,0.488,187.012
1630086913.636,-957.520,-10.742,-5.371,813.965
1630086913.640,-433.594,-43.457,-23.438,-151.855
1630086913.644,-1000.000,-53.711,-18.066,-844.238
1630086913.648,-210.449,-16.113,-2.930,-160.645
1630086913.652,-841.797,4.883,-2.441,830.566
1630086913.656,166.016,-35.156,-21.484,164.551
1630086913.660,-1000.000,-69.336,-39.551,-762.695
1630086913.663,-307.129,-38.574,-18.555,-436.035
1630086913.667,-837.402,0.488,0.000,712.891
1630086913.671,241.699,-30.273,-18.555,463.867
1630086913.675,-1000.000,-56.641,-17.090,-599.609
1630086913.679,-762.207,-30.762,-4.883,-657.715
1630086913.694,877.930,-1.465,1.953,432.129
1630086913.698,633.301,-14.160,-3.906,706.055
1630086913.702,-927.734,-45.410,-10.742,-339.844
1630086913.706,-1000.000,-39.062,-4.395,-797.363
1630086913.710,110.840,-5.859,10.254,86.426
1630086913.714,-853.516,1.953,11.230,839.844
1630086913.718,-204.590,-36.621,-8.789,-43.945
1630086913.721,-1000.000,-62.988,-26.855,-810.059
1630086913.725,-221.191,-35.156,-18.066,-221.191
1630086913.729,-833.496,-11.230,-7.324,817.871
1630086913.733,235.352,-45.410,-17.578,230.469
1630086913.737,-1000.000,-69.336,-23.926,-729.980
1630086913.739,-430.176,-42.480,-12.207,-496.094
1630086913.743,-873.047,-5.859,1.465,644.531
1630086913.747,310.059,-27.832,-7.812,530.273
1630086913.751,-1000.000,-54.199,-18.555,-552.246
1630086913.755,-899.902,-36.133,-17.090,-735.840
1630086913.759,684.570,-4.395,-9.277,330.566
1630086913.763,772.461,-18.555,-16.113,749.512
1630086913.766,-793.945,-51.758,-28.320,-301.270
1630086913.770,-1000.000,-51.270,-31.250,-839.355
1630086913.774,-30.273,-17.090,-36.621,-11.230
1630086913.778,-840.332,1.953,-34.180,826.660
1630086913.782,-79.102,-41.504,-34.668,23.438
1630086913.784,-1000.000,-56.152,-38.574,-801.758
1630086913.788,-228.516,-22.461,-28.809,-323.242
1630086913.792,-831.055,3.906,-23.438,775.391
1630086913.796,243.652,-32.227,-33.203,315.918
1630086913.800,-1000.000,-60.059,-33.203,-677.734
1630086913.804,-542.480,-34.180,-21.973,-557.129
1630086913.808,-922.852,5.859,-18.555,572.754
1630086913.811,416.016,-18.555,-46.875,607.422
1630086913.815,-1000.000,-70.312,-74.219,-495.117
1630086913.819,-1000.000,-73.730,-68.359,-795.410
1630086913.823,411.133,-18.555,-27.832,228.027
1630086913.827,955.078,-5.371,-18.555,795.410
1630086913.829,-567.383,-46.387,-33.203,-208.984
1630086913.833,-1000.000,-51.270,-28.809,-830.078
1630086913.837,-157.715,-16.602,-7.812,-83.984
1630086913.841,-838.867,-5.859,-13.184,840.332
1630086913.845,69.824,-43.457,-34.668,98.633
1630086913.849,-1000.000,-55.176,-32.715,-778.320
1630086913.853,-240.234,-20.996,-24.414,-361.328
1630086913.856,-824.707,2.441,-26.367,743.652
1630086913.860,242.188,-32.227,-40.527,405.762
1630086913.864,-1000.000,-57.129,-40.527,-630.371
1630086913.868,-641.113,-24.414,-34.668,-626.465
1630086913.872,-985.352,2.441,-27.832,495.117
1630086913.889,530.762,-31.738,-27.832,668.457
1630086913.893,-978.027,-59.570,-39.551,-415.527
1630086913.897,-1000.000,-45.898,-30.273,-794.434
1630086913.901,187.988,-12.695,-4.883,146.484
1630086913.905,-906.738,-14.648,-3.418,819.824
1630086913.909,-333.984,-56.641,-20.020,-126.465
1630086913.913,-1000.000,-57.129,-30.273,-811.035
1630086913.916,-213.867,-30.273,-25.391,-165.527
1630086913.920,-837.891,-23.926,-26.367,798.340
1630086913.924,191.406,-49.805,-42.480,186.523
1630086913.928,-1000.000,-57.617,-49.316,-737.305
1630086913.932,-344.727,-27.344,-34.668,-465.820
1630086913.921,-845.703,-4.883,-16.113,677.246
1630086913.925,259.766,-33.203,-19.043,505.371
1630086913.929,-1000.000,-62.500,-29.785,-563.965
1630086913.933,-826.172,-48.828,-34.668,-708.496
1630086913.937,782.715,-11.719,-16.113,385.254
1630086913.941,724.121,-24.414,-20.508,734.863
1630086913.945,-845.215,-57.617,-35.645,-330.078
1630086913.948,-1000.000,-52.734,-36.621,-812.500
1630086913.952,62.500,-16.602,-24.414,54.688
1630086913.956,-843.750,-6.348,-16.113,832.031
1630086913.960,-160.156,-46.875,-30.273,-43.945
1630086913.964,-1000.000,-61.523,-30.762,-818.848
1630086913.964,-223.145,-19.531,-19.531,-252.441
1630086913.968,-833.008,5.371,-18.555,794.434
1630086913.972,243.164,-33.691,-27.344,260.742
1630086913.976,-1000.000,-46.875,-27.344,-703.125
1630086913.980,-480.469,-22.461,-11.719,-520.020
1630086913.984,-892.578,4.395,-3.906,630.859
1630086913.988,362.305,-15.625,-22.949,580.566
1630086913.991,-1000.000,-55.664,-29.297,-512.207
1630086913.995,-979.004,-41.504,-25.391,-730.469
1630086913.999,543.945,-3.418,-15.625,279.785
1630086914.003,880.371,-5.859,-14.648,755.371
1630086914.007,-670.410,-42.969,-22.461,-250.000
1630086914.009,-1000.000,-49.316,-25.391,-851.074
1630086914.013,-73.242,-15.137,-7.812,-48.340
1630086914.017,-835.449,-1.465,4.395,860.352
1630086914.021,-21.484,-36.133,-18.066,60.547
1630086914.025,-1000.000,-52.246,-23.438,-800.293
1630086914.029,-232.910,-19.531,-18.555,-337.402
1630086914.033,-829.102,-1.953,-21.973,754.883
1630086914.036,243.164,-48.340,-28.320,331.543
1630086914.040,-1000.000,-66.895,-30.273,-681.641
1630086914.044,-598.633,-41.504,-32.227,-619.629
1630086914.048,-956.543,-4.395,-12.695,515.625
1630086914.052,461.426,-18.555,-5.371,629.883
1630086914.069,-1000.000,-59.082,-20.508,-446.777
1630086914.073,-1000.000,-49.316,-27.344,-779.785
1630086914.077,316.895,-7.324,-18.555,185.059
1630086914.081,-980.957,-18.066,-8.789,816.895
1630086914.085,-471.680,-67.383,-11.719,-126.465
1630086914.089,-1000.000,-44.922,-25.391,-810.547
1630086914.093,-190.430,9.766,-25.879,-152.344
1630086914.096,-843.262,25.879,-19.043,781.738
1630086914.100,99.609,-5.859,-29.297,108.398
1630086914.104,-1000.000,-27.832,-40.039,-787.109
1630086914.108,-272.461,0.977,-27.832,-444.336
1630086914.112,-833.008,42.480,-24.414,698.242
1630086914.114,240.723,6.836,-43.945,417.480
1630086914.118,-1000.000,-29.785,-43.945,-621.094
1630086914.122,-734.375,-12.695,-35.156,-666.992
1630086914.126,911.621,25.391,-24.414,423.828
1630086914.130,603.516,8.301,-28.320,679.199
1630086914.134,-945.312,-38.086,-43.457,-396.484
1630086914.138,-1000.000,-38.574,-53.223,-840.332
1630086914.141,147.461,1.953,-42.969,82.031
1630086914.145,-877.930,17.090,-35.156,810.059
1630086914.149,-271.973,-26.367,-38.574,-109.863
1630086914.153,-1000.000,-38.086,-42.480,-831.055
1630086914.157,-217.773,-5.371,-39.551,-205.078
1630086914.160,-836.426,10.742,-27.832,817.871
1630086914.164,229.980,-19.043,-34.668,222.656
1630086914.168,-1000.000,-42.969,-35.156,-729.004
1630086914.172,-417.480,-19.043,-19.531,-494.629
1630086914.176,-868.652,17.578,-12.695,643.066
1630086914.180,298.340,-12.207,-18.066,516.602
1630086914.184,-1000.000,-46.875,-26.367,-550.781
1630086914.187,-888.672,-29.297,-20.996,-722.656
1630086914.191,701.660,-5.859,-20.508,340.332
1630086914.195,753.906,-15.625,-25.391,737.793
1630086914.199,-817.871,-38.086,-24.902,-306.152
1630086914.203,-1000.000,-39.062,-31.738,-815.430
1630086914.204,12.695,-13.184,-23.926,7.812
1630086914.208,-842.773,-5.859,-18.066,822.754
1630086914.212,-125.488,-38.086,-30.762,-6.348
1630086914.216,-1000.000,-48.828,-40.527,-806.152
1630086914.220,-225.098,-17.090,-26.855,-285.156
1630086914.224,-833.008,10.742,-24.414,795.410
1630086914.228,244.141,-30.273,-50.293,304.199
1630086914.231,-1000.000,-64.941,-51.758,-706.055
1630086914.235,-528.809,-43.457,-34.180,-570.801
1630086914.239,-916.504,-4.395,-17.090,570.312
1630086914.243,402.832,-24.902,-23.926,584.961
1630086914.247,-1000.000,-63.965,-35.645,-495.605
1630086914.249,-1000.000,-54.199,-37.109,-773.438
1630086914.253,479.980,-13.184,-24.414,231.445
1630086914.257,917.480,-14.648,-24.414,783.691
1630086914.261,-620.605,-58.594,-38.574,-217.773
1630086914.265,-1000.000,-53.711,-36.621,-840.820
1630086914.269,-132.812,-11.230,-21.973,-78.613
1630086914.273,-838.379,7.324,-21.484,834.961
1630086914.276,41.016,-50.781,-52.246,62.500
1630086914.280,-1000.000,-92.773,-76.660,-826.172
1630086914.284,-238.281,-44.922,-48.828,-392.578
1630086914.288,-826.172,0.000,-16.113,732.910
1630086914.292,242.676,-20.508,-24.414,379.883
1630086914.294,-1000.000,-41.992,-32.227,-666.016
1630086914.298,-634.277,-20.020,-23.438,-625.488
1630086914.302,-980.469,13.672,-17.090,512.695
1630086914.306,510.742,-13.672,-30.762,647.949
1630086914.310,-997.559,-54.688,-41.992,-434.082
1630086914.314,-1000.000,-37.598,-36.133,-784.180
1630086914.318,257.324,-4.883,-18.066,170.410
1630086914.321,-940.918,-12.207,-31.250,797.363
1630086914.325,-403.809,-46.875,-44.922,-167.480
1630086914.329,-1000.000,-60.059,-42.480,-849.121
1630086914.333,-209.961,-29.297,-36.621,-163.086
1630086914.337,-842.773,-6.836,-29.297,818.359
1630086914.339,155.273,-42.969,-36.621,161.133
1630086914.343,-1000.000,-52.246,-33.203,-730.957
1630086914.347,-323.242,-14.648,-22.461,-420.898
1630086914.351,-844.238,12.207,-16.113,707.031
1630086914.355,244.141,-27.344,-22.461,485.840
1630086914.359,-1000.000,-46.387,-25.879,-571.289
1630086914.363,-774.414,-29.297,-34.180,-668.457
1630086914.366,864.746,-27.344,-37.109,379.395
1630086914.370,631.348,-29.297,-24.902,684.570
1630086914.374,-926.270,-53.223,-35.156,-370.117
1630086914.378,-1000.000,-52.734,-41.992,-826.660
1630086914.382,77.148,-13.184,-25.391,57.129
1630086914.385,-854.980,-8.301,-20.996,817.871
1630086914.389,-193.848,-51.270,-36.133,-40.527
1630086914.393,-1000.000,-55.664,-37.598,-801.270
1630086914.397,-221.680,-23.438,-12.207,-233.887
1630086914.401,-833.496,-4.395,-6.348,812.988
1630086914.405,242.188,-41.016,-33.203,268.555
1630086914.409,-1000.000,-75.195,-43.457,-702.637
1630086914.412,-449.707,-42.480,-26.367,-503.418
1630086914.416,-878.906,5.859,-9.277,629.883
1630086914.420,322.266,-22.461,-15.137,546.387
1630086914.424,-1000.000,-57.129,-21.973,-519.531
1630086914.428,-946.289,-41.016,-21.484,-705.078
1630086914.444,604.980,-9.766,-17.578,319.824
1630086914.448,820.312,-14.648,-20.996,750.000
1630086914.452,-742.676,-46.875,-21.973,-272.461
1630086914.456,-1000.000,-48.828,-23.438,-817.383
1630086914.460,-55.664,-22.461,-9.277,-16.113
1630086914.464,-835.938,-17.090,-13.672,821.289
1630086914.468,-41.016,-52.734,-36.133,29.297
1630086914.471,-1000.000,-63.965,-33.203,-789.062
1630086914.475,-231.445,-34.668,-24.414,-335.449
1630086914.479,-829.590,-13.672,-23.438,729.004
1630086914.483,243.652,-47.852,-35.645,311.035
1630086914.487,-1000.000,-69.336,-34.180,-670.410
1630086914.489,-578.613,-42.480,-26.855,-582.520
1630086914.493,-943.848,-12.207,-11.719,517.090
1630086914.497,440.430,-31.250,-24.414,597.656
1630086914.501,-1000.000,-65.430,-44.434,-470.215
1630086914.505,-1000.000,-63.965,-44.922,-786.133
1630086914.509,362.793,-18.066,-24.902,218.750
1630086914.513,979.492,-13.184,-24.414,793.457
1630086914.516,-529.785,-46.387,-40.527,-193.359
1630086914.520,-1000.000,-49.805,-49.805,-819.824
1630086914.524,-183.594,-44.922,-57.617,-136.719
1630086914.528,-842.773,-17.578,-41.016,791.992
1630086914.532,88.867,-36.621,-31.738,118.652
1630086914.534,-1000.000,-52.734,-35.156,-731.445
1630086914.538,-241.699,-22.949,-24.902,-389.160
1630086914.542,-823.242,-0.977,-18.066,705.078
1630086914.546,238.770,-35.156,-41.016,417.480
1630086914.550,-1000.000,-59.082,-49.805,-624.512
1630086914.554,-694.336,-34.180,-33.691,-636.230
1630086914.558,956.543,7.324,-17.578,464.355
1630086914.561,578.125,-11.719,-19.043,681.641
1630086914.565,-957.520,-71.289,-43.945,-396.973
1630086914.569,-1000.000,-66.895,-47.852,-803.711
1630086914.573,172.363,-13.672,-16.113,123.535
1630086914.577,-883.789,-6.836,-20.508,804.688
1630086914.579,-288.574,-46.387,-39.551,-107.422
1630086914.583,-1000.000,-56.641,-42.969,-817.383
1630086914.587,-216.309,-27.344,-35.645,-201.660
1630086914.591,-836.914,-3.906,-30.273,791.016
1630086914.595,210.449,-39.551,-39.062,191.406
1630086914.599,-1000.000,-56.641,-35.156,-718.750
1630086914.603,-377.441,-30.273,-17.578,-452.637
1630086914.606,-855.957,-1.953,-8.301,663.574
1630086914.610,271.484,-32.227,-34.668,495.605
1630086914.614,-1000.000,-66.895,-48.340,-561.523
1630086914.618,-853.516,-42.480,-34.180,-682.129
1630086914.622,748.535,-7.324,-24.414,375.488
1630086914.625,728.027,-21.973,-21.973,718.750
1630086914.629,-844.238,-61.035,-27.832,-326.172
1630086914.633,-1000.000,-59.082,-30.273,-791.504
1630086914.637,41.992,-36.621,-25.879,33.691
1630086914.641,-840.820,-25.879,-34.180,788.574
1630086914.645,-137.695,-52.734,-46.875,-21.484
1630086914.649,-1000.000,-58.594,-42.480,-785.156
1630086914.652,-224.609,-30.273,-33.691,-269.531
1630086914.656,-832.520,-13.184,-33.203,760.254
1630086914.660,243.652,-36.621,-38.086,273.438
1630086914.664,-1000.000,-61.523,-34.180,-674.316
1630086914.668,-506.348,-29.785,-28.809,-526.855
1630086914.669,-905.273,10.742,-20.996,585.449
1630086914.673,394.043,-12.695,-25.391,573.730
1630086914.677,-1000.000,-48.828,-34.180,-466.797
1630086914.681,-995.605,-38.574,-27.344,-705.566
1630086914.685,520.020,-1.465,-11.719,276.855
1630086914.689,902.344,2.930,-17.090,770.508
1630086914.693,-643.066,-31.250,-27.344,-208.008
1630086914.696,-1000.000,-48.340,-23.438,-792.969
1630086914.700,-81.543,-24.414,-9.766,-43.457
1630086914.704,-833.984,-10.254,-18.066,827.148
1630086914.708,-8.301,-44.434,-43.945,68.848
1630086914.712,-1000.000,-65.918,-39.062,-769.043
1630086914.714,-233.887,-32.227,-27.344,-352.051
1630086914.718,-828.613,8.789,-19.043,722.656
1630086914.722,243.164,-17.090,-26.855,353.027
1630086914.726,-1000.000,-43.457,-44.434,-646.484
1630086914.730,-616.699,-24.902,-41.992,-610.352
1630086914.734,-970.215,11.719,-19.531,513.184
1630086914.738,509.277,-1.953,-29.297,646.484
1630086914.741,-1000.000,-41.504,-55.664,-439.453
1630086914.745,-1000.000,-33.203,-60.059,-775.879
1630086914.749,296.875,-0.977,-45.898,175.781
1630086914.753,-963.379,-5.859,-36.133,789.062
1630086914.757,-442.383,-44.922,-38.086,-141.602
1630086914.759,-1000.000,-52.246,-41.016,-807.617
1630086914.763,-209.473,-24.902,-27.344,-152.344
1630086914.767,-842.773,-4.395,-24.902,802.734
1630086914.771,153.320,-34.180,-42.480,151.367
1630086914.775,-1000.000,-61.523,-44.922,-753.906
1630086914.779,-300.781,-29.785,-39.551,-432.129
1630086914.783,-836.426,2.441,-36.621,693.848
1630086914.786,242.676,-31.738,-42.480,432.617
1630086914.790,-1000.000,-56.152,-47.363,-611.816
1630086914.794,-745.117,-34.668,-34.180,-651.367
1630086914.798,897.949,3.418,-23.438,421.875
1630086914.802,616.211,-14.160,-38.086,656.738
1630086914.805,-937.012,-60.059,-46.875,-379.883
1630086914.809,-1000.000,-62.500,-55.664,-804.688
1630086914.813,123.047,-19.043,-43.945,63.965
1630086914.817,-858.887,2.441,-39.062,809.082
1630086914.821,-223.145,-35.156,-60.059,-66.406
1630086914.825,-1000.000,-47.363,-51.758,-810.059
1630086914.829,-220.703,-8.301,-29.297,-217.773
1630086914.832,-833.984,11.230,-32.715,813.477
1630086914.836,241.699,-38.574,-43.945,254.395
1630086914.840,-1000.000,-62.500,-46.875,-701.660
1630086914.844,-429.688,-32.227,-38.086,-504.883
1630086914.848,-872.559,3.906,-26.367,615.723
1630086914.865,303.711,-19.043,-47.363,511.719
1630086914.869,-1000.000,-45.898,-58.105,-541.504
1630086914.873,-892.578,-28.809,-47.363,-710.938
1630086914.877,690.430,4.395,-29.785,328.613
1630086914.881,777.344,-5.371,-28.320,735.840
1630086914.885,-789.551,-43.457,-38.086,-258.789
1630086914.889,-1000.000,-41.992,-38.086,-778.320
1630086914.892,-15.625,-13.672,-19.531,4.395
1630086914.896,-840.332,-10.742,-33.691,822.754
1630086914.900,-92.285,-53.711,-59.570,11.719
1630086914.904,-1000.000,-64.453,-43.945,-792.480
1630086914.908,-227.539,-25.879,-23.926,-292.480
1630086914.909,-831.543,1.465,-24.902,775.879
1630086914.913,243.652,-31.250,-34.180,311.035
1630086914.917,-1000.000,-49.316,-32.227,-659.668
1630086914.921,-539.062,-24.414,-29.297,-524.902
1630086914.925,-921.387,2.441,-23.438,579.102
1630086914.929,422.363,-18.555,-29.785,601.562
1630086914.933,-1000.000,-51.758,-39.551,-454.590
1630086914.936,-1000.000,-40.039,-30.762,-729.004
1630086914.940,453.125,-10.254,-19.043,247.070
1630086914.944,930.176,-24.414,-26.855,754.883
1630086914.948,-601.562,-58.105,-32.715,-240.234
1630086914.952,-1000.000,-48.340,-41.992,-823.242
1630086914.954,-154.297,-6.348,-45.410,-94.238
1630086914.958,-838.379,5.859,-39.551,813.477
1630086914.962,74.219,-44.434,-32.227,105.469
1630086914.966,-1000.000,-67.871,-31.738,-764.648
1630086914.970,-241.211,-30.273,-21.973,-395.996
1630086914.974,-824.219,16.113,-6.348,710.938
1630086914.978,241.699,-20.508,-22.461,385.742
1630086914.981,-1000.000,-59.570,-36.621,-649.414
1630086914.985,-643.555,-41.992,-31.250,-634.766
1630086914.989,-987.305,-1.465,-20.508,472.168
1630086914.993,526.367,-12.695,-24.414,649.902
1630086914.997,-984.863,-57.617,-23.926,-402.344
1630086914.999,-1000.000,-50.293,-20.020,-770.020
1630086915.003,208.008,-10.742,-12.207,136.719
1630086915.007,-901.855,-6.836,-9.277,794.922
1630086915.011,-361.328,-46.387,-33.691,-136.230
1630086915.015,-1000.000,-47.852,-38.574,-783.203
1630086915.019,-126.953,-11.719,-25.391,-117.188
1630086915.023,-848.145,3.906,-24.902,809.570
1630086915.026,205.078,-50.293,-41.504,172.363
1630086915.030,-1000.000,-86.914,-48.828,-755.859
1630086915.034,-343.750,-32.715,-33.203,-462.891
1630086915.038,-844.238,13.184,-31.738,660.156
1630086915.042,240.723,-32.227,-47.363,458.008
1630086915.044,-1000.000,-78.613,-52.734,-603.027
1630086915.048,-826.172,-63.477,-44.922,-704.590
1630086915.052,788.086,-10.742,-31.738,379.395
1630086915.056,685.059,-10.742,-29.297,706.543
1630086915.060,-885.254,-44.434,-36.621,-341.797
1630086915.064,-1000.000,-36.133,-39.062,-816.406
1630086915.068,62.988,-0.488,-27.832,52.246
1630086915.071,-843.750,-1.953,-26.367,812.988
1630086915.075,-161.133,-51.758,-38.574,-64.453
1630086915.079,-1000.000,-61.035,-44.434,-822.266
1630086915.083,-223.145,-23.438,-27.832,-260.742
1630086915.087,-832.520,3.418,-17.578,796.387
1630086915.090,242.676,-29.785,-36.621,258.301
1630086915.094,-1000.000,-53.711,-28.809,-719.238
1630086915.098,-464.844,-24.902,-16.602,-507.324
1630086915.102,-885.742,4.395,-11.719,604.004
1630086915.106,338.379,-19.531,-13.184,538.086
1630086915.110,-1000.000,-44.434,-16.113,-512.207
1630086915.114,-956.543,-39.062,-16.602,-726.562
1630086915.117,581.543,-22.461,-15.137,287.598
1630086915.121,851.562,-28.809,-21.973,741.211
1630086915.125,-704.590,-57.129,-35.156,-262.207
1630086915.129,-1000.000,-58.105,-26.855,-815.918
1630086915.133,-62.012,-28.809,-11.719,-42.969
1630086915.134,-834.961,-15.625,-21.484,815.918
1630086915.138,-29.297,-46.875,-43.457,50.293
1630086915.142,-1000.000,-47.852,-38.574,-764.160
1630086915.146,-232.422,-16.602,-26.367,-328.125
1630086915.150,-829.102,0.488,-20.020,743.652
1630086915.154,243.652,-33.203,-23.926,337.402
1630086915.158,-1000.000,-59.082,-45.410,-658.691
1630086915.161,-591.309,-31.738,-50.293,-587.402
1630086915.165,-952.637,-4.883,-31.250,530.273
1630086915.169,474.121,-27.344,-29.297,632.324
1630086915.173,-1000.000,-53.223,-40.527,-447.266
1630086915.177,-1000.000,-40.039,-38.086,-762.207
1630086915.194,337.891,-6.348,-25.879,208.984
1630086915.198,-989.258,-9.277,-29.785,786.133
1630086915.202,-483.398,-49.316,-45.898,-168.457
1630086915.206,-1000.000,-47.363,-44.922,-821.289
1630086915.210,-190.430,-15.625,-30.273,-131.348
1630086915.214,-841.309,-3.418,-28.809,805.664
1630086915.218,108.398,-29.785,-36.621,124.023
1630086915.221,-1000.000,-48.340,-37.598,-750.488
1630086915.225,-252.930,-18.066,-29.785,-385.254
1630086915.229,-825.195,12.207,-31.738,722.168
1630086915.233,237.793,-21.973,-53.711,456.055
1630086915.237,-1000.000,-62.500,-42.969,-559.082
1630086915.239,-728.027,-53.223,-30.762,-642.578
1630086915.243,916.504,-0.977,-31.250,419.434
1630086915.247,617.676,-9.277,-19.531,697.754
1630086915.251,-938.477,-62.500,-12.207,-324.219
1630086915.255,-1000.000,-72.266,-17.578,-772.461
1630086915.259,165.039,-29.297,-3.906,119.629
1630086915.263,-871.582,-17.090,-1.953,824.219
1630086915.266,-264.160,-60.059,-13.672,-68.848
1630086915.270,-1000.000,-72.754,-25.391,-794.922
1630086915.274,-218.750,-48.828,-28.809,-206.543
1630086915.278,-834.473,-20.020,-6.836,821.777
1630086915.282,233.398,-41.016,-15.625,245.117
1630086915.284,-1000.000,-68.359,-31.250,-708.496
1630086915.288,-388.672,-45.898,-16.113,-451.660
1630086915.292,-855.957,-3.906,0.488,687.012
1630086915.296,310.059,-27.344,-9.277,542.480
1630086915.300,-1000.000,-64.941,-19.531,-522.949
1630086915.304,-853.516,-42.969,-19.531,-672.852
1630086915.308,747.559,0.488,-2.441,387.695
1630086915.311,764.160,-13.672,-5.859,763.672
1630086915.315,-801.270,-69.824,-42.480,-299.316
1630086915.319,-1000.000,-69.336,-53.223,-824.707
1630086915.323,29.297,-13.672,-23.926,25.391
1630086915.327,-835.938,-5.371,-13.184,823.730
1630086915.330,-112.305,-44.922,-20.020,0.488
1630086915.334,-1000.000,-47.852,-19.531,-770.508
1630086915.338,-226.562,-10.742,3.906,-259.277
1630086915.342,-831.543,4.395,4.395,790.527
1630086915.346,243.652,-35.156,-24.414,295.898
1630086915.350,-1000.000,-45.410,-27.344,-680.176
1630086915.354,-519.531,-20.996,-17.090,-519.043
1630086915.357,-912.109,-2.441,-8.301,593.750
1630086915.361,398.438,-24.902,-31.738,570.801
1630086915.365,-1000.000,-61.035,-43.945,-481.445
1630086915.369,-1000.000,-62.012,-40.039,-728.027
1630086915.373,494.141,-31.250,-40.039,250.977
1630086915.374,915.527,-37.109,-43.945,758.301
1630086915.378,-623.047,-83.008,-59.570,-243.652
1630086915.382,-1000.000,-86.914,-66.895,-841.309
1630086915.386,-117.676,-55.176,-65.430,-102.539
1630086915.390,-838.867,-42.480,-64.453,788.086
1630086915.394,14.160,-79.102,-67.383,47.852
1630086915.398,-1000.000,-81.543,-56.641,-793.945
1630086915.401,-235.352,-49.316,-55.664,-354.980
1630086915.405,-827.637,-37.598,-58.105,719.727
1630086915.409,242.676,-57.129,-53.223,342.285
1630086915.413,-1000.000,-66.895,-46.875,-636.230
1630086915.417,-623.535,-44.922,-29.297,-590.332
1630086915.419,-974.609,-17.578,-19.043,508.301
1630086915.423,516.602,-35.156,-41.992,651.367
1630086915.427,-995.605,-62.988,-51.758,-429.688
1630086915.431,-1000.000,-45.410,-35.645,-772.949
1630086915.435,264.160,0.000,-25.879,162.598
1630086915.439,-923.340,-2.930,-23.926,771.973
1630086915.443,-374.023,-39.062,-27.832,-146.484
1630086915.446,-1000.000,-40.039,-22.461,-786.621
1630086915.450,-213.379,-7.324,-4.395,-128.418
1630086915.454,-837.891,19.043,-0.977,828.125
1630086915.458,186.035,-19.043,-22.461,167.480
1630086915.462,-1000.000,-51.758,-25.879,-749.023
1630086915.464,-315.430,-11.719,-4.395,-408.691
1630086915.468,-837.891,28.320,8.789,718.750
1630086915.472,242.676,9.766,1.953,481.934
1630086915.476,-1000.000,-21.973,-7.812,-561.035
1630086915.480,-755.859,-10.742,-1.953,-639.648
1630086915.484,872.070,30.762,7.812,440.918
1630086915.488,680.176,20.996,0.488,730.469
1630086915.491,-886.719,-24.902,-15.625,-307.617
1630086915.495,-1000.000,-29.785,-11.719,-758.789
1630086915.499,125.977,13.672,10.742,99.121
1630086915.503,-832.031,27.344,7.324,850.098
1630086915.507,-152.832,-10.254,-7.812,3.418
1630086915.510,-1000.000,-26.367,-2.930,-741.211
1630086915.514,-225.098,7.324,16.113,-174.316
1630086915.518,-830.078,27.344,11.230,873.535
1630086915.522,241.211,-11.230,-14.648,315.430
1630086915.526,-1000.000,-30.762,-18.555,-670.898
1630086915.530,-426.758,2.441,-1.465,-451.172
1630086915.534,-870.117,27.832,20.020,684.082
1630086915.537,324.219,-5.371,0.000,571.289
1630086915.541,-1000.000,-33.203,-15.625,-496.094
1630086915.545,-896.973,-19.531,-3.418,-671.387
1630086915.549,666.504,20.508,16.113,360.352
1630086915.553,846.191,24.902,9.277,807.617
1630086915.569,-705.566,-24.414,-5.371,-212.402
1630086915.573,-1000.000,-33.203,10.254,-769.531
1630086915.577,-25.391,20.020,15.137,47.852
1630086915.581,-829.102,26.367,-4.395,915.039
1630086915.585,-40.527,-31.250,-19.531,84.473
1630086915.589,-1000.000,-37.598,-8.789,-765.625
1630086915.593,-232.422,3.906,10.742,-251.465
1630086915.596,-828.613,14.160,1.465,818.848
1630086915.600,243.652,-17.578,-16.113,368.652
1630086915.604,-1000.000,-30.762,-11.719,-637.207
1630086915.608,-547.852,-16.602,-11.719,-542.969
1630086915.612,-925.293,0.000,-4.883,595.215
1630086915.614,427.246,-15.625,-10.742,638.672
1630086915.618,-1000.000,-36.621,-22.949,-460.938
1630086915.622,-1000.000,-25.391,-15.137,-748.535
1630086915.626,384.766,0.488,6.348,247.070
1630086915.630,979.980,0.977,9.277,800.781
1630086915.634,-531.250,-26.367,-2.441,-183.594
1630086915.638,-1000.000,-25.879,1.465,-809.570
1630086915.641,-162.109,2.441,4.883,-81.055
1630086915.645,-837.891,21.484,-7.812,850.098
1630086915.649,81.543,-23.438,-30.762,116.211
1630086915.653,-1000.000,-48.340,-31.250,-767.090
1630086915.657,-241.699,-15.137,-6.836,-391.602
1630086915.659,-823.730,6.836,0.000,723.633
1630086915.663,239.258,-20.508,-18.066,407.715
1630086915.667,-1000.000,-38.574,-22.461,-638.184
1630086915.671,-687.988,-14.160,-13.184,-647.949
1630086915.675,964.355,13.184,-11.230,442.383
1630086915.679,573.730,-8.301,-19.043,671.387
1630086915.683,-959.473,-43.945,-29.297,-382.324
1630086915.686,-1000.000,-38.086,-30.762,-805.176
1630086915.690,182.129,1.953,-8.789,129.883
1630086915.694,-900.391,10.742,-5.859,827.637
1630086915.698,-321.289,-28.809,-24.414,-112.305
1630086915.702,-1000.000,-43.945,-40.039,-827.148
1630086915.704,-214.844,-7.812,-35.156,-197.266
1630086915.708,-838.379,20.020,-13.184,793.945
1630086915.712,202.148,-15.137,-12.207,175.293
1630086915.716,-1000.000,-33.691,-25.879,-775.391
1630086915.720,-368.652,-9.766,-23.926,-429.199
1630086915.724,-853.516,9.277,4.883,742.188
1630086915.728,260.254,-19.531,-1.465,489.746
1630086915.731,-1000.000,-58.594,-16.113,-567.383
1630086915.735,-842.285,-41.992,-8.789,-685.059
1630086915.739,767.578,-2.441,1.953,395.996
1630086915.743,697.754,-5.859,-12.207,747.070
1630086915.747,-871.582,-31.738,-23.438,-312.500
1630086915.749,-1000.000,-36.621,-13.184,-804.199
1630086915.753,42.480,-9.766,-0.488,63.965
1630086915.757,-841.797,1.953,-2.441,850.098
1630086915.761,-141.602,-32.227,-18.555,-7.324
1630086915.765,-1000.000,-41.016,-16.113,-787.598
1630086915.769,-224.609,-11.719,-17.578,-257.812
1630086915.773,-833.008,10.742,-24.414,799.805
1630086915.776,243.652,-22.949,-32.715,281.250
1630086915.780,-1000.000,-44.434,-26.855,-705.078
1630086915.784,-502.441,-22.461,-6.348,-540.039
1630086915.788,-903.809,11.719,-1.465,595.703
1630086915.792,358.398,-8.789,-13.672,577.637
1630086915.794,-1000.000,-41.992,-24.902,-498.047
1630086915.798,-978.027,-24.902,-26.855,-741.211
1630086915.802,542.969,8.789,-14.648,298.828
1630086915.806,879.883,-6.348,-32.715,798.340
1630086915.810,-673.340,-38.574,-37.598,-228.516
1630086915.814,-1000.000,-31.738,-20.020,-801.758
1630086915.818,-68.848,-4.395,-23.438,-20.508
1630086915.821,-833.496,7.324,-35.645,843.262
1630086915.825,-16.602,-20.996,-41.016,56.152
1630086915.829,-1000.000,-37.598,-40.527,-816.406
1630086915.833,-233.398,-13.672,-25.879,-352.051
1630086915.837,-828.613,14.648,-11.230,757.324
1630086915.839,243.652,-19.531,-20.020,346.680
1630086915.843,-1000.000,-54.688,-26.855,-674.316
1630086915.847,-607.910,-35.156,-24.902,-621.582
1630086915.851,-964.355,-7.812,-19.043,517.090
1630086915.855,500.488,-25.391,-27.832,638.672
1630086915.859,-1000.000,-46.875,-33.203,-437.012
1630086915.863,-1000.000,-33.691,-24.902,-770.020
1630086915.866,318.848,-0.488,-19.531,192.871
1630086915.870,-976.562,9.277,-27.344,811.523
1630086915.874,-462.891,-32.715,-36.133,-162.109
1630086915.878,-1000.000,-38.086,-36.133,-832.031
1630086915.882,-198.242,0.977,-25.879,-123.535
1630086915.884,-840.332,12.207,-23.438,848.145
1630086915.888,139.648,-38.574,-36.133,139.648
1630086915.892,-1000.000,-58.594,-31.738,-762.695
1630086915.896,-274.902,-17.578,-17.578,-398.438
1630086915.900,-829.102,7.812,-19.531,738.281
1630086915.904,239.258,-21.973,-45.410,478.516
1630086915.908,-1000.000,-49.316,-56.152,-598.145
1630086915.911,-735.352,-30.762,-47.363,-659.180
1630086915.915,907.715,13.184,-25.879,454.590
1630086915.919,624.023,-3.418,-36.621,703.125
1630086915.923,-934.082,-56.641,-43.945,-371.582
1630086915.927,-1000.000,-52.734,-23.438,-800.781
1630086915.944,140.625,-11.230,-14.648,83.984
1630086915.948,-852.051,4.883,-23.438,822.754
1630086915.952,-211.426,-38.086,-37.109,-60.547
1630086915.956,-1000.000,-54.199,-36.133,-816.406
1630086915.960,-221.680,-14.648,-22.461,-218.262
1630086915.964,-832.520,11.230,-13.184,826.660
1630086915.968,241.211,-22.461,-23.438,250.977
1630086915.971,-1000.000,-45.898,-26.367,-716.309
1630086915.975,-414.551,-26.367,-13.184,-482.910
1630086915.979,-865.723,-11.230,-18.066,650.879
1630086915.983,309.082,-35.156,-40.527,510.254
1630086915.987,-1000.000,-48.340,-39.062,-551.758
1630086915.989,-889.648,-30.762,-35.645,-716.797
1630086915.993,698.730,9.766,-21.484,351.074
1630086915.997,772.461,0.977,-25.391,759.277
1630086916.001,-798.340,-44.434,-38.574,-310.059
1630086916.005,-1000.000,-46.387,-40.527,-847.656
1630086916.009,7.324,-4.883,-23.438,2.930
1630086916.013,-831.055,7.812,-18.066,857.910
1630086916.016,-72.266,-37.109,-37.109,1.953
1630086916.020,-1000.000,-51.758,-43.457,-834.473
1630086916.024,-229.980,-20.508,-41.504,-315.918
1630086916.028,-829.590,5.859,-30.762,774.414
1630086916.032,243.652,-20.020,-37.109,318.359
1630086916.034,-1000.000,-44.434,-44.434,-706.543
1630086916.038,-537.109,-28.320,-42.480,-600.098
1630086916.042,-921.387,3.418,-30.273,566.895
1630086916.046,424.805,-16.113,-38.574,586.914
1630086916.050,-1000.000,-63.965,-60.059,-527.832
1630086916.054,-1000.000,-66.406,-60.547,-804.688
1630086916.058,493.652,-24.414,-41.016,229.980
1630086916.061,913.086,-24.902,-35.156,776.855
1630086916.065,-622.070,-79.590,-61.035,-261.230
1630086916.069,-1000.000,-87.402,-69.336,-907.227
1630086916.073,-147.461,-33.691,-47.852,-132.324
1630086916.077,-842.773,-20.996,-43.945,810.059
1630086916.079,39.551,-58.105,-45.410,57.129
1630086916.083,-1000.000,-61.035,-44.434,-809.570
1630086916.087,-237.305,-20.020,-37.598,-382.812
1630086916.091,-826.172,4.395,-24.902,747.559
1630086916.095,242.676,-38.574,-40.527,410.645
1630086916.099,-1000.000,-62.012,-47.363,-631.836
1630086916.103,-633.301,-41.504,-34.180,-622.559
1630086916.106,-979.980,-16.602,-22.949,511.230
1630086916.110,523.438,-40.527,-38.574,657.227
1630086916.114,-985.840,-69.824,-50.293,-447.754
1630086916.118,-1000.000,-47.852,-41.992,-801.270
1630086916.122,226.074,-10.742,-32.227,165.039
1630086916.124,-925.781,-7.324,-28.809,815.430
1630086916.128,-374.512,-57.617,-29.785,-152.832
1630086916.132,-1000.000,-71.289,-29.297,-842.773
1630086916.136,-214.355,-21.484,-17.090,-148.438
1630086916.140,-838.379,-3.906,-13.184,833.496
1630086916.144,198.242,-44.922,-35.156,160.156
1630086916.148,-1000.000,-56.641,-52.246,-754.395
1630086916.151,-333.496,-38.086,-48.340,-450.684
1630086916.155,-842.285,-35.156,-48.828,659.180
1630086916.159,242.188,-54.688,-50.293,437.012
1630086916.163,-1000.000,-61.523,-32.715,-621.094
1630086916.167,-793.457,-35.156,-26.855,-708.496
1630086916.169,839.355,2.441,-19.043,403.320
1630086916.173,639.648,-16.113,-21.484,717.773
1630086916.177,-923.340,-53.711,-41.504,-375.977
1630086916.181,-1000.000,-46.875,-41.504,-845.703
1630086916.185,66.406,-11.719,-21.973,43.945
1630086916.189,-843.262,-3.418,-21.973,832.520
1630086916.193,-161.621,-46.387,-33.691,-34.668
1630086916.196,-1000.000,-62.012,-33.203,-811.035
1630086916.200,-223.145,-20.508,-18.555,-237.305
1630086916.204,-832.520,9.277,-14.160,835.449
1630086916.208,242.676,-35.645,-39.551,261.230
1630086916.212,-1000.000,-63.965,-54.199,-728.516
1630086916.215,-462.402,-39.062,-52.734,-535.645
1630086916.219,-884.277,-2.930,-31.250,616.699
1630086916.223,331.055,-36.133,-41.504,560.059
1630086916.227,-1000.000,-79.590,-63.477,-530.762
1630086916.231,-947.266,-54.199,-48.828,-724.609
1630086916.235,591.797,-4.883,-23.438,320.801
1630086916.239,853.516,-16.113,-42.969,781.250
1630086916.242,-700.684,-72.266,-72.266,-278.320
1630086916.246,-1000.000,-53.223,-40.039,-849.121
1630086916.250,-59.570,-9.277,-12.695,-19.531
1630086916.254,-836.426,-7.812,-11.719,845.703
1630086916.258,-40.039,-48.340,-20.508,17.090
1630086916.259,-1000.000,-51.758,-35.645,-800.781
1630086916.263,-231.445,-14.648,-41.016,-329.102
1630086916.267,-829.102,1.953,-26.855,770.508
1630086916.271,243.652,-32.715,-29.297,358.398
1630086916.275,-1000.000,-65.918,-31.738,-682.617
1630086916.279,-562.500,-38.574,-32.227,-610.840
1630086916.283,-935.059,-18.066,-48.828,535.645
1630086916.286,463.867,-54.688,-51.270,616.699
1630086916.290,-1000.000,-78.125,-42.969,-467.285
1630086916.294,-1000.000,-62.012,-37.598,-778.809
1630086916.298,342.285,-25.391,-33.691,211.914
1630086916.302,-986.328,-28.320,-46.875,822.754
1630086916.319,-479.980,-72.266,-45.410,-167.480
1630086916.323,-1000.000,-72.754,-42.969,-840.332
1630086916.327,-181.152,-35.156,-27.832,-103.516
1630086916.331,-837.402,-16.602,-17.578,879.395
1630086916.335,111.328,-45.410,-33.691,149.414
1630086916.339,-1000.000,-65.430,-41.992,-785.645
1630086916.343,-245.605,-43.945,-36.621,-438.477
1630086916.346,-821.777,-13.672,-24.902,731.445
1630086916.350,237.305,-40.039,-41.016,460.938
1630086916.354,-1000.000,-93.750,-73.730,-646.484
1630086916.358,-711.426,-83.008,-76.660,-697.266
1630086916.362,936.523,-17.090,-34.668,460.449
1630086916.364,603.516,-29.297,-24.902,710.449
1630086916.368,-944.824,-64.941,-45.898,-392.090
1630086916.372,-1000.000,-48.340,-37.598,-823.242
1630086916.376,164.062,-15.137,-20.020,108.887
1630086916.380,-870.117,-20.508,-19.043,846.680
1630086916.384,-260.742,-55.176,-31.250,-78.125
1630086916.388,-1000.000,-58.594,-30.762,-847.168
1630086916.391,-218.262,-25.879,-27.344,-209.961
1630086916.395,-834.961,-0.488,-28.809,856.934
1630086916.399,229.980,-47.852,-43.457,220.703
1630086916.403,-1000.000,-66.406,-51.758,-753.906
1630086916.407,-395.020,-34.180,-36.621,-472.168
1630086916.409,-860.352,-9.766,-18.066,686.523
1630086916.413,285.645,-33.203,-25.879,519.531
1630086916.417,-1000.000,-58.105,-33.691,-580.078
1630086916.421,-854.492,-45.898,-25.879,-711.914
1630086916.425,736.328,-14.648,-10.742,390.137
1630086916.429,770.996,-18.555,-16.602,759.277
1630086916.433,-796.387,-55.664,-28.809,-319.336
1630086916.436,-1000.000,-55.664,-20.996,-832.520
1630086916.440,37.109,-31.738,-22.949,5.859
1630086916.444,-837.402,-30.762,-41.016,802.246
1630086916.448,-124.023,-41.504,-37.598,-39.062
1630086916.452,-1000.000,-44.922,-38.574,-838.379
1630086916.454,-225.586,-14.160,-42.480,-298.340
1630086916.458,-832.520,12.695,-40.039,796.875
1630086916.462,243.652,-22.461,-45.410,297.363
1630086916.466,-1000.000,-45.410,-33.691,-719.727
1630086916.470,-519.043,-28.809,-21.973,-572.266
1630086916.474,-912.109,1.953,-13.184,605.957
1630086916.478,403.809,-10.742,-15.625,613.281
1630086916.481,-1000.000,-58.105,-27.344,-517.090
1630086916.485,-1000.000,-62.988,-41.504,-794.922
1630086916.489,501.465,-6.836,-28.809,267.090
1630086916.493,912.598,3.418,-23.438,791.992
1630086916.497,-631.836,-47.363,-40.039,-249.512
1630086916.499,-1000.000,-49.316,-39.551,-846.680
1630086916.503,-87.891,-8.301,-26.367,-51.758
1630086916.507,-828.613,-0.977,-26.367,877.441
1630086916.511,26.855,-46.387,-50.293,88.867
1630086916.515,-1000.000,-61.035,-57.129,-810.059
1630086916.519,-237.793,-25.391,-37.109,-364.746
1630086916.523,-826.172,7.324,-26.855,788.086
1630086916.526,242.676,-41.504,-55.664,391.602
1630086916.530,-1000.000,-84.473,-75.684,-694.824
1630086916.534,-616.699,-40.527,-53.711,-637.207
1630086916.538,-970.703,5.371,-34.668,523.438
1630086916.542,525.391,-6.348,-38.574,691.895
1630086916.544,-990.723,-39.551,-53.711,-411.621
1630086916.548,-1000.000,-41.992,-57.129,-801.758
1630086916.552,272.461,-4.395,-40.039,179.688
1630086916.556,-928.223,7.324,-37.109,846.191
1630086916.560,-381.836,-36.621,-55.664,-138.184
1630086916.564,-1000.000,-46.387,-55.664,-844.727
1630086916.568,-212.402,-4.883,-30.762,-134.277
1630086916.571,-839.355,9.277,-31.738,874.512
1630086916.575,177.246,-28.809,-62.988,176.270
1630086916.579,-1000.000,-38.574,-67.383,-799.805
1630086916.583,-315.918,-7.324,-43.457,-460.449
1630086916.587,-838.867,17.578,-30.762,732.910
1630086916.589,242.676,-12.207,-36.621,482.910
1630086916.593,-1000.000,-41.992,-42.480,-632.812
1630086916.597,-760.742,-36.133,-43.457,-687.500
1630086916.601,877.930,1.953,-30.762,442.871
1630086916.605,638.184,-2.930,-48.828,723.145
1630086916.609,-925.781,-34.668,-63.477,-355.957
1630086916.613,-1000.000,-32.715,-59.082,-795.898
1630086916.616,117.188,-14.648,-50.293,99.121
1630086916.620,-846.680,-3.418,-40.527,842.773
1630086916.624,-189.453,-43.457,-44.434,-79.102
1630086916.628,-1000.000,-54.199,-29.297,-852.051
1630086916.632,-222.656,-4.395,-14.648,-216.797
1630086916.634,-832.520,18.066,-27.344,842.285
1630086916.638,241.699,-20.996,-43.457,251.465
1630086916.642,-1000.000,-43.457,-41.016,-741.699
1630086916.646,-437.988,-17.578,-27.832,-523.438
1630086916.650,-874.023,11.719,-21.484,662.109
1630086916.654,328.613,-7.812,-39.551,592.773
1630086916.658,-1000.000,-49.805,-53.223,-520.020
1630086916.661,-930.176,-51.270,-48.828,-739.258
1630086916.665,631.348,-7.812,-23.926,335.449
1630086916.669,821.289,-1.465,-23.926,779.297
1630086916.673,-742.188,-37.598,-28.320,-269.043
1630086916.677,-1000.000,-41.992,-23.438,-829.102
1630086916.680,-27.344,-7.324,-11.719,2.441
1630086916.684,-834.961,-2.441,-9.277,849.609
1630086916.688,-61.523,-38.574,-31.250,35.156
1630086916.692,-1000.000,-41.504,-41.016,-795.898
1630086916.696,-229.980,-5.371,-18.066,-317.871
1630086916.700,-830.078,15.137,4.883,824.219
1630086916.704,244.141,-18.555,-7.812,391.113
1630086916.707,-1000.000,-43.945,-28.320,-681.641
1630086916.711,-561.035,-28.320,-30.762,-609.375
1630086916.715,-933.105,10.254,-13.184,567.383
1630086916.719,427.246,-5.859,-15.137,647.461
1630086916.723,-1000.000,-51.270,-38.086,-491.699
1630086916.739,-1000.000,-40.527,-39.551,-800.781
1630086916.743,385.742,6.348,-4.395,248.047
1630086916.747,978.027,10.254,0.488,825.195
1630086916.751,-533.691,-27.344,-17.578,-185.547
1630086916.755,-1000.000,-27.344,-6.348,-843.750
1630086916.759,-166.016,13.672,10.254,-82.031
1630086916.763,-840.820,15.625,-6.836,882.812
1630086916.766,71.777,-36.621,-30.273,109.375
1630086916.770,-1000.000,-49.316,-27.832,-808.105
1630086916.774,-240.234,-9.277,-5.859,-388.672
1630086916.778,-824.707,28.809,3.906,768.555
1630086916.782,238.770,-8.789,-12.207,440.430
1630086916.784,-1000.000,-51.270,-15.137,-629.883
1630086916.788,-702.637,-26.855,-11.719,-644.043
1630086916.792,949.219,15.625,-6.836,485.352
1630086916.796,567.383,1.465,-8.301,707.520
1630086916.800,-966.309,-38.086,-10.742,-388.184
1630086916.804,-1000.000,-33.691,-6.836,-796.875
1630086916.808,187.500,3.418,9.277,165.527
1630086916.811,-902.832,2.930,-1.465,848.633
1630086916.815,-326.660,-39.062,-17.090,-107.422
1630086916.819,-1000.000,-45.410,-12.695,-830.078
1630086916.823,-215.332,-13.672,-6.348,-174.316
1630086916.827,-837.891,8.789,-8.301,860.352
1630086916.829,207.520,-23.926,-20.508,206.543
1630086916.833,-1000.000,-48.828,-24.414,-754.883
1630086916.837,-370.605,-14.648,-10.742,-462.402
1630086916.841,-853.516,17.578,8.789,706.055
1630086916.845,262.695,-15.625,-6.348,544.434
1630086916.849,-1000.000,-40.039,-28.809,-580.566
1630086916.853,-849.121,-15.137,-34.668,-699.707
1630086916.856,749.023,-0.488,-6.836,416.504
1630086916.860,737.305,-16.602,-1.953,779.785
1630086916.864,-833.008,-45.898,-32.227,-311.523
1630086916.868,-1000.000,-52.246,-18.555,-854.980
1630086916.872,41.992,-31.250,9.277,41.504
1630086916.874,-844.238,-25.391,-4.883,852.539
1630086916.878,-150.879,-61.523,-23.926,-36.133
1630086916.882,-1000.000,-77.148,-6.348,-829.590
1630086916.886,-223.633,-43.457,11.230,-273.438
1630086916.890,-833.008,-25.391,19.531,830.078
1630086916.894,243.652,-61.523,3.418,308.105
1630086916.898,-1000.000,-80.078,-5.371,-720.703
1630086916.901,-490.723,-49.316,3.906,-526.855
1630086916.905,-897.949,-18.555,13.184,649.902
1630086916.909,370.605,-47.852,0.977,621.094
1630086916.913,-1000.000,-85.938,-11.230,-511.230
1630086916.917,-987.793,-67.383,-4.883,-748.535
1630086916.919,535.156,-26.855,-8.789,312.988
1630086916.923,877.441,-39.062,-20.996,789.551
1630086916.927,-675.293,-70.312,-17.578,-264.160
1630086916.931,-1000.000,-58.105,-5.859,-852.539
1630086916.935,-81.055,-15.137,-1.953,-43.457
1630086916.939,-834.473,1.465,-3.906,866.211
1630086916.943,-10.742,-41.992,-6.348,83.496
1630086916.946,-1000.000,-71.777,4.395,-797.363
1630086916.950,-233.887,-32.227,15.137,-340.820
1630086916.954,-828.613,7.812,17.578,790.039
1630086916.958,243.164,-26.855,2.930,383.301
1630086916.962,-1000.000,-58.594,-15.625,-674.316
1630086916.964,-612.793,-41.992,-8.789,-610.840
1630086916.968,-966.797,-15.137,7.324,537.598
1630086916.972,501.953,-23.926,-0.488,658.691
1630086916.976,-1000.000,-53.223,-10.254,-433.105
1630086916.980,-1000.000,-52.734,-15.625,-789.551
1630086916.984,288.086,-18.555,-15.625,192.871
1630086916.988,-970.703,3.906,1.953,851.562
1630086916.991,-454.590,-20.996,20.020,-108.398
1630086916.995,-1000.000,-56.641,-1.953,-830.078
1630086916.999,-206.055,-31.738,-7.324,-135.742
1630086917.003,-846.680,-4.883,-6.836,851.562
1630086917.007,110.840,-44.922,-36.133,149.902
1630086917.009,-1000.000,-58.594,-47.852,-775.391
1630086917.013,-291.992,-20.508,-29.297,-415.527
1630086917.017,-838.867,6.348,-17.090,737.793
1630086917.021,243.164,-26.367,-23.926,470.215
1630086917.025,-1000.000,-64.453,-29.785,-622.559
1630086917.029,-744.141,-41.016,-26.367,-663.574
1630086917.033,898.926,13.672,-4.883,473.145
1630086917.036,613.281,-9.766,-26.855,710.449
1630086917.040,-938.965,-51.758,-46.875,-389.160
1630086917.044,-1000.000,-38.574,-34.180,-833.984
1630086917.048,134.277,-7.812,-25.391,83.984
1630086917.052,-873.535,-10.742,-41.504,807.129
1630086917.069,-259.766,-45.898,-57.129,-104.004
1630086917.073,-1000.000,-68.848,-61.035,-835.938
1630086917.077,-218.262,-54.199,-70.801,-247.070
1630086917.081,-836.426,-29.297,-76.172,812.012
1630086917.085,229.980,-67.383,-86.426,225.586
1630086917.089,-1000.000,-82.520,-83.984,-783.203
1630086917.093,-423.340,-48.828,-59.570,-541.016
1630086917.096,-871.582,-18.066,-43.945,654.297
1630086917.100,294.922,-36.621,-53.711,530.273
1630086917.104,-1000.000,-62.988,-50.781,-584.961
1630086917.108,-902.832,-41.992,-40.527,-740.723
1630086917.112,677.734,-4.883,-27.832,344.238
1630086917.114,769.043,-8.301,-30.762,764.160
1630086917.118,-800.781,-43.945,-39.062,-275.391
1630086917.122,-1000.000,-40.039,-31.250,-812.012
1630086917.126,-15.137,2.441,-14.648,15.137
1630086917.130,-842.285,14.648,-10.742,862.793
1630086917.134,-101.562,-16.602,-15.625,49.316
1630086917.138,-1000.000,-31.738,-18.066,-785.645
1630086917.141,-226.562,-8.301,-11.719,-303.711
1630086917.145,-832.031,20.508,1.953,820.312
1630086917.149,244.141,-6.836,-1.465,346.680
1630086917.153,-1000.000,-36.133,-16.602,-683.105
1630086917.157,-544.922,-17.090,-21.484,-542.969
1630086917.159,-923.828,22.949,-2.930,604.980
1630086917.163,411.133,0.488,-4.395,646.973
1630086917.167,-1000.000,-40.039,-23.438,-465.820
1630086917.171,-1000.000,-26.855,-33.691,-760.742
1630086917.175,410.645,12.695,-14.648,267.090
1630086917.179,936.035,12.695,-18.555,818.359
1630086917.183,-594.238,-53.711,-49.316,-206.543
1630086917.186,-1000.000,-80.566,-56.641,-870.117
1630086917.190,-157.227,-41.992,-53.711,-108.398
1630086917.194,-849.121,-32.227,-55.664,840.332
1630086917.198,18.066,-77.637,-65.430,79.102
1630086917.202,-1000.000,-83.496,-60.547,-804.688
1630086917.204,-233.887,-42.969,-43.457,-395.020
1630086917.208,-828.125,-10.254,-29.297,741.699
1630086917.212,242.188,-31.738,-49.316,402.832
1630086917.216,-1000.000,-58.105,-66.895,-654.785
1630086917.220,-652.344,-44.434,-60.059,-654.297
1630086917.224,-995.605,-3.418,-42.480,484.863
1630086917.228,523.926,-20.020,-48.828,671.875
1630086917.231,-986.328,-66.895,-57.129,-408.203
1630086917.235,-1000.000,-59.570,-43.945,-793.457
1630086917.239,194.336,-23.438,-24.902,146.973
1630086917.243,-892.578,-12.695,-37.109,836.914
1630086917.247,-311.035,-50.781,-57.617,-109.375
1630086917.249,-1000.000,-72.266,-58.105,-832.031
1630086917.253,-215.332,-33.203,-40.039,-165.527
1630086917.257,-836.426,-0.977,-25.391,851.074
1630086917.261,199.219,-42.969,-35.645,187.500
1630086917.265,-1000.000,-62.500,-33.691,-774.902
1630086917.269,-337.891,-32.715,-16.113,-454.590
1630086917.273,-843.262,-0.977,-13.184,714.355
1630086917.276,251.953,-26.855,-36.621,499.023
1630086917.280,-1000.000,-74.219,-45.898,-579.102
1630086917.284,-808.105,-61.035,-33.203,-695.312
1630086917.288,809.570,-10.254,-18.555,404.297
1630086917.292,699.707,-20.996,-25.391,739.258
1630086917.294,-865.723,-65.918,-38.574,-363.281
1630086917.298,-1000.000,-59.082,-41.016,-859.375
1630086917.302,64.941,-20.996,-24.902,46.875
1630086917.306,-843.262,-14.648,-25.391,832.031
1630086917.310,-160.156,-59.570,-41.504,-58.594
1630086917.314,-1000.000,-74.219,-39.551,-836.426
1630086917.318,-223.145,-34.668,-22.949,-260.254
1630086917.321,-833.496,-12.207,-18.555,795.898
1630086917.325,243.164,-44.922,-34.180,264.160
1630086917.329,-1000.000,-74.707,-38.086,-717.285
1630086917.333,-480.469,-52.246,-35.645,-547.852
1630086917.337,-893.066,-11.719,-26.367,614.746
1630086917.339,345.703,-24.902,-40.527,558.105
1630086917.343,-1000.000,-64.453,-58.105,-545.410
1630086917.347,-962.402,-65.918,-37.109,-731.445
1630086917.351,572.754,-15.625,-18.066,337.891
1630086917.355,855.469,-4.883,-28.809,751.465
1630086917.359,-700.684,-46.875,-38.086,-321.289
1630086917.363,-1000.000,-48.828,-34.180,-869.141
1630086917.366,-61.523,0.977,-24.902,-54.688
1630086917.370,-836.426,23.926,-35.156,795.898
1630086917.374,-37.109,-35.156,-62.988,-62.012
1630086917.378,-1000.000,-79.590,-88.867,-937.500
1630086917.382,-231.445,-47.363,-89.355,-463.867
1630086917.389,-830.078,-18.555,-72.754,680.664
1630086917.393,243.652,-54.199,-73.242,277.344
1630086917.397,-1000.000,-68.359,-62.012,-756.836
1630086917.401,-602.539,-43.945,-54.199,-690.430
1630086917.405,-960.449,-9.766,-52.734,468.750
1630086917.409,487.793,-16.602,-58.105,589.844
1630086917.413,-1000.000,-49.805,-58.105,-494.629
1630086917.416,-1000.000,-57.617,-58.594,-810.059
1630086917.420,338.379,-20.020,-46.875,192.383
1630086917.424,-990.234,-3.418,-42.480,784.180
1630086917.428,-483.887,-38.574,-54.688,-206.543
1630086917.432,-1000.000,-43.945,-60.059,-859.863
1630086917.444,-193.359,-6.348,-52.246,-135.742
1630086917.448,-843.750,2.930,-45.410,819.336
1630086917.452,103.516,-39.551,-50.781,103.027
1630086917.456,-1000.000,-56.152,-51.270,-797.363
1630086917.460,-268.066,-23.926,-41.992,-428.223
1630086917.464,-831.055,0.977,-40.527,716.797
1630086917.468,239.746,-23.926,-47.852,426.758
1630086917.471,-1000.000,-50.781,-47.852,-634.277
1630086917.475,-739.746,-39.551,-42.969,-680.664
1630086917.479,905.273,1.953,-32.227,453.125
1630086917.483,607.910,-9.766,-45.898,710.449
1630086917.487,-943.848,-49.805,-54.688,-380.371
1630086917.489,-1000.000,-43.945,-34.180,-805.664
1630086917.493,150.879,-6.348,-15.137,127.441
1630086917.497,-875.977,1.465,-24.414,835.938
1630086917.501,-269.531,-36.133,-47.363,-98.145
1630086917.505,-1000.000,-47.852,-54.199,-843.750
1630086917.509,-218.262,-11.719,-33.691,-216.797
1630086917.513,-835.938,12.207,-19.043,885.742
1630086917.516,231.445,-32.715,-30.273,275.879
1630086917.520,-1000.000,-65.430,-42.480,-749.023
1630086917.524,-406.250,-34.668,-34.180,-484.863
1630086917.528,-864.746,6.348,-20.996,677.246
1630086917.532,280.762,-18.066,-33.203,520.508
1630086917.534,-1000.000,-54.199,-35.156,-575.195
1630086917.538,-878.906,-41.992,-19.043,-718.750
1630086917.542,706.543,-11.719,-7.324,369.141
1630086917.546,766.602,-19.043,-17.578,765.137
1630086917.550,-807.129,-51.270,-37.598,-312.988
1630086917.554,-1000.000,-40.527,-38.086,-841.797
1630086917.558,29.785,0.000,-15.137,36.621
1630086917.561,-835.938,7.324,-9.277,871.582
1630086917.565,-112.305,-25.391,-10.742,26.855
1630086917.569,-1000.000,-27.344,-2.441,-777.832
1630086917.573,-226.562,-13.184,-4.883,-260.742
1630086917.577,-832.031,5.371,5.859,823.242
1630086917.579,243.652,-15.625,3.906,332.031
1630086917.583,-1000.000,-39.551,-10.742,-710.449
1630086917.587,-524.414,-18.066,-3.418,-562.988
1630086917.591,-914.551,18.066,12.207,611.328
1630086917.595,400.879,-3.906,-0.977,599.121
1630086917.599,-1000.000,-41.016,-10.254,-521.484
1630086917.603,-1000.000,-25.879,-1.953,-756.836
1630086917.606,491.699,6.836,2.441,293.457
1630086917.610,912.109,-0.977,-6.348,807.129
1630086917.614,-627.930,-44.434,-22.949,-210.449
1630086917.618,-1000.000,-51.270,-26.367,-832.520
1630086917.622,-123.535,-1.953,-2.930,-59.082
1630086917.624,-836.914,14.648,1.465,891.113
1630086917.628,35.645,-28.320,-19.531,113.281
1630086917.632,-1000.000,-37.109,-15.625,-785.156
1630086917.636,-237.793,1.953,2.441,-345.215
1630086917.640,-826.172,31.250,7.324,782.715
1630086917.644,242.676,-0.977,-10.254,419.434
1630086917.648,-1000.000,-36.621,-27.832,-631.348
1630086917.651,-633.789,-21.973,-14.648,-615.723
1630086917.655,-979.980,14.160,15.625,517.578
1630086917.659,515.625,-12.207,2.930,680.176
1630086917.663,-991.699,-52.246,-19.531,-420.410
1630086917.667,-1000.000,-46.387,-23.438,-788.086
1630086917.669,245.605,-4.883,-9.766,189.453
1630086917.673,-945.312,3.906,-3.418,841.309
1630086917.677,-410.156,-36.621,-13.184,-123.535
1630086917.681,-1000.000,-35.645,-22.949,-829.590
1630086917.685,-212.402,-3.418,-17.090,-155.762
1630086917.689,-839.844,11.230,-14.160,862.793
1630086917.693,185.547,-26.855,-26.855,202.148
1630086917.696,-1000.000,-50.293,-19.043,-748.535
1630086917.700,-327.637,-27.344,-14.160,-447.754
1630086917.704,-841.797,-2.441,-13.184,698.730
1630086917.708,242.676,-28.320,-20.996,484.375
1630086917.712,-1000.000,-55.664,-32.227,-596.680
1630086917.714,-786.133,-34.180,-23.438,-709.473
1630086917.718,849.609,10.742,-9.277,398.926
1630086917.722,635.254,-7.812,-19.043,728.516
1630086917.726,-927.734,-57.129,-21.484,-356.934
1630086917.730,-1000.000,-43.457,-21.973,-841.797
1630086917.734,80.566,3.418,-17.090,69.824
1630086917.738,-839.844,25.391,-5.371,859.863
1630086917.741,-157.715,-13.184,4.395,-19.043
1630086917.745,-1000.000,-47.852,-11.719,-806.641
1630086917.749,-224.121,-27.344,-24.414,-259.277
1630086917.753,-832.031,-15.137,-19.531,831.055
1630086917.757,242.676,-38.086,-30.762,321.289
1630086917.759,-1000.000,-41.992,-40.527,-738.281
1630086917.763,-454.590,-17.578,-37.598,-627.441
1630086917.767,-881.348,11.719,-15.625,575.195
1630086917.771,317.871,-9.766,-29.297,540.039
1630086917.775,-1000.000,-40.527,-51.758,-588.379
1630086917.779,-946.289,-40.039,-37.109,-794.434
1630086917.783,615.723,-0.977,-12.695,311.523
1630086917.786,786.621,-6.348,-39.551,739.746
1630086917.790,-784.180,-50.293,-62.500,-333.496
1630086917.794,-1000.000,-39.062,-44.922,-861.328
1630086917.798,-51.270,0.000,-26.855,-31.738
1630086917.802,-842.285,2.930,-26.367,819.336
1630086917.819,-67.383,-39.062,-30.762,3.906
1630086917.823,-1000.000,-51.758,-28.320,-825.684
1630086917.827,-230.469,-17.090,-18.555,-342.285
1630086917.831,-823.730,7.324,-16.602,786.621
1630086917.835,225.098,-27.832,-42.480,343.262
1630086917.839,-1000.000,-44.922,-48.340,-694.824
1630086917.843,-468.750,-23.438,-32.227,-578.613
1630086917.846,-942.383,0.488,-27.344,573.242
1630086917.850,436.035,-25.391,-48.340,630.859
1630086917.854,-1000.000,-53.711,-50.293,-490.234
1630086917.858,-1000.000,-40.039,-25.879,-739.258
1630086917.862,433.594,-16.113,-6.836,280.273
1630086917.864,976.562,-3.418,-14.648,802.734
1630086917.868,-520.996,-38.574,-23.438,-191.406
1630086917.872,-1000.000,-54.199,-19.043,-854.492
1630086917.876,-172.363,-20.020,-19.531,-117.676
1630086917.880,-839.844,-5.371,-16.113,848.145
1630086917.884,86.426,-40.039,-27.344,112.305
1630086917.888,-1000.000,-54.688,-24.902,-798.828
1630086917.891,-247.070,-25.391,-10.742,-417.969
1630086917.895,-825.195,13.184,5.371,743.652
1630086917.899,238.770,-6.348,11.719,468.750
1630086917.903,-1000.000,-39.551,-14.160,-615.234
1630086917.907,-710.449,-31.738,-28.809,-659.180
1630086917.909,939.453,-1.465,-14.648,478.516
1630086917.913,577.637,-13.672,-16.113,723.633
1630086917.917,-961.914,-54.688,-16.602,-392.578
1630086917.921,-1000.000,-47.852,-20.020,-823.730
1630086917.925,174.316,2.441,-7.324,155.273
1630086917.929,-878.418,6.836,-7.812,870.117
1630086917.933,-279.297,-41.504,-32.227,-83.496
1630086917.936,-1000.000,-48.828,-33.691,-840.820
1630086917.940,-216.309,4.395,-2.441,-180.176
1630086917.944,-836.914,29.785,17.090,878.418
1630086917.948,207.031,-26.855,-15.625,220.703
1630086917.952,-1000.000,-47.363,-20.508,-759.277
1630086917.954,-386.230,-17.578,-1.465,-465.332
1630086917.958,-859.863,6.348,-0.977,704.590
1630086917.962,273.926,-16.602,-19.043,544.434
1630086917.966,-1000.000,-53.711,-27.344,-574.707
1630086917.970,-856.934,-47.852,-22.949,-713.867
1630086917.974,737.305,-9.277,-8.301,395.508
1630086917.978,750.000,-8.789,-17.578,773.438
1630086917.981,-819.824,-45.410,-31.250,-309.082
1630086917.985,-1000.000,-29.785,-5.859,-818.359
1630086917.989,32.715,3.418,-1.465,56.641
1630086917.993,-841.309,-4.395,-9.766,871.582
1630086917.997,-134.277,-42.969,-20.508,4.883
1630086917.999,-1000.000,-52.734,-20.996,-829.102
1630086918.003,-224.609,-19.043,-5.371,-289.551
1630086918.007,-832.520,3.906,-8.789,801.758
1630086918.011,243.652,-25.879,-16.113,306.152
1630086918.015,-1000.000,-50.781,-19.531,-705.078
1630086918.019,-509.277,-31.738,-8.301,-560.547
1630086918.023,-906.738,4.395,5.371,628.906
1630086918.026,369.141,-13.184,-5.859,597.168
1630086918.030,-1000.000,-44.434,-4.395,-526.855
1630086918.034,-1000.000,-39.551,-10.742,-760.254
1630086918.038,504.395,-11.230,-10.254,274.414
1630086918.042,893.555,-12.207,-3.906,797.852
1630086918.044,-655.273,-47.852,-20.996,-236.816
1630086918.048,-1000.000,-55.664,-40.527,-853.027
1630086918.052,-99.609,-21.484,-30.762,-54.688
1630086918.056,-838.379,-0.488,-22.949,880.859
1630086918.060,-6.836,-44.922,-35.156,59.570
1630086918.064,-1000.000,-67.383,-33.203,-827.148
1630086918.068,-233.398,-23.926,-14.648,-340.332
1630086918.071,-828.613,17.090,3.418,809.082
1630086918.075,243.164,-26.855,-19.043,411.133
1630086918.079,-1000.000,-60.059,-42.969,-669.434
1630086918.083,-619.141,-36.621,-29.297,-622.559
1630086918.087,-971.191,-1.953,-6.836,541.016
1630086918.092,504.395,-12.695,-21.484,679.199
1630086918.096,-1000.000,-50.781,-46.387,-446.777
1630086918.100,-1000.000,-32.227,-25.391,-780.273
1630086918.104,289.551,2.441,0.000,221.191
1630086918.108,-960.449,-2.930,-14.648,835.938
1630086918.112,-440.430,-43.945,-32.715,-149.414
1630086918.116,-1000.000,-21.484,-1.465,-785.645
1630086918.119,-198.242,40.039,41.504,-35.645
1630086918.123,-841.309,-0.488,8.301,893.066
1630086918.127,141.602,-49.805,-31.250,159.180
1630086918.131,-1000.000,-52.734,-35.645,-773.438
1630086918.135,-303.223,-41.504,-27.832,-436.523
1630086918.134,-838.867,-17.090,-20.020,721.680
1630086918.138,242.676,-35.645,-32.227,466.797
1630086918.142,-1000.000,-66.895,-44.434,-618.164
1630086918.146,-757.324,-44.922,-41.016,-672.363
1630086918.150,883.789,-12.207,-29.785,448.242
1630086918.154,626.953,-20.508,-23.438,731.445
1630086918.158,-928.711,-20.020,-3.418,-317.383
1630086918.161,-1000.000,-35.156,-15.625,-791.016
1630086918.165,111.328,-30.273,-23.438,85.938
1630086918.169,-869.141,-12.695,-16.113,847.656
1630086918.173,-244.141,-53.223,-31.250,-59.570
1630086918.177,-1000.000,-65.918,-30.762,-842.285
1630086918.179,-218.750,-25.879,-14.648,-243.652
1630086918.183,-835.938,-3.906,-8.789,837.891
1630086918.187,234.863,-38.086,-35.156,262.695
1630086918.191,-1000.000,-56.641,-41.504,-733.887
1630086918.195,-431.641,-38.574,-27.832,-512.695
1630086918.199,-873.047,2.441,-6.348,666.504
1630086918.203,318.848,-15.625,-10.742,590.820
1630086918.206,-1000.000,-61.035,-28.320,-538.574
1630086918.210,-914.551,-49.805,-34.668,-752.441
1630086918.214,666.016,3.906,4.883,343.750
1630086918.218,775.879,6.348,21.484,799.805
1630086918.222,-791.504,-55.176,-24.414,-290.527
1630086918.239,-1000.000,-53.711,-48.828,-866.699
1630086918.243,-32.227,-15.625,-37.109,-3.906
1630086918.247,-842.285,-3.906,-16.113,857.422
1630086918.251,-85.938,-40.039,-27.832,24.414
1630086918.255,-1000.000,-48.828,-23.438,-812.500
1630086918.259,-227.539,-14.648,3.418,-313.965
1630086918.263,-831.055,-1.953,-1.953,810.059
1630086918.266,243.652,-40.527,-21.973,335.449
1630086918.270,-1000.000,-63.477,-25.391,-713.867
1630086918.274,-536.621,-29.785,2.441,-534.180
1630086918.278,-919.434,8.789,10.742,645.996
1630086918.282,410.645,-23.926,-25.391,594.727
1630086918.284,-1000.000,-66.406,-43.945,-558.594
1630086918.288,-1000.000,-51.758,-39.062,-839.844
1630086918.292,412.109,-13.184,-28.320,190.918
1630086918.296,923.340,-9.766,-30.762,770.020
1630086918.300,-612.793,-49.316,-39.551,-264.648
1630086918.304,-1000.000,-49.316,-39.551,-915.527
1630086918.308,-163.574,-10.254,-21.484,-158.203
1630086918.311,-847.656,-11.230,-32.715,775.879
1630086918.315,39.062,-39.551,-50.293,56.152
1630086918.319,-1000.000,-31.250,-30.273,-792.969
1630086918.323,-236.328,-18.555,-25.879,-421.875
1630086918.327,-826.660,-3.418,-21.484,715.332
1630086918.329,240.723,-36.133,-39.551,414.062
1630086918.333,-1000.000,-63.965,-57.129,-673.340
1630086918.337,-678.711,-43.457,-51.758,-693.359
1630086918.341,978.516,-8.789,-29.297,470.215
1630086918.345,529.785,-17.090,-32.227,654.297
1630086918.349,-984.375,-51.758,-44.922,-438.965
1630086918.353,-1000.000,-49.805,-42.969,-806.641
1630086918.356,195.801,-17.578,-24.414,140.625
1630086918.360,-925.781,-5.371,-18.066,828.125
1630086918.364,-367.676,-46.875,-41.992,-133.301
1630086918.368,-1000.000,-54.688,-55.664,-865.723
1630086918.372,-210.938,-14.160,-35.645,-166.016
1630086918.374,-841.309,-4.883,-34.180,854.980
1630086918.378,165.527,-43.457,-62.500,167.480
1630086918.382,-1000.000,-53.711,-55.664,-787.598
1630086918.386,-340.820,-20.020,-26.855,-473.145
1630086918.390,-848.145,1.465,-23.438,717.285
1630086918.394,240.234,-35.156,-42.480,517.578
1630086918.398,-1000.000,-66.406,-50.293,-594.727
1630086918.401,-844.727,-44.434,-31.250,-708.984
1630086918.405,775.391,0.000,-5.371,410.156
1630086918.409,643.066,-11.719,-24.902,749.512
1630086918.413,-925.293,-57.617,-43.457,-329.590
1630086918.417,-1000.000,-55.176,-44.434,-814.453
1630086918.419,46.875,-12.695,-33.691,83.008
1630086918.423,-854.980,-2.441,-35.156,888.672
1630086918.427,-180.176,-39.551,-45.410,0.977
1630086918.431,-1000.000,-58.594,-45.898,-824.707
1630086918.435,-221.191,-28.809,-34.668,-256.836
1630086918.439,-836.426,-2.441,-31.250,854.004
1630086918.443,237.305,-35.156,-59.082,299.316
1630086918.446,-1000.000,-54.688,-49.805,-704.590
1630086918.450,-518.555,-25.391,-36.621,-534.668
1630086918.454,-915.039,-6.836,-34.668,623.047
1630086918.458,279.785,-52.246,-43.457,589.844
1630086918.462,-1000.000,-75.684,-61.523,-544.922
1630086918.464,-1000.000,-55.664,-62.500,-758.301
1630086918.468,507.324,-22.461,-51.270,320.801
1630086918.472,747.070,-5.859,-64.453,794.434
1630086918.476,-824.707,-42.480,-74.707,-262.207
1630086918.480,-1000.000,-57.617,-56.641,-852.539
1630086918.484,-134.766,-20.996,-38.574,-29.297
1630086918.488,-885.254,14.648,-23.926,892.090
1630086918.491,-138.672,-15.625,-24.414,72.754
1630086918.495,-1000.000,-60.547,-44.922,-872.559
1630086918.499,-237.305,-35.156,-49.316,-409.668
1630086918.503,-846.191,-0.488,-35.156,794.434
1630086918.507,226.562,-38.086,-73.730,348.633
1630086918.509,-1000.000,-61.035,-95.703,-722.656
1630086918.513,-719.727,-31.738,-63.477,-618.164
1630086918.517,928.223,5.859,-29.297,564.941
1630086918.521,319.336,-16.113,-17.578,656.250
1630086918.525,-1000.000,-52.246,-27.832,-477.051
1630086918.529,-1000.000,-39.551,-40.527,-767.090
1630086918.533,245.117,-26.367,-40.039,260.742
1630086918.536,789.551,-29.785,-40.527,853.516
1630086918.540,-771.973,-54.199,-57.617,-154.785
1630086918.544,-1000.000,-50.293,-58.105,-819.824
1630086918.548,-192.871,-12.695,-41.992,-67.871
1630086918.552,-881.836,-5.371,-37.598,924.316
1630086918.555,-32.715,-44.922,-41.992,222.168
1630086918.559,-1000.000,-54.199,-54.688,-687.500
1630086918.563,-355.469,-30.273,-70.312,-328.613
