timestamps,TP9,AF7,AF8,TP10
1630086649.200,-831.055,-20.996,6.836,135.742
1630086649.204,-133.789,-1.953,42.480,-64.453
1630086649.208,-1000.000,-30.273,-8.301,-211.426
1630086649.212,-87.402,-54.688,-71.289,-42.969
1630086649.216,-785.645,-72.754,-52.246,133.789
1630086649.220,212.402,-72.754,-11.719,-37.109
1630086649.224,-1000.000,-71.777,-35.156,-174.805
1630086649.227,-271.484,-71.777,-64.453,-39.551
1630086649.231,-807.617,-77.148,-49.316,154.297
1630086649.235,376.465,-92.285,-36.621,19.043
1630086649.239,-1000.000,-69.824,-54.199,-175.293
1630086649.243,-483.887,-60.547,-67.871,-81.543
1630086649.244,-963.867,-54.688,-47.363,128.418
1630086649.248,865.234,-59.082,16.113,82.520
1630086649.252,-650.391,-75.195,21.973,-122.070
1630086649.256,-1000.000,-88.379,-43.457,-157.227
1630086649.260,393.555,-64.941,-98.145,47.363
1630086649.264,-786.621,-18.066,-62.500,105.957
1630086649.268,70.312,11.719,-17.578,-86.914
1630086649.271,-1000.000,16.113,-20.020,-182.617
1630086649.275,-119.629,-12.695,-9.766,12.695
1630086649.279,-773.926,-17.578,0.488,170.898
1630086649.283,210.938,-2.930,-24.902,-73.730
1630086649.287,-1000.000,2.930,-40.527,-260.254
1630086649.290,-276.367,39.551,-68.359,-122.559
1630086649.294,-833.008,47.363,-70.801,68.848
1630086649.298,597.168,58.594,-28.320,-15.625
1630086649.302,-1000.000,56.641,-46.875,-247.559
1630086649.306,-687.500,32.227,-103.027,-250.488
1630086649.310,911.133,48.828,-76.172,32.227
1630086649.314,987.793,47.852,-38.574,28.809
1630086649.317,-442.383,14.648,-56.641,-260.742
1630086649.321,-1000.000,9.766,-65.918,-342.285
1630086649.325,109.375,2.441,-98.633,-173.828
1630086649.329,-778.809,-13.184,-80.078,-90.820
1630086649.333,125.977,-13.184,-69.336,-238.281
1630086649.334,-1000.000,2.441,-76.172,-303.711
1630086649.338,-240.723,-6.348,-87.402,-190.918
1630086649.342,-798.340,-18.555,-71.777,-38.086
1630086649.346,250.488,-22.461,-38.574,-125.977
1630086649.350,-1000.000,-55.664,-44.434,-312.988
1630086649.354,-281.250,-38.574,-73.242,-190.430
1630086649.358,-873.047,-8.789,-59.570,76.172
1630086649.361,764.648,-39.551,14.648,30.273
1630086649.365,-834.473,-93.750,-8.301,-200.195
1630086649.369,-781.250,-114.258,-66.895,-235.840
1630086649.373,808.105,-87.402,-50.293,20.020
1630086649.377,-884.277,-56.641,-25.391,58.105
1630086649.380,-269.531,-86.914,-38.574,-168.945
1630086649.384,-1000.000,-113.281,-53.223,-219.727
1630086649.388,228.027,-94.238,-45.898,49.316
1630086649.392,-760.742,-71.777,-22.949,193.359
1630086649.396,176.270,-75.195,-5.371,-18.555
1630086649.400,-1000.000,-69.336,-2.441,-140.625
1630086649.404,-217.773,-58.594,-14.648,28.809
1630086649.407,-790.527,-61.523,-17.578,202.637
1630086649.411,334.473,-60.059,-6.836,41.016
1630086649.415,-1000.000,-87.402,-6.836,-160.645
1630086649.419,-399.902,-104.004,-37.109,-59.570
1630086649.423,-916.504,-93.750,-36.133,189.941
1630086649.424,814.941,-80.078,8.301,119.141
1630086649.428,-756.836,-75.195,4.395,-80.078
1630086649.432,-910.645,-92.773,-32.715,-84.961
1630086649.436,626.465,-84.473,-34.668,117.188
1630086649.440,-816.406,-64.453,0.488,166.016
1630086649.444,-128.418,-70.801,-9.277,-61.523
1630086649.448,-1000.000,-73.730,-6.348,-101.074
1630086649.451,189.453,-55.176,5.371,123.535
1630086649.455,-755.859,-41.504,-10.254,179.199
1630086649.459,187.500,-47.363,-11.719,-44.922
1630086649.463,-1000.000,-37.109,-33.203,-166.016
1630086649.467,-274.414,-11.719,-55.176,15.137
1630086649.469,-808.105,-27.832,-55.176,177.246
1630086649.473,369.629,-64.453,-51.758,16.602
1630086649.477,-1000.000,-77.148,-52.246,-179.199
1630086649.481,-476.562,-56.641,-48.340,-92.773
1630086649.485,978.516,-49.316,-56.641,132.324
1630086649.489,-970.703,-48.828,-7.812,121.582
1630086649.493,-381.836,-57.617,4.883,-67.383
1630086649.496,-1000.000,-67.383,-41.992,-128.418
1630086649.500,375.488,-53.223,-60.547,71.289
1630086649.504,-787.598,-86.914,-43.457,119.141
1630086649.508,-18.555,-81.543,0.488,-97.168
1630086649.512,-1000.000,-18.066,6.348,-164.062
1630086649.529,-114.746,-18.555,-42.969,36.621
1630086649.533,-783.691,-41.016,-75.684,136.719
1630086649.537,215.820,-50.781,-48.828,-51.758
1630086649.541,-1000.000,-56.152,-32.227,-195.312
1630086649.545,-312.988,-68.359,-50.781,-80.566
1630086649.549,-830.078,-59.570,-15.625,147.461
1630086649.553,473.633,-62.988,-7.812,54.688
1630086649.556,-1000.000,-87.402,-67.871,-180.664
1630086649.560,-680.664,-66.406,-80.078,-137.695
1630086649.564,886.230,-43.457,-12.695,162.598
1630086649.568,981.934,-62.988,12.207,153.809
1630086649.572,-452.148,-101.562,-33.203,-145.020
1630086649.574,-1000.000,-108.398,-66.895,-197.754
1630086649.578,80.078,-85.938,-69.336,36.133
1630086649.582,-787.109,-74.219,-50.781,109.863
1630086649.586,78.125,-96.680,-56.152,-119.629
1630086649.590,-1000.000,-101.562,-42.480,-198.242
1630086649.594,-241.211,-56.152,-41.992,17.090
1630086649.598,-810.059,-26.367,-46.387,158.691
1630086649.601,234.375,-56.641,-21.973,-32.715
1630086649.605,-1000.000,-61.523,9.277,-150.391
1630086649.609,-388.184,-39.062,-12.695,-24.902
1630086649.613,-868.652,-59.570,-69.336,111.816
1630086649.617,575.684,-75.684,-45.898,10.254
1630086649.620,-1000.000,-75.195,-30.273,-188.965
1630086649.624,-876.953,-80.566,-45.410,-137.207
1630086649.628,644.531,-88.379,-64.941,92.285
1630086649.632,-889.648,-76.660,-37.109,118.652
1630086649.636,-288.086,-89.355,-11.230,-84.961
1630086649.640,-1000.000,-118.164,-29.297,-146.973
1630086649.644,67.383,-103.027,-56.152,62.500
1630086649.647,-776.367,-98.145,-75.684,125.488
1630086649.651,131.836,-128.906,-27.832,-60.547
1630086649.655,-1000.000,-108.398,6.348,-161.621
1630086649.659,-256.836,-56.152,-19.043,-19.531
1630086649.663,-815.430,-61.035,-18.555,130.371
1630086649.664,239.746,-87.891,-31.738,-61.035
1630086649.668,-1000.000,-94.238,-51.270,-257.812
1630086649.672,-565.430,-82.031,-56.641,-147.949
1630086649.676,-966.797,-61.523,-42.969,124.023
1630086649.680,665.039,-63.965,-22.461,77.148
1630086649.684,-898.438,-84.961,-29.297,-148.438
1630086649.688,-1000.000,-95.215,-51.270,-178.711
1630086649.691,352.539,-118.164,-54.199,62.500
1630086649.695,-850.586,-120.117,-24.902,165.039
1630086649.699,-221.680,-119.141,-20.508,-98.145
1630086649.703,-1000.000,-102.051,-28.809,-183.594
1630086649.707,-131.348,-62.988,-60.059,32.227
1630086649.709,-802.246,-63.965,-41.992,142.578
1630086649.713,211.426,-72.754,4.883,-52.246
1630086649.717,-1000.000,-62.012,-9.277,-189.453
1630086649.721,-269.043,-33.691,-39.062,-41.016
1630086649.725,-811.523,0.000,-12.695,183.105
1630086649.729,373.535,-19.531,-3.418,57.129
1630086649.733,-1000.000,-50.293,-47.852,-187.012
1630086649.736,-594.727,-28.809,-11.719,-90.820
1630086649.740,-970.215,0.977,11.719,179.688
1630086649.744,706.543,-1.953,-32.227,81.055
1630086649.748,-811.523,-33.691,-19.043,-168.945
1630086649.752,-1000.000,-48.828,-5.371,-180.664
1630086649.754,162.109,-41.016,-38.574,14.160
1630086649.758,-816.895,-54.199,-51.270,75.195
1630086649.762,-90.820,-53.223,-20.996,-77.637
1630086649.766,-1000.000,-63.965,-29.785,-197.266
1630086649.770,-231.934,-74.707,-48.828,-31.250
1630086649.774,-822.754,-58.594,-41.992,138.184
1630086649.778,237.305,-50.293,-9.766,4.395
1630086649.781,-1000.000,-63.477,8.789,-134.766
1630086649.785,-361.328,-57.129,-15.137,-44.922
1630086649.789,-846.191,-38.574,-23.438,163.574
1630086649.793,441.406,-65.430,-11.719,46.875
1630086649.797,-1000.000,-96.191,-20.020,-211.426
1630086649.799,-932.129,-95.215,-70.801,-190.430
1630086649.803,605.469,-81.055,-74.707,73.242
1630086649.807,967.773,-65.918,-17.578,112.793
1630086649.811,-556.152,-74.219,-2.441,-104.980
1630086649.815,-1000.000,-66.406,-31.250,-196.289
1630086649.819,46.875,-39.062,-45.410,-11.719
1630086649.823,-791.016,-5.371,10.254,179.688
1630086649.826,105.957,-15.137,23.438,18.066
1630086649.830,-1000.000,-70.801,-29.297,-178.711
1630086649.834,-252.441,-85.938,-50.781,-25.879
1630086649.838,-815.430,-66.406,-38.086,135.742
1630086649.842,239.258,-64.941,-14.648,-24.902
1630086649.845,-1000.000,-89.355,-35.156,-221.191
1630086649.849,-504.395,-98.145,-63.965,-127.441
1630086649.853,-918.457,-100.586,-47.363,129.883
1630086649.857,568.359,-97.168,-26.855,67.871
1630086649.861,-1000.000,-101.074,-36.621,-172.363
1630086649.865,-840.332,-92.285,-29.785,-131.836
1630086649.869,723.633,-78.613,-32.715,121.582
1630086649.872,-990.234,-87.402,-27.344,104.004
1630086649.876,-420.410,-117.676,-25.391,-134.766
1630086649.880,-1000.000,-128.418,-44.434,-189.453
1630086649.884,-114.258,-91.309,-76.172,10.254
1630086649.888,-812.500,-59.570,-71.777,131.836
1630086649.904,167.969,-77.637,-10.254,-37.109
1630086649.908,-1000.000,-105.469,-9.766,-215.820
1630086649.912,-255.859,-85.449,-42.480,-55.664
1630086649.916,-812.012,-67.871,-5.859,178.223
1630086649.920,238.281,-93.750,-4.883,-11.719
1630086649.924,-1000.000,-112.793,-20.996,-199.707
1630086649.928,-499.512,-83.984,-5.371,-69.336
1630086649.931,-911.621,-66.406,-43.457,126.953
1630086649.935,562.500,-88.867,-60.547,28.320
1630086649.939,-954.590,-100.586,-16.602,-156.738
1630086649.943,-1000.000,-92.773,-41.992,-157.715
1630086649.947,284.668,-81.543,-83.008,42.480
1630086649.950,-868.652,-90.820,-40.527,115.234
1630086649.954,-250.000,-98.633,-29.785,-102.051
1630086649.958,-1000.000,-96.191,-49.805,-208.008
1630086649.962,-201.660,-101.074,-64.941,-35.645
1630086649.966,-821.289,-100.098,-46.387,114.746
1630086649.970,219.727,-92.285,-24.902,-65.918
1630086649.974,-1000.000,-98.633,-57.129,-228.516
1630086649.977,-265.137,-98.145,-89.844,-66.406
1630086649.981,-812.500,-89.844,-68.848,179.688
1630086649.985,327.148,-91.309,-29.297,50.781
1630086649.989,-1000.000,-101.562,-33.691,-217.285
1630086649.993,-697.266,-76.172,-29.297,-129.883
1630086649.994,924.316,-57.129,-57.129,104.980
1630086649.998,758.301,-67.383,-70.801,62.988
1630086650.002,-786.621,-77.148,-57.129,-157.227
1630086650.006,-1000.000,-71.777,-66.406,-205.566
1630086650.010,155.273,-48.340,-60.059,26.855
1630086650.014,-807.129,-43.457,-49.316,96.680
1630086650.018,-63.477,-23.438,-19.043,-107.910
1630086650.021,-1000.000,1.465,3.906,-171.875
1630086650.025,-189.941,-14.160,14.648,53.223
1630086650.029,-808.594,-20.508,42.480,191.406
1630086650.033,229.980,-1.953,4.395,-46.387
1630086650.037,-1000.000,27.344,-25.391,-208.008
1630086650.039,-347.656,56.152,-7.324,-28.809
1630086650.043,-839.355,31.738,-14.648,170.898
1630086650.047,360.840,-10.254,-19.043,28.809
1630086650.051,-1000.000,-12.695,-27.344,-195.801
1630086650.055,-851.074,3.418,-45.410,-169.922
1630086650.059,679.199,31.738,-39.551,98.633
1630086650.063,982.910,41.016,-30.273,106.934
1630086650.066,-521.973,7.324,-1.953,-117.188
1630086650.070,-1000.000,13.672,23.438,-123.535
1630086650.074,69.824,37.109,-38.086,42.480
1630086650.078,-793.945,30.762,-24.414,118.164
1630086650.082,53.711,12.207,26.855,-54.199
1630086650.087,-1000.000,0.488,3.906,-172.363
1630086650.091,-246.094,13.672,-39.551,-16.113
1630086650.095,-818.848,32.227,-61.523,124.023
1630086650.099,240.234,33.691,-24.902,-19.531
1630086650.103,-1000.000,9.766,14.160,-154.785
1630086650.107,-490.234,-1.465,-39.551,-52.734
1630086650.111,-920.410,16.113,-65.918,126.953
1630086650.114,621.094,23.438,24.414,105.957
1630086650.118,-956.055,3.418,26.855,-91.309
1630086650.122,-988.770,5.371,-23.926,-121.094
1630086650.126,550.293,14.160,-44.922,97.656
1630086650.130,-980.469,21.973,-40.039,86.914
1630086650.129,-439.941,22.949,-12.695,-141.602
1630086650.133,-1000.000,11.230,-19.043,-203.613
1630086650.137,-145.020,15.625,-50.293,5.859
1630086650.141,-816.895,10.742,-27.832,149.414
1630086650.145,201.660,-18.555,1.953,-61.523
1630086650.149,-1000.000,-18.066,-14.160,-219.727
1630086650.153,-262.207,-7.324,-9.277,-29.785
1630086650.156,-812.500,14.160,46.875,207.520
1630086650.160,283.691,32.227,40.527,58.594
1630086650.164,-1000.000,-14.648,-19.531,-201.660
1630086650.168,-646.484,-38.574,-57.129,-153.809
1630086650.172,987.793,-22.461,-57.129,97.656
1630086650.174,645.996,-8.789,-7.324,55.664
1630086650.178,-908.203,11.719,-2.441,-178.711
1630086650.182,-1000.000,19.043,-36.621,-191.895
1630086650.186,238.281,32.715,-69.336,50.293
1630086650.190,-828.125,58.105,-51.270,131.348
1630086650.194,-165.039,49.316,-33.203,-74.219
1630086650.198,-1000.000,19.043,-13.184,-122.070
1630086650.201,-133.301,13.184,-6.836,79.102
1630086650.205,-801.758,15.137,-43.457,149.902
1630086650.209,218.750,0.000,-17.578,-37.598
1630086650.213,-1000.000,-5.859,16.113,-149.902
1630086650.217,-309.082,-5.859,-28.320,-46.387
1630086650.220,-825.684,-15.137,-71.777,87.891
1630086650.224,334.961,-22.461,-39.062,-42.969
1630086650.228,-1000.000,-22.461,-11.719,-220.215
1630086650.232,-633.301,0.000,-11.230,-103.027
1630086650.236,922.363,3.418,-26.367,124.512
1630086650.240,920.410,-14.160,2.930,117.188
1630086650.244,-577.148,-19.043,22.949,-79.590
1630086650.247,-1000.000,-0.488,-27.344,-149.414
1630086650.251,214.844,35.156,-33.691,67.383
1630086650.255,-796.875,38.574,23.438,147.461
1630086650.259,-18.555,46.387,22.949,-62.988
1630086650.263,-1000.000,60.059,-19.531,-177.734
1630086650.279,-233.398,60.059,-36.133,-13.672
1630086650.283,-817.383,27.344,-27.832,138.672
1630086650.287,237.305,-3.418,-13.184,-39.062
1630086650.291,-1000.000,-0.488,-46.875,-216.309
1630086650.295,-406.250,20.996,-74.219,-87.891
1630086650.299,-871.094,29.785,-38.574,166.992
1630086650.303,539.551,20.996,15.625,79.102
1630086650.306,-1000.000,12.207,-12.207,-171.875
1630086650.310,-930.176,13.184,-58.594,-163.086
1630086650.314,643.066,43.457,-21.484,119.141
1630086650.318,952.637,42.480,-33.691,123.047
1630086650.322,-582.520,3.418,-65.430,-164.551
1630086650.325,-1000.000,6.348,-43.945,-189.453
1630086650.329,100.586,24.414,-38.574,47.363
1630086650.333,-789.062,8.789,-31.250,124.512
1630086650.337,87.891,-15.137,-23.926,-91.797
1630086650.341,-1000.000,-12.207,-22.949,-183.594
1630086650.345,-251.465,-18.066,-52.246,-18.555
1630086650.349,-814.453,-18.555,-41.504,129.395
1630086650.352,237.793,-9.766,-11.719,-13.184
1630086650.356,-1000.000,-25.391,1.465,-164.062
1630086650.360,-454.102,-9.277,8.301,-31.738
1630086650.364,-889.160,5.859,-28.320,145.996
1630086650.368,518.066,-41.992,-59.570,-14.648
1630086650.369,-1000.000,-68.848,-87.402,-229.004
1630086650.373,-981.934,-57.617,-99.609,-173.828
1630086650.377,457.031,-52.246,-95.703,23.926
1630086650.381,-851.562,-34.668,-47.852,67.383
1630086650.385,-237.305,-56.641,-26.367,-134.277
1630086650.389,-1000.000,-66.406,-36.133,-208.008
1630086650.393,-1.953,-67.871,-57.617,7.812
1630086650.396,-777.832,-81.543,-47.852,121.094
1630086650.400,194.336,-53.223,30.273,-29.785
1630086650.404,-1000.000,-35.645,33.203,-130.371
1630086650.408,-266.602,-53.223,-51.758,-45.410
1630086650.412,-810.059,-49.805,-46.875,120.117
1630086650.414,284.180,-57.129,-33.203,-7.324
1630086650.418,-1000.000,-61.035,-72.754,-205.078
1630086650.422,-562.988,-53.711,-76.660,-123.047
1630086650.426,-978.516,-53.711,-44.922,107.422
1630086650.430,742.188,-62.012,-20.020,63.477
1630086650.434,-829.590,-92.285,-33.691,-147.461
1630086650.438,-1000.000,-103.516,-58.105,-165.527
1630086650.441,383.301,-74.707,-48.340,76.660
1630086650.445,-810.547,-53.223,16.113,179.199
1630086650.449,-57.129,-49.805,15.625,-85.938
1630086650.453,-1000.000,-45.410,-47.363,-229.980
1630086650.457,-176.270,-37.598,-70.801,-6.348
1630086650.459,-799.805,-41.992,-47.363,123.047
1630086650.463,222.656,-67.383,-40.039,-79.590
1630086650.467,-1000.000,-68.848,-53.223,-207.520
1630086650.471,-271.973,-57.617,-50.781,-33.203
1630086650.475,-814.453,-67.871,-41.992,148.438
1630086650.479,438.965,-81.055,-33.691,5.371
1630086650.483,-1000.000,-86.914,-34.668,-188.965
1630086650.486,-607.422,-66.406,-23.926,-95.215
1630086650.490,973.633,-24.414,-8.301,164.551
1630086650.494,901.855,-20.020,-13.184,74.219
1630086650.498,-566.895,-50.293,-13.672,-178.223
1630086650.502,-1000.000,-73.730,-23.438,-193.359
1630086650.504,152.344,-80.078,-46.875,5.371
1630086650.508,-792.969,-85.449,-8.789,116.699
1630086650.512,7.324,-122.070,-9.766,-102.051
1630086650.516,-1000.000,-124.023,-50.293,-231.445
1630086650.520,-227.051,-101.074,-60.547,-19.043
1630086650.524,-809.570,-72.266,-45.898,145.996
1630086650.528,230.957,-30.273,18.555,9.277
1630086650.531,-1000.000,-21.973,22.949,-168.945
1630086650.535,-314.941,-9.766,-41.992,-91.309
1630086650.539,-837.402,-13.672,-53.223,98.145
1630086650.543,553.223,-15.625,7.812,23.926
1630086650.547,-1000.000,-5.371,19.043,-156.250
1630086650.551,-751.953,-1.465,-27.344,-145.508
1630086650.555,769.531,5.371,-52.734,65.918
1630086650.559,-925.293,5.859,-21.973,107.422
1630086650.563,-350.098,9.277,2.930,-77.637
1630086650.567,-1000.000,17.090,-21.973,-154.297
1630086650.571,139.160,13.184,-50.293,37.109
1630086650.575,-785.156,3.906,17.090,198.730
1630086650.578,193.359,-3.906,48.828,9.766
1630086650.582,-1000.000,-15.137,-28.320,-202.637
1630086650.586,-268.555,-0.488,-75.684,-67.871
1630086650.590,-803.711,17.090,-49.805,127.441
1630086650.594,287.598,19.531,-3.906,2.441
1630086650.594,-1000.000,15.625,0.488,-186.035
1630086650.598,-412.598,37.598,-19.531,-73.730
1630086650.602,-889.160,58.105,-46.387,116.211
1630086650.606,666.016,63.965,-12.695,40.039
1630086650.610,-946.289,50.781,-3.906,-169.922
1630086650.614,-847.656,35.156,-30.762,-158.203
1630086650.618,707.520,32.715,-4.395,157.227
1630086650.621,-899.414,19.531,-12.207,131.836
1630086650.625,-260.742,14.648,-19.043,-156.738
1630086650.629,-1000.000,42.480,-28.320,-210.938
1630086650.633,-36.621,75.195,-44.434,10.254
1630086650.637,-784.180,81.055,-14.160,141.113
1630086650.654,204.590,77.148,8.301,-42.480
1630086650.658,-1000.000,65.918,-12.695,-192.871
1630086650.662,-272.461,62.500,-40.527,-44.922
1630086650.666,-809.082,68.359,-21.973,151.855
1630086650.670,392.578,84.961,26.367,48.340
1630086650.674,-1000.000,75.684,4.395,-129.883
1630086650.678,-508.789,52.246,-39.062,-80.566
1630086650.681,-931.152,67.871,-61.035,135.742
1630086650.685,730.469,89.844,-57.617,75.195
1630086650.689,-782.227,73.242,20.020,-127.441
1630086650.693,-1000.000,73.242,40.527,-136.230
1630086650.697,273.438,83.008,-38.574,15.137
1630086650.700,-824.219,63.477,-28.809,66.406
1630086650.704,-127.930,32.715,-4.395,-116.699
1630086650.708,-1000.000,19.531,-20.996,-199.707
1630086650.712,-212.891,19.531,-47.852,-20.508
1630086650.716,-816.895,32.715,-29.297,115.234
1630086650.720,231.934,25.879,-12.695,-57.617
1630086650.724,-1000.000,11.719,-16.113,-185.059
1630086650.727,-302.246,2.441,-24.902,-47.852
1630086650.731,-824.707,-8.789,-25.879,149.414
1630086650.735,404.297,-5.859,3.418,44.922
1630086650.739,-1000.000,-24.902,-25.879,-198.730
1630086650.743,-764.160,-25.391,-57.617,-153.809
1630086650.744,826.660,0.488,-52.734,90.332
1630086650.748,895.020,17.578,-26.367,90.820
1630086650.752,-614.258,8.301,-25.879,-128.906
1630086650.756,-1000.000,-5.859,-42.969,-178.223
1630086650.760,72.754,-14.648,-61.035,33.691
1630086650.764,-796.387,-5.371,-33.691,116.211
1630086650.768,49.316,29.785,1.953,-53.711
1630086650.771,-1000.000,49.316,-23.438,-166.504
1630086650.775,-246.094,55.664,-9.277,13.184
1630086650.779,-815.918,56.152,26.367,191.406
1630086650.783,237.793,40.527,1.953,-26.855
1630086650.787,-1000.000,38.574,-25.879,-219.238
1630086650.791,-416.016,49.805,-60.547,-77.148
1630086650.795,-870.117,45.410,-62.988,158.691
1630086650.799,472.168,9.766,-42.480,32.715
1630086650.803,-1000.000,-0.977,-24.902,-198.242
1630086650.807,-881.836,34.668,-14.648,-130.859
1630086650.811,687.500,44.922,-52.734,68.848
1630086650.815,955.566,49.316,-46.875,53.223
1630086650.818,-524.902,41.992,-7.812,-123.535
1630086650.822,-1000.000,27.344,0.977,-166.992
1630086650.826,-110.840,28.320,-29.785,9.277
1630086650.830,-826.660,47.363,-20.020,116.211
1630086650.834,80.566,55.664,-5.371,-58.105
1630086650.834,-1000.000,44.434,-6.836,-178.223
1630086650.838,-252.930,45.898,-21.973,-33.203
1630086650.842,-824.707,27.344,-27.344,131.348
1630086650.846,243.164,-13.672,-4.883,-32.227
1630086650.850,-1000.000,-37.598,-24.414,-237.793
1630086650.854,-592.773,-19.531,-63.477,-145.508
1630086650.858,-958.008,14.160,-60.547,104.980
1630086650.861,529.785,-20.996,-5.371,77.148
1630086650.865,-965.332,-52.246,21.484,-104.492
1630086650.869,-1000.000,-30.273,-15.625,-141.602
1630086650.873,175.293,-21.484,-70.312,18.066
1630086650.877,-911.133,-0.488,-61.523,86.914
1630086650.879,-331.055,6.348,-19.531,-91.797
1630086650.883,-1000.000,-25.391,-9.766,-187.012
1630086650.887,-197.754,-34.180,-39.062,-22.949
1630086650.891,-835.938,-29.297,-25.879,88.867
1630086650.895,147.461,-27.832,6.836,-102.051
1630086650.899,-1000.000,-28.320,-24.902,-229.980
1630086650.903,-284.668,-28.320,-30.273,-51.758
1630086650.906,-830.566,-40.527,-2.441,177.734
1630086650.910,242.676,-79.102,-32.715,-4.883
1630086650.914,-1000.000,-92.773,-54.688,-239.746
1630086650.918,-671.387,-67.871,-37.109,-127.930
1630086650.922,955.566,-53.711,-17.578,121.094
1630086650.925,640.625,-83.984,-12.207,47.363
1630086650.929,-887.207,-78.613,-20.996,-158.203
1630086650.933,-1000.000,-79.102,-45.410,-182.129
1630086650.937,104.004,-106.445,-68.359,-1.465
1630086650.941,-861.816,-104.980,-47.363,58.594
1630086650.945,-208.984,-93.750,-38.086,-150.879
1630086650.949,-1000.000,-75.195,9.766,-143.555
1630086650.952,-218.750,-89.355,9.766,55.176
1630086650.956,-833.984,-103.027,-44.434,98.633
1630086650.960,228.027,-101.562,-9.766,-45.410
1630086650.964,-1000.000,-131.836,-12.207,-177.246
1630086650.968,-449.707,-139.160,-67.383,-104.980
1630086650.969,-882.324,-94.238,-51.758,116.699
1630086650.973,336.914,-57.617,-2.930,45.410
1630086650.977,-1000.000,-75.684,-10.742,-174.316
1630086650.981,-979.004,-88.867,-50.781,-171.387
1630086650.985,502.441,-103.516,-87.402,18.066
1630086650.989,948.242,-84.961,-36.621,70.312
1630086650.993,-581.055,-51.270,8.789,-115.234
1630086650.996,-1000.000,-64.453,-51.270,-184.082
1630086651.000,-20.020,-69.336,-77.148,51.270
1630086651.004,-848.145,-76.660,-32.227,133.789
1630086651.008,-108.887,-92.773,-17.578,-100.098
1630086651.012,-1000.000,-109.863,-36.621,-216.797
1630086651.029,-226.562,-124.023,-47.852,-57.129
1630086651.033,-834.473,-106.445,-29.297,119.141
1630086651.037,241.699,-88.867,3.906,-7.812
1630086651.041,-1000.000,-118.652,-22.461,-192.871
1630086651.045,-656.250,-137.207,-86.426,-141.602
1630086651.049,989.746,-128.906,-81.055,70.801
1630086651.053,410.156,-161.621,-34.180,-10.254
1630086651.056,-1000.000,-207.520,-20.996,-236.328
1630086651.060,-1000.000,-203.125,-35.645,-220.215
1630086651.064,308.105,-147.949,10.742,71.777
1630086651.068,991.699,-102.539,52.734,163.086
1630086651.072,-513.184,-113.770,7.812,-115.234
1630086651.074,-1000.000,-132.324,-27.344,-210.938
1630086651.078,-158.691,-122.070,-48.828,15.625
1630086651.082,-833.984,-106.445,-28.320,127.930
1630086651.086,108.887,-118.652,1.465,-90.332
1630086651.090,-1000.000,-100.586,-3.418,-190.430
1630086651.094,-245.605,-86.914,-32.227,-13.672
1630086651.098,-819.336,-100.586,-51.270,126.465
1630086651.101,240.723,-101.562,-42.480,-34.180
1630086651.105,-1000.000,-62.500,1.953,-169.434
1630086651.109,-573.730,-45.898,13.672,-61.035
1630086651.113,-967.773,-71.777,-38.574,128.906
1630086651.117,645.508,-52.734,-8.301,69.336
1630086651.119,-918.945,-67.383,11.719,-132.812
1630086651.123,-1000.000,-81.543,-28.809,-125.977
1630086651.127,343.262,-64.941,-53.711,84.961
1630086651.131,-827.637,-81.055,-50.293,124.023
1630086651.135,-178.711,-89.355,-20.996,-88.867
1630086651.139,-1000.000,-66.895,5.859,-153.809
1630086651.143,-65.430,-63.965,-28.809,25.879
1630086651.146,-784.180,-65.430,-33.203,123.535
1630086651.150,210.938,-85.449,41.504,-14.160
1630086651.154,-1000.000,-85.938,60.547,-124.023
1630086651.158,-267.578,-44.922,-11.230,-28.809
1630086651.162,-811.035,-42.480,-35.156,136.230
1630086651.165,289.551,-50.781,-9.277,-18.066
1630086651.169,-1000.000,-30.273,13.672,-182.129
1630086651.173,-627.930,-10.742,-16.602,-92.773
1630086651.177,924.316,-11.230,-52.734,112.305
1630086651.181,904.297,-6.348,-16.113,101.562
1630086651.185,-600.586,-3.906,9.766,-103.516
1630086651.189,-1000.000,1.465,-19.043,-163.086
1630086651.192,208.008,-16.113,-41.504,41.016
1630086651.196,-789.062,-19.043,-5.371,148.926
1630086651.200,12.207,6.836,-5.859,-87.402
1630086651.204,-1000.000,1.465,-37.598,-200.195
1630086651.208,-202.148,-15.625,-44.434,29.297
1630086651.209,-800.781,-19.531,-28.320,166.992
1630086651.213,225.586,-21.973,-30.762,-40.039
1630086651.217,-1000.000,-22.949,-41.992,-191.406
1630086651.221,-291.016,-2.441,-52.734,-36.133
1630086651.225,-824.219,-6.836,-62.988,137.695
1630086651.229,539.062,-23.438,-39.062,15.137
1630086651.233,-1000.000,-18.066,-13.184,-148.438
1630086651.236,-499.512,17.090,43.457,-2.930
1630086651.240,-993.652,-11.230,25.391,193.848
1630086651.244,993.164,-63.477,-20.508,78.613
1630086651.248,-369.141,-52.246,-21.484,-119.629
1630086651.252,-1000.000,-15.137,-53.223,-204.102
1630086651.256,133.301,10.742,-75.195,-33.691
1630086651.260,-775.391,14.648,-58.105,40.039
1630086651.264,123.047,-19.531,-24.902,-138.184
1630086651.268,-1000.000,-20.020,-55.664,-226.074
1630086651.272,-256.348,23.926,-114.258,-103.516
1630086651.276,-806.152,14.648,-120.117,31.250
1630086651.280,257.812,-14.160,-62.988,-108.398
1630086651.283,-1000.000,-0.488,-24.414,-251.953
1630086651.287,-362.305,22.949,-81.543,-203.125
1630086651.291,-873.535,0.488,-132.324,-34.180
1630086651.295,659.668,-9.277,-109.863,-91.797
1630086651.299,-942.383,-22.461,-91.797,-287.109
1630086651.299,-846.680,-25.391,-101.562,-272.949
1630086651.303,683.105,-14.648,-114.258,-24.414
1630086651.307,-851.074,-3.418,-87.891,37.598
1630086651.311,-186.035,-31.738,-66.406,-167.969
1630086651.315,-1000.000,-56.152,-91.309,-242.676
1630086651.319,124.023,-40.039,-110.840,-20.996
1630086651.323,-760.742,-40.527,-56.641,131.348
1630086651.326,191.895,-52.734,-39.551,-77.148
1630086651.330,-1000.000,-46.875,-72.266,-233.398
1630086651.334,-274.414,-28.320,-105.957,-85.449
1630086651.338,-804.688,-19.531,-78.125,137.695
1630086651.342,376.465,2.441,-30.273,19.043
1630086651.344,-1000.000,5.371,-64.941,-213.379
1630086651.348,-418.457,0.000,-98.145,-125.488
1630086651.352,-909.180,9.766,-109.863,110.840
1630086651.356,793.945,-3.906,-83.008,41.992
1630086651.360,-853.027,-28.320,-79.590,-197.754
1630086651.364,-690.918,-24.902,-62.988,-146.973
1630086651.368,859.375,-24.902,-53.223,96.191
1630086651.371,-867.188,-28.809,-58.594,63.965
1630086651.375,-59.570,-19.531,-42.969,-137.207
1630086651.379,-1000.000,-25.879,-18.555,-145.020
1630086651.383,7.324,-26.367,-29.785,45.898
1630086651.387,-763.672,-20.020,-57.617,119.141
1630086651.404,199.707,-62.012,-69.824,-61.523
1630086651.408,-1000.000,-84.961,-83.984,-212.402
1630086651.412,-275.879,-56.641,-98.145,-84.473
1630086651.416,-810.059,-49.805,-95.703,86.426
1630086651.420,458.984,-54.199,-49.805,-22.949
1630086651.424,-1000.000,-42.480,-12.207,-166.016
1630086651.428,-458.008,-55.664,-53.223,-102.051
1630086651.431,-945.312,-97.656,-96.191,74.707
1630086651.435,877.930,-113.770,-46.387,38.574
1630086651.439,-585.938,-145.020,-7.812,-102.051
1630086651.443,-1000.000,-136.719,-51.270,-119.629
1630086651.447,286.621,-78.125,-93.262,-11.719
1630086651.450,-781.738,-66.895,-63.477,51.758
1630086651.454,102.051,-83.496,-37.598,-100.098
1630086651.458,-1000.000,-79.590,-60.059,-240.234
1630086651.462,-236.816,-54.199,-79.102,-74.219
1630086651.466,-800.781,-27.344,-43.457,118.164
1630086651.470,239.258,-41.504,-32.715,-21.484
1630086651.474,-1000.000,-78.613,-68.848,-229.004
1630086651.477,-319.336,-77.637,-86.914,-136.230
1630086651.481,-843.750,-78.125,-30.762,133.301
1630086651.485,588.867,-91.309,12.695,55.664
1630086651.489,-1000.000,-87.891,-22.949,-188.477
1630086651.493,-652.832,-65.918,-31.250,-151.855
1630086651.496,874.512,-54.199,-26.855,90.332
1630086651.500,-892.578,-50.293,-6.348,95.215
1630086651.504,-204.590,-48.340,-0.488,-103.027
1630086651.508,-1000.000,-75.684,-26.855,-173.828
1630086651.512,163.086,-85.938,-51.758,39.062
1630086651.516,-761.230,-79.102,-64.453,130.371
1630086651.520,166.992,-84.961,-40.527,-83.984
1630086651.523,-1000.000,-106.934,-30.273,-196.777
1630086651.527,-258.301,-117.188,-9.277,3.418
1630086651.531,-802.734,-115.234,3.906,164.062
1630086651.535,262.207,-124.023,-42.480,-32.227
1630086651.539,-1000.000,-119.141,-40.039,-183.594
1630086651.539,-385.742,-97.168,-39.062,-128.418
1630086651.543,-897.949,-74.219,-32.715,57.129
1630086651.547,731.934,-62.500,-5.859,40.527
1630086651.551,-902.832,-96.680,-13.184,-171.875
1630086651.555,-757.324,-123.047,-41.504,-163.574
1630086651.559,815.430,-110.840,-64.941,64.941
1630086651.563,-895.508,-88.867,-58.105,68.848
1630086651.566,-209.961,-88.867,-6.836,-105.469
1630086651.570,-1000.000,-110.352,29.297,-121.094
1630086651.574,-14.160,-60.547,-35.156,40.527
1630086651.578,-778.320,-19.043,-63.477,114.258
1630086651.582,201.172,-36.133,-37.598,-62.500
1630086651.585,-1000.000,-52.246,-42.969,-192.383
1630086651.589,-270.508,-34.180,-67.871,-61.523
1630086651.593,-807.617,11.719,-52.734,143.066
1630086651.597,344.727,9.277,-34.180,26.855
1630086651.601,-1000.000,-15.625,-57.617,-185.059
1630086651.605,-475.586,12.695,-56.152,-104.980
1630086651.609,-988.770,8.301,-51.758,134.277
1630086651.612,937.012,-19.531,13.184,135.254
1630086651.616,-552.734,-33.691,49.805,-67.871
1630086651.620,-1000.000,-32.715,-20.508,-180.176
1630086651.624,429.199,6.348,-26.855,36.133
1630086651.628,-808.105,22.949,12.695,127.441
1630086651.630,-57.617,-13.672,-5.859,-100.098
1630086651.634,-1000.000,-2.930,-15.137,-192.871
1630086651.638,-169.922,7.324,-29.785,-10.742
1630086651.642,-798.828,-10.254,-36.621,110.840
1630086651.646,223.145,-19.043,-3.906,-72.754
1630086651.650,-1000.000,-30.273,-24.414,-214.355
1630086651.654,-286.133,-65.918,-36.621,-41.016
1630086651.657,-817.871,-79.102,0.488,174.316
1630086651.661,400.391,-37.598,-22.461,27.832
1630086651.665,-1000.000,-10.742,-25.879,-202.637
1630086651.669,-607.422,9.277,1.465,-155.762
1630086651.673,961.426,5.371,-7.324,75.195
1630086651.674,914.062,17.578,4.883,77.148
1630086651.678,-580.078,27.832,27.832,-111.328
1630086651.682,-1000.000,23.438,32.227,-130.859
1630086651.686,263.672,15.625,3.418,59.082
1630086651.690,-809.570,-18.555,-19.043,93.262
1630086651.694,-89.355,-33.203,-25.391,-153.320
1630086651.698,-1000.000,-55.176,-4.883,-195.312
1630086651.701,-218.262,-41.504,-13.184,18.555
1630086651.705,-816.406,22.949,-33.691,116.699
1630086651.709,232.910,0.977,-16.602,-53.711
1630086651.713,-1000.000,-36.621,-40.039,-222.168
1630086651.717,-322.754,-0.977,-55.664,-79.102
1630086651.721,-837.402,23.438,-49.316,128.906
1630086651.725,508.789,20.508,-13.184,43.457
1630086651.729,-1000.000,-9.766,5.371,-148.438
1630086651.733,-822.266,-39.551,-33.203,-136.230
1630086651.737,703.125,-33.691,-68.848,48.340
1630086651.741,-906.738,-40.527,-22.949,78.125
1630086651.745,-311.523,-26.855,35.156,-56.641
1630086651.748,-1000.000,-6.348,13.672,-138.672
1630086651.752,89.844,-16.602,-37.598,22.461
1630086651.756,-777.832,-16.113,-29.297,101.074
1630086651.760,106.934,-38.086,-8.301,-108.887
1630086651.764,-1000.000,-56.641,-28.809,-231.934
1630086651.779,-254.883,-40.527,-59.082,-66.895
1630086651.783,-812.012,-7.324,-40.039,124.512
1630086651.787,254.883,-9.277,10.254,16.113
1630086651.791,-1000.000,-38.086,9.277,-158.691
1630086651.795,-433.105,-42.480,-42.969,-105.957
1630086651.799,-899.414,-36.621,-24.414,152.832
1630086651.803,649.414,-29.297,26.855,126.465
1630086651.806,-914.551,-28.320,-20.020,-152.344
1630086651.810,-993.164,-6.836,-46.875,-145.020
1630086651.814,496.582,16.602,-30.762,79.102
1630086651.818,-865.723,9.277,-17.090,104.492
1630086651.822,-222.656,-4.395,-12.207,-106.445
1630086651.825,-1000.000,-10.742,-20.996,-197.266
1630086651.829,-160.156,-7.324,-44.922,-2.441
1630086651.833,-811.035,19.043,-34.180,123.535
1630086651.837,199.219,21.484,0.000,-57.129
1630086651.841,-1000.000,-2.441,6.836,-197.754
1630086651.845,-260.742,6.836,-9.766,-33.691
1630086651.849,-812.500,-0.488,-27.832,133.301
1630086651.852,269.531,-31.250,-21.973,-29.785
1630086651.856,-1000.000,-47.852,15.137,-172.852
1630086651.860,-591.797,-26.855,30.273,-45.898
1630086651.864,-978.516,-2.930,-11.230,136.230
1630086651.868,676.758,0.000,-7.812,61.035
1630086651.869,-869.141,-14.160,-1.465,-167.480
1630086651.873,-1000.000,-22.949,-24.414,-193.359
1630086651.877,268.555,-23.926,-37.109,33.203
1630086651.881,-860.840,-14.160,-20.996,68.359
1630086651.885,-238.281,-6.836,0.977,-133.789
1630086651.889,-1000.000,-22.461,3.906,-150.391
1630086651.893,-166.504,-46.387,-55.176,16.602
1630086651.896,-814.941,-60.059,-73.730,103.027
1630086651.900,229.492,-45.410,55.176,34.180
1630086651.904,-1000.000,-37.598,86.914,-83.496
1630086651.908,-344.238,-57.129,-35.156,-88.379
1630086651.912,-838.867,-52.734,-42.969,120.117
1630086651.915,387.207,-45.410,14.648,51.758
1630086651.919,-1000.000,-63.477,-24.414,-199.707
1630086651.923,-743.164,-69.824,-71.289,-161.621
1630086651.927,866.211,-66.895,-40.527,123.535
1630086651.931,830.078,-50.293,15.625,121.094
1630086651.935,-697.754,-34.180,20.020,-117.676
1630086651.939,-1000.000,-61.523,-23.438,-180.176
1630086651.942,83.008,-78.125,-17.578,45.898
1630086651.946,-805.664,-74.219,20.508,150.879
1630086651.950,-6.348,-104.492,10.254,-99.121
1630086651.954,-1000.000,-105.469,2.930,-198.242
1630086651.958,-236.328,-98.145,-43.457,-0.977
1630086651.961,-816.406,-111.816,-56.641,118.164
1630086651.965,235.840,-107.910,-24.902,-63.477
1630086651.969,-1000.000,-83.496,-12.695,-184.570
1630086651.973,-364.746,-78.125,-31.738,-54.199
1630086651.977,-864.258,-86.426,-37.598,125.977
1630086651.981,598.633,-83.984,2.930,33.203
1630086651.985,-1000.000,-70.801,-0.488,-145.020
1630086651.988,-721.191,-41.504,33.203,-52.734
1630086651.992,900.879,-34.668,52.734,174.805
1630086651.996,931.641,-74.707,-16.113,74.707
1630086652.000,-523.926,-99.609,-32.227,-163.086
1630086652.004,-1000.000,-69.336,-16.602,-189.941
1630086652.004,18.066,-54.199,-28.809,17.090
1630086652.008,-788.574,-61.523,-38.574,121.582
1630086652.012,168.457,-60.059,-15.137,-67.871
1630086652.016,-1000.000,-63.965,3.906,-186.035
1630086652.020,-262.695,-69.824,-29.297,-23.926
1630086652.024,-807.129,-64.453,-58.105,131.836
1630086652.028,268.066,-54.199,-19.531,0.977
1630086652.031,-1000.000,-57.617,23.438,-124.023
1630086652.035,-428.711,-75.195,-40.039,-77.148
1630086652.039,-900.879,-83.496,-72.266,108.398
1630086652.043,675.781,-87.891,-30.273,66.406
1630086652.047,-908.203,-83.496,-16.113,-147.949
1630086652.050,-942.871,-63.965,-30.273,-153.809
1630086652.054,541.992,-50.293,-42.969,59.570
1630086652.058,-818.359,-40.039,-24.902,113.281
1630086652.062,-119.141,-48.340,-17.090,-116.699
1630086652.066,-1000.000,-62.988,-28.809,-194.336
1630086652.070,66.895,-58.105,-51.758,49.316
1630086652.074,-760.254,-57.617,18.555,214.844
1630086652.077,195.312,-57.129,53.711,2.441
1630086652.081,-1000.000,-45.898,-28.809,-218.750
1630086652.085,-276.367,-31.250,-42.480,-60.059
1630086652.089,-809.570,-20.020,-20.508,140.137
1630086652.093,445.312,-20.020,-17.090,-4.395
1630086652.094,-1000.000,-24.414,-33.691,-185.059
1630086652.098,-441.895,-14.160,-53.711,-131.348
1630086652.102,996.094,1.953,-62.012,93.750
1630086652.106,-926.270,8.301,-31.738,94.727
1630086652.110,-448.730,-10.742,-3.418,-96.191
1630086652.114,-596.191,-7.812,4.883,-106.445
1630086652.118,917.969,-5.859,-5.859,125.977
1630086652.121,-820.312,-17.578,0.488,168.945
1630086652.125,56.641,-25.879,12.207,-66.406
1630086652.129,-943.848,-45.898,44.434,-116.699
1630086652.133,453.125,-31.250,51.270,133.789
1630086652.137,-759.766,-7.812,15.137,256.836
1630086652.154,290.527,-16.602,18.066,62.988
1630086652.158,-1000.000,-43.945,31.738,-99.609
1630086652.162,-266.113,-45.898,7.324,29.297
1630086652.166,-814.941,-37.109,-37.109,185.059
1630086652.170,649.414,-47.852,-25.879,54.688
1630086652.174,-984.863,-62.500,1.953,-151.367
1630086652.178,-297.852,-45.410,-5.859,-78.613
1630086652.181,-950.684,-41.504,-41.016,166.992
1630086652.185,-899.902,-58.105,-40.527,113.281
1630086652.189,-226.074,-58.105,36.133,-62.500
1630086652.193,-790.039,-43.945,31.250,-92.285
1630086652.197,746.094,-26.367,-47.852,66.895
1630086652.200,-786.621,-11.719,-17.578,151.367
1630086652.204,126.953,-19.531,10.254,-39.551
1630086652.208,-1000.000,-50.293,8.789,-174.805
1630086652.212,210.938,-52.246,-15.625,-16.602
1630086652.216,-793.457,-40.527,0.488,144.043
1630086652.220,710.938,-22.949,21.484,33.691
1630086652.224,-829.102,-18.066,-32.715,-185.547
1630086652.227,-229.980,6.348,-68.359,-141.113
1630086652.231,-940.430,43.945,-26.367,93.262
1630086652.235,-876.465,66.406,33.203,49.316
1630086652.239,-6.836,58.105,20.020,-175.293
1630086652.243,-295.410,34.668,-1.953,-205.566
1630086652.244,-941.895,45.410,0.000,-13.184
1630086652.248,974.609,51.270,36.133,-3.906
1630086652.252,933.105,47.852,35.645,-150.391
1630086652.256,972.656,38.574,20.996,-190.918
1630086652.260,966.309,39.551,10.742,-75.684
1630086652.264,966.309,35.156,30.273,-24.902
1630086652.268,966.309,23.926,47.363,-129.395
1630086652.271,966.309,26.367,25.391,-209.961
1630086652.275,966.309,-0.977,27.344,-123.047
1630086652.279,966.309,-26.855,57.617,9.277
1630086652.283,966.309,-22.949,46.875,-97.168
1630086652.287,966.309,-4.883,13.672,-213.379
1630086652.290,966.309,15.625,-25.879,-219.727
1630086652.294,966.309,7.324,-48.828,-149.414
1630086652.298,966.309,22.949,-29.785,-152.832
1630086652.302,966.309,41.016,-36.133,-242.676
1630086652.306,965.820,44.434,-50.781,-217.285
1630086652.310,966.309,43.457,-58.594,-84.473
1630086652.314,966.309,35.645,-47.852,-51.270
1630086652.317,966.309,31.738,-3.418,-144.043
1630086652.321,968.750,33.203,31.738,-151.855
1630086652.325,942.383,40.527,-37.109,-126.465
1630086652.329,966.797,37.598,-60.059,-107.910
1630086652.333,-944.336,41.992,-25.391,-130.371
1630086652.334,5.859,36.133,-20.508,-204.590
1630086652.338,240.723,24.902,-43.457,-162.598
1630086652.342,-908.691,25.879,-45.410,-37.598
1630086652.346,-913.574,19.531,-8.301,-52.246
1630086652.350,-129.395,6.836,1.953,-170.898
1630086652.354,-264.648,13.672,-16.602,-134.766
1630086652.358,-974.609,8.301,-41.504,-0.488
1630086652.361,-837.891,32.227,38.574,60.547
1630086652.365,16.113,37.598,80.078,-23.926
1630086652.369,-419.434,10.254,7.324,-138.184
1630086652.373,937.012,40.527,-17.578,-33.691
1630086652.377,-833.008,60.547,3.418,41.992
1630086652.379,129.883,47.363,6.836,-32.715
1630086652.383,-1000.000,50.293,4.395,-100.098
1630086652.387,195.312,61.035,-12.695,-21.484
1630086652.391,-739.746,55.176,-16.602,63.965
1630086652.395,181.152,39.551,9.277,29.297
1630086652.399,-1000.000,21.973,0.000,-43.457
1630086652.403,-277.344,32.715,-19.043,-13.672
1630086652.406,-814.941,36.621,-11.230,93.750
1630086652.410,462.402,16.602,2.930,106.445
1630086652.414,-1000.000,-6.348,-6.836,-19.043
1630086652.418,-593.750,2.930,-53.711,-71.289
1630086652.422,980.469,17.578,-82.520,27.344
1630086652.426,920.410,10.254,-34.668,83.496
1630086652.430,-617.676,13.672,-4.395,-2.930
1630086652.434,-1000.000,22.461,-0.488,-62.988
1630086652.438,441.895,0.000,-23.926,19.043
1630086652.442,-793.457,-27.344,-20.020,72.266
1630086652.446,-14.160,-33.691,9.766,-16.602
1630086652.450,-1000.000,-27.344,29.785,-71.777
1630086652.453,-50.293,-30.273,2.441,-12.207
1630086652.457,-767.578,-57.129,-44.922,19.531
1630086652.461,205.078,-124.512,-16.602,-35.645
1630086652.465,-1000.000,-164.062,-16.113,-135.254
1630086652.469,-271.484,-173.340,-52.246,-102.051
1630086652.469,-812.500,-178.711,-52.734,43.945
1630086652.473,348.145,-150.391,-4.883,48.828
1630086652.477,-1000.000,-156.250,-16.113,-63.477
1630086652.481,-743.164,-158.203,-72.754,-118.164
1630086652.485,917.969,-106.445,-95.215,11.719
1630086652.489,656.738,-72.266,-61.523,86.426
1630086652.493,-888.672,-68.359,-8.301,20.996
1630086652.496,-1000.000,-65.918,-8.789,-47.852
1630086652.500,171.387,-37.598,-50.781,0.488
1630086652.504,-946.777,-33.691,-60.059,85.938
1630086652.508,-389.648,-57.617,-45.898,-27.344
1630086652.512,-1000.000,-50.781,-49.316,-112.305
1630086652.529,-208.008,-20.996,-73.730,-19.531
1630086652.533,-848.145,16.602,-98.145,141.113
1630086652.537,139.648,-0.977,-99.121,20.508
1630086652.541,-1000.000,-31.250,-128.418,-174.805
1630086652.545,-400.879,8.789,-155.762,-98.145
1630086652.549,-876.953,42.969,-139.160,156.738
1630086652.553,250.977,6.348,-107.422,76.660
1630086652.556,-1000.000,-11.230,-104.492,-130.859
1630086652.560,-858.887,20.020,-125.488,-139.160
1630086652.564,762.695,56.641,-121.582,137.207
1630086652.568,568.848,62.500,-99.609,193.848
1630086652.572,-967.285,33.691,-96.680,-106.445
1630086652.574,-1000.000,40.527,-119.141,-205.566
1630086652.578,64.941,67.383,-125.000,42.480
1630086652.582,-936.523,52.246,-97.168,231.934
1630086652.586,-346.680,9.766,-90.820,-70.312
1630086652.590,-1000.000,-13.672,-110.840,-259.277
1630086652.594,-212.891,-4.395,-145.996,-62.500
1630086652.598,-841.797,16.113,-153.809,214.844
1630086652.601,200.684,-6.836,-122.070,-14.160
1630086652.605,-1000.000,-5.371,-75.195,-270.020
1630086652.609,-425.781,30.762,-71.777,-142.090
1630086652.613,-877.441,35.156,-113.281,219.727
1630086652.617,261.230,-0.488,-96.680,123.535
1630086652.619,-1000.000,-20.508,-62.988,-242.188
1630086652.623,-928.223,0.977,-71.777,-266.113
1630086652.627,646.484,25.879,-101.074,129.395
1630086652.631,708.008,15.137,-76.172,265.137
1630086652.635,-868.164,-31.738,-35.156,-142.578
1630086652.639,-1000.000,-46.875,-40.039,-335.449
1630086652.643,-2.930,-31.250,-61.035,34.180
1630086652.646,-856.934,-49.316,-55.664,341.309
1630086652.650,-153.320,-72.754,2.441,-8.789
1630086652.654,-1000.000,-50.781,9.277,-329.590
1630086652.658,-222.656,-28.809,-57.617,-148.926
1630086652.662,-834.473,-17.090,-51.758,379.883
1630086652.665,243.652,-61.035,-20.020,109.863
1630086652.669,-1000.000,-97.656,-12.695,-382.812
1630086652.673,-518.066,-62.500,-21.484,-293.945
1630086652.677,-911.621,5.371,-22.949,326.660
1630086652.681,408.691,11.719,-21.484,280.762
1630086652.685,-1000.000,-11.230,-21.484,-329.590
1630086652.689,-1000.000,-6.836,-33.691,-461.914
1630086652.692,512.695,38.574,-19.531,156.250
1630086652.696,907.715,53.711,20.996,469.238
1630086652.700,-635.254,-16.113,-13.184,-210.449
1630086652.704,-1000.000,-28.320,-62.012,-573.242
1630086652.708,-91.309,4.395,-60.547,-57.129
1630086652.709,-833.984,1.465,-29.785,486.328
1630086652.713,5.371,-8.789,-34.180,-76.660
1630086652.717,-1000.000,27.832,-36.621,-607.910
1630086652.721,-235.352,67.383,-30.762,-292.969
1630086652.725,-827.637,72.754,-41.016,454.102
1630086652.729,243.164,31.250,-37.598,137.207
1630086652.733,-1000.000,15.137,-42.969,-552.734
1630086652.736,-604.492,73.242,-19.531,-442.383
1630086652.740,-959.961,119.141,5.859,381.836
1630086652.744,468.750,68.359,-21.484,385.742
1630086652.748,-1000.000,24.902,-28.809,-351.562
1630086652.752,-1000.000,17.090,-13.672,-530.273
1630086652.754,305.664,28.320,-9.277,116.211
1630086652.758,962.402,18.555,-8.789,513.184
1630086652.762,-554.199,-8.789,7.324,-145.508
1630086652.766,-1000.000,-4.883,11.230,-538.086
1630086652.770,-199.707,16.113,-4.883,-12.207
1630086652.774,-859.863,14.648,-18.066,640.137
1630086652.778,53.223,-1.953,9.277,104.004
1630086652.781,-1000.000,19.043,45.410,-412.598
1630086652.785,-318.359,34.180,5.859,-123.047
1630086652.789,-853.516,42.969,-22.949,611.328
1630086652.793,242.676,45.898,5.371,376.465
1630086652.797,-1000.000,34.668,5.859,-320.312
1630086652.799,-832.520,27.344,-33.691,-323.242
1630086652.803,802.246,58.594,-29.297,448.730
1630086652.807,518.066,61.523,-20.020,567.871
1630086652.811,-992.676,38.086,-9.766,-195.801
1630086652.815,-1000.000,37.598,-7.324,-436.035
1630086652.819,90.332,82.520,-27.344,196.777
1630086652.823,-971.680,145.996,33.691,761.230
1630086652.826,-416.992,109.375,73.242,93.750
1630086652.830,-1000.000,60.547,22.461,-473.633
1630086652.834,-202.148,104.492,10.254,-0.488
1630086652.838,-856.445,140.137,20.508,741.699
1630086652.842,96.680,73.730,-0.488,202.148
1630086652.845,-1000.000,40.039,-31.250,-510.254
1630086652.849,-453.125,121.582,-11.230,-256.348
1630086652.853,-905.762,190.918,21.484,656.738
1630086652.857,255.371,159.180,8.789,442.871
1630086652.861,-1000.000,141.113,0.000,-400.879
1630086652.865,-934.570,215.332,26.855,-403.320
1630086652.869,655.273,298.340,40.039,520.020
1630086652.872,598.145,257.812,-12.695,700.195
1630086652.876,-946.289,197.266,-19.531,-228.516
1630086652.880,-1000.000,196.777,-2.441,-555.664
1630086652.884,-26.367,234.375,10.254,153.809
1630086652.888,-949.219,251.465,22.461,771.484
1630086652.905,-330.078,212.891,15.137,16.602
1630086652.909,-1000.000,208.984,-0.488,-591.309
1630086652.913,-211.426,238.770,-9.277,-133.789
1630086652.917,-846.680,247.070,0.977,724.609
1630086652.921,206.543,178.711,19.531,243.652
1630086652.925,-1000.000,167.480,64.941,-445.801
1630086652.929,-568.359,194.824,50.293,-248.047
1630086652.932,-947.754,199.219,2.930,596.191
1630086652.936,254.395,183.594,2.441,491.211
1630086652.940,-1000.000,166.504,19.531,-342.773
1630086652.944,-1000.000,158.691,14.648,-494.629
1630086652.948,401.367,142.578,-2.441,295.410
1630086652.950,705.078,116.699,-14.160,694.824
1630086652.954,-868.164,73.242,-16.602,-172.363
1630086652.958,-1000.000,82.520,-0.488,-613.281
1630086652.962,-172.852,131.836,18.066,46.387
1630086652.966,-885.254,151.855,54.688,792.480
1630086652.970,-102.051,107.422,64.941,134.766
1630086652.974,-1000.000,85.938,32.715,-526.367
1630086652.977,-245.605,112.305,5.859,-157.715
1630086652.981,-844.727,163.574,16.113,730.469
1630086652.985,242.188,145.996,39.062,361.328
1630086652.989,-1000.000,77.637,21.973,-452.637
1630086652.993,-735.352,83.496,4.883,-377.930
1630086652.995,916.016,113.281,-11.719,512.207
1630086652.999,329.590,73.242,-26.367,537.109
1630086653.003,-1000.000,31.738,-13.672,-315.918
1630086653.007,-1000.000,47.852,-0.488,-483.887
1630086653.011,222.168,74.219,-8.301,293.945
1630086653.015,811.523,69.824,-20.996,721.680
1630086653.019,-742.188,30.762,-19.531,-89.355
1630086653.022,-1000.000,38.574,-11.719,-509.277
1630086653.026,-193.359,123.047,20.020,77.148
1630086653.030,-879.395,143.555,31.738,749.512
1630086653.034,-19.531,32.715,-20.996,121.094
1630086653.038,-1000.000,-3.418,-43.945,-530.762
1630086653.039,-373.047,41.992,-47.852,-311.035
1630086653.043,-884.277,75.684,-59.570,455.078
1630086653.047,253.906,82.520,-62.988,208.496
1630086653.051,-1000.000,96.191,-48.340,-495.117
1630086653.055,-840.332,112.305,-35.156,-490.723
1630086653.059,789.062,151.855,-29.297,258.789
1630086653.063,537.109,140.137,-32.227,368.164
1630086653.066,-987.793,67.383,-37.598,-380.859
1630086653.070,-1000.000,48.340,-57.129,-583.008
1630086653.074,80.078,66.406,-69.336,-9.766
1630086653.078,-910.156,72.754,-62.012,432.129
1630086653.082,-311.523,36.133,-43.457,-184.082
1630086653.084,-1000.000,9.277,-49.316,-623.047
1630086653.088,-214.355,34.668,-67.871,-194.824
1630086653.092,-839.355,57.617,-64.453,445.801
1630086653.096,209.473,10.254,-60.547,-32.227
1630086653.100,-1000.000,-21.973,-69.824,-591.797
1630086653.104,-415.039,6.348,-78.125,-376.953
1630086653.108,-870.605,27.344,-90.820,316.895
1630086653.111,302.246,-3.906,-53.711,172.852
1630086653.115,-1000.000,-26.367,-26.855,-465.820
1630086653.119,-893.066,-33.203,-80.078,-544.434
1630086653.123,695.312,-8.301,-112.793,78.613
1630086653.127,761.719,-18.555,-97.656,273.438
1630086653.131,-818.359,-66.406,-58.105,-391.113
1630086653.135,-1000.000,-61.035,-55.664,-645.020
1630086653.139,32.715,-20.996,-42.969,-101.562
1630086653.143,-817.871,-21.973,-6.348,377.441
1630086653.147,-34.668,-58.594,-2.930,-183.105
1630086653.151,-1000.000,-37.598,-18.555,-627.930
1630086653.155,-234.863,20.508,-17.090,-276.367
1630086653.158,-824.707,28.320,-0.488,355.957
1630086653.162,241.699,-48.340,-6.836,-39.062
1630086653.166,-1000.000,-64.453,-18.555,-609.375
1630086653.170,-477.539,-4.883,-28.320,-477.539
1630086653.174,-895.996,48.340,-20.996,223.633
1630086653.174,499.023,53.223,12.207,209.473
1630086653.178,-1000.000,25.879,28.809,-454.102
1630086653.182,-979.004,6.836,-4.883,-616.699
1630086653.186,529.785,48.340,-41.504,-22.461
1630086653.190,-980.957,75.195,-45.898,300.781
1630086653.194,-469.238,43.945,-20.508,-304.199
1630086653.198,-1000.000,68.848,20.508,-627.441
1630086653.201,-64.941,77.148,9.766,-150.879
1630086653.205,-809.082,36.621,3.906,409.668
1630086653.209,94.238,15.625,28.320,-95.215
1630086653.213,-1000.000,6.348,24.902,-656.250
1630086653.217,-247.559,4.395,3.906,-394.043
1630086653.219,-821.777,5.859,-11.719,282.227
1630086653.223,241.211,63.965,44.434,26.367
1630086653.227,-1000.000,45.898,-5.371,-647.461
1630086653.231,-636.230,-1.465,-92.285,-645.508
1630086653.235,-979.980,-2.441,-66.895,98.633
1630086653.239,503.906,-58.594,-25.391,118.652
1630086653.243,-989.258,-68.359,-6.836,-575.195
1630086653.246,-1000.000,-45.410,-50.293,-757.812
1630086653.250,219.727,8.789,-73.730,-92.285
1630086653.254,-995.117,30.273,-44.434,366.699
1630086653.258,-483.887,25.391,-9.277,-242.188
1630086653.262,-1000.000,30.273,-9.277,-629.883
1630086653.279,-203.125,62.988,-11.230,-142.578
1630086653.283,-854.492,109.375,-0.488,552.246
1630086653.287,97.168,82.031,15.137,91.797
1630086653.291,-1000.000,21.484,-5.859,-500.000
1630086653.295,-376.953,39.551,-32.227,-249.023
1630086653.299,-872.070,78.613,-25.391,567.871
1630086653.303,248.535,30.762,-15.137,362.793
1630086653.306,-1000.000,-38.574,-27.344,-355.957
1630086653.310,-860.840,-41.992,-41.016,-329.102
1630086653.314,760.254,45.410,-3.418,481.934
1630086653.318,576.660,41.504,16.113,653.809
1630086653.322,-965.332,-58.594,-31.250,-153.320
1630086653.325,-1000.000,-57.129,-44.434,-418.945
1630086653.329,79.102,-47.363,-9.277,253.418
1630086653.333,-937.988,-140.137,-8.301,729.004
1630086653.337,-355.469,-212.402,-12.695,14.160
1630086653.341,-1000.000,-225.098,-3.418,-466.309
1630086653.345,-213.379,-188.965,-6.348,-1.953
1630086653.349,-843.262,-151.367,-22.949,723.145
1630086653.352,208.008,-184.570,-51.270,224.121
1630086653.356,-1000.000,-186.035,-20.508,-437.988
1630086653.360,-460.449,-150.391,3.418,-200.684
1630086653.364,-891.602,-124.023,-17.090,606.934
1630086653.368,273.438,-136.230,-7.324,449.219
1630086653.371,-1000.000,-119.629,0.488,-353.516
1630086653.375,-959.473,-51.758,-5.371,-457.031
1630086653.379,589.844,-2.441,-25.391,371.094
1630086653.383,759.766,-6.836,-14.160,661.621
1630086653.387,-817.383,-22.461,-2.930,-201.660
1630086653.391,-1000.000,-5.859,-8.301,-535.645
1630086653.395,-47.852,52.246,-7.324,154.297
1630086653.398,-851.074,76.660,7.812,737.305
1630086653.402,-107.422,50.781,71.289,80.078
1630086653.406,-1000.000,50.293,55.176,-500.000
1630086653.410,-225.098,77.148,-20.020,-120.605
1630086653.414,-833.984,131.836,-6.836,699.707
1630086653.415,244.141,110.352,13.672,282.227
1630086653.419,-1000.000,98.145,25.879,-449.219
1630086653.423,-578.125,149.414,32.227,-269.043
1630086653.427,-942.871,174.805,-2.441,610.840
1630086653.431,390.625,151.855,-22.949,549.316
1630086653.435,-1000.000,110.840,-23.926,-285.645
1630086653.439,-1000.000,93.750,-16.113,-472.168
1630086653.442,352.051,105.469,6.348,242.676
1630086653.446,899.414,94.727,39.551,611.816
1630086653.450,-646.484,58.105,24.902,-156.250
1630086653.454,-1000.000,55.664,-2.441,-535.645
1630086653.458,-174.805,79.102,-0.488,4.883
1630086653.459,-856.934,76.660,-5.859,578.125
1630086653.463,9.766,47.852,-1.465,29.297
1630086653.467,-1000.000,72.266,1.465,-479.492
1630086653.471,-232.422,123.535,-8.789,-186.523
1630086653.475,-828.613,149.902,-8.789,494.141
1630086653.479,242.676,145.508,4.883,233.398
1630086653.483,-1000.000,124.512,6.348,-375.977
1630086653.486,-638.672,147.949,29.297,-315.918
1630086653.490,-990.723,190.918,41.992,363.770
1630086653.494,573.730,149.902,11.230,377.930
1630086653.498,-959.473,109.863,10.742,-257.812
1630086653.502,-1000.000,116.211,15.625,-401.367
1630086653.504,213.867,135.254,14.648,101.562
1630086653.508,-871.094,129.883,44.434,453.613
1630086653.512,-271.484,87.891,42.480,-41.016
1630086653.516,-1000.000,61.523,-10.254,-396.973
1630086653.520,-217.773,80.078,-45.898,-98.145
1630086653.524,-833.008,110.352,-44.922,358.887
1630086653.528,218.262,116.699,-1.953,27.344
1630086653.531,-1000.000,117.676,28.809,-374.023
1630086653.535,-336.426,133.789,3.418,-227.051
1630086653.539,-838.379,157.227,-10.254,340.820
1630086653.543,312.988,141.602,13.184,219.238
1630086653.547,-1000.000,117.188,24.414,-305.664
1630086653.550,-757.324,113.770,5.859,-320.801
1630086653.554,856.445,128.906,-9.277,197.266
1630086653.558,782.227,123.047,14.160,290.527
1630086653.562,-772.461,92.773,24.902,-214.844
1630086653.566,-1000.000,75.684,2.441,-394.043
1630086653.570,98.633,83.496,-29.785,23.438
1630086653.574,-801.758,110.840,-0.977,409.180
1630086653.577,3.906,83.008,34.180,-15.625
1630086653.581,-1000.000,28.320,-1.953,-415.527
1630086653.585,-241.211,29.297,-41.504,-168.457
1630086653.589,-817.871,30.762,-55.664,339.355
1630086653.593,237.305,-9.766,-22.461,63.477
1630086653.610,-1000.000,-22.461,-14.160,-377.930
1630086653.614,-389.160,39.062,9.766,-235.352
1630086653.618,-859.375,60.547,13.184,289.551
1630086653.622,487.305,9.277,-9.766,169.434
1630086653.626,-1000.000,-26.367,-16.113,-379.883
1630086653.630,-808.105,-3.418,-13.184,-394.531
1630086653.634,755.859,37.109,-4.883,200.684
1630086653.637,-996.582,5.371,-12.207,348.633
1630086653.641,-459.473,-22.461,-1.465,-209.961
1630086653.645,-1000.000,-5.371,0.977,-440.918
1630086653.649,26.367,14.648,-13.672,-21.484
1630086653.653,-791.016,14.648,-22.949,390.625
1630086653.654,103.516,-9.766,-20.996,-46.875
1630086653.658,-1000.000,-29.297,-22.949,-465.332
1630086653.662,-251.953,2.441,-39.062,-180.664
1630086653.666,-816.895,19.043,-38.086,415.527
1630086653.670,240.234,-14.648,-22.461,116.211
1630086653.674,-1000.000,-50.293,-12.695,-407.227
1630086653.678,-524.414,-98.145,-19.043,-296.875
1630086653.681,-919.922,-105.957,-29.785,357.910
1630086653.685,524.414,-111.816,-19.531,341.797
1630086653.689,-1000.000,-129.883,1.465,-280.273
1630086653.693,-1000.000,-118.652,-2.930,-405.273
1630086653.697,431.641,-67.871,-30.273,175.293
1630086653.699,-961.914,-48.340,-16.113,480.957
1630086653.703,-438.477,-82.520,-9.277,-158.203
1630086653.707,-1000.000,-93.262,-8.789,-474.609
1630086653.711,-129.395,-58.105,-5.371,46.387
1630086653.715,-816.406,-21.973,-13.184,568.848
1630086653.719,160.645,-35.156,-17.090,20.020
1630086653.723,-1000.000,-50.293,-21.484,-512.207
1630086653.726,-255.371,-42.969,-37.598,-229.004
1630086653.730,-816.406,19.531,-13.184,549.805
1630086653.734,256.836,28.809,27.832,320.312
1630086653.738,-1000.000,-19.531,-3.418,-432.129
1630086653.742,-628.418,9.277,-27.832,-419.922
1630086653.744,-982.422,58.105,-39.062,404.297
1630086653.748,595.703,58.105,-55.176,490.723
1630086653.752,-949.219,14.160,-54.688,-282.715
1630086653.756,-1000.000,-17.090,-49.316,-468.262
1630086653.760,237.793,3.418,-61.035,242.188
1630086653.764,-861.816,-24.414,-48.340,694.824
1630086653.768,-252.441,-121.582,-37.109,-8.301
1630086653.771,-1000.000,-175.781,-48.828,-491.699
1630086653.775,-217.285,-115.723,-10.254,54.688
1630086653.779,-833.496,-82.520,-24.902,800.293
1630086653.783,202.148,-179.199,-100.098,212.402
1630086653.787,-1000.000,-215.820,-109.375,-435.547
1630086653.790,-338.379,-179.688,-89.844,-156.250
1630086653.794,-842.773,-152.832,-89.844,699.707
1630086653.798,239.746,-204.102,-100.586,487.793
1630086653.802,-1000.000,-235.840,-89.844,-342.285
1630086653.806,-830.566,-180.176,-88.867,-349.121
1630086653.810,794.922,-114.746,-104.004,492.676
1630086653.814,637.695,-116.699,-100.098,684.570
1630086653.817,-924.316,-141.113,-50.781,-113.770
1630086653.821,-1000.000,-122.070,-43.457,-403.320
1630086653.825,58.594,-114.258,-87.402,221.680
1630086653.829,-885.254,-115.723,-56.641,759.766
1630086653.833,-255.371,-135.254,-30.762,67.871
1630086653.836,-1000.000,-129.395,-37.598,-474.609
1630086653.840,-216.309,-104.980,-30.762,-15.137
1630086653.844,-839.355,-87.402,-26.855,762.695
1630086653.848,224.609,-131.348,-10.254,282.715
1630086653.852,-1000.000,-161.621,-13.672,-465.820
1630086653.856,-484.375,-118.652,-42.969,-262.207
1630086653.860,-898.926,-83.008,-33.691,683.105
1630086653.863,303.223,-78.613,51.270,607.910
1630086653.867,-1000.000,-88.867,68.359,-270.996
1630086653.871,-978.516,-95.703,-16.113,-455.078
1630086653.875,569.336,-46.875,-26.367,397.461
1630086653.879,759.277,-42.480,-3.906,725.586
1630086653.879,-812.500,-79.590,2.930,-159.668
1630086653.883,-1000.000,-88.867,3.906,-576.172
1630086653.887,-29.785,-41.504,4.883,155.762
1630086653.891,-960.938,-7.324,1.953,797.363
1630086653.895,-292.969,-55.176,3.906,-16.602
1630086653.899,-1000.000,-66.406,-1.953,-621.094
1630086653.903,-222.168,12.207,11.230,-153.320
1630086653.906,-840.820,83.496,51.270,785.645
1630086653.910,244.629,25.879,22.949,332.520
1630086653.914,-1000.000,-32.227,-11.719,-552.246
1630086653.918,-602.051,-4.395,-18.066,-466.309
1630086653.922,-957.031,46.387,-26.367,538.574
1630086653.927,407.715,22.461,-21.484,573.730
1630086653.931,-1000.000,-30.762,-18.555,-398.926
1630086653.935,-1000.000,-8.301,-9.277,-616.699
1630086653.939,341.309,56.641,-21.973,250.977
1630086653.943,914.551,54.199,-45.898,732.422
1630086653.947,-625.977,3.418,-32.715,-158.691
1630086653.951,-1000.000,22.461,8.301,-672.852
1630086653.954,-183.105,64.453,20.020,-38.086
1630086653.958,-856.445,65.430,-9.766,744.629
1630086653.962,30.273,45.898,-3.906,61.523
1630086653.966,-1000.000,75.684,16.113,-718.750
1630086653.970,-256.348,129.395,6.348,-405.273
1630086653.969,-835.449,159.668,-9.766,611.816
1630086653.973,241.699,123.535,-18.555,313.477
1630086653.977,-1000.000,84.961,-20.996,-671.387
1630086653.981,-718.262,95.215,-17.090,-671.875
1630086653.985,933.105,123.535,-12.207,341.309
1630086653.989,557.617,108.887,2.930,541.016
1630086653.993,-970.703,32.715,7.324,-436.035
1630086653.996,-1000.000,-0.977,-25.879,-821.777
1630086654.000,173.340,62.012,-21.973,11.719
1630086654.004,-922.852,73.730,-8.301,638.672
1630086654.008,-357.910,20.020,-21.973,-210.449
1630086654.012,-1000.000,-8.301,-18.555,-833.496
1630086654.029,-213.867,22.461,-4.883,-291.016
1630086654.033,-840.332,66.895,-5.371,632.324
1630086654.037,201.172,25.879,2.930,95.703
1630086654.041,-1000.000,-9.277,0.977,-759.277
1630086654.045,-386.719,10.254,2.930,-495.605
1630086654.049,-862.305,46.387,13.672,578.125
1630086654.053,244.141,28.809,-11.230,367.188
1630086654.056,-1000.000,-25.391,-24.414,-605.957
1630086654.060,-871.094,-20.996,-27.832,-711.426
1630086654.064,735.352,67.871,6.836,345.703
1630086654.068,667.480,53.223,21.973,699.707
1630086654.072,-905.273,-52.246,-17.090,-358.398
1630086654.074,-1000.000,-52.734,-29.785,-809.082
1630086654.078,32.715,-11.719,-33.691,-5.371
1630086654.082,-858.398,-6.836,-20.020,756.836
1630086654.086,-183.594,-71.777,-20.020,-58.105
1630086654.090,-1000.000,-77.148,-22.949,-776.855
1630086654.094,-221.191,-15.137,-18.066,-242.676
1630086654.098,-835.938,2.930,-21.484,745.117
1630086654.101,244.141,-30.762,-21.973,260.254
1630086654.105,-1000.000,-29.297,-2.930,-612.305
1630086654.109,-524.902,20.020,13.184,-428.711
1630086654.113,-915.527,30.762,-9.766,593.262
1630086654.117,305.176,-25.879,-14.160,531.738
1630086654.119,-1000.000,-74.707,-21.973,-484.863
1630086654.123,-1000.000,-46.875,-40.527,-710.449
1630086654.127,471.680,0.488,-36.621,262.207
1630086654.131,807.129,-11.230,-16.113,747.559
1630086654.135,-763.672,-57.129,-16.602,-190.918
1630086654.139,-1000.000,-60.547,-13.184,-732.910
1630086654.143,-131.836,-28.320,-2.441,-21.973
1630086654.146,-854.492,-22.461,-16.602,799.805
1630086654.150,-33.691,-23.438,18.066,126.465
1630086654.154,-1000.000,-25.391,40.527,-620.605
1630086654.158,-229.492,-43.945,-11.719,-303.711
1630086654.162,-831.055,-13.672,-17.578,688.965
1630086654.165,243.652,-62.012,-24.414,331.543
1630086654.169,-1000.000,-120.117,-45.898,-625.488
1630086654.173,-625.000,-77.637,-20.996,-552.246
1630086654.177,-970.703,-35.645,-6.836,489.258
1630086654.181,437.012,-70.312,-9.766,574.219
1630086654.185,-1000.000,-105.957,-9.277,-426.758
1630086654.189,-1000.000,-96.191,-23.926,-716.309
1630086654.192,257.324,-41.504,-2.930,166.504
1630086654.196,-998.047,-4.883,14.160,746.094
1630086654.200,-496.582,-53.223,-4.395,-137.695
1630086654.204,-1000.000,-64.453,-9.277,-737.793
1630086654.208,-204.590,-17.090,-3.906,-146.484
1630086654.209,-849.609,-3.906,3.906,688.477
1630086654.213,104.492,-65.430,1.953,114.746
1630086654.217,-1000.000,-94.727,-6.836,-664.551
1630086654.221,-302.246,-51.758,-15.137,-377.930
1630086654.225,-843.262,-2.441,-2.930,613.281
1630086654.229,244.629,-34.180,-11.719,391.602
1630086654.233,-1000.000,-69.336,-27.344,-499.023
1630086654.236,-748.535,-39.062,3.906,-552.734
1630086654.240,880.371,11.719,37.598,334.961
1630086654.244,675.293,20.508,41.504,594.727
1630086654.248,-894.043,82.031,32.715,-240.234
1630086654.252,-1000.000,159.180,32.227,-589.844
1630086654.255,147.461,168.457,23.438,97.168
1630086654.259,-828.613,182.129,28.809,665.039
1630086654.263,-149.902,172.852,55.176,-50.781
1630086654.267,-1000.000,183.594,62.988,-644.043
1630086654.271,-225.586,203.125,46.387,-213.379
1630086654.275,-829.102,216.797,42.480,577.148
1630086654.279,240.723,169.922,56.641,180.176
1630086654.282,-1000.000,74.219,42.480,-574.219
1630086654.286,-412.109,49.805,4.883,-452.148
1630086654.290,-864.258,66.406,3.906,398.438
1630086654.294,367.188,15.137,29.785,351.074
1630086654.298,-1000.000,-37.109,18.555,-442.383
1630086654.299,-853.516,-20.508,-15.137,-589.844
1630086654.303,719.238,7.324,-13.184,191.406
1630086654.307,882.812,-11.230,21.484,528.320
1630086654.311,-657.227,-67.871,5.859,-250.488
1630086654.315,-1000.000,-92.773,-4.395,-720.703
1630086654.319,19.043,-53.223,8.301,-110.352
1630086654.323,-803.223,7.812,53.223,638.672
1630086654.326,51.758,-31.738,76.660,60.547
1630086654.330,-1000.000,-97.656,35.645,-657.227
1630086654.334,-244.629,-69.336,26.855,-321.289
1630086654.338,-818.359,-38.086,37.109,522.461
1630086654.342,239.746,-62.500,44.922,195.801
1630086654.344,-1000.000,-83.008,39.551,-582.520
1630086654.348,-465.332,19.531,41.992,-484.863
1630086654.352,-891.602,156.250,44.922,403.320
1630086654.356,511.230,153.809,46.387,398.438
1630086654.360,-1000.000,103.516,30.762,-459.961
1630086654.364,-931.152,143.066,43.945,-643.555
1630086654.368,602.539,204.590,59.082,184.570
1630086654.371,-982.910,156.250,18.066,562.012
1630086654.375,-459.473,83.984,-21.973,-297.363
1630086654.379,-1000.000,116.699,-5.371,-740.234
1630086654.383,-58.594,177.734,19.043,-104.004
1630086654.387,-807.617,146.973,-19.043,554.688
1630086654.404,93.750,84.473,-14.648,-47.852
1630086654.408,-1000.000,56.152,-11.719,-725.586
1630086654.412,-247.559,105.469,-17.578,-355.957
1630086654.416,-820.312,144.043,-19.043,554.688
1630086654.420,241.211,98.145,-14.160,255.371
1630086654.424,-1000.000,67.871,10.742,-558.594
1630086654.428,-592.773,83.008,8.301,-532.227
1630086654.431,-960.938,106.445,-3.906,417.969
1630086654.435,566.406,58.594,5.859,512.695
1630086654.439,-970.703,72.266,89.844,-331.055
1630086654.443,-1000.000,96.191,118.164,-577.637
1630086654.447,308.105,51.270,33.691,184.082
1630086654.450,-910.645,33.691,13.184,717.285
1630086654.454,-348.145,-13.672,12.207,-169.922
1630086654.458,-1000.000,-0.977,6.836,-759.766
1630086654.462,-197.266,52.734,0.000,-105.469
1630086654.466,-828.613,74.219,-19.531,791.016
1630086654.470,194.336,25.391,-15.137,146.484
1630086654.474,-1000.000,-19.531,-22.461,-712.402
1630086654.477,-271.973,-12.207,-41.016,-406.738
1630086654.481,-821.289,44.922,4.883,740.234
1630086654.485,239.258,23.926,38.086,513.184
1630086654.489,-1000.000,-53.711,6.348,-595.215
1630086654.493,-683.594,-31.250,-1.465,-637.695
1630086654.494,955.078,51.270,29.297,492.676
1630086654.498,651.855,34.668,36.621,731.445
1630086654.502,-903.809,-28.809,19.531,-387.207
1630086654.506,-1000.000,1.465,20.996,-828.613
1630086654.510,172.363,67.383,36.621,160.645
1630086654.514,-844.727,62.012,27.344,897.949
1630086654.518,-201.660,-33.203,-4.395,-144.531
1630086654.521,-1000.000,-45.898,14.648,-950.684
1630086654.525,-221.680,83.496,87.891,-142.090
1630086654.529,-833.008,110.352,63.477,987.305
1630086654.533,229.980,-50.293,-10.254,149.414
1630086654.537,-1000.000,-110.840,-4.395,-1000.000
1630086654.539,-410.645,-49.805,-1.953,-717.773
1630086654.543,-867.188,2.930,6.836,668.945
1630086654.547,264.648,-32.227,13.184,457.031
1630086654.551,-1000.000,-53.223,19.531,-878.906
1630086654.555,-892.090,-18.555,28.809,-1000.000
1630086654.559,716.309,19.043,67.871,312.500
1630086654.563,657.715,-60.547,36.133,692.383
1630086654.566,-907.715,-138.672,0.488,-638.184
1630086654.570,-1000.000,-85.938,39.551,-1000.000
1630086654.574,-24.414,-47.852,20.020,-137.695
1630086654.578,-878.418,-36.621,21.973,895.996
1630086654.582,-201.660,-87.891,15.137,-157.227
1630086654.586,-1000.000,-121.094,-23.926,-1000.000
1630086654.590,-218.750,-73.242,-20.508,-445.312
1630086654.594,-837.891,-28.320,-13.672,916.016
1630086654.598,244.629,-84.473,-30.273,253.906
1630086654.602,-1000.000,-119.141,-20.508,-971.680
1630086654.606,-544.922,-66.895,-1.953,-700.684
1630086654.610,-924.316,-9.277,10.742,654.297
1630086654.613,361.328,-41.504,14.648,647.949
1630086654.617,-1000.000,-94.727,20.020,-587.891
1630086654.621,-1000.000,-90.820,-6.836,-887.207
1630086654.625,440.918,-17.578,1.953,287.109
1630086654.629,877.441,-21.973,8.301,841.309
1630086654.629,-677.734,-92.773,-15.625,-312.988
1630086654.633,-1000.000,-82.031,-17.578,-1000.000
1630086654.637,-128.418,-18.555,1.465,-37.598
1630086654.641,-846.191,-4.395,-3.418,995.605
1630086654.645,-3.906,-72.266,-23.926,51.270
1630086654.649,-1000.000,-84.961,-37.598,-961.426
1630086654.653,-232.422,11.230,-16.113,-360.840
1630086654.656,-829.102,90.332,26.367,951.172
1630086654.660,243.164,10.742,-4.883,412.598
1630086654.664,-1000.000,-52.246,-41.504,-860.840
1630086654.668,-625.488,-8.301,-19.043,-730.957
1630086654.672,-979.492,20.996,-0.488,618.652
1630086654.674,551.758,-36.621,-34.180,712.891
1630086654.678,-985.352,-75.684,-42.969,-524.414
1630086654.682,-1000.000,-45.898,-27.344,-875.488
1630086654.686,298.340,28.809,-7.324,256.836
1630086654.690,-907.227,44.922,-18.555,913.086
1630086654.694,-344.238,-52.246,-43.457,-224.121
1630086654.698,-1000.000,-46.387,4.395,-984.863
1630086654.701,-195.801,15.625,45.410,-45.410
1630086654.705,-830.078,-20.996,0.977,-978.027
1630086654.709,191.895,-72.266,-25.879,116.211
1630086654.713,-1000.000,-90.820,-27.344,-999.023
1630086654.717,-297.852,-35.156,-8.301,-489.258
1630086654.720,-830.078,31.250,8.789,879.883
1630086654.724,239.746,-1.953,-3.418,485.840
1630086654.728,-1000.000,-43.457,-5.859,-819.336
1630086654.732,-742.676,-32.715,-18.066,-840.820
1630086654.736,877.930,1.953,-12.695,487.305
1630086654.740,710.938,3.418,10.742,774.414
1630086654.744,-853.516,-35.156,17.090,-442.383
1630086654.747,-1000.000,-67.383,2.930,-1000.000
1630086654.751,130.859,-27.832,19.043,95.703
1630086654.755,-835.449,-17.090,15.625,944.336
1630086654.759,-166.504,-69.824,3.418,-150.391
1630086654.763,-1000.000,-97.168,-10.254,-1000.000
1630086654.779,-224.121,-71.289,-15.137,-273.926
1630086654.783,-830.566,-49.805,-12.695,-994.629
1630086654.787,241.211,-107.422,-46.875,197.266
1630086654.791,-1000.000,-135.254,-56.152,-1000.000
1630086654.795,-423.340,-74.707,-29.785,-623.535
1630086654.799,-868.652,16.602,11.230,793.457
1630086654.803,354.004,-18.066,3.418,568.359
1630086654.806,-1000.000,-107.422,-24.414,-787.109
1630086654.810,-876.465,-81.055,-10.254,-919.434
1630086654.814,705.078,-5.859,25.391,407.715
1630086654.818,833.496,-27.832,3.418,801.270
1630086654.822,-722.656,-98.633,-45.898,-462.891
1630086654.825,-1000.000,-102.051,-38.574,-1000.000
1630086654.829,19.531,-43.945,-19.043,-3.418
1630086654.833,-820.801,-12.695,-27.832,990.723
1630086654.837,-44.922,-44.434,-41.504,-81.055
1630086654.841,-1000.000,-43.945,-29.297,-1000.000
1630086654.845,-233.398,-1.953,-8.301,-334.473
1630086654.849,-827.148,15.137,-7.812,-975.586
1630086654.852,242.676,-56.152,-46.387,266.113
1630086654.856,-1000.000,-74.219,-28.809,-1000.000
1630086654.860,-517.090,10.742,16.113,-697.754
1630086654.864,-910.645,58.594,-0.977,737.305
1630086654.868,417.480,-1.953,-53.711,567.871
1630086654.869,-1000.000,-65.430,-68.848,-802.734
1630086654.873,-1000.000,-30.273,-41.504,-1000.000
1630086654.877,489.258,24.414,-16.602,241.699
1630086654.881,936.035,0.000,-22.949,843.750
1630086654.885,-594.727,-76.172,-34.668,-425.293
1630086654.889,-1000.000,-79.102,-28.809,-1000.000
1630086654.893,-117.676,-15.625,-7.324,-106.445
1630086654.896,-830.078,-19.531,-8.301,-991.211
1630086654.900,58.105,-91.309,-4.883,-26.855
1630086654.904,-1000.000,-122.070,7.812,-1000.000
1630086654.908,-240.723,-100.098,-4.395,-493.652
1630086654.912,-824.707,-62.012,-5.371,951.172
1630086654.915,242.188,-107.422,-42.969,351.074
1630086654.919,-1000.000,-158.203,-60.547,-1000.000
1630086654.923,-636.230,-117.676,-32.227,-831.543
1630086654.927,-981.445,-49.316,-4.883,597.656
1630086654.931,517.578,-69.336,-37.598,664.062
1630086654.935,-988.770,-114.746,-54.199,-701.172
1630086654.939,-1000.000,-103.516,-37.598,-1000.000
1630086654.942,238.770,-35.645,5.859,141.602
1630086654.946,-953.613,-20.996,12.207,895.996
1630086654.950,-424.805,-101.074,-31.250,-332.031
1630086654.954,-1000.000,-117.676,-47.852,-1000.000
1630086654.958,-210.449,-66.895,-31.738,-202.637
1630086654.959,-843.262,-58.594,-3.906,-967.285
1630086654.963,165.527,-131.348,-27.344,89.355
1630086654.967,-1000.000,-165.527,-45.898,-1000.000
1630086654.971,-336.426,-125.977,-28.809,-617.188
1630086654.975,-847.168,-90.820,-6.836,850.098
1630086654.979,243.652,-142.578,-33.203,451.172
1630086654.983,-1000.000,-182.617,-51.270,-920.410
1630086654.986,-803.223,-143.555,-19.043,-916.992
1630086654.990,830.566,-84.961,4.883,466.309
1630086654.994,623.535,-103.516,-35.156,725.098
1630086654.998,-934.570,-162.598,-64.453,-614.746
1630086655.002,-1000.000,-144.043,-45.410,-1000.000
1630086655.004,82.520,-77.637,10.742,56.152
1630086655.008,-869.629,-84.961,17.090,951.660
1630086655.012,-233.887,-135.742,-15.625,-179.688
1630086655.016,-1000.000,-135.254,-39.062,-1000.000
1630086655.020,-218.750,-95.703,-33.203,-368.652
1630086655.024,-836.426,-57.617,-18.066,991.211
1630086655.028,235.352,-103.027,-50.781,148.926
1630086655.031,-1000.000,-138.184,-72.266,-1000.000
1630086655.035,-453.125,-92.773,-58.105,-721.191
1630086655.039,-882.324,-33.691,-36.133,722.656
1630086655.043,302.734,-65.430,-56.152,519.043
1630086655.047,-1000.000,-124.512,-53.223,-850.098
1630086655.050,-940.918,-107.422,-33.203,-1000.000
1630086655.054,623.535,-24.902,-13.184,327.637
1630086655.058,771.973,-36.621,-34.180,776.855
1630086655.062,-801.270,-116.211,-67.871,-533.691
1630086655.066,-1000.000,-100.586,-63.965,-1000.000
1630086655.070,-45.898,-49.805,-52.246,-76.660
1630086655.074,-839.844,-13.184,-26.855,993.652
1630086655.077,-62.500,-62.988,-35.645,-95.703
1630086655.081,-1000.000,-110.352,-62.500,-1000.000
1630086655.085,-229.492,-59.082,-38.574,-396.484
1630086655.089,-830.566,-3.418,-21.973,984.375
1630086655.093,243.652,-48.828,-68.359,263.672
1630086655.094,-1000.000,-96.191,-76.172,-1000.000
1630086655.098,-552.734,-77.148,-49.316,-768.066
1630086655.102,-928.711,-18.555,-26.855,667.969
1630086655.106,427.734,-20.020,-27.344,618.164
1630086655.110,-1000.000,-68.359,-46.875,-741.211
1630086655.114,-1000.000,-39.551,-12.207,-1000.000
1630086655.118,455.078,36.621,14.160,273.926
1630086655.121,946.777,14.648,-24.414,846.680
1630086655.125,-576.660,-52.734,-35.156,-386.719
1630086655.129,-1000.000,-63.477,-21.484,-1000.000
1630086655.133,-151.855,-18.066,20.020,-104.492
1630086655.137,-841.309,-15.625,30.273,-988.770
1630086655.154,50.293,-100.586,-16.602,11.230
1630086655.158,-1000.000,-139.648,-42.969,-1000.000
1630086655.162,-238.281,-89.355,-20.508,-501.953
1630086655.166,-825.684,-60.059,-5.859,926.758
1630086655.170,242.188,-102.051,-21.484,388.672
1630086655.174,-1000.000,-125.977,-27.344,-920.898
1630086655.178,-650.391,-95.215,-27.344,-828.125
1630086655.181,-993.164,-44.922,0.488,557.617
1630086655.185,523.926,-77.148,0.000,674.316
1630086655.189,-985.352,-114.258,17.090,-609.375
1630086655.193,-1000.000,-98.145,27.344,-1000.000
1630086655.197,204.102,-38.574,21.484,146.484
1630086655.200,-915.527,9.277,20.020,899.902
1630086655.204,-352.539,-32.715,-1.953,-247.070
1630086655.208,-1000.000,-29.785,-9.766,-1000.000
1630086655.212,-214.844,44.922,-4.395,-197.266
1630086655.216,-836.914,81.543,-0.977,-976.074
1630086655.220,207.031,22.461,-14.160,129.395
1630086655.224,-1000.000,-26.367,-12.695,-1000.000
1630086655.227,-339.355,3.418,0.488,-568.848
1630086655.231,-843.262,63.965,28.809,857.910
1630086655.235,244.141,35.645,29.785,511.719
1630086655.239,-1000.000,-18.555,12.207,-818.848
1630086655.243,-773.926,-10.254,19.043,-869.629
1630086655.244,853.516,43.945,35.645,462.891
1630086655.248,679.688,18.066,17.090,757.812
1630086655.252,-883.301,-46.875,-3.418,-527.344
1630086655.256,-1000.000,-18.555,-4.395,-1000.000
1630086655.260,77.637,53.711,13.672,43.457
1630086655.264,-835.449,80.566,13.672,956.055
1630086655.268,-141.113,28.809,-8.789,-122.070
1630086655.271,-1000.000,10.254,-10.742,-1000.000
1630086655.275,-225.098,61.523,21.484,-276.855
1630086655.279,-830.566,69.824,22.949,-982.422
1630086655.283,242.188,-11.719,-30.273,225.098
1630086655.287,-1000.000,-40.039,-40.039,-980.469
1630086655.290,-446.289,0.977,-14.160,-637.695
1630086655.294,-877.441,49.316,11.719,757.324
1630086655.298,375.000,20.996,-17.090,572.266
1630086655.302,-1000.000,-28.809,-28.320,-740.723
1630086655.306,-931.152,-44.434,-36.621,-937.500
1630086655.310,622.070,-40.039,-43.457,323.730
1630086655.314,878.906,-76.172,-38.574,806.152
1630086655.317,-668.457,-127.441,-17.090,-372.559
1630086655.321,-1000.000,-124.512,9.277,-1000.000
1630086655.325,-33.203,-103.516,-16.113,-19.531
1630086655.329,-828.613,-102.539,-37.109,966.309
1630086655.333,-31.250,-187.988,-43.945,-77.148
1630086655.334,-1000.000,-242.188,-24.414,-1000.000
1630086655.338,-232.910,-200.195,-12.695,-353.516
1630086655.342,-827.637,-171.875,-26.367,966.309
1630086655.346,243.164,-228.516,-56.152,307.617
1630086655.350,-1000.000,-253.906,-48.828,-950.195
1630086655.354,-540.527,-213.379,-25.391,-733.887
1630086655.358,-925.781,-167.969,-28.809,656.738
1630086655.361,490.723,-175.781,-20.020,651.855
1630086655.365,-1000.000,-202.148,-8.789,-669.922
1630086655.369,-1000.000,-202.148,-44.434,-1000.000
1630086655.373,429.688,-156.738,-15.625,223.633
1630086655.377,-993.164,-163.086,-12.207,849.609
1630086655.379,-489.258,-231.445,-57.129,-366.699
1630086655.383,-1000.000,-221.680,-56.152,-1000.000
1630086655.387,-145.020,-160.645,-24.414,-143.555
1630086655.391,-828.613,-128.418,-19.043,-990.234
1630086655.395,101.562,-168.945,-51.270,35.645
1630086655.399,-1000.000,-185.547,-68.359,-1000.000
1630086655.403,-245.117,-120.117,-36.133,-461.914
1630086655.406,-821.777,-72.754,3.906,930.664
1630086655.410,241.211,-103.516,-28.809,392.578
1630086655.414,-1000.000,-140.625,-60.547,-915.039
1630086655.418,-639.648,-119.629,-44.434,-810.547
1630086655.422,-990.723,-62.012,-25.391,551.758
1630086655.427,589.844,-75.195,-55.664,701.660
1630086655.431,-947.754,-118.652,-51.270,-584.473
1630086655.435,-1000.000,-104.492,-31.250,-1000.000
1630086655.439,205.566,-47.852,-18.066,128.418
1630086655.443,-870.117,-43.945,-15.625,906.738
1630086655.447,-270.020,-111.816,-45.410,-242.676
1630086655.451,-1000.000,-106.445,-31.738,-1000.000
1630086655.454,-218.262,-44.434,0.000,-151.855
1630086655.458,-833.008,-37.109,-10.254,-990.234
1630086655.462,220.703,-91.309,-35.156,127.930
1630086655.466,-1000.000,-113.770,-41.016,-1000.000
1630086655.470,-343.262,-58.594,-34.180,-593.750
1630086655.469,-840.820,65.918,-15.625,843.750
1630086655.473,294.434,119.629,-20.508,514.160
1630086655.477,-1000.000,120.605,-35.645,-802.246
1630086655.481,-774.414,175.293,-33.203,-858.887
1630086655.485,844.727,218.262,-6.348,445.801
1630086655.489,749.023,205.078,0.000,779.297
1630086655.493,-806.641,171.387,-6.348,-446.289
1630086655.496,-1000.000,159.668,-20.020,-1000.000
1630086655.500,73.730,198.242,-12.695,41.992
1630086655.504,-835.938,200.195,-8.301,951.172
1630086655.508,-139.160,126.465,-32.227,-150.879
1630086655.512,-1000.000,103.027,-31.250,-1000.000
1630086655.529,-225.098,145.020,-25.391,-281.738
1630086655.533,-830.566,149.414,-23.926,998.535
1630086655.537,242.188,70.312,-38.574,231.445
1630086655.541,-1000.000,34.180,-35.156,-967.773
1630086655.545,-451.660,87.891,-15.137,-640.625
1630086655.549,-878.906,151.855,2.441,751.465
1630086655.553,369.629,120.605,-5.371,584.473
1630086655.556,-1000.000,80.566,-12.207,-715.332
1630086655.560,-958.984,107.422,-29.785,-937.012
1630086655.564,583.984,169.434,-6.836,314.453
1630086655.568,866.699,175.781,-1.465,808.105
1630086655.572,-685.547,97.168,-71.289,-455.566
1630086655.574,-1000.000,83.496,-71.777,-1000.000
1630086655.578,-59.570,147.461,-20.508,-55.176
1630086655.582,-833.008,159.668,-8.301,988.281
1630086655.586,-24.414,93.750,-22.461,-38.574
1630086655.590,-1000.000,65.430,-33.203,-1000.000
1630086655.594,-232.910,114.258,-35.645,-448.242
1630086655.598,-828.613,152.344,-28.320,956.543
1630086655.601,243.652,93.262,-49.316,312.988
1630086655.605,-1000.000,61.523,-49.316,-926.758
1630086655.609,-583.496,89.355,-6.836,-710.938
1630086655.613,-947.266,106.934,4.883,639.160
1630086655.617,464.844,72.754,-28.320,647.949
1630086655.619,-1000.000,21.973,-40.039,-663.086
1630086655.623,-1000.000,22.949,-31.738,-1000.000
1630086655.627,332.520,77.148,-13.672,208.496
1630086655.631,-992.676,77.637,-2.930,870.117
1630086655.635,-489.746,1.953,-16.113,-311.523
1630086655.639,-1000.000,-12.695,-15.625,-1000.000
1630086655.643,-184.570,48.340,1.953,-131.348
1630086655.646,-842.773,60.547,-15.137,-998.535
1630086655.650,95.215,27.344,-1.953,85.938
1630086655.654,-1000.000,6.348,-1.465,-1000.000
1630086655.658,-270.020,9.766,-42.969,-539.551
1630086655.662,-832.520,69.824,-34.668,880.371
1630086655.665,241.211,42.480,-35.156,422.852
1630086655.669,-1000.000,-19.043,-55.176,-909.668
1630086655.673,-720.703,0.977,-60.059,-871.582
1630086655.677,931.641,65.430,-39.551,507.812
1630086655.681,552.734,37.109,-55.664,686.523
1630086655.685,-972.656,-22.461,-75.195,-637.207
1630086655.689,-1000.000,-8.789,-69.336,-1000.000
1630086655.692,161.133,54.688,-41.504,86.426
1630086655.696,-919.922,68.359,-33.203,901.367
1630086655.700,-350.586,-22.949,-46.875,-266.113
1630086655.704,-1000.000,-44.434,-43.457,-1000.000
1630086655.708,-213.867,22.949,-34.180,-244.141
1630086655.709,-839.844,71.289,-10.742,-995.605
1630086655.713,199.707,14.648,-34.180,127.930
1630086655.717,-1000.000,-37.109,-51.758,-1000.000
1630086655.721,-376.465,7.812,-10.742,-601.074
1630086655.725,-857.910,34.668,1.953,819.824
1630086655.729,243.652,-46.387,-52.246,490.234
1630086655.733,-1000.000,-107.910,-75.195,-844.238
1630086655.736,-859.375,-70.801,-37.598,-899.902
1630086655.740,749.023,-34.668,3.906,434.570
1630086655.744,671.875,-113.770,-22.461,759.277
1630086655.748,-899.902,-193.359,-49.316,-530.273
1630086655.752,-1000.000,-182.129,-51.758,-1000.000
1630086655.754,29.785,-113.281,-29.785,-8.301
1630086655.758,-848.633,-86.914,-33.691,954.102
1630086655.762,-159.180,-145.996,-57.129,-145.996
1630086655.766,-1000.000,-168.945,-59.570,-1000.000
1630086655.770,-222.656,-112.305,-26.855,-323.242
1630086655.774,-834.473,-68.848,-9.277,989.258
1630086655.778,244.141,-96.680,-32.227,225.098
1630086655.781,-1000.000,-109.375,-20.508,-997.559
1630086655.785,-516.602,-73.242,-32.715,-740.723
1630086655.789,-911.133,-15.137,-40.527,678.711
1630086655.793,333.984,-23.926,-46.387,568.359
1630086655.797,-1000.000,-64.453,-52.246,-786.133
1630086655.799,-995.117,-59.570,-38.574,-1000.000
1630086655.803,520.020,-10.254,-18.066,261.719
1630086655.807,849.609,-14.648,-21.973,812.500
1630086655.811,-711.914,-70.801,-55.664,-474.121
1630086655.815,-1000.000,-77.148,-60.547,-1000.000
1630086655.819,-89.844,-28.320,-26.367,-105.957
1630086655.823,-839.355,27.832,0.488,-990.723
1630086655.826,-21.484,-34.668,-12.207,-16.113
1630086655.830,-1000.000,-93.750,-37.598,-1000.000
1630086655.834,-232.422,-31.738,-19.531,-466.309
1630086655.838,-829.590,28.320,11.719,947.266
1630086655.842,243.164,-25.391,-23.926,310.547
1630086655.844,-1000.000,-83.984,-53.223,-996.582
1630086655.848,-619.141,-57.617,-36.133,-815.918
1630086655.852,-967.773,-7.812,-21.973,599.609
1630086655.856,435.059,-29.785,-13.672,642.090
1630086655.860,-1000.000,-78.125,0.000,-695.312
1630086655.864,-1000.000,-63.477,33.691,-1000.000
1630086655.868,315.430,-12.207,63.965,218.262
1630086655.871,970.215,-24.902,9.766,853.027
1630086655.875,-544.434,-86.914,-7.324,-338.379
1630086655.879,-1000.000,-96.191,7.812,-1000.000
1630086655.883,-204.102,-26.855,21.973,-183.594
1630086655.887,-851.074,-2.930,22.461,-996.094
1630086655.904,96.191,-64.941,-12.207,61.523
1630086655.908,-1000.000,-57.129,-9.277,-1000.000
1630086655.912,-292.480,2.930,0.977,-503.418
1630086655.916,-840.332,33.691,5.371,891.113
1630086655.920,243.164,-25.879,-13.184,414.062
1630086655.924,-1000.000,-65.430,-11.230,-896.973
1630086655.928,-754.395,-32.715,2.441,-859.375
1630086655.931,895.020,13.672,3.906,490.723
1630086655.935,550.781,-15.625,-11.719,701.660
1630086655.939,-978.027,-43.457,-2.441,-586.914
1630086655.943,-1000.000,-14.648,-0.488,-1000.000
1630086655.947,147.461,27.344,-10.742,95.703
1630086655.950,-906.250,36.133,-24.414,916.016
1630086655.954,-326.172,-19.043,-43.945,-219.727
1630086655.958,-1000.000,-37.598,-20.020,-1000.000
1630086655.962,-215.332,-3.418,9.766,-258.301
1630086655.966,-839.844,44.922,22.461,-987.793
1630086655.970,213.867,7.812,5.371,179.688
1630086655.974,-1000.000,-52.734,-7.324,-1000.000
1630086655.977,-418.457,-33.691,-4.883,-626.465
1630086655.981,-873.535,44.434,32.227,802.734
1630086655.985,248.047,26.855,40.039,529.297
1630086655.989,-1000.000,-43.457,0.977,-800.293
1630086655.993,-885.742,-27.832,-26.855,-917.969
1630086655.994,711.426,24.414,-17.578,392.090
1630086655.998,684.570,16.602,4.395,763.672
1630086656.002,-892.090,-51.758,-17.090,-505.859
1630086656.006,-1000.000,-59.570,-7.324,-1000.000
1630086656.010,24.414,2.930,28.809,20.996
1630086656.014,-849.121,-2.441,19.043,950.684
1630086656.018,-157.227,-74.707,-12.695,-154.785
1630086656.021,-1000.000,-88.379,-22.949,-1000.000
1630086656.025,-222.656,-13.672,33.691,-299.805
1630086656.029,-834.961,36.133,70.312,-983.398
1630086656.033,244.141,-52.246,0.488,245.117
1630086656.037,-1000.000,-90.820,-35.156,-997.559
1630086656.039,-528.809,-50.781,-19.531,-709.473
1630086656.043,-916.992,-9.766,7.324,712.402
1630086656.047,335.449,-47.363,-22.461,576.660
1630086656.051,-1000.000,-105.957,-42.969,-778.809
1630086656.055,-1000.000,-80.078,-36.621,-1000.000
1630086656.059,500.977,-34.180,-25.391,251.465
1630086656.063,852.051,-68.359,-32.715,831.055
1630086656.066,-710.938,-131.836,-34.180,-393.066
1630086656.070,-1000.000,-116.699,-8.301,-1000.000
1630086656.074,-88.379,-73.242,-4.883,-68.848
1630086656.078,-842.285,-70.312,-26.855,984.863
1630086656.082,-35.645,-130.371,-25.879,-27.344
1630086656.085,-1000.000,-165.527,-22.461,-1000.000
1630086656.089,-230.957,-129.395,-33.203,-466.309
1630086656.093,-830.566,-81.543,-9.277,934.570
1630086656.097,243.652,-144.043,-24.414,368.652
1630086656.101,-1000.000,-169.434,-38.574,-936.035
1630086656.105,-622.559,-89.355,-19.043,-743.652
1630086656.109,-972.656,-30.273,-6.348,639.160
1630086656.112,499.512,-18.555,22.461,708.496
1630086656.116,-1000.000,-50.293,17.578,-574.707
1630086656.120,-1000.000,-64.941,-34.668,-1000.000
1630086656.124,281.738,-2.930,-1.953,138.672
1630086656.128,-971.191,3.906,20.996,864.258
1630086656.135,-455.566,-71.777,-7.812,-288.086
1630086656.139,-1000.000,-113.770,-23.926,-1000.000
1630086656.143,-205.078,-58.594,9.277,-174.805
1630086656.147,-847.168,-24.902,27.832,-981.445
1630086656.151,105.957,-89.844,-11.230,69.824
1630086656.155,-1000.000,-116.699,-27.832,-1000.000
1630086656.159,-287.109,-47.363,14.160,-498.535
1630086656.162,-837.891,11.230,42.480,911.621
1630086656.166,242.188,-49.805,-17.090,443.848
1630086656.170,-1000.000,-89.844,-31.738,-859.375
1630086656.174,-749.512,-56.641,-10.742,-831.055
1630086656.178,895.508,-2.930,4.883,515.137
1630086656.174,599.609,-27.832,-3.418,714.844
1630086656.178,-950.195,-83.496,-28.320,-590.332
1630086656.182,-1000.000,-59.570,-52.734,-1000.000
1630086656.186,148.926,-6.348,-27.832,126.953
1630086656.190,-885.742,-29.297,4.395,919.922
1630086656.194,-286.621,-89.355,-20.508,-271.973
1630086656.198,-1000.000,-41.992,19.531,-1000.000
1630086656.201,-216.797,37.598,82.031,-170.898
1630086656.205,-837.891,3.418,24.414,-989.746
1630086656.209,221.680,-70.312,-7.324,126.953
1630086656.213,-1000.000,-81.055,-10.254,-1000.000
1630086656.217,-420.410,-40.039,-26.367,-666.992
1630086656.219,-872.559,4.395,3.418,780.762
1630086656.223,272.461,-38.574,0.488,497.070
1630086656.227,-1000.000,-84.961,-17.090,-862.793
1630086656.231,-881.348,-63.477,-21.973,-970.215
1630086656.235,697.266,-2.930,-3.418,360.352
1630086656.239,773.438,21.973,27.344,784.668
1630086656.243,-799.316,-2.930,36.621,-457.520
1630086656.246,-1000.000,-32.715,7.812,-1000.000
1630086656.250,23.926,13.184,14.648,-5.859
1630086656.254,-837.402,65.918,30.762,984.375
1630086656.258,-116.211,14.160,1.465,-88.379
1630086656.262,-1000.000,-36.133,-29.297,-1000.000
1630086656.279,-226.074,9.277,-16.602,-367.188
1630086656.283,-832.031,72.754,6.348,991.211
1630086656.287,243.652,45.898,-0.488,267.090
1630086656.291,-1000.000,1.465,-5.859,-993.652
1630086656.295,-519.531,25.391,3.906,-713.867
1630086656.299,-912.109,84.473,27.344,706.055
1630086656.303,399.414,46.875,-5.371,601.074
1630086656.306,-1000.000,-13.184,-26.855,-732.910
1630086656.310,-1000.000,-15.625,-8.301,-999.023
1630086656.314,500.488,40.039,24.414,262.695
1630086656.318,905.762,47.363,25.879,857.910
1630086656.322,-638.672,-23.926,-16.113,-362.305
1630086656.325,-1000.000,-27.832,-23.926,-1000.000
1630086656.329,-95.215,26.367,7.812,-68.848
1630086656.333,-836.426,33.691,13.184,-1000.000
1630086656.337,-4.883,-44.434,-17.090,-24.902
1630086656.341,-1000.000,-78.613,-21.973,-1000.000
1630086656.345,-233.887,-28.809,-25.879,-439.453
1630086656.349,-828.613,12.695,-35.645,950.684
1630086656.352,243.164,-39.062,-41.992,364.258
1630086656.356,-1000.000,-78.125,-23.438,-914.551
1630086656.360,-620.117,-37.109,3.906,-761.230
1630086656.364,-971.680,11.719,18.555,592.773
1630086656.368,512.695,-9.277,9.277,690.918
1630086656.370,-995.605,-49.805,8.301,-593.750
1630086656.374,-1000.000,-36.133,11.230,-1000.000
1630086656.378,276.855,31.250,1.953,153.809
1630086656.382,-960.449,31.738,-6.348,887.207
1630086656.386,-438.965,-55.176,-13.672,-291.504
1630086656.390,-1000.000,-93.750,1.953,-1000.000
1630086656.394,-207.520,-47.363,28.809,-147.461
1630086656.397,-844.727,-31.250,9.277,-979.980
1630086656.401,132.324,-105.469,2.930,109.863
1630086656.405,-1000.000,-163.574,0.000,-1000.000
1630086656.409,-303.711,-146.973,-14.648,-524.902
1630086656.413,-839.844,-118.652,-4.395,887.207
1630086656.415,243.164,-167.969,-29.785,452.148
1630086656.419,-1000.000,-193.848,-38.574,-872.559
1630086656.423,-758.301,-151.855,-36.621,-864.746
1630086656.427,882.324,-96.191,-0.977,487.793
1630086656.431,625.488,-119.141,0.488,747.559
1630086656.435,-934.570,-176.270,-32.227,-541.504
1630086656.439,-1000.000,-166.992,-32.715,-1000.000
1630086656.442,135.742,-116.699,-7.812,73.242
1630086656.446,-866.699,-112.305,2.930,930.664
1630086656.450,-248.047,-183.594,-31.250,-208.008
1630086656.454,-1000.000,-204.590,-47.363,-1000.000
1630086656.458,-218.750,-146.973,-21.973,-287.109
1630086656.459,-835.449,-104.492,-14.160,-990.234
1630086656.463,234.375,-151.367,-41.504,181.641
1630086656.467,-1000.000,-173.828,-51.758,-1000.000
1630086656.471,-420.410,-124.512,-40.527,-600.586
1630086656.475,-869.141,-66.406,4.883,801.758
1630086656.479,310.547,-100.586,-7.324,551.758
1630086656.483,-1000.000,-165.527,-56.152,-776.367
1630086656.486,-878.906,-126.465,-38.574,-888.672
1630086656.490,711.426,-56.641,-4.883,410.645
1630086656.494,773.438,-76.172,-44.434,784.668
1630086656.498,-791.504,-129.883,-74.707,-481.445
1630086656.502,-1000.000,-146.484,-54.199,-1000.000
1630086656.505,-8.789,-97.656,-10.742,-15.625
1630086656.509,-838.867,-54.199,-6.836,983.398
1630086656.513,-93.750,-110.352,-43.945,-74.707
1630086656.517,-1000.000,-132.812,-41.504,-1000.000
1630086656.521,-231.445,-78.125,-17.578,-365.234
1630086656.525,-816.895,-57.129,9.766,989.258
1630086656.529,207.031,-116.699,1.465,302.246
1630086656.532,-1000.000,-127.441,-5.371,-896.973
1630086656.536,-357.910,-76.172,-1.465,-632.324
1630086656.540,-939.941,-25.879,6.836,676.758
1630086656.544,412.109,-57.617,-7.324,625.977
1630086656.548,-1000.000,-109.375,-24.414,-683.594
1630086656.550,-1000.000,-91.797,-21.484,-979.980
1630086656.554,480.469,-35.645,2.930,263.672
1630086656.558,917.969,-27.344,-11.230,845.215
1630086656.562,-618.652,-56.641,-32.227,-348.145
1630086656.566,-1000.000,-46.387,-29.785,-1000.000
1630086656.570,-144.043,40.527,-7.324,-113.281
1630086656.574,-838.867,132.812,31.738,-990.234
1630086656.577,55.176,114.258,16.602,64.941
1630086656.581,-1000.000,82.520,-26.855,-1000.000
1630086656.585,-239.258,115.723,-23.438,-468.750
1630086656.589,-825.684,160.156,2.930,928.711
1630086656.593,242.188,95.215,-2.441,405.762
1630086656.598,-1000.000,48.828,-6.348,-851.562
1630086656.602,-640.137,95.703,-3.418,-769.043
1630086656.606,-982.910,150.879,9.766,562.012
1630086656.610,500.000,125.977,-16.113,672.852
1630086656.614,-999.023,57.617,-47.852,-682.129
1630086656.618,-1000.000,89.355,-29.785,-1000.000
1630086656.622,249.512,157.715,-6.348,192.871
1630086656.625,-976.074,117.676,-51.758,879.395
1630086656.629,-461.914,51.270,-75.195,-315.430
1630086656.633,-1000.000,50.781,-56.641,-1000.000
1630086656.637,-205.566,111.328,-33.203,-225.098
1630086656.641,-848.145,135.254,-30.273,-989.746
1630086656.654,115.234,68.359,-58.105,73.730
1630086656.658,-1000.000,42.480,-49.316,-1000.000
1630086656.662,-321.777,83.008,-24.414,-574.707
1630086656.666,-848.633,114.258,-22.949,859.863
1630086656.670,244.141,53.223,-43.457,460.449
1630086656.674,-1000.000,20.020,-22.461,-834.961
1630086656.678,-791.504,46.875,-3.418,-842.285
1630086656.681,846.191,66.895,-7.812,460.938
1630086656.685,613.281,38.574,-35.156,742.676
1630086656.689,-938.477,-12.207,-47.852,-536.621
1630086656.693,-1000.000,-4.395,-46.387,-1000.000
1630086656.697,87.402,38.574,-48.340,68.359
1630086656.700,-887.207,32.715,-35.645,917.969
1630086656.704,-269.531,-16.113,-32.227,-185.547
1630086656.708,-1000.000,-32.227,-37.598,-1000.000
1630086656.712,-216.797,-3.906,-35.156,-311.035
1630086656.716,-838.379,26.855,-15.137,-988.770
1630086656.720,227.539,-23.438,-40.039,198.730
1630086656.724,-1000.000,-46.387,-39.551,-1000.000
1630086656.727,-451.172,-5.859,-20.508,-632.324
1630086656.731,-882.812,38.574,-14.160,774.902
1630086656.735,289.551,11.230,-14.648,559.082
1630086656.739,-1000.000,-46.387,-43.945,-783.691
1630086656.743,-951.172,-26.855,-40.039,-959.961
1630086656.744,613.281,31.250,-7.812,352.539
1630086656.748,743.652,1.953,-45.410,791.992
1630086656.752,-831.543,-52.734,-86.914,-479.492
1630086656.756,-1000.000,-45.410,-76.172,-1000.000
1630086656.760,-51.270,1.953,-44.434,-39.551
1630086656.764,-852.051,34.668,-32.227,971.191
1630086656.768,-109.863,-19.043,-53.711,-77.148
1630086656.771,-1000.000,-62.012,-58.105,-1000.000
1630086656.775,-224.609,-2.930,-32.715,-352.051
1630086656.779,-833.984,48.340,-22.949,997.070
1630086656.783,244.629,-28.809,-51.758,274.902
1630086656.787,-1000.000,-74.219,-61.523,-1000.000
1630086656.790,-565.430,-18.555,-41.016,-743.164
1630086656.794,-935.059,29.297,-25.391,675.293
1630086656.798,395.508,-34.668,-52.246,617.188
1630086656.802,-1000.000,-103.516,-66.895,-719.238
1630086656.806,-1000.000,-86.914,-47.363,-1000.000
1630086656.810,394.531,-27.344,-23.438,248.535
1630086656.814,914.551,-26.855,-44.434,862.305
1630086656.817,-620.117,-78.613,-65.430,-323.730
1630086656.821,-1000.000,-87.402,-48.340,-1000.000
1630086656.825,-134.277,-37.598,-24.902,-94.727
1630086656.829,-958.984,-5.371,-5.371,929.688
1630086656.833,-166.016,-64.941,-28.809,-93.262
1630086656.836,-1000.000,-101.074,-46.387,-1000.000
1630086656.840,-231.445,-68.359,-33.203,-479.492
1630086656.844,-833.984,-34.668,-17.090,916.504
1630086656.848,242.188,-73.730,-38.086,406.250
1630086656.852,-1000.000,-97.168,-42.480,-909.668
1630086656.856,-653.809,-58.594,-26.855,-804.199
1630086656.860,-996.094,-3.418,-5.371,574.707
1630086656.863,516.113,-31.738,-0.488,703.125
1630086656.867,-986.328,-80.566,-11.719,-583.496
1630086656.871,-1000.000,-73.730,-26.367,-1000.000
1630086656.875,205.566,-29.785,-6.836,128.906
1630086656.879,-960.938,-23.438,-0.977,909.180
1630086656.879,-430.664,-88.867,-27.344,-251.465
1630086656.883,-1000.000,-110.352,-41.016,-1000.000
1630086656.887,-208.008,-62.012,-23.438,-197.266
1630086656.891,-845.703,-37.109,4.883,-976.074
1630086656.895,142.578,-92.773,-20.996,105.957
1630086656.899,-1000.000,-106.934,-32.227,-1000.000
1630086656.903,-335.449,-47.363,-1.465,-508.789
1630086656.906,-849.609,-7.812,25.879,878.906
1630086656.910,243.164,-55.664,-6.348,470.215
1630086656.914,-1000.000,-99.121,-41.992,-842.773
1630086656.918,-817.383,-69.336,-34.180,-856.445
1630086656.922,811.523,-11.230,-9.766,462.891
1630086656.925,632.812,-24.414,-23.926,758.301
1630086656.929,-929.688,-73.730,-48.340,-522.461
1630086656.933,-1000.000,-58.105,-46.875,-1000.000
1630086656.937,65.918,-2.441,-24.902,82.520
1630086656.941,-859.375,5.859,5.859,953.613
1630086656.945,-202.637,-71.289,-4.395,-142.090
1630086656.949,-1000.000,-84.473,-13.672,-1000.000
1630086656.952,-220.703,-23.926,4.883,-241.699
1630086656.956,-834.473,-5.371,-5.859,-990.723
1630086656.960,242.676,-71.289,-39.062,215.332
1630086656.964,-1000.000,-116.699,-30.273,-979.492
1630086656.968,-455.566,-70.312,-6.836,-633.789
1630086656.970,-881.836,12.207,4.395,766.602
1630086656.974,308.594,-0.977,-16.113,556.152
1630086656.978,-1000.000,-49.805,-30.273,-757.812
1630086656.982,-944.824,-39.062,-25.879,-916.016
1630086656.986,609.375,-0.488,-13.672,348.633
1630086656.990,802.246,-19.043,-15.625,824.707
1630086656.994,-764.160,-88.379,-23.926,-419.922
1630086656.997,-1000.000,-86.914,-17.578,-1000.000
1630086657.001,-55.176,-28.809,1.953,-41.992
1630086657.005,-848.633,-27.344,-8.789,983.887
1630086657.009,-92.285,-86.914,-28.320,-36.133
1630086657.013,-1000.000,-87.402,-28.320,-1000.000
1630086657.029,-226.074,-29.297,-19.531,-385.254
1630086657.033,-832.520,6.836,-11.719,970.215
1630086657.037,244.141,-42.480,-29.297,317.383
1630086657.041,-1000.000,-71.289,-25.391,-925.781
1630086657.045,-562.500,-29.297,-17.090,-707.520
1630086657.049,-933.105,24.414,-11.230,668.945
1630086657.053,420.410,-3.906,-43.457,622.559
1630086657.056,-1000.000,-78.125,-69.824,-724.121
1630086657.060,-1000.000,-76.660,-66.406,-1000.000
1630086657.064,373.047,8.301,-18.066,226.562
1630086657.068,954.102,9.277,-8.789,864.746
1630086657.072,-570.801,-62.012,-66.406,-343.750
1630086657.074,-1000.000,-46.387,-66.406,-1000.000
1630086657.078,-164.551,12.695,-16.602,-94.238
1630086657.082,-841.309,31.738,-9.766,-985.352
1630086657.086,70.801,-21.973,-44.922,41.504
1630086657.090,-1000.000,-53.223,-50.781,-1000.000
1630086657.094,-240.234,-3.906,-28.809,-464.844
1630086657.098,-824.707,39.062,-28.320,919.922
1630086657.101,242.188,-11.230,-51.270,417.480
1630086657.105,-1000.000,-46.387,-38.574,-863.281
1630086657.109,-638.672,-10.742,-14.160,-764.160
1630086657.113,-986.328,46.875,-4.883,570.312
1630086657.117,553.711,29.785,-26.855,708.984
1630086657.120,-968.262,-23.926,-41.504,-548.340
1630086657.124,-1000.000,-27.344,-39.062,-993.164
1630086657.128,208.008,17.090,-30.273,145.508
1630086657.132,-894.043,28.320,-36.133,909.180
1630086657.136,-315.918,-26.855,-40.527,-214.844
1630086657.140,-1000.000,-44.434,-29.297,-1000.000
1630086657.144,-216.309,10.742,-16.602,-206.543
1630086657.147,-835.449,41.504,-19.043,-983.887
1630086657.151,211.426,-14.160,-18.555,169.434
1630086657.155,-1000.000,-51.758,-19.531,-976.074
1630086657.159,-340.332,-17.578,-24.414,-546.875
1630086657.163,-842.773,38.086,-8.789,843.750
1630086657.165,241.699,-2.930,-32.715,498.047
1630086657.169,-1000.000,-64.453,-54.199,-834.961
1630086657.173,-801.758,-35.645,-49.805,-891.113
1630086657.177,821.777,26.855,-36.621,441.406
1630086657.181,674.805,2.441,-47.852,752.441
1630086657.185,-891.602,-55.176,-55.664,-517.578
1630086657.189,-1000.000,-38.574,-52.734,-1000.000
1630086657.192,67.871,13.184,-35.156,45.410
1630086657.196,-839.844,14.648,-20.996,954.590
1630086657.200,-149.414,-41.504,-32.715,-122.559
1630086657.204,-1000.000,-57.129,-35.645,-1000.000
1630086657.208,-224.121,-13.184,-17.578,-305.176
1630086657.209,-831.543,16.602,-10.254,991.211
1630086657.213,242.188,-34.180,-37.598,234.375
1630086657.217,-1000.000,-70.312,-41.992,-981.445
1630086657.221,-452.148,-29.297,-18.555,-652.832
1630086657.225,-879.883,14.648,-3.906,755.859
1630086657.229,342.773,-33.203,-35.156,576.660
1630086657.233,-1000.000,-79.102,-57.129,-737.793
1630086657.236,-942.383,-52.246,-21.484,-932.129
1630086657.240,601.562,-5.371,19.531,333.984
1630086657.244,861.328,-15.137,8.789,816.895
1630086657.248,-692.383,-77.148,-12.207,-427.246
1630086657.252,-1000.000,-81.055,-21.973,-1000.000
1630086657.254,-48.340,-38.574,-11.230,-44.434
1630086657.258,-834.473,-33.203,-2.441,979.492
1630086657.262,-41.016,-84.473,-12.207,-63.477
1630086657.266,-1000.000,-103.516,-8.789,-1000.000
1630086657.270,-231.445,-48.828,4.395,-440.918
1630086657.274,-829.102,1.953,22.461,951.172
1630086657.278,243.652,-67.871,2.441,333.496
1630086657.281,-1000.000,-127.441,-13.184,-943.359
1630086657.285,-562.500,-80.566,1.465,-759.277
1630086657.289,-935.059,-23.926,14.648,630.371
1630086657.293,458.496,-56.641,-10.254,633.301
1630086657.297,-1000.000,-110.840,-31.250,-694.336
1630086657.301,-1000.000,-95.703,-20.508,-1000.000
1630086657.305,378.418,-51.758,-6.348,215.332
1630086657.309,-991.211,-34.180,-6.836,875.000
1630086657.313,-486.816,-87.891,-27.832,-337.891
1630086657.317,-1000.000,-108.398,-38.086,-1000.000
1630086657.321,-171.875,-43.945,-29.785,-178.711
1630086657.325,-835.938,-5.371,-20.996,-987.793
1630086657.328,104.492,-65.430,-19.531,65.430
1630086657.332,-1000.000,-107.910,-23.438,-1000.000
1630086657.336,-244.141,-72.754,-22.461,-542.969
1630086657.340,-822.266,-29.297,-13.184,879.395
1630086657.344,240.723,-65.918,-34.668,395.508
1630086657.344,-1000.000,-107.910,-54.688,-918.945
1630086657.348,-663.086,-75.195,-20.020,-832.520
1630086657.352,989.258,-24.414,12.207,541.016
1630086657.356,585.938,-52.246,-7.812,705.566
1630086657.360,-952.637,-109.375,-21.484,-610.840
1630086657.364,-1000.000,-84.961,-13.672,-1000.000
1630086657.368,199.219,-19.531,25.391,146.484
1630086657.371,-881.836,-31.250,23.926,916.504
1630086657.375,-290.527,-87.891,-12.695,-237.305
1630086657.379,-1000.000,-87.891,-13.672,-1000.000
1630086657.383,-216.309,-30.762,5.859,-231.934
1630086657.387,-834.961,-11.719,11.230,-982.910
1630086657.404,211.914,-80.566,-22.949,144.531
1630086657.408,-1000.000,-96.680,-32.715,-1000.000
1630086657.412,-348.145,-36.133,0.000,-556.152
1630086657.416,-844.727,9.277,12.695,847.656
1630086657.420,240.234,-52.246,-31.250,476.562
1630086657.424,-1000.000,-91.797,-48.340,-823.242
1630086657.428,-833.496,-70.312,-30.273,-887.207
1630086657.431,776.855,-56.152,-13.184,414.551
1630086657.435,693.848,-105.469,-26.855,758.301
1630086657.439,-874.512,-158.691,-18.066,-494.629
1630086657.443,-1000.000,-136.719,-9.277,-1000.000
1630086657.447,42.969,-103.516,-14.160,10.742
1630086657.450,-844.238,-90.332,-10.742,948.242
1630086657.454,-151.855,-145.508,-30.273,-154.297
1630086657.458,-1000.000,-174.805,-33.203,-1000.000
1630086657.462,-223.633,-112.793,-23.926,-336.426
1630086657.466,-833.496,-63.965,-29.785,987.305
1630086657.470,243.652,-108.398,-41.992,271.484
1630086657.474,-1000.000,-148.438,-33.203,-942.871
1630086657.477,-498.535,-126.465,-21.484,-656.250
1630086657.481,-901.855,-67.871,1.465,729.492
1630086657.485,349.121,-76.172,-0.977,602.539
1630086657.489,-1000.000,-131.836,-31.250,-723.145
1630086657.493,-980.469,-128.418,-34.668,-959.473
1630086657.495,548.340,-52.246,-8.301,310.059
1630086657.499,848.633,-44.434,-27.344,818.848
1630086657.503,-710.449,-118.652,-57.129,-394.043
1630086657.507,-1000.000,-135.742,-41.016,-1000.000
1630086657.511,-76.172,-85.449,-31.250,-71.777
1630086657.515,-837.891,-54.688,-34.180,991.211
1630086657.519,-28.320,-95.215,-41.992,-17.090
1630086657.522,-1000.000,-118.164,-55.176,-1000.000
1630086657.526,-231.934,-58.594,-18.555,-365.723
1630086657.530,-829.102,-4.395,-6.836,992.188
1630086657.534,243.652,-69.824,-56.152,339.355
1630086657.538,-1000.000,-110.840,-44.434,-916.016
1630086657.540,-593.750,-85.938,-17.578,-743.164
1630086657.544,-955.566,-43.945,-10.742,634.277
1630086657.548,476.074,-77.637,-45.410,661.621
1630086657.552,-1000.000,-119.141,-39.062,-666.016
1630086657.556,-1000.000,-84.961,-16.113,-924.805
1630086657.560,428.223,-20.020,-7.324,304.688
1630086657.564,-996.094,0.488,-11.230,877.930
1630086657.567,-477.051,-50.781,-8.789,-267.090
1630086657.571,-1000.000,-52.734,-3.906,-1000.000
1630086657.575,-186.523,-13.672,-16.113,-112.305
1630086657.579,-841.309,11.719,-7.812,-974.609
1630086657.583,100.098,-30.273,-31.250,108.398
1630086657.584,-1000.000,-62.988,-39.062,-1000.000
1630086657.588,-259.766,-30.762,-20.996,-491.211
1630086657.592,-828.613,-5.371,-14.160,900.879
1630086657.596,240.723,-57.129,-45.898,451.172
1630086657.600,-1000.000,-114.258,-68.848,-861.328
1630086657.604,-700.684,-77.637,-56.152,-802.734
1630086657.608,948.242,-9.766,-30.762,535.645
1630086657.611,599.609,-9.277,17.090,747.070
1630086657.615,-943.848,-35.645,26.367,-508.789
1630086657.619,-1000.000,-46.875,-9.277,-1000.000
1630086657.623,171.387,-5.371,12.207,116.211
1630086657.627,-895.996,-9.766,22.461,914.551
1630086657.629,-309.082,-82.031,-21.973,-233.398
1630086657.633,-1000.000,-87.891,-42.480,-1000.000
1630086657.637,-215.332,-28.320,-24.902,-279.785
1630086657.641,-838.379,14.648,-26.855,-996.582
1630086657.645,207.031,-45.410,-57.129,131.836
1630086657.649,-1000.000,-100.098,-75.684,-1000.000
1630086657.653,-386.719,-45.410,-59.082,-601.562
1630086657.656,-861.328,20.996,13.184,838.867
1630086657.660,248.535,-26.855,8.301,514.648
1630086657.664,-1000.000,-80.566,-22.949,-831.055
1630086657.668,-858.398,-54.199,-17.090,-936.035
1630086657.672,739.258,11.230,-14.648,387.207
1630086657.674,715.820,-7.324,-51.758,781.738
1630086657.678,-856.934,-81.055,-65.918,-477.539
1630086657.682,-1000.000,-92.285,-45.410,-1000.000
1630086657.686,34.180,-38.086,-14.160,-20.996
1630086657.690,-844.238,-18.555,-7.812,958.008
1630086657.694,-146.484,-85.449,-37.109,-120.117
1630086657.698,-1000.000,-68.359,4.395,-1000.000
1630086657.701,-223.633,-5.371,39.551,-242.188
1630086657.705,-833.496,-20.020,-15.137,992.676
1630086657.709,244.141,-67.383,-44.922,242.676
1630086657.713,-1000.000,-89.355,-32.715,-969.238
1630086657.717,-517.578,-80.078,-40.527,-695.312
1630086657.719,-911.621,-41.992,-34.668,700.684
1630086657.723,347.656,-59.570,-29.785,596.191
1630086657.727,-1000.000,-100.586,-29.297,-707.031
1630086657.731,-990.723,-78.125,-21.973,-955.566
1630086657.735,521.973,-29.785,-19.043,281.738
1630086657.739,874.023,-23.438,-11.719,840.820
1630086657.743,-679.688,-64.453,-4.883,-339.844
1630086657.746,-1000.000,-94.238,-37.109,-1000.000
1630086657.750,-88.867,-53.223,-33.203,-111.816
1630086657.754,-842.285,-28.320,-26.855,993.164
1630086657.758,-35.156,-81.543,-58.594,-41.992
1630086657.762,-1000.000,-105.957,-62.012,-1000.000
1630086657.779,-230.957,-57.129,-29.785,-437.988
1630086657.783,-831.055,10.254,8.789,952.637
1630086657.787,243.652,-31.250,-9.277,355.469
1630086657.791,-1000.000,-102.539,-49.316,-927.734
1630086657.795,-625.000,-79.590,-71.777,-790.527
1630086657.799,-972.656,-22.461,-53.223,580.566
1630086657.803,459.473,-42.480,-37.598,674.805
1630086657.806,-1000.000,-110.840,-39.551,-657.227
1630086657.810,-1000.000,-109.863,-21.973,-1000.000
1630086657.814,300.781,9.277,65.430,210.449
1630086657.818,975.098,22.461,60.059,876.465
1630086657.822,-537.109,-103.027,-31.738,-328.125
1630086657.825,-1000.000,-110.840,-33.203,-1000.000
1630086657.829,-202.637,-41.992,-20.020,-177.734
1630086657.833,-852.539,-31.250,-46.387,-996.094
1630086657.837,82.520,-97.168,-100.098,36.621
1630086657.841,-1000.000,-97.656,-64.941,-1000.000
1630086657.845,-287.109,-33.203,-4.883,-509.766
1630086657.849,-840.332,2.441,-0.977,881.348
1630086657.852,242.676,-56.152,-38.574,421.875
1630086657.856,-1000.000,-75.684,-26.367,-859.375
1630086657.860,-758.789,-25.879,4.883,-803.711
1630086657.864,890.137,-7.812,-33.691,491.699
1630086657.868,559.570,-38.086,-60.059,712.402
1630086657.869,-970.215,-94.727,-53.711,-584.473
1630086657.873,-1000.000,-97.656,-48.340,-1000.000
1630086657.877,128.906,-49.316,-37.598,72.754
1630086657.881,-909.668,-42.480,-33.691,920.898
1630086657.885,-326.172,-89.355,-48.340,-211.914
1630086657.889,-1000.000,-93.262,-41.504,-1000.000
1630086657.893,-214.844,-42.969,-22.461,-277.344
1630086657.896,-840.332,-18.066,-19.531,-989.746
1630086657.900,210.449,-65.430,3.906,210.449
1630086657.904,-1000.000,-88.379,20.020,-958.984
1630086657.908,-424.805,-68.359,-14.160,-625.488
1630086657.912,-876.953,-31.738,-10.254,778.809
1630086657.915,248.535,-63.965,-18.066,501.953
1630086657.919,-1000.000,-111.328,-40.527,-857.422
1630086657.923,-895.508,-91.797,-32.227,-966.797
1630086657.927,702.148,-31.738,-3.906,368.652
1630086657.931,670.410,-43.457,-20.508,759.277
1630086657.935,-900.879,-100.586,-47.363,-526.367
1630086657.939,-1000.000,-111.328,-36.621,-1000.000
1630086657.942,-15.137,-52.246,15.137,-34.668
1630086657.946,-857.422,-6.348,48.340,955.078
1630086657.950,-156.738,-69.824,-1.465,-125.977
1630086657.954,-1000.000,-91.309,-34.668,-1000.000
1630086657.958,-221.680,-40.039,-16.602,-407.227
1630086657.960,-835.449,-6.836,10.254,959.961
1630086657.964,244.629,-69.824,-7.812,230.957
1630086657.968,-1000.000,-98.145,-20.020,-1000.000
1630086657.972,-536.133,-52.246,-18.555,-757.812
1630086657.976,-920.898,-3.418,-24.902,669.434
1630086657.980,342.773,-32.715,-36.621,577.148
1630086657.984,-1000.000,-82.520,-39.062,-773.926
1630086657.987,-1000.000,-55.664,-17.090,-974.609
1630086657.991,508.301,-8.301,8.789,303.711
1630086657.995,809.082,-22.461,-17.090,804.199
1630086657.999,-757.812,-62.988,-36.621,-451.660
1630086658.003,-1000.000,-67.871,-38.574,-1000.000
1630086658.005,-133.789,-13.672,-26.367,-115.234
1630086658.009,-856.445,6.836,-27.832,974.609
1630086658.013,-38.086,-51.758,-45.898,-44.922
1630086658.017,-1000.000,-56.152,-31.250,-1000.000
1630086658.021,-229.004,0.977,-13.672,-442.871
1630086658.025,-831.543,36.621,-5.371,925.293
1630086658.029,243.652,-7.324,-12.695,365.234
1630086658.032,-1000.000,-50.293,-19.043,-897.949
1630086658.036,-635.254,-36.621,-38.086,-798.340
1630086658.040,-978.516,20.996,-41.504,565.430
1630086658.044,463.867,11.230,-38.574,667.480
1630086658.048,-1000.000,-39.551,-37.598,-628.418
1630086658.050,-1000.000,-34.668,-36.621,-1000.000
1630086658.054,273.438,12.207,-20.996,171.387
1630086658.058,-984.375,21.484,-16.602,877.930
1630086658.062,-477.539,-25.879,-25.391,-277.344
1630086658.066,-1000.000,-51.758,-27.832,-1000.000
1630086658.070,-205.566,-10.254,-20.508,-183.594
1630086658.074,-849.121,23.926,0.488,-986.816
1630086658.077,111.328,-29.785,3.906,125.000
1630086658.081,-1000.000,-74.707,-29.297,-1000.000
1630086658.085,-313.965,-31.738,-38.574,-569.824
1630086658.089,-846.680,10.254,-14.648,852.051
1630086658.093,245.605,-45.410,-28.320,456.055
1630086658.095,-1000.000,-84.961,-44.434,-840.820
1630086658.099,-757.812,-36.133,-23.926,-821.289
1630086658.103,888.184,45.410,-10.254,502.930
1630086658.107,575.195,31.250,-31.738,698.730
1630086658.111,-961.426,-21.484,-29.785,-578.613
1630086658.115,-1000.000,-23.438,-28.809,-1000.000
1630086658.119,126.465,22.949,-26.855,60.059
1630086658.122,-897.949,33.691,-53.711,909.668
1630086658.126,-303.711,0.000,-84.961,-238.281
1630086658.130,-1000.000,25.391,-63.477,-1000.000
1630086658.134,-215.820,95.703,-37.598,-288.086
1630086658.138,-839.355,125.488,-31.250,981.934
1630086658.154,215.332,67.871,-46.875,171.387
1630086658.158,-1000.000,38.086,-50.781,-1000.000
1630086658.162,-426.758,83.008,-28.809,-642.578
1630086658.166,-876.465,129.395,-4.883,773.438
1630086658.170,269.531,92.773,-20.996,523.438
1630086658.174,-1000.000,44.434,-20.508,-782.715
1630086658.178,-889.648,56.641,-2.441,-900.391
1630086658.181,699.219,99.121,0.977,383.789
1630086658.185,729.004,73.242,-15.137,768.066
1630086658.189,-842.773,29.297,-3.906,-436.035
1630086658.193,-1000.000,30.762,3.906,-1000.000
1630086658.197,-10.254,67.871,-2.930,2.441
1630086658.199,-848.633,83.008,3.906,951.660
1630086658.203,-129.883,14.648,-16.113,-126.465
1630086658.207,-1000.000,-7.812,-23.926,-1000.000
1630086658.211,-224.121,48.340,-1.465,-356.445
1630086658.215,-833.984,80.566,19.043,962.891
1630086658.219,244.141,24.414,-6.348,301.758
1630086658.223,-1000.000,-17.578,-15.137,-919.434
1630086658.226,-541.016,-5.371,-7.812,-706.055
1630086658.230,-922.852,38.574,13.184,663.086
1630086658.234,390.625,29.785,28.809,624.023
1630086658.238,-1000.000,-16.113,-0.488,-692.383
1630086658.242,-1000.000,-13.672,-13.184,-977.539
1630086658.244,485.352,43.945,6.348,268.555
1630086658.248,896.973,37.598,-5.859,839.355
1630086658.252,-648.926,-40.527,-17.578,-363.281
1630086658.256,-1000.000,-50.293,-0.977,-1000.000
1630086658.260,-118.652,3.418,8.789,-71.289
1630086658.264,-843.262,24.902,5.371,995.605
1630086658.268,-6.348,-35.156,-20.508,13.672
1630086658.271,-1000.000,-76.660,-30.762,-1000.000
1630086658.275,-232.910,-19.531,10.742,-424.805
1630086658.279,-829.102,30.273,36.621,946.777
1630086658.283,243.164,-40.039,-2.441,361.328
1630086658.287,-1000.000,-82.520,-18.066,-882.324
1630086658.293,-637.695,-58.594,-16.113,-773.438
1630086658.297,-981.445,-8.301,-13.672,564.453
1630086658.301,493.164,-22.949,-36.621,667.969
1630086658.305,-1000.000,-78.125,-41.504,-613.281
1630086658.309,-1000.000,-69.336,-27.832,-987.305
1630086658.313,267.578,-5.371,-13.184,182.617
1630086658.317,-978.516,0.977,-41.504,878.906
1630086658.320,-466.797,-53.223,-65.918,-274.902
1630086658.324,-1000.000,-59.570,-24.414,-1000.000
1630086658.328,-207.520,-36.133,-17.578,-182.617
1630086658.332,-845.703,-22.949,-20.020,997.070
1630086658.336,129.395,-72.266,-56.641,109.375
1630086658.335,-1000.000,-85.938,-81.055,-1000.000
1630086658.339,-303.223,-28.809,-49.316,-500.977
1630086658.343,-840.332,4.883,-34.668,869.141
1630086658.347,242.676,-50.293,-33.691,462.402
1630086658.351,-1000.000,-85.449,-19.531,-811.035
1630086658.355,-764.160,-54.688,-11.719,-845.215
1630086658.359,875.977,-5.859,-6.836,453.613
1630086658.362,629.883,-26.855,-13.672,758.789
1630086658.366,-927.734,-81.055,-13.184,-479.980
1630086658.370,-1000.000,-77.148,-22.949,-1000.000
1630086658.374,114.258,-19.531,-18.555,74.219
1630086658.378,-880.371,-3.418,-27.832,911.133
1630086658.379,-265.137,-62.500,-41.992,-177.734
1630086658.383,-1000.000,-86.426,-32.715,-1000.000
1630086658.387,-217.285,-45.410,-20.020,-264.648
1630086658.391,-836.426,-7.324,-1.465,993.164
1630086658.395,227.539,-56.152,-26.367,175.781
1630086658.399,-1000.000,-69.824,-40.527,-982.910
1630086658.403,-424.316,-16.113,-0.977,-573.242
1630086658.406,-872.070,18.555,41.016,791.504
1630086658.410,292.969,-29.297,-3.418,554.199
1630086658.414,-1000.000,-82.031,-43.945,-729.004
1630086658.418,-896.484,-65.430,-9.277,-891.113
1630086658.422,685.059,-12.695,21.973,371.582
1630086658.425,770.996,-14.648,-0.977,780.273
1630086658.429,-798.828,-73.242,-15.625,-449.707
1630086658.433,-1000.000,-79.102,-6.836,-1000.000
1630086658.437,-5.859,-19.531,1.465,43.457
1630086658.441,-842.773,3.906,-6.836,955.078
1630086658.445,-111.816,-44.922,-26.855,-77.148
1630086658.449,-1000.000,-29.785,-6.836,-991.699
1630086658.452,-225.586,21.484,16.602,-291.016
1630086658.456,-832.520,31.738,-5.859,963.379
1630086658.460,244.141,-17.090,-25.879,309.570
1630086658.464,-1000.000,-50.293,-32.227,-905.273
1630086658.468,-540.039,-23.438,-41.504,-709.961
1630086658.471,-922.363,22.949,-40.527,655.273
1630086658.475,418.457,-4.395,-33.203,623.535
1630086658.479,-1000.000,-59.082,-32.227,-651.855
1630086658.483,-1000.000,-52.734,-43.945,-941.406
1630086658.487,453.125,-6.348,-38.574,252.930
1630086658.491,937.500,23.438,-31.738,855.469
1630086658.495,-591.797,-18.066,-24.414,-291.504
1630086658.498,-1000.000,-48.828,-42.480,-1000.000
1630086658.502,-140.137,6.348,-35.156,-129.395
1630086658.506,-841.797,29.297,-18.555,999.023
1630086658.510,32.715,-119.141,-38.574,59.570
1630086658.514,-1000.000,-239.746,-42.480,-991.699
1630086658.529,-236.328,-228.027,-34.668,-436.523
1630086658.533,-826.660,-217.773,-27.344,913.574
1630086658.537,242.676,-262.695,-44.922,370.605
1630086658.541,-1000.000,-291.504,-58.594,-899.414
1630086658.545,-628.418,-268.066,-30.762,-764.648
1630086658.549,-976.562,-194.824,15.137,570.312
1630086658.553,517.578,-195.312,8.301,693.848
1630086658.556,-986.328,-275.879,-31.250,-583.008
1630086658.560,-1000.000,-263.672,-34.180,-1000.000
1630086658.564,237.793,-178.223,-0.977,164.551
1630086658.568,-962.402,-164.551,-5.859,887.207
1630086658.572,-438.965,-216.309,-46.387,-260.742
1630086658.574,-1000.000,-210.449,-41.504,-1000.000
1630086658.578,-211.914,-150.391,-13.184,-184.570
1630086658.582,-840.820,-118.652,-3.906,-986.328
1630086658.586,184.570,-184.082,-42.480,147.461
1630086658.590,-1000.000,-211.914,-55.664,-979.004
1630086658.594,-322.266,-157.227,-25.391,-527.344
1630086658.598,-840.332,-110.840,-11.230,847.656
1630086658.601,242.676,-162.598,-55.176,458.496
1630086658.605,-1000.000,-204.102,-50.781,-801.758
1630086658.609,-770.508,-147.461,17.578,-786.133
1630086658.613,869.141,-113.281,12.695,466.309
1630086658.617,627.441,-134.766,-20.996,732.422
1630086658.619,-931.641,-166.504,-26.855,-515.625
1630086658.623,-1000.000,-157.227,-21.484,-1000.000
1630086658.627,108.398,-112.305,-22.461,71.289
1630086658.631,-862.305,-104.980,-27.344,926.758
1630086658.635,-228.027,-153.320,-34.668,-152.344
1630086658.639,-1000.000,-147.461,-32.227,-1000.000
1630086658.643,-219.727,-94.238,-6.836,-270.020
1630086658.646,-835.449,-82.031,-11.719,971.680
1630086658.650,235.840,-116.211,2.930,231.445
1630086658.654,-1000.000,-133.301,14.648,-921.875
1630086658.658,-441.406,-113.281,-25.391,-635.742
1630086658.662,-877.441,-57.129,-6.836,734.863
1630086658.665,310.547,-61.523,25.391,574.707
1630086658.669,-1000.000,-113.281,4.395,-746.582
1630086658.673,-918.457,-108.398,-16.113,-945.312
1630086658.677,659.668,-48.828,6.348,326.172
1630086658.681,770.996,-43.945,10.254,790.527
1630086658.685,-797.363,-98.633,-20.508,-442.383
1630086658.689,-1000.000,-105.957,-35.156,-1000.000
1630086658.692,-37.109,-43.457,1.953,-91.309
1630086658.696,-848.145,-10.254,34.180,949.707
1630086658.700,-105.469,-74.219,-8.301,-135.742
1630086658.704,-1000.000,-91.797,-24.902,-1000.000
1630086658.708,-225.098,-29.297,6.348,-448.730
1630086658.710,-833.008,14.648,18.555,906.738
1630086658.714,244.141,-27.832,-14.160,252.930
1630086658.718,-1000.000,-73.730,-22.949,-1000.000
1630086658.722,-550.293,-50.293,13.672,-832.520
1630086658.726,-926.270,9.277,23.438,564.941
1630086658.730,400.879,-11.719,2.441,568.359
1630086658.734,-1000.000,-35.156,7.324,-783.203
1630086658.737,-1000.000,0.488,24.902,-1000.000
1630086658.741,406.250,12.695,7.812,177.734
1630086658.745,907.715,-26.855,-43.945,801.758
1630086658.749,-632.812,-93.262,-40.527,-450.684
1630086658.753,-1000.000,-79.102,-2.441,-1000.000
1630086658.754,-165.039,-16.113,16.602,-251.465
1630086658.758,-854.004,-15.137,7.324,919.434
1630086658.762,6.836,-67.871,-3.418,-35.156
1630086658.766,-1000.000,-92.285,-16.113,-1000.000
1630086658.770,-232.422,-54.688,-3.906,-554.199
1630086658.774,-829.102,-23.926,-0.488,856.934
1630086658.778,242.188,-67.383,-27.344,367.188
1630086658.781,-1000.000,-76.660,0.488,-859.863
1630086658.785,-667.969,-57.617,0.488,-755.371
1630086658.789,991.211,-27.344,-8.789,536.133
1630086658.793,507.812,-57.129,-15.625,688.477
1630086658.797,-992.676,-125.000,-32.227,-602.051
1630086658.799,-1000.000,-120.117,-21.973,-1000.000
1630086658.803,210.938,-60.547,-2.930,151.855
1630086658.807,-975.098,-52.734,-4.883,901.855
1630086658.811,-453.125,-113.281,-25.391,-230.957
1630086658.815,-1000.000,-123.047,-26.367,-1000.000
1630086658.819,-208.984,-94.238,-20.996,-166.016
1630086658.823,-846.191,-47.363,12.695,-982.910
1630086658.826,152.832,-62.500,27.344,207.031
1630086658.830,-1000.000,-115.723,-21.484,-922.363
1630086658.834,-350.098,-80.566,-33.203,-522.461
1630086658.838,-853.516,-20.508,-10.254,838.867
1630086658.842,243.652,-70.312,-32.715,498.535
1630086658.844,-1000.000,-120.605,-40.527,-755.859
1630086658.848,-834.473,-99.121,-28.320,-810.547
1630086658.852,790.039,-50.781,-4.883,452.148
1630086658.856,624.512,-64.453,-7.812,759.766
1630086658.860,-938.965,-126.953,-47.852,-461.426
1630086658.864,-1000.000,-97.656,-33.691,-966.797
1630086658.868,93.262,-13.184,21.484,125.977
1630086658.871,-886.230,-40.527,-8.301,940.430
1630086658.875,-270.020,-113.281,-44.922,-148.926
1630086658.879,-1000.000,-113.770,-44.922,-1000.000
1630086658.883,-216.797,-68.848,-34.668,-251.465
1630086658.887,-838.867,-47.852,-22.949,997.559
1630086658.904,229.004,-105.957,-42.969,237.793
1630086658.908,-1000.000,-109.375,-26.855,-905.273
1630086658.912,-469.727,-50.781,-7.324,-568.848
1630086658.916,-891.602,-26.367,-35.156,760.254
1630086658.920,295.410,-68.848,-59.082,562.012
1630086658.924,-1000.000,-113.770,-47.363,-688.965
1630086658.928,-958.008,-98.633,-27.344,-850.098
1630086658.931,594.727,-43.945,-3.906,359.375
1630086658.935,772.461,-53.223,-24.414,794.922
1630086658.939,-800.293,-63.477,-3.418,-331.543
1630086658.943,-1000.000,-52.246,19.531,-954.590
1630086658.947,-66.406,-53.711,-23.438,-41.016
1630086658.951,-849.609,-22.949,-22.949,974.121
1630086658.955,-83.496,-64.941,-29.785,8.789
1630086658.959,-1000.000,-99.609,-40.039,-992.676
1630086658.963,-226.562,-67.383,-34.180,-358.398
1630086658.967,-832.520,-24.414,-27.344,958.008
1630086658.971,244.141,-58.105,-35.645,375.488
1630086658.975,-1000.000,-98.145,-46.387,-854.492
1630086658.978,-581.543,-69.336,-51.270,-708.008
1630086658.982,-944.824,-7.812,-31.738,636.230
1630086658.986,411.133,-24.414,-25.879,642.090
1630086658.990,-1000.000,-69.336,-45.898,-608.398
1630086658.994,-1000.000,-61.035,-41.504,-908.691
1630086658.994,371.094,-36.621,-30.273,244.141
1630086658.998,915.527,-46.387,-38.574,847.168
1630086659.002,-624.512,-94.727,-51.758,-291.504
1630086659.006,-1000.000,-80.566,-42.480,-1000.000
1630086659.010,-172.363,-22.461,-10.254,-93.750
1630086659.014,-848.145,0.977,-8.789,986.328
1630086659.018,51.758,-46.875,-33.691,70.801
1630086659.021,-1000.000,-83.984,-45.410,-966.797
1630086659.025,-237.305,-21.484,-22.461,-418.945
