timestamps,TP9,AF7,AF8,TP10
1630087767.297,-155.273,-28.320,-81.055,-226.562
1630087767.301,-813.965,-11.719,-62.988,-825.195
1630087767.305,214.844,-41.016,-64.941,236.328
1630087767.309,-1000.000,-65.430,-92.773,-1000.000
1630087767.313,-304.688,-37.598,-80.078,-502.441
1630087767.317,-825.684,-7.812,-61.523,-916.016
1630087767.321,318.848,-27.344,-62.988,469.727
1630087767.324,-1000.000,-80.566,-87.402,-1000.000
1630087767.328,-721.680,-66.895,-88.379,-987.793
1630087767.332,886.230,-20.996,-76.172,500.000
1630087767.336,761.230,-31.738,-79.102,959.961
1630087767.340,-789.551,-61.523,-83.008,-526.855
1630087767.342,-1000.000,-62.988,-94.727,-1000.000
1630087767.346,161.621,-35.156,-79.590,-81.543
1630087767.350,-822.754,-14.648,-62.500,-824.707
1630087767.354,-100.098,-57.129,-74.219,73.730
1630087767.358,-1000.000,-77.148,-82.520,-1000.000
1630087767.362,-213.867,-37.598,-86.426,-260.254
1630087767.366,-820.312,-16.113,-75.684,-825.195
1630087767.369,236.328,-48.828,-75.684,250.488
1630087767.373,-1000.000,-73.242,-98.145,-1000.000
1630087767.377,-404.297,-44.922,-83.496,-634.766
1630087767.381,-864.258,-10.742,-75.195,978.516
1630087767.385,421.875,-20.996,-77.148,591.797
1630087767.387,-1000.000,-52.246,-81.055,-938.477
1630087767.391,-896.484,-51.758,-83.984,-1000.000
1630087767.395,630.371,-13.672,-76.660,254.395
1630087767.399,974.609,-5.371,-55.664,-891.113
1630087767.403,-528.809,-48.828,-62.012,-258.789
1630087767.407,-1000.000,-54.199,-82.520,-1000.000
1630087767.411,17.578,-23.926,-80.078,-162.598
1630087767.414,-805.176,-20.508,-69.336,-821.289
1630087767.418,49.316,-50.781,-61.035,174.805
1630087767.422,-1000.000,-60.547,-62.500,-1000.000
1630087767.426,-244.141,-35.645,-65.918,-354.980
1630087767.430,-820.312,-19.043,-61.523,-851.562
1630087767.433,240.234,-51.270,-50.781,331.543
1630087767.437,-1000.000,-74.219,-66.895,-1000.000
1630087767.441,-515.625,-52.734,-91.309,-757.324
1630087767.445,-922.852,-26.855,-78.125,834.961
1630087767.449,538.086,-23.438,-61.523,760.742
1630087767.453,-1000.000,-41.992,-81.055,-776.367
1630087767.457,-1000.000,-50.293,-94.727,-1000.000
1630087767.460,456.055,-23.926,-76.660,142.090
1630087767.464,-915.527,-0.488,-43.945,-845.215
1630087767.468,-347.656,-46.387,-68.359,-120.605
1630087767.472,-1000.000,-63.965,-95.703,-1000.000
1630087767.476,-105.469,-31.738,-63.965,-211.914
1630087767.477,-809.082,-30.762,-43.945,-820.312
1630087767.481,173.828,-58.105,-69.824,223.145
1630087767.485,-1000.000,-59.082,-88.379,-1000.000
1630087767.489,-260.742,-21.973,-71.777,-386.230
1630087767.493,-813.965,-5.371,-73.242,-863.281
1630087767.497,304.688,-39.062,-80.078,459.473
1630087767.501,-1000.000,-71.289,-89.355,-1000.000
1630087767.504,-612.305,-52.734,-84.961,-873.047
1630087767.508,-986.328,-20.508,-71.777,703.613
1630087767.512,643.555,-37.109,-61.523,863.281
1630087767.516,-897.949,-72.754,-86.426,-645.996
1630087767.520,-1000.000,-75.684,-101.562,-1000.000
1630087767.523,239.746,-49.805,-72.754,-19.043
1630087767.527,-843.262,-40.527,-64.941,-826.172
1630087767.531,-180.664,-61.035,-78.125,20.508
1630087767.535,-1000.000,-69.336,-87.402,-1000.000
1630087767.539,-198.730,-47.363,-78.613,-242.188
1630087767.543,-820.801,-18.555,-59.570,-821.777
1630087767.547,229.492,-32.715,-52.246,246.094
1630087767.550,-1000.000,-62.500,-70.312,-1000.000
1630087767.554,-351.074,-59.082,-75.195,-544.922
1630087767.558,-842.285,-33.691,-61.523,-948.242
1630087767.562,370.605,-40.039,-62.500,534.180
1630087767.566,-1000.000,-80.566,-83.008,-996.582
1630087767.567,-761.719,-73.242,-91.309,-1000.000
1630087767.571,812.988,-37.598,-76.172,428.223
1630087767.575,881.348,-29.297,-61.523,-936.523
1630087767.579,-643.066,-55.176,-80.566,-359.863
1630087767.583,-1000.000,-71.777,-87.891,-1000.000
1630087767.587,114.258,-45.410,-78.125,-113.770
1630087767.591,-801.270,-5.859,-49.316,-814.453
1630087767.594,13.672,-10.742,-39.551,160.645
1630087767.598,-1000.000,-64.941,-80.566,-1000.000
1630087767.602,-235.352,-63.965,-88.867,-301.758
1630087767.606,-816.406,-35.156,-68.848,-830.078
1630087767.610,236.816,-49.805,-75.195,273.438
1630087767.612,-1000.000,-77.148,-104.004,-1000.000
1630087767.616,-420.410,-56.152,-103.027,-638.672
1630087767.620,-873.535,-24.902,-80.078,961.426
1630087767.624,478.027,-33.691,-69.824,664.062
1630087767.628,-1000.000,-60.547,-99.121,-887.207
1630087767.632,-874.512,-58.105,-109.375,-1000.000
1630087767.636,666.992,-29.297,-82.031,316.406
1630087767.639,988.281,-39.551,-76.660,-882.812
1630087767.643,-482.422,-69.824,-100.098,-238.770
1630087767.647,-1000.000,-50.781,-109.375,-1000.000
1630087767.651,-46.387,-13.672,-75.684,-191.895
1630087767.655,-808.594,-16.602,-67.871,-824.707
1630087767.671,102.051,-50.293,-94.727,195.312
1630087767.675,-1000.000,-70.312,-101.074,-1000.000
1630087767.679,-249.023,-41.992,-88.867,-357.910
1630087767.683,-817.383,-23.926,-87.891,-850.586
1630087767.687,239.258,-51.758,-97.168,363.281
1630087767.691,-1000.000,-62.500,-95.703,-1000.000
1630087767.695,-526.855,-36.133,-87.891,-769.043
1630087767.698,-938.477,-12.695,-82.031,815.430
1630087767.702,608.398,-27.832,-77.148,811.523
1630087767.706,-977.539,-52.734,-92.285,-728.516
1630087767.710,-969.238,-38.574,-96.680,-1000.000
1630087767.714,515.137,-20.996,-84.473,169.434
1630087767.717,-896.484,-29.297,-75.684,-829.102
1630087767.721,-287.598,-56.152,-95.215,-85.449
1630087767.725,-1000.000,-55.664,-93.262,-1000.000
1630087767.729,-125.488,-20.020,-83.008,-218.750
1630087767.733,-809.570,-8.789,-77.637,-822.266
1630087767.737,200.684,-45.410,-76.172,233.887
1630087767.741,-1000.000,-59.082,-89.844,-1000.000
1630087767.744,-302.734,-51.758,-84.473,-478.516
1630087767.748,-826.172,-25.879,-65.430,-903.809
1630087767.752,300.781,-10.254,-53.223,451.172
1630087767.756,-1000.000,-49.805,-94.727,-1000.000
1630087767.760,-668.945,-36.621,-101.562,-919.922
1630087767.763,922.363,-3.418,-72.266,577.148
1630087767.767,796.875,-26.367,-66.406,-1000.000
1630087767.771,-758.301,-57.129,-87.402,-464.844
1630087767.775,-1000.000,-62.012,-96.191,-1000.000
1630087767.779,251.465,-36.621,-72.754,-28.320
1630087767.783,-814.453,-21.484,-67.383,-810.059
1630087767.787,-80.566,-61.523,-80.078,91.797
1630087767.790,-1000.000,-94.727,-95.703,-1000.000
1630087767.794,-225.098,-59.570,-80.566,-264.648
1630087767.798,-822.266,-27.832,-52.246,-823.730
1630087767.802,238.281,-62.500,-73.730,254.395
1630087767.806,-1000.000,-95.703,-97.656,-1000.000
1630087767.807,-418.457,-76.172,-93.750,-619.629
1630087767.811,-872.070,-40.527,-68.359,987.793
1630087767.815,447.754,-43.945,-70.801,621.094
1630087767.819,-1000.000,-77.637,-100.586,-939.941
1630087767.823,-814.941,-73.242,-91.309,-1000.000
1630087767.827,765.137,-41.504,-78.125,404.785
1630087767.831,909.180,-43.945,-82.520,-933.105
1630087767.834,-601.562,-83.984,-88.867,-349.121
1630087767.838,-1000.000,-79.102,-83.008,-1000.000
1630087767.842,42.480,-34.180,-69.336,-148.926
1630087767.846,-803.711,-23.438,-66.406,-820.312
1630087767.850,44.922,-57.617,-76.660,171.387
1630087767.852,-1000.000,-72.754,-86.914,-1000.000
1630087767.856,-240.723,-47.363,-79.102,-306.641
1630087767.860,-817.383,-33.691,-68.359,-831.543
1630087767.864,238.770,-56.152,-64.941,322.266
1630087767.868,-1000.000,-104.980,-77.148,-1000.000
1630087767.872,-465.820,-84.473,-62.988,-682.617
1630087767.876,-898.438,-15.137,-54.688,906.738
1630087767.879,544.922,-2.930,-47.363,767.578
1630087767.883,-996.582,-14.160,-34.668,-754.395
1630087767.887,-1000.000,-44.922,-55.664,-1000.000
1630087767.891,482.910,-43.945,-60.059,186.035
1630087767.895,-951.660,-41.504,-56.152,-861.328
1630087767.896,-411.133,-72.266,-78.613,-187.500
1630087767.900,-1000.000,-79.590,-88.379,-1000.000
1630087767.904,-77.148,-49.805,-64.941,-200.684
1630087767.908,-806.152,-26.855,-61.035,-823.242
1630087767.912,155.273,-53.711,-68.848,214.844
1630087767.916,-1000.000,-101.074,-74.219,-1000.000
1630087767.920,-256.348,-75.195,-70.312,-391.113
1630087767.923,-814.941,-5.371,-49.316,-863.281
1630087767.927,254.395,-24.414,-60.059,384.766
1630087767.931,-1000.000,-68.359,-89.355,-1000.000
1630087767.935,-580.078,-48.340,-78.613,-824.707
1630087767.939,-971.191,-8.789,-56.152,742.676
1630087767.942,649.902,-27.344,-60.059,860.840
1630087767.946,-920.898,-61.035,-88.379,-665.527
1630087767.950,-1000.000,-51.758,-90.332,-1000.000
1630087767.954,371.582,-20.508,-80.566,82.031
1630087767.958,-846.191,-18.066,-73.242,-813.477
1630087767.962,-182.617,-51.758,-76.172,10.742
1630087767.966,-1000.000,-51.758,-75.195,-1000.000
1630087767.969,-193.359,-41.992,-60.059,-239.746
1630087767.973,-817.871,-37.598,-64.453,-819.824
1630087767.977,217.773,-34.180,-70.801,234.863
1630087767.981,-1000.000,-49.805,-71.777,-1000.000
1630087767.985,-307.129,-41.504,-79.102,-482.910
1630087768.002,-826.660,-22.461,-79.102,-905.762
1630087768.006,324.707,-25.879,-65.430,471.191
1630087768.010,-1000.000,-48.340,-76.172,-1000.000
1630087768.014,-748.535,-52.734,-86.426,-988.281
1630087768.018,823.730,-37.109,-73.242,456.055
1630087768.022,868.164,-23.926,-59.082,-940.430
1630087768.026,-657.715,-53.711,-73.242,-365.234
1630087768.029,-1000.000,-66.406,-85.938,-1000.000
1630087768.033,121.094,-38.086,-76.660,-102.539
1630087768.037,-815.430,-23.926,-66.406,-820.312
1630087768.041,-74.219,-46.875,-80.078,94.727
1630087768.045,-1000.000,-69.824,-95.703,-1000.000
1630087768.047,-211.914,-27.832,-81.543,-258.301
1630087768.051,-817.871,-5.371,-69.824,-821.777
1630087768.055,235.352,-37.598,-77.637,264.160
1630087768.059,-1000.000,-71.289,-87.891,-1000.000
1630087768.063,-389.160,-53.711,-81.055,-597.168
1630087768.067,-857.422,-24.902,-66.895,-996.582
1630087768.071,439.453,-42.969,-62.988,625.488
1630087768.074,-1000.000,-63.965,-74.707,-893.555
1630087768.078,-943.359,-70.801,-81.055,-1000.000
1630087768.082,583.496,-47.852,-72.754,252.930
1630087768.086,969.238,-20.020,-57.129,-905.273
1630087768.090,-553.711,-53.711,-68.359,-295.410
1630087768.092,-1000.000,-65.918,-87.891,-1000.000
1630087768.096,35.156,-30.762,-81.055,-155.762
1630087768.100,-802.246,-23.438,-68.359,-819.336
1630087768.104,61.035,-57.129,-80.078,176.758
1630087768.108,-1000.000,-69.824,-84.473,-1000.000
1630087768.112,-225.098,-35.156,-73.730,-296.387
1630087768.116,-875.977,-24.902,-66.895,-891.113
1630087768.119,152.344,-54.688,-72.266,216.309
1630087768.123,-1000.000,-76.172,-92.773,-1000.000
1630087768.127,-543.945,-66.895,-89.355,-780.762
1630087768.131,-938.965,-31.250,-61.523,817.383
1630087768.135,536.621,-38.574,-63.965,725.098
1630087768.137,-1000.000,-66.895,-97.168,-823.730
1630087768.141,-1000.000,-63.477,-95.703,-1000.000
1630087768.145,440.918,-38.086,-74.219,142.090
1630087768.149,-924.316,-26.855,-67.383,-855.957
1630087768.153,-372.559,-62.500,-86.426,-159.668
1630087768.157,-1000.000,-78.125,-82.031,-1000.000
1630087768.161,-74.707,-35.156,-63.965,-199.707
1630087768.164,-802.246,-14.160,-67.871,-822.266
1630087768.168,186.035,-64.453,-85.449,227.539
1630087768.172,-1000.000,-87.402,-90.820,-1000.000
1630087768.176,-290.527,-47.852,-71.777,-450.684
1630087768.180,-822.754,-20.508,-57.617,-888.672
1630087768.182,282.715,-29.297,-63.965,420.410
1630087768.186,-1000.000,-61.523,-82.031,-1000.000
1630087768.190,-659.668,-62.988,-86.914,-909.180
1630087768.194,960.938,-26.367,-89.355,635.742
1630087768.198,683.594,-26.367,-90.820,880.859
1630087768.202,-873.047,-71.289,-95.703,-632.324
1630087768.206,-1000.000,-67.383,-97.168,-1000.000
1630087768.209,229.980,-30.273,-81.543,-33.691
1630087768.213,-846.680,-31.250,-72.754,-836.914
1630087768.217,-193.359,-59.082,-86.914,-20.020
1630087768.221,-1000.000,-53.711,-86.914,-1000.000
1630087768.225,-197.266,-27.344,-74.219,-235.840
1630087768.228,-819.824,-28.320,-62.500,-823.730
1630087768.232,232.422,-56.641,-62.012,245.117
1630087768.236,-1000.000,-72.754,-86.914,-1000.000
1630087768.240,-332.031,-39.551,-85.938,-505.859
1630087768.244,-834.473,-18.066,-62.012,-925.293
1630087768.248,391.113,-51.758,-64.941,552.246
1630087768.252,-1000.000,-70.312,-83.008,-975.586
1630087768.255,-763.184,-65.918,-71.777,-1000.000
1630087768.259,844.727,-33.203,-60.059,458.008
1630087768.263,810.059,-10.254,-64.453,996.582
1630087768.267,-732.910,-58.594,-76.660,-469.727
1630087768.271,-1000.000,-67.383,-69.824,-1000.000
1630087768.272,120.605,-41.992,-56.152,-108.398
1630087768.276,-808.594,-46.875,-72.266,-820.801
1630087768.280,-25.391,-56.641,-82.520,125.977
1630087768.284,-1000.000,-45.410,-79.102,-1000.000
1630087768.288,-229.004,-11.230,-58.594,-274.902
1630087768.292,-821.289,-18.066,-57.129,-824.707
1630087768.296,239.258,-70.312,-68.359,276.855
1630087768.299,-1000.000,-72.266,-74.707,-1000.000
1630087768.303,-483.398,-52.246,-84.961,-714.355
1630087768.307,-901.367,-29.785,-71.777,898.926
1630087768.311,489.746,-23.926,-52.734,664.062
1630087768.315,-1000.000,-31.738,-73.242,-873.535
1630087768.317,-980.957,-46.875,-82.031,-1000.000
1630087768.321,507.812,-35.645,-74.219,181.641
1630087768.325,-979.980,5.371,-70.801,-885.254
1630087768.329,-462.402,-56.641,-85.449,-240.723
1630087768.333,-1000.000,-70.801,-91.309,-1000.000
1630087768.337,-52.734,6.348,-88.379,-193.359
1630087768.341,-804.199,-4.883,-64.453,-825.195
1630087768.344,137.695,-33.691,-57.617,205.078
1630087768.348,-1000.000,-18.555,-68.848,-1000.000
1630087768.352,-253.906,-0.488,-73.730,-380.371
1630087768.356,-815.430,6.836,-67.383,-858.887
1630087768.360,239.258,-34.180,-54.199,335.449
1630087768.361,-1000.000,-63.477,-80.078,-1000.000
1630087768.365,-558.594,-49.316,-75.195,-814.941
1630087768.369,-959.961,-18.555,-55.176,750.000
1630087768.373,636.719,12.695,-59.082,838.379
1630087768.377,-928.223,-14.648,-71.289,-694.336
1630087768.381,-1000.000,-38.086,-79.590,-1000.000
1630087768.385,401.855,-19.531,-72.754,100.098
1630087768.388,-890.625,-52.734,-71.289,-837.891
1630087768.392,-326.172,-119.629,-66.406,-132.324
1630087768.396,-1000.000,-92.285,-86.914,-1000.000
1630087768.400,-61.523,19.531,-66.406,-136.230
1630087768.404,-829.102,-30.273,-40.039,-838.379
1630087768.408,195.801,0.000,-75.195,230.469
1630087768.412,-1000.000,74.219,-66.406,-1000.000
1630087768.416,-327.148,50.293,-53.223,-503.418
1630087768.420,-836.914,42.480,-45.410,-916.504
1630087768.424,285.645,0.977,-41.992,432.129
1630087768.428,-1000.000,-44.434,-67.871,-1000.000
1630087768.432,-658.691,6.348,-69.336,-889.648
1630087768.435,964.844,48.828,-63.965,657.715
1630087768.439,663.574,16.602,-64.941,880.371
1630087768.443,-873.535,5.371,-91.797,-622.559
1630087768.447,-1000.000,4.883,-86.426,-1000.000
1630087768.451,140.625,32.715,-47.852,-71.289
1630087768.467,-833.984,71.777,-28.809,-827.637
1630087768.471,-128.906,76.660,-39.551,51.270
1630087768.475,-1000.000,0.000,-67.871,-1000.000
1630087768.479,-220.215,46.875,-76.172,-253.906
1630087768.483,-825.195,178.223,-52.246,-824.707
1630087768.487,238.770,159.668,-25.391,258.301
1630087768.491,-1000.000,125.000,-28.809,-1000.000
1630087768.494,-413.086,128.418,-23.926,-586.914
1630087768.498,-866.699,119.629,-25.391,-979.492
1630087768.502,392.578,85.449,-36.133,583.008
1630087768.506,-1000.000,103.516,-48.340,-958.008
1630087768.510,-875.000,128.418,-46.875,-1000.000
1630087768.512,685.547,136.719,-38.574,378.418
1630087768.516,893.066,135.742,-28.320,-927.734
1630087768.520,-643.555,125.000,-39.551,-348.633
1630087768.524,-1000.000,160.156,-41.016,-1000.000
1630087768.528,41.016,201.172,-31.738,-128.418
1630087768.532,-804.688,197.266,-30.273,-812.012
1630087768.536,49.805,157.715,-28.809,190.918
1630087768.539,-1000.000,53.223,-48.340,-1000.000
1630087768.543,-245.117,39.551,-78.613,-288.086
1630087768.547,-818.848,147.461,-87.891,-821.289
1630087768.551,239.746,160.156,-31.250,324.707
1630087768.555,-1000.000,93.262,-27.344,-1000.000
1630087768.557,-487.305,132.324,-45.898,-656.250
1630087768.561,-908.691,155.273,-20.996,925.781
1630087768.565,545.410,123.535,-10.742,796.387
1630087768.569,-1000.000,124.512,-36.133,-748.535
1630087768.573,-939.941,55.176,-50.293,-1000.000
1630087768.577,568.359,-21.973,-31.738,295.898
1630087768.581,-943.848,84.473,-55.664,-830.078
1630087768.584,-371.582,155.762,-70.801,-105.469
1630087768.588,-1000.000,84.961,-37.109,-1000.000
1630087768.592,-127.441,20.508,-26.855,-205.078
1630087768.596,-814.453,88.867,8.789,-815.918
1630087768.600,166.504,68.359,-0.977,225.098
1630087768.601,-1000.000,36.133,-59.570,-1000.000
1630087768.605,-256.348,128.418,-54.199,-374.512
1630087768.609,-812.988,142.090,-23.926,-855.469
1630087768.613,255.859,55.176,-8.301,418.945
1630087768.617,-1000.000,-44.922,-26.855,-1000.000
1630087768.621,-530.762,49.805,-53.711,-720.703
1630087768.625,-932.617,160.645,-21.484,873.535
1630087768.628,587.402,47.363,-39.062,831.055
1630087768.632,-946.289,-49.316,-112.793,-677.246
1630087768.636,-1000.000,8.789,-73.730,-1000.000
1630087768.640,311.035,105.957,-4.883,94.238
1630087768.644,-851.074,153.320,16.113,-805.664
1630087768.646,-203.613,86.426,0.488,27.832
1630087768.650,-1000.000,33.203,-22.949,-1000.000
1630087768.654,-179.688,48.340,-24.414,-237.305
1630087768.658,-816.406,77.148,-9.766,-815.430
1630087768.662,209.961,-10.254,-35.156,237.305
1630087768.666,-1000.000,-1.953,-64.453,-1000.000
1630087768.670,-297.852,133.789,-46.387,-431.152
1630087768.673,-824.219,106.934,-54.199,-880.859
1630087768.677,310.547,54.688,-34.180,477.539
1630087768.681,-1000.000,52.734,-42.969,-1000.000
1630087768.685,-750.488,70.312,-57.617,-959.961
1630087768.689,845.703,111.816,-26.367,534.180
1630087768.692,795.410,84.961,-20.996,-990.234
1630087768.696,-755.371,44.922,-44.434,-453.613
1630087768.700,-1000.000,55.176,-58.105,-1000.000
1630087768.704,148.438,120.117,-51.758,-55.664
1630087768.708,-822.266,61.035,-38.086,-812.500
1630087768.712,-90.332,6.836,-55.176,99.609
1630087768.716,-1000.000,46.387,-79.102,-1000.000
1630087768.719,-223.145,73.730,-70.801,-265.137
1630087768.723,-823.242,160.156,-29.297,-822.754
1630087768.727,238.281,139.160,-20.020,280.273
1630087768.731,-1000.000,56.641,-52.246,-1000.000
1630087768.735,-427.246,25.391,-64.941,-620.117
1630087768.736,-875.977,82.031,-50.293,985.840
1630087768.740,462.891,110.840,-30.762,653.809
1630087768.744,-1000.000,59.082,-27.344,-889.648
1630087768.748,-897.461,59.570,-52.734,-1000.000
1630087768.752,632.812,57.617,-50.781,303.223
1630087768.756,990.723,11.230,-27.832,-874.512
1630087768.760,-500.000,14.648,-80.566,-233.887
1630087768.763,-1000.000,57.129,-83.008,-1000.000
1630087768.767,16.113,96.680,-26.367,-165.527
1630087768.771,-803.711,83.008,-30.762,-818.848
1630087768.775,55.176,11.719,-41.992,176.270
1630087768.779,-1000.000,-47.363,-55.664,-1000.000
1630087768.797,-245.117,12.207,-61.035,-325.684
1630087768.801,-819.336,58.594,-30.273,-839.355
1630087768.805,239.746,33.691,-7.812,356.445
1630087768.809,-1000.000,26.367,4.395,-1000.000
1630087768.813,-498.535,24.902,7.324,-726.074
1630087768.817,-915.527,5.371,-8.789,874.023
1630087768.821,566.406,-0.488,-19.531,776.367
1630087768.824,-967.773,-36.621,-29.297,-739.746
1630087768.828,-1000.000,-167.969,-52.734,-1000.000
1630087768.832,366.211,-74.707,-84.473,92.285
1630087768.836,-888.672,150.879,-47.363,-841.309
1630087768.840,-307.617,97.168,-7.812,-105.469
1630087768.841,-1000.000,-1.465,-19.043,-1000.000
1630087768.845,-82.031,-5.371,-9.766,-210.938
1630087768.849,-802.246,20.996,-13.672,-820.801
1630087768.853,167.480,15.625,-24.902,219.238
1630087768.857,-1000.000,-2.441,-34.180,-1000.000
1630087768.861,-258.301,-51.270,-55.664,-404.785
1630087768.865,-814.453,-47.363,-59.570,-867.188
1630087768.868,257.812,9.277,-48.340,379.883
1630087768.872,-1000.000,6.836,-51.270,-1000.000
1630087768.876,-639.648,8.301,-34.668,-904.785
1630087768.880,973.633,19.531,-20.020,632.812
1630087768.884,669.434,15.137,-29.785,884.277
1630087768.887,-886.719,-99.609,-66.895,-636.719
1630087768.891,-1000.000,-189.453,-101.562,-1000.000
1630087768.895,240.234,-30.762,-89.355,-16.113
1630087768.899,-829.102,121.094,-32.715,-816.895
1630087768.903,-138.672,67.383,-17.578,47.852
1630087768.907,-1000.000,-13.672,-30.762,-1000.000
1630087768.911,-186.523,-8.301,-35.645,-242.188
1630087768.914,-814.453,-1.465,-39.551,-819.336
1630087768.918,223.145,-20.996,-47.852,239.746
1630087768.922,-1000.000,-40.527,-61.523,-1000.000
1630087768.926,-336.426,6.348,-52.246,-526.855
1630087768.930,-836.914,-7.812,-40.039,-930.176
1630087768.932,337.891,-143.555,-55.176,487.305
1630087768.936,-1000.000,-107.422,-102.539,-1000.000
1630087768.940,-689.941,92.285,-48.340,-986.816
1630087768.944,909.180,90.820,10.254,486.816
1630087768.948,780.762,-10.254,-28.809,-997.559
1630087768.952,-732.422,-92.773,-50.293,-449.219
1630087768.956,-1000.000,-96.191,-56.152,-1000.000
1630087768.959,41.016,19.531,-64.941,-152.832
1630087768.963,-820.312,83.008,-21.484,-830.078
1630087768.967,-35.645,14.160,-9.766,126.953
1630087768.971,-1000.000,-31.250,-38.086,-1000.000
1630087768.975,-224.609,-18.066,-35.156,-280.273
1630087768.977,-821.289,-27.344,-32.227,-827.637
1630087768.981,238.770,-31.738,-42.480,262.695
1630087768.985,-1000.000,-66.406,-59.082,-1000.000
1630087768.989,-462.891,-91.309,-68.359,-691.895
1630087768.993,-895.020,21.973,-11.719,903.320
1630087768.997,505.371,29.785,16.602,719.238
1630087769.001,-1000.000,-20.996,-25.879,-832.031
1630087769.004,-920.410,-12.207,-19.531,-1000.000
1630087769.008,616.699,-19.043,-30.762,255.859
1630087769.012,979.980,-7.812,-50.781,-886.719
1630087769.016,-500.977,-9.277,-70.312,-246.582
1630087769.020,-1000.000,-12.695,-36.621,-1000.000
1630087769.022,-79.590,-20.020,8.789,-205.566
1630087769.026,-817.383,-14.160,-4.395,-829.102
1630087769.030,99.609,-1.465,-24.902,196.777
1630087769.034,-1000.000,4.395,-12.207,-1000.000
1630087769.038,-248.047,-7.812,-24.902,-376.465
1630087769.042,-818.359,-39.551,-31.250,-859.375
1630087769.046,250.488,-9.766,-22.461,373.047
1630087769.049,-1000.000,-44.434,-36.133,-1000.000
1630087769.053,-556.152,-92.285,-44.922,-834.961
1630087769.057,-947.754,-15.137,-37.109,750.000
1630087769.061,587.402,61.035,4.883,801.270
1630087769.065,-969.238,15.137,3.418,-734.375
1630087769.066,-1000.000,-65.918,-8.789,-1000.000
1630087769.070,391.113,-51.758,-6.836,70.801
1630087769.074,-895.020,0.977,17.578,-841.309
1630087769.078,-303.223,2.441,-0.977,-93.262
1630087769.082,-1000.000,-27.344,-19.043,-1000.000
1630087769.086,-151.855,-16.602,1.953,-228.027
1630087769.090,-818.848,-28.320,8.789,-827.148
1630087769.093,196.777,-62.012,-1.953,233.887
1630087769.097,-1000.000,-72.754,-7.812,-1000.000
1630087769.101,-333.008,-116.211,-14.648,-514.160
1630087769.105,-838.379,-75.195,-55.176,-925.781
1630087769.109,364.746,21.973,-1.953,520.508
1630087769.113,-1000.000,-20.508,45.898,-1000.000
1630087769.117,-743.652,-48.340,23.438,-1000.000
1630087769.121,889.160,2.930,18.555,518.555
1630087769.125,713.867,-30.762,21.973,921.387
1630087769.129,-885.742,-99.121,1.465,-606.934
1630087769.133,-1000.000,-54.199,-0.488,-1000.000
1630087769.137,330.566,-8.301,15.137,16.113
1630087769.140,-841.309,-39.551,10.742,-816.895
1630087769.144,-160.645,-75.195,26.855,26.855
1630087769.148,-1000.000,-48.340,16.602,-1000.000
1630087769.152,-214.844,-1.465,-6.836,-260.254
1630087769.156,-822.266,-18.555,17.578,-827.637
1630087769.172,230.469,-46.387,17.578,246.582
1630087769.176,-1000.000,-62.500,-5.859,-1000.000
1630087769.180,-334.961,-18.555,10.254,-553.223
1630087769.184,-835.938,36.621,6.836,-952.148
1630087769.188,367.188,0.488,6.348,520.996
1630087769.192,-1000.000,-62.012,-16.113,-993.652
1630087769.196,-795.898,-29.785,-50.781,-1000.000
1630087769.199,780.273,23.926,-20.996,367.188
1630087769.203,874.023,15.625,2.441,-949.219
1630087769.207,-643.555,-29.785,-22.461,-379.395
1630087769.211,-1000.000,-24.902,-46.387,-1000.000
1630087769.215,28.320,9.277,-50.781,-171.875
1630087769.217,-817.871,7.324,-61.523,-831.543
1630087769.221,-15.137,-24.902,-56.152,138.672
1630087769.225,-1000.000,-7.324,-51.270,-1000.000
1630087769.229,-227.051,37.109,-47.363,-297.363
1630087769.233,-821.777,7.812,-29.785,-833.008
1630087769.237,239.746,-29.785,-50.781,308.105
1630087769.241,-1000.000,-44.434,-72.266,-1000.000
1630087769.244,-511.719,-18.066,-42.969,-773.926
1630087769.248,-917.480,27.344,-25.391,842.285
1630087769.252,490.723,-35.156,-53.711,679.688
1630087769.256,-1000.000,-82.031,-125.977,-873.535
1630087769.260,-924.316,-7.324,-73.242,-1000.000
1630087769.262,576.172,11.719,20.996,181.641
1630087769.266,-965.332,47.852,6.348,-864.258
1630087769.270,-417.480,31.250,-17.578,-190.918
1630087769.274,-1000.000,-18.555,-30.273,-1000.000
1630087769.278,-84.961,-0.977,-34.668,-208.008
1630087769.282,-808.105,30.273,-16.602,-824.707
1630087769.286,159.668,5.859,-21.973,224.121
1630087769.289,-1000.000,-33.203,-52.246,-1000.000
1630087769.293,-256.348,-41.016,-63.965,-408.203
1630087769.297,-814.941,-24.902,-56.641,-868.652
1630087769.301,251.465,-24.902,-43.945,377.930
1630087769.305,-1000.000,-62.012,-53.223,-1000.000
1630087769.306,-590.820,-59.570,-43.945,-880.371
1630087769.310,-979.004,0.977,-36.621,676.758
1630087769.314,623.047,35.645,-37.598,847.168
1630087769.318,-943.848,-5.371,-35.645,-689.941
1630087769.322,-1000.000,-18.555,-16.113,-1000.000
1630087769.326,371.094,-59.570,-33.691,49.805
1630087769.330,-868.652,-41.016,-40.039,-827.637
1630087769.333,-243.164,7.324,-4.883,-33.691
1630087769.337,-1000.000,-29.297,-26.367,-1000.000
1630087769.341,-160.156,-22.949,-23.438,-236.816
1630087769.345,-814.941,4.395,-7.812,-824.219
1630087769.349,217.285,1.465,-21.973,242.188
1630087769.352,-1000.000,-55.176,-30.273,-1000.000
1630087769.356,-328.613,-60.547,-25.391,-520.996
1630087769.360,-834.473,-14.648,-51.758,-925.293
1630087769.364,323.242,-19.531,-45.410,484.375
1630087769.368,-1000.000,-34.180,-23.438,-1000.000
1630087769.372,-654.785,-32.227,-33.203,-928.711
1630087769.376,943.848,20.996,-13.184,573.730
1630087769.379,774.902,42.480,-4.883,989.258
1630087769.383,-742.188,-19.043,-50.293,-461.914
1630087769.387,-1000.000,-48.828,-59.570,-1000.000
1630087769.391,97.168,20.020,-22.461,-131.836
1630087769.395,-816.406,33.203,-12.695,-826.172
1630087769.397,-62.988,-23.926,-32.227,116.699
1630087769.401,-1000.000,-86.914,-35.645,-1000.000
1630087769.405,-205.078,-64.453,-39.551,-257.812
1630087769.409,-816.406,-8.789,-72.754,-820.312
1630087769.413,234.863,15.137,-69.824,258.789
1630087769.417,-1000.000,6.348,-42.480,-1000.000
1630087769.421,-418.945,-18.555,-37.598,-644.043
1630087769.424,-872.070,-56.641,-55.176,959.961
1630087769.428,457.031,-57.129,-50.781,655.762
1630087769.432,-1000.000,-20.996,-66.895,-886.719
1630087769.436,-875.488,-18.555,-56.641,-1000.000
1630087769.440,687.988,8.301,-33.203,296.875
1630087769.442,919.922,30.273,-31.738,-918.945
1630087769.446,-604.980,-5.371,-51.758,-322.754
1630087769.450,-1000.000,-32.715,-60.547,-1000.000
1630087769.454,57.617,-1.953,-67.383,-159.668
1630087769.458,-803.711,-44.434,-83.008,-822.266
1630087769.462,40.527,-55.176,-52.734,176.758
1630087769.466,-1000.000,32.715,-31.250,-1000.000
1630087769.469,-244.141,42.480,-28.320,-328.613
1630087769.473,-821.289,23.438,-38.086,-839.844
1630087769.477,240.723,-10.254,-48.340,308.594
1630087769.481,-1000.000,-36.133,-35.156,-1000.000
1630087769.485,-535.156,-15.625,-32.715,-797.363
1630087769.487,-935.547,9.277,-34.668,783.203
1630087769.491,560.059,20.508,-27.344,780.273
1630087769.495,-1000.000,-34.668,-52.246,-765.137
1630087769.499,-980.957,-59.570,-56.152,-1000.000
1630087769.503,491.211,7.324,-32.227,129.883
1630087769.507,-918.945,21.973,-25.879,-841.797
1630087769.511,-340.820,-8.789,-39.551,-110.840
1630087769.514,-1000.000,-24.902,-61.035,-1000.000
1630087769.518,-125.000,-7.324,-43.457,-223.633
1630087769.522,-814.453,5.859,-30.273,-824.707
1630087769.526,161.621,-27.832,-44.922,221.191
1630087769.530,-1000.000,-55.664,-61.035,-1000.000
1630087769.547,-257.324,-29.785,-49.805,-422.852
1630087769.551,-814.941,-3.906,-31.250,-877.930
1630087769.555,284.180,-20.020,-28.809,447.754
1630087769.559,-1000.000,-51.758,-47.363,-1000.000
1630087769.563,-667.969,-45.898,-48.340,-953.125
1630087769.567,946.777,-17.578,-48.340,563.477
1630087769.571,703.613,-11.230,-49.316,941.895
1630087769.574,-848.633,-42.969,-50.293,-547.852
1630087769.578,-1000.000,-57.617,-55.664,-1000.000
1630087769.582,206.543,-40.527,-60.547,-70.312
1630087769.586,-840.332,-25.391,-47.852,-833.496
1630087769.590,-170.410,-42.480,-49.805,23.926
1630087769.592,-1000.000,-59.570,-69.824,-1000.000
1630087769.596,-189.453,-31.250,-58.105,-244.629
1630087769.600,-815.918,-5.371,-51.758,-822.754
1630087769.604,226.562,-36.621,-62.500,244.141
1630087769.608,-1000.000,-71.289,-72.754,-1000.000
1630087769.612,-312.500,-46.387,-66.406,-515.137
1630087769.616,-828.125,-26.367,-56.152,-931.641
1630087769.619,402.832,-52.734,-52.246,563.477
1630087769.623,-1000.000,-84.473,-63.965,-971.191
1630087769.627,-712.402,-73.730,-68.359,-1000.000
1630087769.631,866.699,-28.320,-52.246,439.453
1630087769.635,899.902,-26.367,-35.156,-935.547
1630087769.637,-615.234,-67.871,-40.039,-357.422
1630087769.641,-1000.000,-96.680,-43.457,-1000.000
1630087769.645,181.641,-81.055,-31.738,-105.957
1630087769.649,-802.734,-64.453,-40.527,-816.406
1630087769.653,-25.391,-117.676,-69.336,130.371
1630087769.657,-1000.000,-157.227,-80.078,-1000.000
1630087769.661,-208.008,-129.883,-63.477,-273.438
1630087769.664,-812.500,-103.516,-36.621,-822.754
1630087769.668,233.887,-172.852,-57.129,287.109
1630087769.672,-1000.000,-229.004,-94.727,-1000.000
1630087769.676,-411.133,-172.852,-50.781,-658.691
1630087769.680,-872.559,-139.648,-39.062,938.965
1630087769.682,507.324,-162.598,-44.922,709.961
1630087769.686,-1000.000,-211.426,-54.688,-852.051
1630087769.690,-818.359,-215.820,-49.805,-1000.000
1630087769.694,729.492,-183.105,-36.133,319.336
1630087769.698,-979.492,-182.129,-33.203,-853.027
1630087769.702,-444.336,-227.539,-66.895,-173.340
1630087769.706,-1000.000,-212.891,-66.895,-1000.000
1630087769.709,103.027,-156.250,-46.387,-140.137
1630087769.713,-787.109,-176.758,-52.734,-808.594
1630087769.717,91.797,-215.332,-41.504,194.336
1630087769.721,-1000.000,-216.309,-48.340,-1000.000
1630087769.725,-251.953,-187.988,-62.012,-374.023
1630087769.727,-815.918,-176.270,-43.945,-857.422
1630087769.731,241.699,-196.289,-35.645,387.207
1630087769.735,-1000.000,-209.961,-54.688,-1000.000
1630087769.739,-500.000,-201.660,-49.805,-739.746
1630087769.743,-940.918,-174.316,-49.805,798.828
1630087769.747,682.617,-178.711,-36.621,959.473
1630087769.751,-877.930,-217.773,-41.016,-531.738
1630087769.754,-1000.000,-220.703,-58.105,-1000.000
1630087769.758,418.945,-187.012,-52.734,185.059
1630087769.762,-866.211,-164.551,-40.039,-787.109
1630087769.766,-243.652,-181.641,-45.898,69.336
1630087769.770,-1000.000,-197.754,-52.734,-1000.000
1630087769.772,-97.168,-186.523,-37.598,-190.918
1630087769.776,-797.852,-147.461,-11.719,-793.945
1630087769.780,187.988,-148.926,-13.184,289.062
1630087769.784,-1000.000,-175.293,-40.039,-1000.000
1630087769.788,-264.648,-158.203,-32.715,-333.984
1630087769.792,-813.477,-123.047,-14.648,-874.512
1630087769.796,323.730,-138.672,-15.137,715.332
1630087769.799,-1000.000,-182.129,-45.898,-888.184
1630087769.803,-603.027,-160.156,-49.805,-718.750
1630087769.807,-995.117,-115.234,-41.016,819.824
1630087769.811,742.188,-108.398,-32.715,-880.371
1630087769.815,-810.547,-139.648,-20.996,-186.523
1630087769.818,-1000.000,-143.066,-19.531,-1000.000
1630087769.822,313.477,-107.910,-37.598,220.703
1630087769.826,-820.312,-103.516,-20.508,-760.742
1630087769.830,-117.188,-150.391,-7.324,171.387
1630087769.834,-1000.000,-158.203,-33.203,-1000.000
1630087769.838,-166.016,-104.980,-41.016,-209.961
1630087769.842,-805.176,-66.895,-4.395,-791.504
1630087769.845,218.262,-81.543,14.160,392.090
1630087769.849,-1000.000,-125.977,-26.367,-1000.000
1630087769.853,-311.035,-112.793,-32.227,-372.070
1630087769.857,-827.637,-90.332,-29.297,-910.156
1630087769.861,364.258,-108.398,-35.645,847.656
1630087769.862,-1000.000,-133.301,-48.340,-733.887
1630087769.866,-624.023,-120.117,-58.594,-729.004
1630087769.870,959.473,-84.961,-44.434,817.871
1630087769.874,853.027,-95.703,-34.668,-853.516
1630087769.878,-657.227,-130.371,-49.805,-68.848
1630087769.882,-1000.000,-113.281,-55.176,-1000.000
1630087769.886,215.332,-63.477,-40.527,139.648
1630087769.889,-804.688,-73.730,-35.645,-757.324
1630087769.893,-44.922,-115.723,-47.852,183.594
1630087769.897,-1000.000,-112.793,-60.059,-1000.000
1630087769.901,-233.398,-80.078,-55.176,-265.137
1630087769.905,-820.312,-71.777,-43.945,-811.035
1630087769.922,237.793,-116.211,-31.250,464.355
1630087769.926,-1000.000,-128.418,-52.246,-1000.000
1630087769.930,-402.832,-83.008,-59.570,-474.609
1630087769.934,-870.117,-74.707,-47.852,-982.910
1630087769.938,526.855,-68.848,-41.016,962.402
1630087769.942,-1000.000,-82.031,-27.344,-525.391
1630087769.946,-835.938,-97.168,-38.086,-962.891
1630087769.949,730.469,-62.500,-44.434,555.664
1630087769.953,997.070,-59.570,-30.762,-813.965
1630087769.957,-449.219,-83.984,-36.133,15.625
1630087769.961,-1000.000,-85.449,-42.480,-1000.000
1630087769.965,-43.945,-61.523,-46.875,-160.156
1630087769.966,-802.246,-51.270,-45.410,-791.016
1630087769.970,127.930,-82.520,-39.062,225.098
1630087769.974,-1000.000,-111.816,-50.781,-1000.000
1630087769.978,-254.395,-112.305,-54.199,-310.059
1630087769.982,-817.383,-75.684,-39.062,-835.938
1630087769.986,258.789,-65.430,-38.086,519.043
1630087769.990,-1000.000,-81.055,-59.082,-1000.000
1630087769.993,-603.516,-73.730,-61.035,-780.762
1630087769.997,-982.910,-46.387,-46.875,798.340
1630087770.001,635.254,-26.855,-4.395,971.680
1630087770.005,-926.270,-80.078,-30.762,-499.512
1630087770.009,-1000.000,-104.980,-67.871,-1000.000
1630087770.012,355.469,-60.547,-46.875,129.883
1630087770.016,-883.789,-52.734,-41.504,-793.457
1630087770.020,-278.320,-84.473,-58.594,46.387
1630087770.024,-1000.000,-90.332,-54.199,-1000.000
1630087770.028,-161.133,-55.176,-35.156,-237.305
1630087770.032,-816.895,-35.645,-29.297,-813.477
1630087770.036,202.637,-73.242,-35.156,237.793
1630087770.039,-1000.000,-102.051,-59.082,-1000.000
1630087770.043,-304.688,-61.035,-41.504,-445.801
1630087770.047,-827.637,-23.926,-15.625,-886.719
1630087770.051,287.109,-64.941,-26.855,499.512
1630087770.055,-1000.000,-100.098,-49.316,-1000.000
1630087770.057,-773.438,-72.754,-50.781,-987.305
1630087770.061,837.891,-48.340,-34.668,515.137
1630087770.065,728.516,-63.477,-24.902,-997.070
1630087770.069,-842.285,-109.375,-46.875,-479.492
1630087770.073,-1000.000,-104.492,-52.246,-1000.000
1630087770.077,179.199,-64.453,-32.715,-52.734
1630087770.081,-838.379,-61.035,-30.273,-812.500
1630087770.084,-147.949,-80.566,-30.762,93.262
1630087770.088,-1000.000,-82.031,-26.367,-1000.000
1630087770.092,-223.145,-62.500,-30.762,-260.254
1630087770.096,-826.660,-46.875,-28.320,-822.754
1630087770.100,232.910,-72.754,-35.645,250.488
1630087770.102,-1000.000,-111.328,-42.969,-1000.000
1630087770.106,-396.484,-100.586,-32.715,-589.844
1630087770.110,-861.328,-59.082,-35.645,-978.027
1630087770.114,397.949,-63.965,-38.086,595.703
1630087770.118,-1000.000,-100.098,-46.875,-961.426
1630087770.122,-797.363,-88.379,-51.270,-1000.000
1630087770.126,783.203,-67.383,-48.828,404.785
1630087770.129,875.977,-53.223,-32.715,-919.434
1630087770.133,-635.254,-71.289,-37.598,-329.590
1630087770.137,-1000.000,-101.074,-63.477,-1000.000
1630087770.141,8.789,-69.824,-34.180,-179.199
1630087770.145,-813.477,-51.758,-19.043,-825.195
1630087770.147,20.996,-75.684,-34.668,180.664
1630087770.151,-1000.000,-94.727,-46.387,-1000.000
1630087770.155,-240.723,-66.895,-38.086,-296.387
1630087770.159,-821.289,-51.758,-31.738,-829.102
1630087770.163,240.234,-87.402,-44.434,235.352
1630087770.167,-1000.000,-105.957,-64.453,-1000.000
1630087770.171,-488.770,-67.871,-59.082,-789.551
1630087770.174,-902.832,-2.930,-5.859,831.055
1630087770.178,471.191,-34.180,-21.484,600.586
1630087770.182,-1000.000,-101.562,-67.383,-933.594
1630087770.186,-990.234,-92.285,-56.641,-1000.000
1630087770.190,505.859,-64.453,-65.430,96.191
1630087770.192,979.004,-65.430,-63.477,-924.805
1630087770.196,-528.809,-86.914,-67.871,-313.477
1630087770.200,-1000.000,-78.613,-80.566,-1000.000
1630087770.204,-63.965,-56.152,-64.453,-210.449
1630087770.208,-808.105,-52.246,-40.039,-835.938
1630087770.212,147.461,-70.312,-41.992,218.750
1630087770.216,-1000.000,-83.008,-64.453,-1000.000
1630087770.219,-254.883,-62.500,-56.641,-440.430
1630087770.223,-815.918,-50.781,-41.016,-883.301
1630087770.227,238.770,-66.895,-52.734,316.406
1630087770.231,-1000.000,-90.820,-76.660,-1000.000
1630087770.235,-592.773,-83.008,-75.684,-887.695
1630087770.236,-970.703,-52.734,-66.406,682.129
1630087770.240,581.543,-73.730,-59.082,775.879
1630087770.244,-966.797,-111.328,-74.219,-775.879
1630087770.248,-1000.000,-96.680,-84.961,-1000.000
1630087770.252,288.086,-68.848,-73.730,-26.855
1630087770.256,-847.656,-50.293,-62.988,-829.590
1630087770.260,-193.848,-64.941,-54.688,-15.137
1630087770.263,-1000.000,-99.121,-76.172,-1000.000
1630087770.267,-196.289,-77.148,-82.520,-235.352
1630087770.271,-820.312,-42.480,-66.406,-824.219
1630087770.275,216.309,-71.777,-74.707,241.699
1630087770.279,-1000.000,-101.074,-89.844,-1000.000
1630087770.284,-306.641,-68.848,-83.008,-513.672
1630087770.288,-827.637,-34.668,-47.363,-914.062
1630087770.292,280.273,-62.012,-33.203,412.598
1630087770.296,-1000.000,-96.191,-65.430,-1000.000
1630087770.300,-768.555,-91.309,-75.684,-1000.000
1630087770.304,828.125,-57.129,-59.082,423.340
1630087770.308,766.602,-45.410,-50.293,969.727
1630087770.311,-789.062,-89.844,-63.477,-528.320
1630087770.315,-1000.000,-99.609,-77.148,-1000.000
1630087770.319,122.559,-34.180,-40.039,-121.094
1630087770.323,-831.543,-15.625,-17.090,-833.984
1630087770.327,-118.164,-82.520,-72.754,63.965
1630087770.342,-1000.000,-87.402,-82.520,-1000.000
1630087770.346,-216.309,-58.594,-62.988,-260.742
1630087770.350,-822.266,-46.387,-53.223,-827.637
1630087770.354,236.816,-65.918,-62.988,250.488
1630087770.358,-1000.000,-83.008,-68.848,-1000.000
1630087770.362,-389.648,-45.410,-28.320,-609.863
1630087770.366,-855.957,-30.273,-24.414,-984.863
1630087770.369,390.137,-62.500,-47.363,544.922
1630087770.373,-1000.000,-80.078,-52.734,-965.820
1630087770.377,-903.809,-70.312,-50.781,-1000.000
1630087770.381,650.879,-54.199,-51.758,253.906
1630087770.385,888.672,-48.340,-42.969,-955.078
1630087770.387,-648.438,-78.125,-63.477,-397.949
1630087770.391,-1000.000,-93.262,-73.242,-1000.000
1630087770.395,5.371,-66.895,-60.547,-188.965
1630087770.399,-815.918,-48.340,-44.922,-837.891
1630087770.403,10.254,-69.336,-56.152,150.391
1630087770.407,-1000.000,-90.820,-71.289,-1000.000
1630087770.411,-239.258,-62.012,-56.641,-336.914
1630087770.414,-824.707,-51.758,-52.734,-847.656
1630087770.418,241.699,-65.918,-21.484,269.531
1630087770.422,-1000.000,-45.410,-2.441,-1000.000
1630087770.426,-560.059,-60.059,-57.617,-852.051
1630087770.430,-943.359,-47.852,-62.988,748.047
1630087770.431,514.648,-54.199,-40.039,671.387
1630087770.435,-1000.000,-96.680,-59.082,-887.695
1630087770.439,-1000.000,-84.961,-60.547,-1000.000
1630087770.443,474.121,-51.758,-53.711,85.938
1630087770.447,-975.098,-48.828,-60.059,-886.230
1630087770.451,-448.242,-83.496,-79.102,-230.957
1630087770.455,-1000.000,-102.051,-79.102,-1000.000
1630087770.458,-109.375,-68.359,-49.805,-217.773
1630087770.462,-814.941,-17.090,-25.391,-834.961
1630087770.466,165.527,-48.828,-48.340,221.680
1630087770.470,-1000.000,-91.797,-78.613,-1000.000
1630087770.474,-279.297,-52.734,-46.875,-475.098
1630087770.477,-823.730,-24.902,-32.715,-896.973
1630087770.481,240.234,-67.871,-56.152,329.102
1630087770.485,-1000.000,-100.586,-65.918,-1000.000
1630087770.489,-651.367,-90.332,-69.824,-988.770
1630087770.493,960.449,-67.383,-65.918,509.766
1630087770.497,664.062,-54.688,-46.387,853.516
1630087770.501,-906.250,-74.707,-56.152,-692.383
1630087770.504,-1000.000,-64.941,-47.852,-1000.000
1630087770.508,310.059,-36.621,-21.484,-40.039
1630087770.512,-878.906,-51.758,-43.945,-857.422
1630087770.516,-267.578,-92.773,-65.918,-95.215
1630087770.520,-1000.000,-96.680,-68.848,-1000.000
1630087770.523,-188.965,-49.805,-58.594,-236.816
1630087770.527,-822.266,-32.227,-50.781,-834.473
1630087770.531,220.703,-62.012,-60.059,239.258
1630087770.535,-1000.000,-87.891,-69.336,-1000.000
1630087770.539,-314.941,-66.406,-61.035,-574.707
1630087770.543,-829.102,-29.785,-51.758,-957.031
1630087770.547,316.895,-55.664,-44.922,448.730
1630087770.550,-1000.000,-89.844,-57.129,-1000.000
1630087770.554,-779.297,-74.219,-66.406,-1000.000
1630087770.558,825.684,-44.434,-56.641,380.371
1630087770.562,769.531,-48.340,-53.223,952.637
1630087770.566,-785.156,-80.078,-68.359,-548.828
1630087770.566,-1000.000,-82.520,-72.754,-1000.000
1630087770.570,101.562,-63.965,-59.570,-152.832
1630087770.574,-814.453,-38.086,-51.270,-835.449
1630087770.578,-47.363,-61.523,-73.730,114.746
1630087770.582,-1000.000,-94.727,-85.449,-1000.000
1630087770.586,-233.398,-61.523,-62.500,-291.992
1630087770.590,-824.707,-43.945,-43.457,-834.961
1630087770.593,240.723,-71.777,-39.062,250.000
1630087770.597,-1000.000,-97.656,-80.566,-1000.000
1630087770.601,-470.215,-82.031,-85.449,-718.750
1630087770.605,-895.508,-34.668,-54.199,901.367
1630087770.609,467.285,-45.410,-53.711,629.883
1630087770.611,-1000.000,-92.773,-73.730,-929.199
1630087770.615,-894.043,-82.031,-73.242,-1000.000
1630087770.619,667.969,-39.062,-56.641,268.555
1630087770.623,916.016,-42.480,-59.570,-911.621
1630087770.627,-603.516,-75.195,-72.754,-322.266
1630087770.631,-1000.000,-87.402,-78.125,-1000.000
1630087770.635,5.371,-50.293,-54.199,-170.410
1630087770.638,-807.617,-32.715,-40.527,-820.801
1630087770.642,51.758,-74.707,-62.988,197.266
1630087770.646,-1000.000,-96.191,-72.266,-1000.000
1630087770.650,-244.141,-61.035,-58.594,-306.152
1630087770.654,-820.801,-47.363,-45.410,-828.125
1630087770.672,241.211,-90.332,-43.945,348.145
1630087770.676,-1000.000,-90.332,-61.523,-1000.000
1630087770.680,-531.250,-56.152,-64.941,-598.633
1630087770.684,-930.176,-37.109,-44.434,938.965
1630087770.688,546.875,-44.434,-40.527,938.477
1630087770.692,-1000.000,-78.613,-65.430,-632.812
1630087770.696,-909.668,-84.473,-69.824,-948.242
1630087770.699,618.164,-56.152,-61.035,562.012
1630087770.703,-962.891,-44.434,-67.871,-811.523
1630087770.707,-389.160,-68.359,-87.402,60.547
1630087770.711,-1000.000,-82.031,-97.168,-1000.000
1630087770.715,-156.250,-48.828,-91.797,-214.844
1630087770.717,-826.660,-32.715,-92.773,-794.922
1630087770.721,130.859,-70.312,-113.770,323.730
1630087770.725,-1000.000,-99.121,-138.672,-1000.000
1630087770.729,-249.512,-72.754,-144.531,-255.371
1630087770.733,-816.895,-41.504,-139.160,-922.363
1630087770.737,243.652,-54.688,-160.645,987.305
1630087770.741,-1000.000,-87.891,-194.824,-547.852
1630087770.744,-535.156,-77.148,-198.730,-590.332
1630087770.748,-932.617,-39.551,-184.082,935.547
1630087770.752,576.660,-47.852,-187.500,-842.285
1630087770.756,-967.285,-76.660,-213.867,20.996
1630087770.760,-1000.000,-88.379,-216.797,-1000.000
1630087770.762,390.625,-49.316,-180.176,336.426
1630087770.766,-908.203,-31.250,-171.875,-748.535
1630087770.770,-325.684,-65.918,-202.148,175.293
1630087770.774,-1000.000,-78.613,-202.637,-1000.000
1630087770.778,-182.129,-44.434,-175.293,-228.027
1630087770.782,-825.195,-20.996,-152.832,-795.410
1630087770.786,195.312,-56.641,-161.621,483.398
1630087770.789,-1000.000,-89.844,-176.270,-1000.000
1630087770.793,-305.176,-45.898,-141.113,-361.816
1630087770.797,-830.078,-9.277,-98.633,-877.441
1630087770.801,263.184,-44.922,-114.258,797.363
1630087770.805,-1000.000,-78.125,-138.672,-750.488
1630087770.807,-827.637,-77.148,-117.188,-917.969
1630087770.811,776.855,-41.504,-76.172,624.512
1630087770.815,729.492,-35.645,-62.988,-829.102
1630087770.819,-835.938,-77.148,-78.613,-89.355
1630087770.823,-1000.000,-85.449,-73.242,-1000.000
1630087770.827,97.168,-48.828,-24.902,-15.137
1630087770.831,-848.633,-30.273,-6.836,-768.066
1630087770.834,-166.504,-55.664,-41.504,192.383
1630087770.838,-1000.000,-75.195,-59.570,-1000.000
1630087770.842,-224.609,-39.551,-20.020,-268.066
1630087770.846,-832.031,0.977,15.625,-810.059
1630087770.850,233.887,-27.344,-1.953,314.453
1630087770.852,-1000.000,-81.055,-30.762,-1000.000
1630087770.856,-459.473,-60.547,-20.996,-583.496
1630087770.860,-888.184,-0.488,5.859,-974.609
1630087770.864,382.324,-12.695,2.441,709.473
1630087770.868,-1000.000,-65.430,-22.949,-861.816
1630087770.872,-890.137,-55.664,-12.695,-1000.000
1630087770.876,669.434,-20.508,18.066,383.301
1630087770.879,872.070,-20.508,24.414,-840.332
1630087770.883,-652.344,-40.039,0.488,-164.062
1630087770.887,-1000.000,-56.641,-28.809,-1000.000
1630087770.891,-59.570,-22.461,-16.602,-206.055
1630087770.895,-837.891,9.277,-13.672,-818.848
1630087770.896,-36.133,-29.785,-49.316,217.285
1630087770.900,-1000.000,-59.570,-60.059,-1000.000
1630087770.904,-231.934,-35.156,-28.809,-309.082
1630087770.908,-828.613,-13.184,11.719,-827.637
1630087770.912,244.629,-50.293,-0.488,315.918
1630087770.916,-1000.000,-81.055,-31.738,-1000.000
1630087770.920,-544.434,-52.734,-19.043,-720.703
1630087770.923,-995.605,-22.461,18.555,875.977
1630087770.927,373.047,-64.453,6.836,713.867
1630087770.931,-1000.000,-95.703,-31.250,-792.969
1630087770.935,-1000.000,-57.129,-14.160,-1000.000
1630087770.939,401.367,-5.859,21.484,114.746
1630087770.942,975.586,-28.320,15.137,-834.961
1630087770.946,-530.273,-81.543,-20.996,-144.043
1630087770.950,-1000.000,-70.312,-35.645,-1000.000
1630087770.954,-158.691,-34.180,-8.301,-226.074
1630087770.958,-837.402,-17.090,5.371,-829.102
1630087770.962,97.656,-61.523,-35.645,242.188
1630087770.966,-1000.000,-91.797,-68.848,-1000.000
1630087770.969,-262.695,-49.316,-47.852,-440.430
1630087770.973,-828.125,-27.832,-29.297,-875.488
1630087770.977,241.211,-70.801,-50.781,323.730
1630087770.981,-1000.000,-102.051,-62.988,-1000.000
1630087770.985,-667.969,-93.750,-39.551,-948.242
1630087770.988,971.191,-55.664,-2.441,599.121
1630087770.992,589.844,-53.711,-7.812,818.848
1630087770.996,-954.590,-97.656,-35.645,-738.281
1630087771.000,-1000.000,-91.797,-27.832,-1000.000
1630087771.004,224.121,-38.086,7.812,-59.082
1630087771.008,-887.695,-20.020,22.949,-850.586
1630087771.012,-289.551,-64.453,-18.555,-92.285
1630087771.015,-1000.000,-97.168,-48.340,-1000.000
1630087771.019,-205.566,-63.477,-18.555,-225.586
1630087771.023,-833.496,-12.207,11.719,-833.496
1630087771.027,189.453,-59.570,-12.695,241.211
1630087771.031,-1000.000,-112.305,-35.645,-1000.000
1630087771.047,-323.242,-83.008,-9.766,-602.051
1630087771.051,-901.855,-31.250,27.832,970.215
1630087771.055,179.688,-44.434,18.066,268.555
1630087771.059,-1000.000,-83.984,-16.602,-1000.000
1630087771.063,-816.895,-81.055,-16.602,-1000.000
1630087771.067,797.852,-43.457,22.949,283.691
1630087771.071,684.082,-36.133,28.809,785.645
1630087771.074,-878.418,-78.613,-11.230,-768.066
1630087771.078,-1000.000,-74.707,-19.531,-1000.000
1630087771.082,96.191,-43.457,-0.977,-165.039
1630087771.086,-887.695,-50.293,-7.324,-945.312
1630087771.090,-270.508,-86.426,-49.316,-210.449
1630087771.092,-1000.000,-79.102,-77.148,-1000.000
1630087771.096,-217.285,-38.086,-66.406,-389.160
1630087771.100,-837.891,-15.137,-58.594,-908.691
1630087771.104,233.398,-65.918,-108.398,252.441
1630087771.108,-1000.000,-112.793,-162.598,-1000.000
1630087771.112,-458.496,-67.871,-155.273,-813.965
1630087771.116,-886.719,-15.137,-125.000,814.941
1630087771.119,290.527,-62.500,-159.180,411.621
1630087771.123,-1000.000,-117.676,-208.496,-1000.000
1630087771.127,-962.891,-95.215,-207.520,-1000.000
1630087771.131,592.773,-43.457,-166.992,157.715
1630087771.135,735.352,-36.621,-181.641,996.094
1630087771.136,-828.613,-83.496,-242.676,-489.258
1630087771.140,-1000.000,-88.379,-238.770,-1000.000
1630087771.144,-84.473,-53.711,-192.871,-208.008
1630087771.148,-880.371,-34.180,-165.039,-834.961
1630087771.152,-149.902,-69.336,-202.148,210.938
1630087771.156,-1000.000,-87.891,-231.934,-1000.000
1630087771.160,-220.703,-52.734,-202.148,-284.180
1630087771.163,-837.891,-31.250,-173.340,-820.801
1630087771.167,237.305,-69.824,-205.078,392.090
1630087771.171,-1000.000,-95.703,-228.027,-1000.000
1630087771.175,-605.957,-67.871,-192.383,-666.016
1630087771.179,-962.891,-15.625,-135.742,914.551
1630087771.182,352.051,-34.180,-139.160,916.016
1630087771.186,-1000.000,-83.008,-176.758,-596.191
1630087771.190,-1000.000,-70.801,-176.270,-1000.000
1630087771.194,367.676,-41.016,-137.695,229.980
1630087771.198,854.492,-42.480,-116.211,-782.715
1630087771.202,-699.219,-82.520,-147.461,65.430
1630087771.206,-1000.000,-97.656,-161.621,-1000.000
1630087771.209,-171.387,-59.082,-126.465,-235.352
1630087771.213,-867.676,-39.062,-97.656,-804.688
1630087771.217,-27.832,-74.707,-130.859,230.469
1630087771.221,-1000.000,-93.750,-150.391,-1000.000
1630087771.225,-255.371,-65.918,-106.934,-324.707
1630087771.227,-840.332,-20.996,-66.406,-838.379
1630087771.231,243.164,-60.547,-83.008,515.625
1630087771.235,-1000.000,-118.164,-107.422,-1000.000
1630087771.239,-720.703,-101.562,-101.074,-763.672
1630087771.243,932.129,-52.246,-60.547,778.809
1630087771.247,496.582,-58.105,-62.500,-920.410
1630087771.251,-1000.000,-100.098,-97.656,-312.988
1630087771.254,-1000.000,-132.812,-124.512,-1000.000
1630087771.258,196.777,-104.492,-116.699,82.520
1630087771.262,988.281,-54.199,-93.262,-774.414
1630087771.266,-501.953,-95.215,-134.277,133.301
1630087771.270,-1000.000,-118.164,-145.996,-1000.000
1630087771.272,-207.031,-63.965,-102.051,-257.324
1630087771.276,-851.074,-26.367,-75.195,-811.523
1630087771.280,133.789,-69.824,-113.281,238.770
1630087771.284,-1000.000,-104.980,-145.020,-1000.000
1630087771.288,-363.770,-74.707,-117.676,-479.492
1630087771.292,-862.793,-20.508,-70.801,-895.996
1630087771.296,247.070,-61.035,-106.445,481.934
1630087771.299,-1000.000,-145.020,-175.293,-1000.000
1630087771.303,-825.684,-106.445,-136.230,-1000.000
1630087771.307,794.434,-27.832,-56.641,499.512
1630087771.311,625.977,-33.203,-57.129,955.078
1630087771.315,-924.316,-88.379,-108.398,-552.246
1630087771.317,-1000.000,-86.914,-121.582,-1000.000
1630087771.321,51.758,-36.133,-72.754,-146.973
1630087771.325,-886.230,-25.879,-48.340,-842.773
1630087771.329,-241.211,-78.125,-102.051,35.156
1630087771.333,-1000.000,-102.539,-128.906,-1000.000
1630087771.337,-218.262,-40.527,-85.938,-247.070
1630087771.341,-837.891,-9.277,-63.965,-829.590
1630087771.344,226.562,-81.055,-124.512,240.723
1630087771.348,-1000.000,-102.539,-138.184,-1000.000
1630087771.352,-479.980,-61.035,-90.820,-702.148
1630087771.356,-898.438,-16.113,-41.016,951.660
1630087771.360,302.246,-53.711,-62.988,481.445
1630087771.362,-1000.000,-91.797,-97.168,-1000.000
1630087771.366,-958.496,-67.383,-80.078,-1000.000
1630087771.370,590.332,-27.344,-41.016,220.215
1630087771.374,772.949,-27.832,-47.852,987.793
1630087771.378,-794.922,-87.402,-100.098,-505.859
1630087771.382,-1000.000,-87.891,-108.398,-1000.000
1630087771.386,-44.922,-46.387,-70.801,-200.684
1630087771.389,-855.469,-30.762,-41.992,-856.445
1630087771.393,-112.793,-72.754,-93.750,75.684
1630087771.397,-1000.000,-103.516,-112.793,-1000.000
1630087771.401,-225.098,-61.523,-51.270,-355.957
1630087771.405,-833.984,-9.277,-3.906,-860.352
1630087771.422,240.234,-61.035,-57.129,222.168
1630087771.426,-1000.000,-116.211,-95.703,-1000.000
1630087771.430,-572.754,-78.125,-52.246,-1000.000
1630087771.434,-946.777,-20.996,-4.883,448.242
1630087771.438,255.859,-40.527,-32.715,311.523
1630087771.442,-1000.000,-76.172,-77.148,-1000.000
1630087771.446,-1000.000,-70.801,-61.523,-1000.000
1630087771.449,451.172,-28.320,-10.742,-51.758
1630087771.453,558.105,-28.320,-7.812,362.793
1630087771.457,-962.891,-86.426,-66.895,-956.055
1630087771.461,-1000.000,-85.449,-80.566,-1000.000
1630087771.465,-103.516,-35.645,-31.250,-276.855
1630087771.466,943.359,-15.625,-14.648,628.418
1630087771.470,-454.102,-84.961,-87.402,-710.938
1630087771.474,-1000.000,-99.121,-106.934,-1000.000
1630087771.478,-221.191,-56.641,-54.199,-849.121
1630087771.482,-866.699,-21.973,-14.648,577.148
1630087771.486,126.953,-56.641,-61.035,20.996
1630087771.490,-1000.000,-93.262,-112.793,-1000.000
1630087771.493,-676.758,-56.641,-104.492,-1000.000
1630087771.497,943.359,-2.930,-67.871,87.891
1630087771.501,271.973,-20.020,-80.078,293.945
1630087771.505,-1000.000,-66.895,-125.977,-1000.000
1630087771.509,-1000.000,-61.523,-123.047,-1000.000
1630087771.511,287.598,-19.531,-85.449,-53.711
1630087771.515,645.020,-17.090,-71.777,413.086
1630087771.519,-907.715,-73.730,-119.141,-934.570
1630087771.523,-1000.000,-83.008,-138.184,-1000.000
1630087771.527,-174.316,-37.109,-102.539,-343.262
1630087771.531,-937.988,5.371,-74.707,809.570
1630087771.535,-210.938,-40.039,-126.953,-461.914
1630087771.538,-1000.000,-70.312,-157.715,-1000.000
1630087771.542,-328.613,-45.410,-123.535,-855.469
1630087771.546,-883.789,-15.625,-89.355,614.258
1630087771.550,244.141,-42.480,-105.469,191.895
1630087771.554,-1000.000,-71.289,-145.020,-1000.000
1630087771.557,-819.336,-52.246,-146.973,-1000.000
1630087771.561,812.500,-12.695,-87.891,229.980
1630087771.565,401.855,-26.855,-80.566,341.309
1630087771.569,-1000.000,-70.312,-139.648,-1000.000
1630087771.573,-1000.000,-62.500,-135.254,-1000.000
1630087771.577,136.719,-18.555,-71.289,-85.938
1630087771.581,895.508,0.977,-53.711,688.477
1630087771.584,-619.629,-45.410,-108.887,-743.652
1630087771.588,-1000.000,-49.316,-113.281,-1000.000
1630087771.592,-192.871,-23.926,-70.801,-334.961
1630087771.596,-875.488,-6.836,-47.852,-984.863
1630087771.600,6.836,-39.551,-76.172,-119.141
1630087771.601,-1000.000,-76.660,-108.887,-1000.000
1630087771.605,-452.148,-57.129,-102.051,-833.984
1630087771.609,-916.992,-2.441,-64.941,696.777
1630087771.613,255.859,-17.090,-88.379,291.504
1630087771.617,-1000.000,-69.824,-131.836,-1000.000
1630087771.621,-958.496,-63.477,-114.258,-1000.000
1630087771.625,620.117,-20.996,-74.219,164.062
1630087771.628,539.551,-24.902,-62.500,432.617
1630087771.632,-976.562,-68.848,-96.191,-987.793
1630087771.636,-1000.000,-74.219,-122.070,-1000.000
1630087771.640,-49.805,-38.086,-94.238,-125.977
1630087771.644,-987.305,-16.113,-63.477,863.281
1630087771.646,-382.324,-62.012,-108.887,-523.926
1630087771.650,-1000.000,-82.031,-135.742,-1000.000
1630087771.654,-206.055,-34.668,-100.586,-414.062
1630087771.658,-852.539,2.930,-66.406,-957.520
1630087771.662,166.504,-37.598,-98.145,95.215
1630087771.666,-1000.000,-64.453,-125.488,-1000.000
1630087771.670,-576.660,-41.992,-95.703,-892.578
1630087771.673,-959.961,2.441,-52.734,654.297
1630087771.677,255.371,-30.273,-79.590,304.199
1630087771.681,-1000.000,-86.426,-126.953,-1000.000
1630087771.685,-1000.000,-64.941,-119.629,-1000.000
1630087771.689,367.676,-24.414,-74.219,72.754
1630087771.693,686.523,-21.973,-62.012,605.957
1630087771.697,-883.789,-74.707,-105.957,-876.465
1630087771.701,-1000.000,-71.777,-96.680,-1000.000
1630087771.705,-164.551,-27.344,-45.898,-165.527
1630087771.709,-901.367,-17.090,-27.344,-970.215
1630087771.713,-143.555,-66.895,-66.895,-233.398
1630087771.717,-1000.000,-77.148,-76.172,-1000.000
1630087771.720,-270.020,-27.344,-23.926,-486.816
1630087771.724,-855.469,-11.230,4.395,-960.449
1630087771.728,243.652,-53.711,-15.137,212.891
1630087771.732,-1000.000,-88.867,-35.645,-1000.000
1630087771.736,-774.902,-72.754,-26.855,-1000.000
1630087771.736,869.141,-34.668,11.719,491.699
1630087771.740,380.371,-52.246,13.672,399.902
1630087771.744,-1000.000,-84.961,-31.738,-1000.000
1630087771.748,-1000.000,-72.266,-32.227,-1000.000
1630087771.752,168.457,-38.574,12.207,-35.645
1630087771.756,882.324,-24.902,19.531,819.336
1630087771.760,-642.578,-31.250,8.789,-628.906
1630087771.763,-1000.000,-47.852,-13.184,-1000.000
1630087771.767,-193.359,-54.199,-28.809,-211.914
1630087771.771,-875.000,-21.973,-28.320,-898.926
1630087771.775,0.488,-61.035,-70.312,-12.695
1630087771.779,-1000.000,-90.820,-86.914,-1000.000
1630087771.782,-396.484,-56.641,-64.941,-594.238
1630087771.786,-891.113,-14.160,-37.598,986.816
1630087771.790,250.488,-33.691,-64.453,267.090
1630087771.794,-1000.000,-69.336,-107.910,-1000.000
1630087771.798,-912.109,-63.477,-106.934,-1000.000
1630087771.802,688.477,-1.953,-42.480,381.348
1630087771.806,562.012,1.953,-34.180,603.027
1630087771.809,-967.773,-60.547,-86.914,-921.875
1630087771.813,-1000.000,-75.195,-96.191,-1000.000
1630087771.817,31.250,-10.742,-36.133,-105.957
1630087771.821,993.652,39.551,8.301,970.703
1630087771.825,-444.824,-49.316,-66.406,-382.812
1630087771.841,-1000.000,-88.379,-82.520,-1000.000
1630087771.845,-206.055,-35.645,-25.879,-264.648
1630087771.849,-853.516,-4.883,1.953,-875.488
1630087771.853,156.250,-57.617,-40.039,159.668
1630087771.857,-1000.000,-79.590,-67.383,-1000.000
1630087771.861,-512.207,-41.992,-38.574,-724.609
1630087771.865,-925.293,-12.207,-1.465,892.090
1630087771.868,252.930,-43.457,-26.855,317.383
1630087771.872,-1000.000,-83.008,-63.477,-1000.000
1630087771.876,-1000.000,-63.965,-49.316,-1000.000
1630087771.880,503.418,-27.832,-17.090,231.445
1630087771.884,644.531,-39.062,-26.855,679.199
1630087771.886,-918.945,-81.543,-66.406,-844.238
1630087771.890,-1000.000,-75.684,-64.453,-1000.000
1630087771.894,-120.605,-41.992,-35.645,-170.898
1630087771.898,-903.320,-18.555,-36.133,-943.359
1630087771.902,-189.453,-52.734,-82.520,-176.270
1630087771.906,-1000.000,-73.242,-81.543,-1000.000
1630087771.910,-216.797,-41.016,-46.875,-375.488
1630087771.913,-840.332,-20.020,-33.691,-902.344
1630087771.917,237.305,-52.734,-60.547,219.238
1630087771.921,-1000.000,-76.172,-86.426,-1000.000
1630087771.925,-639.160,-66.895,-84.961,-873.047
1630087771.929,-989.746,-31.250,-69.336,722.656
1630087771.932,352.051,-41.016,-87.891,434.082
1630087771.936,-1000.000,-89.355,-128.418,-1000.000
1630087771.940,-1000.000,-77.148,-132.812,-1000.000
1630087771.944,291.992,-32.227,-100.586,77.148
1630087771.948,816.406,-28.809,-97.656,841.309
1630087771.952,-740.723,-75.195,-145.508,-640.625
1630087771.956,-1000.000,-93.262,-155.273,-1000.000
1630087771.959,-188.965,-58.105,-108.398,-193.848
1630087771.963,-876.465,-25.879,-84.473,-882.324
1630087771.967,-30.762,-70.312,-130.371,21.484
1630087771.971,-1000.000,-111.328,-142.578,-1000.000
1630087771.975,-303.223,-75.195,-103.516,-489.258
1630087771.977,-857.910,-23.926,-76.172,-933.105
1630087771.981,245.605,-48.340,-97.656,264.648
1630087771.985,-1000.000,-83.496,-125.000,-1000.000
1630087771.989,-793.945,-75.195,-104.492,-986.816
1630087771.993,847.168,-37.109,-69.824,549.805
1630087771.997,503.418,-41.992,-73.730,607.910
1630087772.001,-995.605,-91.309,-101.562,-920.898
1630087772.004,-1000.000,-88.867,-117.188,-1000.000
1630087772.008,125.488,-59.082,-107.910,-45.898
1630087772.012,976.074,-43.457,-104.980,-996.094
1630087772.016,-501.953,-72.754,-132.324,-364.258
1630087772.020,-1000.000,-83.496,-137.695,-1000.000
1630087772.022,-208.008,-50.293,-111.328,-217.285
1630087772.026,-852.051,-20.508,-74.707,-847.168
1630087772.030,157.715,-52.246,-88.867,208.008
1630087772.034,-1000.000,-85.449,-109.375,-1000.000
1630087772.038,-452.148,-62.500,-79.590,-565.430
1630087772.042,-895.996,-23.926,-44.434,-950.195
1630087772.046,258.301,-41.992,-74.707,407.715
1630087772.049,-1000.000,-90.332,-110.840,-1000.000
1630087772.053,-962.402,-83.984,-94.238,-1000.000
1630087772.057,606.445,-28.809,-57.617,404.297
1630087772.061,657.715,-28.320,-61.035,868.652
1630087772.065,-910.645,-94.238,-88.867,-663.086
1630087772.066,-1000.000,-101.074,-85.449,-1000.000
1630087772.070,-44.922,-38.086,-46.387,-142.578
1630087772.074,-880.371,-4.883,-19.531,-846.191
1630087772.078,-183.594,-58.594,-65.430,42.969
1630087772.082,-1000.000,-84.961,-86.426,-1000.000
1630087772.086,-219.238,-45.410,-70.801,-257.324
1630087772.090,-837.891,2.930,-43.945,-830.078
1630087772.093,234.375,-21.973,-46.875,256.836
1630087772.097,-1000.000,-83.496,-96.191,-1000.000
1630087772.101,-556.641,-67.383,-100.586,-638.184
1630087772.105,-935.059,-16.113,-70.801,985.840
1630087772.109,341.797,-41.992,-78.613,601.562
1630087772.112,-1000.000,-91.309,-107.910,-950.195
1630087772.116,-1000.000,-80.566,-104.980,-1000.000
1630087772.120,451.172,-29.785,-69.824,319.824
1630087772.124,850.098,-27.344,-67.871,-854.980
1630087772.128,-708.984,-83.008,-110.840,-206.543
1630087772.132,-1000.000,-82.031,-125.488,-1000.000
1630087772.136,-104.492,-23.926,-89.844,-145.020
1630087772.139,-853.027,-20.996,-86.914,-802.246
1630087772.143,-55.664,-80.078,-130.859,218.262
1630087772.147,-1000.000,-92.285,-137.207,-1000.000
1630087772.151,-228.516,-53.223,-117.188,-270.996
1630087772.155,-831.543,-18.066,-96.191,-832.520
1630087772.158,243.652,-45.898,-114.746,598.633
1630087772.162,-1000.000,-92.285,-148.438,-1000.000
1630087772.166,-605.469,-65.430,-135.742,-594.727
1630087772.170,-961.426,-13.672,-107.910,937.012
1630087772.174,439.941,-36.621,-134.766,-923.828
1630087772.178,-1000.000,-79.590,-152.344,-304.199
1630087772.182,-1000.000,-67.871,-121.582,-1000.000
1630087772.185,342.285,-23.438,-94.727,356.445
1630087772.189,966.309,-15.137,-92.773,-768.555
1630087772.193,-544.922,-61.523,-126.953,167.480
1630087772.197,-1000.000,-82.031,-139.160,-1000.000
1630087772.201,-191.895,-30.762,-106.934,-215.820
1630087772.218,-852.539,-3.418,-87.891,-787.598
1630087772.222,71.289,-49.316,-116.699,329.102
1630087772.226,-1000.000,-80.566,-135.254,-1000.000
1630087772.230,-298.340,-42.480,-109.375,-337.891
1630087772.234,-845.215,-0.488,-74.707,-864.746
1630087772.238,244.141,-33.691,-86.426,700.195
1630087772.242,-1000.000,-74.707,-107.910,-894.043
1630087772.245,-763.184,-63.477,-94.727,-809.082
1630087772.249,883.301,-20.020,-41.504,755.859
1630087772.253,551.758,-27.832,-24.414,-888.672
1630087772.257,-970.703,-70.312,-49.805,-226.074
1630087772.261,-1000.000,-68.848,-64.453,-1000.000
1630087772.262,122.070,-20.020,-39.551,62.012
1630087772.266,-935.059,-9.277,-16.113,-768.066
1630087772.270,-359.863,-51.270,-43.457,170.410
1630087772.274,-1000.000,-69.824,-53.711,-1000.000
1630087772.278,-212.891,-46.875,-28.320,-267.090
1630087772.282,-843.750,-18.555,-9.277,-808.105
1630087772.286,192.383,-41.992,-20.996,320.312
1630087772.289,-1000.000,-83.496,-42.480,-1000.000
1630087772.293,-429.688,-39.062,0.000,-474.609
1630087772.297,-879.883,26.367,52.246,-917.480
1630087772.301,250.488,-23.438,6.348,688.965
1630087772.305,-1000.000,-80.078,-34.180,-872.070
1630087772.306,-958.496,-65.918,-27.832,-1000.000
1630087772.310,595.703,-20.508,-2.441,490.723
1630087772.314,723.633,-20.996,-10.742,-855.957
1630087772.318,-850.098,-71.777,-40.527,-203.125
1630087772.322,-1000.000,-76.660,-23.438,-1000.000
1630087772.326,-28.809,-29.297,26.367,-85.938
1630087772.330,-869.141,-14.160,40.039,-790.527
1630087772.333,-162.598,-65.918,-2.930,189.453
1630087772.337,-1000.000,-87.402,-13.184,-1000.000
1630087772.341,-221.680,-42.969,11.230,-264.648
1630087772.345,-836.914,-4.883,34.668,-812.500
1630087772.349,238.281,-47.363,5.859,313.477
1630087772.355,-1000.000,-89.355,-27.344,-1000.000
1630087772.359,-582.520,-68.848,-15.625,-626.953
1630087772.363,-948.242,-17.578,29.785,982.910
1630087772.367,375.977,-34.180,33.203,761.230
1630087772.371,-1000.000,-94.238,-5.371,-777.832
1630087772.375,-1000.000,-80.566,3.906,-1000.000
1630087772.379,376.953,-24.414,54.199,241.211
1630087772.382,880.371,-22.461,65.430,-831.543
1630087772.386,-664.062,-78.613,29.297,-148.438
1630087772.390,-1000.000,-86.914,22.949,-1000.000
1630087772.394,-180.176,-34.180,57.617,-224.121
1630087772.398,-861.816,-13.184,64.941,-824.219
1630087772.398,10.742,-54.688,27.832,227.539
1630087772.402,-1000.000,-90.820,13.672,-1000.000
1630087772.406,-262.207,-67.383,34.180,-353.027
1630087772.410,-838.867,-18.066,63.477,-843.262
1630087772.414,242.188,-42.480,36.621,347.656
1630087772.418,-1000.000,-83.008,7.812,-1000.000
1630087772.422,-729.004,-61.035,14.160,-832.520
1630087772.425,924.805,-13.184,41.016,777.832
1630087772.429,498.535,-27.832,32.227,771.973
1630087772.433,-1000.000,-74.219,-2.441,-775.391
1630087772.437,-1000.000,-73.730,-7.324,-1000.000
1630087772.441,166.992,-25.391,21.484,31.250
1630087772.442,-961.426,-2.441,40.039,-835.938
1630087772.446,-415.527,-58.105,-1.465,-100.586
1630087772.450,-1000.000,-81.055,-22.461,-1000.000
1630087772.454,-208.984,-29.297,16.602,-228.027
1630087772.458,-847.168,-1.465,39.062,-829.590
1630087772.462,150.879,-56.152,3.906,239.746
1630087772.466,-1000.000,-79.102,-2.441,-1000.000
1630087772.469,-385.254,-41.016,16.602,-506.348
1630087772.473,-868.652,-14.648,41.504,-905.273
1630087772.477,246.094,-49.805,26.855,356.934
1630087772.481,-1000.000,-88.379,-13.184,-1000.000
1630087772.485,-873.535,-64.941,-14.160,-1000.000
1630087772.487,735.352,-16.602,18.066,449.707
1630087772.491,635.254,-27.344,29.785,852.051
1630087772.495,-923.340,-68.848,-4.883,-701.660
1630087772.499,-1000.000,-68.848,-10.742,-1000.000
1630087772.503,21.484,-37.109,16.602,-135.254
1630087772.507,-877.930,-14.648,36.621,-853.516
1630087772.511,-211.914,-50.781,36.133,-15.625
1630087772.514,-1000.000,-84.473,9.766,-1000.000
1630087772.518,-217.285,-54.688,21.973,-242.676
1630087772.522,-839.355,-11.230,52.246,-833.008
1630087772.526,211.914,-47.852,29.297,242.676
1630087772.530,-1000.000,-86.914,2.441,-1000.000
1630087772.546,-509.766,-60.547,14.648,-671.875
1630087772.550,-913.574,-18.555,53.711,978.516
1630087772.554,297.852,-44.434,33.691,444.336
1630087772.558,-1000.000,-90.332,-0.977,-1000.000
1630087772.562,-1000.000,-62.988,15.137,-1000.000
1630087772.566,500.977,-9.766,51.270,245.117
1630087772.570,780.762,-10.254,53.711,979.004
1630087772.573,-784.668,-62.988,8.789,-520.996
1630087772.577,-1000.000,-77.148,-11.719,-1000.000
1630087772.581,-105.957,-20.508,27.832,-192.383
1630087772.585,-881.348,6.836,47.852,-858.887
1630087772.589,-140.137,-53.223,2.930,45.898
1630087772.592,-1000.000,-83.984,-20.508,-1000.000
1630087772.596,-220.703,-41.504,6.836,-332.520
1630087772.600,-837.402,-2.441,42.969,-860.840
1630087772.604,239.746,-50.293,12.695,247.070
1630087772.608,-1000.000,-82.520,-23.438,-1000.000
1630087772.612,-633.789,-45.410,-7.812,-811.523
1630087772.616,-983.887,-2.441,27.832,822.266
1630087772.619,368.652,-31.738,7.812,537.109
1630087772.623,-1000.000,-79.590,-37.598,-981.934
1630087772.627,-1000.000,-62.012,-40.527,-1000.000
1630087772.631,288.086,-16.602,-12.207,103.027
1630087772.635,888.672,-16.602,-4.395,-943.359
1630087772.636,-652.832,-66.895,-37.109,-369.141
1630087772.640,-1000.000,-71.289,-47.363,-1000.000
1630087772.644,-189.453,-34.668,-10.254,-211.426
1630087772.648,-863.770,-14.648,10.742,-844.238
1630087772.652,23.438,-59.570,-27.832,185.059
1630087772.656,-1000.000,-80.078,-40.527,-1000.000
1630087772.660,-291.016,-37.598,-9.277,-431.152
1630087772.663,-847.168,5.859,19.043,-882.324
1630087772.667,242.676,-44.922,-9.766,250.977
1630087772.671,-1000.000,-86.426,-36.133,-1000.000
1630087772.675,-784.668,-50.293,-11.719,-948.242
1630087772.679,857.910,-9.766,15.625,613.281
1630087772.682,516.602,-21.973,5.371,701.172
1630087772.686,-992.188,-62.500,-20.996,-869.141
1630087772.690,-1000.000,-47.363,-19.531,-1000.000
1630087772.694,129.883,6.348,14.648,-31.738
1630087772.698,-972.168,22.461,20.020,-870.605
1630087772.702,-421.875,-30.762,-20.020,-162.598
1630087772.706,-1000.000,-41.016,-21.484,-1000.000
1630087772.709,-208.984,-2.930,7.324,-221.191
1630087772.713,-848.145,4.395,13.184,-835.938
1630087772.717,159.180,-33.203,-17.090,236.816
1630087772.721,-1000.000,-51.758,-30.273,-1000.000
1630087772.725,-419.434,-21.973,-0.488,-568.848
1630087772.727,-880.859,11.230,30.762,-940.430
1630087772.731,245.605,-21.973,24.414,355.469
1630087772.735,-1000.000,-62.012,-0.488,-1000.000
1630087772.739,-933.105,-47.363,0.488,-1000.000
1630087772.743,644.043,-0.977,36.621,382.812
1630087772.747,657.227,-0.977,33.203,856.934
1630087772.751,-905.762,-37.598,10.742,-696.289
1630087772.754,-1000.000,-57.129,-0.488,-1000.000
1630087772.758,-24.902,-52.734,7.324,-164.551
1630087772.762,-896.484,-20.508,37.598,-866.211
1630087772.766,-226.562,-48.340,21.973,-30.273
1630087772.770,-1000.000,-71.289,-9.766,-1000.000
1630087772.772,-217.285,-29.297,13.672,-264.160
1630087772.776,-839.844,0.977,62.012,-842.773
1630087772.780,228.027,-40.527,32.715,245.605
1630087772.784,-1000.000,-73.242,2.441,-1000.000
1630087772.788,-544.434,-49.805,20.996,-700.195
1630087772.792,-929.199,-1.953,55.176,951.660
1630087772.796,312.012,-19.531,36.621,469.727
1630087772.799,-1000.000,-83.496,-10.742,-1000.000
1630087772.803,-1000.000,-66.406,-6.348,-1000.000
1630087772.807,455.566,0.000,33.691,226.074
1630087772.811,805.176,-4.395,27.344,981.934
1630087772.815,-753.418,-57.129,-17.090,-514.648
1630087772.817,-1000.000,-57.129,-21.973,-1000.000
1630087772.821,-154.297,-17.578,3.906,-201.660
1630087772.825,-870.117,9.277,12.695,-855.957
1630087772.829,-67.383,-29.785,-21.484,82.031
1630087772.833,-1000.000,-60.059,-32.715,-1000.000
1630087772.837,-225.098,-21.973,-1.953,-353.516
1630087772.841,-833.496,13.672,22.949,-864.258
1630087772.844,240.723,-35.156,-11.719,246.094
1630087772.848,-1000.000,-79.102,-48.828,-1000.000
1630087772.852,-683.105,-53.711,-31.250,-850.586
1630087772.856,970.215,-5.859,14.160,770.508
1630087772.860,425.781,-22.461,13.672,592.773
1630087772.863,-1000.000,-62.500,-14.160,-953.125
1630087772.867,-1000.000,-59.082,-8.301,-1000.000
1630087772.871,250.977,-21.484,31.250,65.918
1630087772.875,952.148,-1.465,35.645,-913.086
1630087772.879,-559.570,-49.805,-1.465,-301.758
1630087772.883,-1000.000,-63.965,-11.230,-1000.000
1630087772.887,-196.777,-20.996,-0.977,-212.402
1630087772.890,-860.840,-4.395,12.695,-843.750
1630087772.894,49.316,-39.062,-13.184,187.012
1630087772.898,-1000.000,-63.477,-39.062,-1000.000
1630087772.902,-331.543,-30.762,-19.043,-483.398
1630087772.906,-859.863,14.160,8.789,-905.273
1630087772.922,245.117,-15.625,-10.742,285.156
1630087772.926,-1000.000,-55.176,-40.527,-1000.000
1630087772.930,-825.684,-35.645,-37.598,-978.516
1630087772.934,805.176,7.324,-5.859,569.824
1630087772.938,544.922,-1.465,-12.695,726.074
1630087772.942,-978.516,-59.570,-58.105,-845.215
1630087772.946,-1000.000,-64.453,-73.242,-1000.000
1630087772.949,86.426,-15.137,-41.016,-79.102
1630087772.953,-930.664,4.883,-24.414,-861.328
1630087772.957,-343.262,-50.781,-67.383,-104.004
1630087772.961,-1000.000,-77.148,-76.172,-1000.000
1630087772.965,-210.938,-22.461,-23.926,-224.609
1630087772.966,-846.191,16.113,4.395,-833.008
1630087772.970,174.316,-33.203,-40.039,244.629
1630087772.974,-1000.000,-68.359,-64.453,-1000.000
1630087772.978,-465.820,-35.156,-43.945,-592.773
1630087772.982,-899.902,13.184,-18.066,-953.125
1630087772.986,268.555,-10.742,-31.250,416.504
1630087772.990,-1000.000,-49.805,-51.270,-1000.000
1630087772.993,-959.961,-32.227,-38.086,-1000.000
1630087772.997,601.562,1.465,-4.883,355.957
1630087773.001,689.941,-10.254,-2.930,927.246
1630087773.005,-876.953,-44.434,-26.367,-602.539
1630087773.009,-1000.000,-33.691,-30.273,-1000.000
1630087773.012,-45.898,1.953,11.719,-180.176
1630087773.016,-876.953,8.301,34.668,-848.145
1630087773.020,-173.340,-37.598,-4.883,76.172
1630087773.024,-1000.000,-57.129,-24.414,-1000.000
1630087773.028,-219.727,-30.273,0.000,-278.809
1630087773.032,-838.379,13.184,41.992,-836.914
1630087773.036,233.398,-13.672,12.695,243.164
1630087773.039,-1000.000,-56.641,-29.785,-1000.000
1630087773.043,-588.867,-45.410,-17.090,-729.980
1630087773.047,-953.125,-6.348,19.531,918.457
1630087773.051,353.516,-13.672,11.230,569.824
1630087773.055,-1000.000,-58.594,-27.344,-963.379
1630087773.057,-1000.000,-55.176,-40.039,-1000.000
1630087773.061,387.207,-10.254,-4.395,172.363
1630087773.065,822.754,1.953,14.160,-937.500
1630087773.069,-735.840,-43.457,-19.043,-376.465
1630087773.073,-1000.000,-49.316,-24.902,-1000.000
1630087773.077,-160.156,-3.418,2.441,-210.938
1630087773.081,-867.676,14.648,19.043,-843.262
1630087773.084,-42.480,-39.062,-0.488,172.852
1630087773.088,-1000.000,-61.523,-17.090,-1000.000
1630087773.092,-256.836,-24.414,2.930,-392.090
1630087773.096,-841.797,12.207,52.734,-867.188
1630087773.100,243.652,-26.855,27.832,263.184
1630087773.103,-1000.000,-67.383,-7.812,-1000.000
1630087773.107,-711.914,-38.086,15.137,-880.371
1630087773.111,940.430,14.648,60.059,717.773
1630087773.115,474.609,-4.395,46.387,689.453
1630087773.119,-1000.000,-61.035,7.324,-878.418
1630087773.123,-1000.000,-46.387,17.578,-1000.000
1630087773.127,225.586,2.930,61.035,37.598
1630087773.130,964.355,-13.672,55.176,-875.977
1630087773.134,-540.039,-71.289,3.906,-213.867
1630087773.138,-1000.000,-65.918,21.973,-1000.000
1630087773.142,-201.660,-20.508,64.941,-218.750
1630087773.146,-858.398,5.371,65.918,-836.914
1630087773.146,77.148,-40.527,32.227,227.539
1630087773.150,-1000.000,-69.824,27.344,-1000.000
1630087773.154,-357.910,-34.668,53.711,-509.766
1630087773.158,-867.188,8.301,88.379,-910.156
1630087773.162,246.582,-30.273,52.734,315.430
1630087773.166,-1000.000,-64.941,17.578,-1000.000
1630087773.170,-852.539,-36.133,32.715,-1000.000
1630087773.173,767.090,-19.531,45.410,485.840
1630087773.177,602.539,-22.461,54.199,832.520
1630087773.181,-945.312,-56.152,33.691,-725.586
1630087773.185,-1000.000,-59.570,20.508,-1000.000
1630087773.189,62.988,-7.324,62.988,-118.164
1630087773.192,-933.105,5.859,82.031,-862.305
1630087773.196,-335.449,-46.387,38.574,-76.660
1630087773.200,-1000.000,-59.082,21.973,-1000.000
1630087773.204,-212.402,-18.555,54.199,-225.586
1630087773.208,-845.215,1.465,74.219,-833.008
1630087773.212,194.824,-34.180,39.551,243.164
1630087773.216,-1000.000,-75.684,2.441,-1000.000
1630087773.219,-493.164,-75.195,0.977,-643.555
1630087773.223,-910.156,-19.531,45.898,-991.699
1630087773.227,270.020,-27.832,39.551,401.367
1630087773.231,-1000.000,-69.336,0.977,-1000.000
1630087773.235,-983.398,-48.828,3.418,-1000.000
1630087773.237,562.988,-2.441,45.410,276.855
1630087773.241,708.496,-13.184,46.875,920.410
1630087773.245,-862.305,-51.270,4.883,-606.934
1630087773.249,-1000.000,-42.969,-2.930,-1000.000
1630087773.253,-80.566,-5.371,19.043,-194.824
1630087773.257,-869.629,22.949,34.668,-854.004
1630087773.261,-126.465,-38.086,-12.207,73.730
1630087773.264,-1000.000,-70.312,-27.344,-1000.000
1630087773.268,-222.656,-16.113,22.949,-306.641
1630087773.272,-835.938,13.672,49.316,-846.680
1630087773.276,236.816,-32.715,1.465,242.676
1630087773.280,-1000.000,-67.871,-21.484,-1000.000
1630087773.282,-604.492,-42.480,14.160,-799.316
1630087773.286,-961.426,5.859,45.898,838.379
1630087773.290,361.328,-15.625,28.809,539.062
1630087773.294,-1000.000,-70.801,-2.930,-982.910
1630087773.298,-1000.000,-61.035,-1.953,-1000.000
1630087773.302,352.051,-12.207,36.621,116.211
1630087773.306,867.676,-3.906,49.316,-934.570
1630087773.309,-682.129,-58.105,6.348,-358.398
1630087773.313,-1000.000,-65.918,-0.977,-1000.000
1630087773.317,-182.129,-31.738,18.555,-211.426
1630087773.321,-866.699,-13.184,23.926,-844.238
1630087773.325,-3.906,-49.805,-5.859,180.664
1630087773.342,-1000.000,-76.660,-37.598,-1000.000
1630087773.346,-279.785,-30.762,-19.043,-437.012
1630087773.350,-846.680,10.254,22.949,-886.719
1630087773.354,245.605,-31.250,-11.719,250.977
1630087773.358,-1000.000,-65.430,-43.457,-1000.000
1630087773.362,-727.051,-37.109,-7.324,-906.250
1630087773.366,924.805,2.441,27.344,669.434
1630087773.369,500.977,-7.324,15.137,708.008
1630087773.373,-995.605,-56.641,-23.438,-856.934
1630087773.377,-1000.000,-67.871,-36.621,-1000.000
1630087773.381,174.316,-7.324,11.230,-17.578
1630087773.385,980.469,3.906,23.926,-882.812
1630087773.388,-506.348,-59.082,-15.137,-202.148
1630087773.392,-1000.000,-65.430,-24.902,-1000.000
1630087773.396,-205.078,-15.137,8.789,-219.238
1630087773.400,-854.004,13.672,39.551,-836.914
1630087773.404,121.582,-41.504,-13.184,237.793
1630087773.408,-1000.000,-80.566,-43.457,-1000.000
1630087773.412,-394.043,-39.551,3.418,-537.109
1630087773.415,-875.488,10.742,48.340,-922.363
1630087773.419,246.582,-25.879,12.207,420.410
1630087773.423,-1000.000,-83.984,-32.715,-1000.000
1630087773.427,-899.414,-59.570,-11.719,-1000.000
1630087773.431,703.125,-5.859,29.785,419.922
1630087773.431,599.121,-16.113,20.996,917.480
1630087773.435,-950.195,-69.824,-24.414,-616.211
1630087773.439,-1000.000,-69.824,-33.203,-1000.000
1630087773.443,31.250,-14.648,3.418,-141.113
1630087773.447,-923.340,2.930,13.672,-840.332
1630087773.451,-307.617,-50.781,-37.109,44.434
1630087773.455,-1000.000,-66.406,-45.410,-1000.000
1630087773.458,-213.867,-26.367,-12.207,-237.793
1630087773.462,-843.750,-9.277,2.441,-824.707
1630087773.466,208.984,-45.898,-31.250,240.723
1630087773.470,-1000.000,-68.848,-56.641,-1000.000
1630087773.474,-506.836,-33.203,-39.062,-662.109
1630087773.477,-912.598,15.625,4.395,988.281
1630087773.481,290.527,-12.695,-6.836,513.184
1630087773.485,-1000.000,-62.012,-46.875,-993.652
1630087773.489,-1000.000,-55.176,-43.457,-1000.000
1630087773.493,489.258,-3.418,-7.812,206.543
1630087773.497,811.035,6.836,-4.395,-908.691
1630087773.501,-748.535,-48.828,-45.898,-335.449
1630087773.504,-1000.000,-53.223,-48.828,-1000.000
1630087773.508,-116.211,-4.883,-0.977,-210.938
1630087773.512,-873.047,9.277,13.672,-840.820
1630087773.516,-104.980,-45.898,-33.691,158.203
1630087773.520,-1000.000,-76.660,-42.480,-1000.000
1630087773.523,-223.633,-37.598,-7.324,-343.262
1630087773.527,-834.961,-0.488,11.230,-850.586
1630087773.531,244.141,-42.480,-31.250,244.141
1630087773.535,-1000.000,-77.637,-71.777,-1000.000
1630087773.539,-617.676,-54.199,-58.594,-816.406
1630087773.543,-966.309,-6.836,-9.766,803.711
1630087773.547,400.391,-24.414,-22.461,645.996
1630087773.550,-1000.000,-78.613,-76.660,-909.180
1630087773.554,-1000.000,-68.848,-62.012,-1000.000
1630087773.558,290.039,-22.461,-2.441,73.730
1630087773.562,901.855,-14.648,3.418,-891.113
1630087773.566,-631.836,-70.801,-48.828,-262.207
1630087773.568,-1000.000,-83.984,-49.805,-1000.000
1630087773.572,-187.012,-30.762,-6.348,-216.309
1630087773.576,-865.234,-11.230,19.043,-837.891
1630087773.580,8.789,-59.570,-14.160,212.891
1630087773.584,-1000.000,-83.984,-33.691,-1000.000
1630087773.588,-285.645,-40.039,-2.930,-459.961
1630087773.592,-847.168,3.418,25.879,-889.648
1630087773.595,243.652,-53.223,-19.043,287.109
1630087773.599,-1000.000,-104.980,-56.641,-1000.000
1630087773.603,-768.555,-75.195,-36.133,-968.262
1630087773.607,877.930,-18.066,11.719,586.914
1630087773.611,499.512,-27.832,-0.488,732.422
1630087773.611,-999.023,-78.125,-44.434,-836.426
1630087773.615,-1000.000,-70.312,-36.621,-1000.000
1630087773.619,127.441,-21.973,9.277,-85.449
1630087773.623,-968.262,-9.766,20.020,-857.910
1630087773.627,-415.039,-56.152,-20.020,-96.191
1630087773.631,-1000.000,-75.684,-25.391,-1000.000
1630087773.635,-208.496,-44.922,5.371,-224.609
1630087773.638,-848.145,-18.555,34.668,-833.008
1630087773.642,153.809,-55.176,-11.230,244.629
1630087773.646,-1000.000,-78.125,-46.875,-1000.000
1630087773.650,-414.062,-44.434,0.488,-596.680
1630087773.654,-878.906,-1.465,50.781,-953.613
1630087773.657,245.117,-31.738,23.438,385.254
1630087773.661,-1000.000,-83.008,-8.789,-1000.000
1630087773.665,-931.641,-68.848,-0.488,-1000.000
1630087773.669,645.508,-17.090,40.039,319.824
1630087773.673,660.156,-16.113,34.180,911.133
1630087773.677,-905.762,-75.195,-21.973,-625.977
1630087773.681,-1000.000,-77.148,-26.367,-1000.000
1630087773.684,7.324,-29.297,26.367,-168.945
1630087773.688,-902.344,-16.602,46.875,-861.328
1630087773.692,-252.930,-74.219,1.953,-6.348
1630087773.696,-1000.000,-89.355,-10.742,-1000.000
1630087773.700,-216.797,-37.109,29.297,-273.926
1630087773.717,-840.820,0.977,68.359,-844.238
1630087773.721,226.562,-43.945,37.598,244.629
1630087773.725,-1000.000,-82.520,0.488,-1000.000
1630087773.729,-549.805,-50.781,17.090,-738.770
1630087773.733,-932.129,-3.906,66.406,913.574
1630087773.737,324.219,-30.273,49.805,524.414
1630087773.741,-1000.000,-80.078,4.883,-986.328
1630087773.744,-1000.000,-72.266,22.949,-1000.000
1630087773.748,432.617,-22.461,67.871,157.227
1630087773.752,804.199,-18.555,71.289,-967.773
1630087773.756,-757.324,-76.660,25.879,-421.875
1630087773.760,-1000.000,-82.520,9.277,-1000.000
1630087773.762,-143.555,-35.645,48.340,-208.008
1630087773.766,-866.699,-11.719,68.848,-847.656
1630087773.770,-63.965,-56.152,19.043,147.461
1630087773.774,-1000.000,-75.195,1.953,-1000.000
1630087773.778,-228.516,-36.133,40.527,-394.043
1630087773.782,-833.984,7.812,76.660,-872.070
1630087773.786,241.699,-26.367,47.852,248.047
1630087773.789,-1000.000,-77.637,9.277,-1000.000
1630087773.793,-670.410,-50.781,35.645,-876.465
1630087773.797,982.422,9.766,89.844,734.863
1630087773.801,410.645,-19.043,58.105,617.188
1630087773.805,-1000.000,-82.031,-2.441,-938.965
1630087773.808,-1000.000,-73.242,0.977,-1000.000
1630087773.812,261.230,-21.484,45.410,36.133
1630087773.816,914.551,-13.672,51.758,-902.344
1630087773.820,-639.648,-63.965,0.000,-304.688
1630087773.824,-1000.000,-68.359,-16.113,-1000.000
1630087773.828,-111.328,-25.391,26.855,-126.953
1630087773.832,-874.512,-4.883,49.316,-852.051
1630087773.835,47.363,-54.688,0.977,222.168
1630087773.839,-1000.000,-62.500,-8.301,-1000.000
1630087773.843,-335.449,-26.855,17.090,-517.578
1630087773.847,-861.816,-2.441,43.457,-914.551
1630087773.851,246.094,-39.551,26.367,320.312
1630087773.852,-1000.000,-88.867,-7.324,-1000.000
1630087773.856,-824.707,-77.148,5.859,-1000.000
1630087773.860,804.199,-25.879,56.641,477.051
1630087773.864,575.195,-26.855,59.082,819.336
1630087773.868,-961.426,-77.637,16.602,-744.141
1630087773.872,-1000.000,-77.637,9.766,-1000.000
1630087773.876,94.238,-30.762,54.688,-108.887
1630087773.879,-941.406,-4.883,92.285,-859.375
1630087773.883,-360.840,-39.551,58.105,-76.172
1630087773.887,-1000.000,-74.219,36.133,-1000.000
1630087773.891,-211.426,-44.922,75.195,-225.586
1630087773.895,-846.191,-11.230,105.957,-832.520
1630087773.897,180.664,-66.895,59.570,243.652
1630087773.901,-1000.000,-92.285,21.973,-1000.000
1630087773.905,-460.938,-51.758,43.945,-634.277
1630087773.909,-897.461,-9.766,80.566,-982.422
1630087773.913,254.395,-39.062,51.270,409.668
1630087773.917,-1000.000,-83.984,4.883,-1000.000
1630087773.921,-951.172,-68.359,14.648,-1000.000
1630087773.924,618.164,-15.137,67.871,297.363
1630087773.928,657.227,-25.879,59.082,889.648
1630087773.932,-906.738,-83.008,0.488,-651.367
1630087773.936,-1000.000,-77.637,-6.836,-1000.000
1630087773.940,-43.457,-39.062,27.344,-193.848
1630087773.941,-880.371,-24.414,44.922,-859.863
1630087773.945,-184.082,-64.941,-0.488,48.340
1630087773.949,-1000.000,-81.543,-20.508,-1000.000
1630087773.953,-219.727,-44.922,4.883,-305.664
1630087773.957,-838.379,-14.160,33.203,-849.609
1630087773.961,237.793,-51.758,5.859,246.582
1630087773.965,-1000.000,-83.984,-36.621,-1000.000
1630087773.968,-562.500,-58.105,-24.902,-762.207
1630087773.972,995.605,-18.555,15.137,806.641
1630087773.976,237.305,-38.574,2.930,426.270
1630087773.980,-1000.000,-81.543,-35.645,-981.934
1630087773.984,-1000.000,-69.336,-34.668,-1000.000
1630087773.987,374.023,-20.020,17.578,110.840
1630087773.991,840.332,-23.926,27.832,-943.848
1630087773.995,-718.262,-76.172,-23.438,-375.000
1630087773.999,-1000.000,-74.219,-33.203,-1000.000
1630087774.003,-165.039,-24.902,6.348,-210.449
1630087774.007,-866.699,8.301,29.297,-844.238
1630087774.011,-34.180,-47.363,-25.879,176.758
1630087774.014,-1000.000,-79.102,-39.551,-1000.000
1630087774.018,-251.465,-37.598,3.418,-414.551
1630087774.022,-839.355,-6.348,27.832,-875.488
1630087774.026,242.676,-43.457,-4.883,252.930
1630087774.030,-1000.000,-86.426,-44.434,-1000.000
1630087774.033,-714.355,-57.129,-28.320,-921.875
1630087774.037,935.059,-11.230,14.160,656.738
1630087774.041,483.887,-45.898,-2.441,687.988
1630087774.045,-1000.000,-98.633,-46.875,-931.641
1630087774.049,-1000.000,-64.453,-31.250,-1000.000
1630087774.053,384.766,-2.441,25.879,167.969
1630087774.057,968.262,3.906,28.320,-892.578
1630087774.060,-508.301,-55.176,-28.809,-188.965
1630087774.064,-1000.000,-84.473,-41.504,-1000.000
1630087774.068,-200.684,-47.852,-4.395,-219.238
1630087774.072,-857.910,-11.230,8.789,-836.914
1630087774.076,73.242,-47.363,-28.320,229.492
1630087774.092,-1000.000,-83.984,-49.316,-1000.000
1630087774.096,-354.004,-39.551,-15.625,-537.598
1630087774.100,-866.211,5.859,26.367,-924.316
1630087774.104,246.582,-41.016,-1.953,313.477
1630087774.108,-1000.000,-81.055,-37.109,-1000.000
1630087774.112,-846.191,-58.594,-28.809,-1000.000
1630087774.116,777.344,-20.508,8.789,455.078
1630087774.119,581.055,-27.832,5.371,821.777
1630087774.123,-957.031,-81.055,-41.992,-737.305
1630087774.127,-1000.000,-75.684,-45.410,-1000.000
1630087774.131,61.523,-22.461,2.441,-148.438
1630087774.135,-934.570,-9.766,19.531,-866.211
1630087774.136,-338.379,-65.918,-26.367,-57.617
1630087774.140,-1000.000,-91.797,-46.387,-1000.000
1630087774.144,-214.355,-44.922,-11.230,-234.863
1630087774.148,-837.891,-3.906,20.020,-829.590
1630087774.152,180.176,-49.316,-21.973,229.492
1630087774.156,-1000.000,-80.078,-57.129,-1000.000
1630087774.160,-398.926,-41.504,-37.598,-596.680
1630087774.163,-917.480,5.859,8.301,981.934
1630087774.167,271.484,-28.320,-22.461,436.035
1630087774.171,-1000.000,-84.473,-78.125,-1000.000
1630087774.175,-980.469,-58.105,-53.223,-1000.000
1630087774.179,567.383,-6.348,4.883,246.582
1630087774.182,712.402,-10.742,9.766,947.266
1630087774.186,-857.910,-64.453,-31.738,-567.871
1630087774.190,-1000.000,-66.406,-45.410,-1000.000
1630087774.194,-69.824,-20.996,-9.766,-201.172
1630087774.198,-879.883,-3.906,16.113,-857.910
1630087774.202,-163.574,-49.805,-23.926,75.195
1630087774.206,-1000.000,-80.078,-47.363,-1000.000
1630087774.209,-220.215,-34.668,-16.602,-349.609
1630087774.213,-837.891,9.766,19.043,-863.770
1630087774.217,238.770,-34.668,-19.043,248.047
1630087774.221,-1000.000,-68.359,-53.223,-1000.000
1630087774.225,-601.074,-48.828,-25.879,-825.684
1630087774.227,-959.473,-3.906,22.461,804.688
1630087774.231,351.562,-21.484,8.301,557.617
1630087774.235,-1000.000,-73.242,-39.551,-974.609
1630087774.239,-1000.000,-64.941,-41.016,-1000.000
1630087774.243,353.027,-14.648,-0.488,94.238
1630087774.247,866.211,0.000,3.418,-920.898
1630087774.251,-685.059,-54.199,-45.898,-330.078
1630087774.254,-1000.000,-60.547,-42.969,-1000.000
1630087774.258,-184.082,-10.742,1.465,-217.285
1630087774.262,-850.586,8.301,18.066,-828.125
1630087774.266,-37.109,-47.363,-24.902,161.133
1630087774.270,-1000.000,-74.219,-48.340,-1000.000
1630087774.273,-99.609,-28.320,-17.090,-282.715
1630087774.277,-864.746,13.184,20.996,-913.574
1630087774.281,243.652,-31.738,-8.301,262.695
1630087774.285,-1000.000,-73.242,-49.316,-1000.000
1630087774.289,-735.352,-46.875,-41.992,-951.660
1630087774.293,918.457,-4.395,1.465,608.398
1630087774.297,475.098,-15.625,-3.906,708.984
1630087774.300,-1000.000,-64.453,-49.805,-857.422
1630087774.304,-1000.000,-66.895,-50.293,-1000.000
1630087774.308,151.855,-25.879,-12.695,-64.941
1630087774.312,987.793,-8.301,1.953,-876.465
1630087774.316,-491.699,-51.758,-50.293,-161.621
1630087774.317,-1000.000,-72.754,-61.523,-1000.000
1630087774.321,-205.078,-38.086,-15.137,-220.215
1630087774.325,-853.516,0.977,11.230,-836.426
1630087774.329,124.023,-35.156,-26.855,239.258
1630087774.333,-1000.000,-78.125,-56.641,-1000.000
1630087774.337,-399.414,-48.828,-33.203,-575.195
1630087774.341,-877.441,10.742,19.043,-943.359
1630087774.344,248.535,-12.207,10.254,346.680
1630087774.348,-1000.000,-60.059,-36.621,-1000.000
1630087774.352,-889.160,-59.082,-32.227,-1000.000
1630087774.356,716.309,-20.996,17.578,370.117
1630087774.360,605.957,-21.973,13.184,860.352
1630087774.362,-943.848,-71.777,-41.992,-693.848
1630087774.366,-1000.000,-69.824,-49.316,-1000.000
1630087774.370,16.113,-22.949,-5.859,-169.434
1630087774.374,-911.133,-5.371,5.371,-861.328
1630087774.378,-277.344,-62.012,-39.551,-7.324
1630087774.382,-1000.000,-83.496,-50.781,-1000.000
1630087774.386,-213.867,-29.785,-8.789,-254.395
1630087774.389,-843.750,-5.859,15.137,-837.402
1630087774.393,201.660,-55.176,-27.344,242.188
1630087774.397,-1000.000,-86.914,-51.758,-1000.000
1630087774.401,-521.484,-61.035,-28.320,-721.191
1630087774.405,-920.898,-11.719,13.184,932.129
1630087774.422,298.340,-31.738,-10.742,493.164
1630087774.426,-1000.000,-75.195,-53.223,-1000.000
1630087774.430,-1000.000,-64.453,-42.969,-1000.000
1630087774.434,493.164,-17.090,0.000,199.219
1630087774.438,749.512,-12.695,6.836,992.188
1630087774.442,-820.801,-59.082,-27.832,-497.070
1630087774.446,-1000.000,-67.871,-31.738,-1000.000
1630087774.449,-118.652,-31.250,-0.488,-204.102
1630087774.453,-872.070,-2.441,19.043,-852.539
1630087774.457,-102.051,-32.227,-4.883,109.375
1630087774.461,-1000.000,-46.387,-17.090,-1000.000
1630087774.465,-223.633,-16.602,5.859,-357.910
1630087774.466,-834.961,13.184,37.109,-862.305
1630087774.470,243.164,-37.598,2.930,245.605
1630087774.474,-1000.000,-71.777,-23.926,-1000.000
1630087774.478,-633.789,-41.016,-5.859,-856.934
1630087774.482,-982.422,6.348,30.273,758.301
1630087774.486,411.133,-2.441,13.672,635.742
1630087774.490,-1000.000,-60.059,-34.668,-921.875
1630087774.493,-1000.000,-66.406,-33.203,-1000.000
1630087774.497,291.504,-15.137,13.672,54.688
1630087774.501,875.000,4.883,34.180,-921.875
1630087774.505,-667.969,-51.270,-20.020,-313.965
1630087774.509,-1000.000,-67.871,-42.480,-1000.000
1630087774.513,-187.500,-24.414,0.488,-213.379
1630087774.517,-864.746,0.977,28.320,-842.773
1630087774.521,17.578,-36.621,-15.625,205.566
1630087774.525,-1000.000,-69.824,-40.039,-1000.000
1630087774.529,-298.340,-30.762,0.000,-491.211
1630087774.533,-850.586,20.508,39.062,-906.250
1630087774.537,245.117,-27.344,3.418,283.203
1630087774.540,-1000.000,-83.984,-42.480,-1000.000
1630087774.544,-770.508,-44.434,-4.395,-978.027
1630087774.548,875.488,28.809,64.453,574.219
1630087774.552,499.023,-9.277,20.020,716.797
1630087774.556,-999.512,-77.637,-43.457,-853.027
1630087774.556,-1000.000,-65.430,-31.738,-1000.000
1630087774.560,134.277,-21.484,8.789,-84.473
1630087774.564,-976.562,-14.160,16.113,-869.141
1630087774.568,-430.664,-65.430,-31.250,-127.441
1630087774.572,-1000.000,-81.055,-44.922,-1000.000
1630087774.576,-206.543,-26.855,-0.488,-222.656
1630087774.580,-851.562,4.883,20.996,-835.449
1630087774.583,134.766,-48.828,-28.320,244.629
1630087774.587,-1000.000,-62.012,-35.156,-1000.000
1630087774.591,-418.457,-30.273,-7.324,-603.516
1630087774.595,-883.789,1.953,20.996,-958.008
1630087774.599,247.559,-29.785,-4.395,381.348
1630087774.601,-1000.000,-80.566,-44.922,-1000.000
1630087774.605,-925.781,-60.547,-30.273,-1000.000
1630087774.609,657.715,-15.625,13.672,328.613
1630087774.613,641.602,-20.508,10.742,895.020
1630087774.617,-919.922,-79.102,-38.574,-646.973
1630087774.621,-1000.000,-86.426,-39.551,-1000.000
1630087774.625,-6.348,-32.715,-3.906,-179.199
1630087774.628,-899.902,-9.277,11.230,-860.840
1630087774.632,-243.164,-65.918,-33.691,14.160
1630087774.636,-1000.000,-94.727,-52.246,-1000.000
1630087774.640,-216.309,-47.363,-7.812,-275.879
1630087774.644,-840.820,-6.348,25.879,-842.773
1630087774.646,221.191,-47.852,-15.137,244.629
1630087774.650,-1000.000,-85.938,-46.875,-1000.000
1630087774.654,-538.086,-55.176,-26.855,-737.305
1630087774.658,-927.246,-3.418,11.230,915.527
1630087774.662,304.199,-32.715,-5.371,503.906
1630087774.666,-1000.000,-84.961,-46.875,-998.535
1630087774.670,-1000.000,-72.266,-45.898,-1000.000
1630087774.673,458.008,-26.367,-6.836,184.570
1630087774.677,777.344,-21.973,-1.465,999.023
1630087774.681,-788.086,-71.289,-47.852,-483.398
1630087774.685,-1000.000,-67.383,-54.688,-1000.000
1630087774.689,-145.508,-19.531,-10.254,-205.566
1630087774.692,-869.141,0.000,7.812,-851.562
1630087774.696,-69.336,-55.176,-37.598,124.512
1630087774.700,-1000.000,-78.613,-48.340,-1000.000
1630087774.704,-230.957,-30.762,-12.207,-389.648
1630087774.708,-835.449,4.883,18.555,-873.535
1630087774.712,242.676,-34.180,-13.672,249.023
1630087774.716,-1000.000,-65.918,-39.551,-1000.000
1630087774.719,-668.945,-39.551,-16.113,-870.117
1630087774.723,983.887,3.906,17.090,743.652
1630087774.727,403.809,-17.090,-2.441,614.258
1630087774.731,-1000.000,-72.754,-50.293,-939.941
1630087774.735,-1000.000,-72.266,-50.293,-1000.000
1630087774.739,249.512,-21.973,-6.348,19.043
1630087774.743,954.590,-4.395,0.488,-884.277
1630087774.747,-557.129,-58.594,-50.781,-227.539
1630087774.751,-1000.000,-72.266,-65.918,-1000.000
1630087774.755,-198.730,-19.043,-27.344,-216.797
1630087774.759,-861.816,20.020,0.000,-839.355
1630087774.763,45.898,-27.832,-36.133,219.238
1630087774.766,-1000.000,-72.266,-55.176,-1000.000
1630087774.770,-328.613,-37.598,-26.855,-524.902
1630087774.774,-859.375,7.812,12.207,-919.922
1630087774.778,245.605,-33.203,-22.461,299.805
1630087774.782,-1000.000,-82.031,-69.824,-1000.000
1630087774.796,-819.824,-61.035,-49.316,-1000.000
1630087774.800,812.012,-12.207,-0.977,492.676
1630087774.804,547.852,-17.578,-6.836,766.113
1630087774.808,-977.539,-77.637,-51.758,-807.617
1630087774.812,-1000.000,-72.266,-53.711,-1000.000
1630087774.816,104.492,-16.602,-16.602,-100.098
1630087774.820,-944.336,1.953,-2.930,-857.422
1630087774.823,-370.605,-51.270,-45.410,-76.660
1630087774.827,-1000.000,-75.684,-57.129,-1000.000
1630087774.831,-211.426,-25.391,-17.578,-226.074
1630087774.835,-846.191,8.789,11.230,-832.520
1630087774.839,184.082,-39.551,-25.391,243.652
1630087774.842,-1000.000,-83.496,-55.664,-1000.000
1630087774.846,-460.449,-56.152,-29.785,-627.930
1630087774.850,-896.973,-5.859,15.625,-977.539
1630087774.854,250.488,-34.668,-10.742,390.625
1630087774.858,-1000.000,-77.148,-57.129,-1000.000
1630087774.862,-947.754,-51.758,-39.062,-1000.000
1630087774.866,618.164,-4.883,12.207,303.711
1630087774.869,674.316,-12.207,7.324,911.621
1630087774.873,-890.625,-72.266,-44.434,-621.582
1630087774.877,-1000.000,-114.258,-82.031,-1000.000
1630087774.881,-46.387,-50.293,-35.645,-195.801
1630087774.885,-880.859,9.766,20.020,-857.422
1630087774.886,-182.129,-53.711,-24.414,55.664
1630087774.890,-1000.000,-81.055,-39.551,-1000.000
1630087774.894,-219.238,-30.273,-1.953,-293.457
1630087774.898,-838.379,12.695,26.855,-844.238
1630087774.902,230.957,-28.320,-15.137,244.629
1630087774.906,-1000.000,-69.336,-43.945,-1000.000
1630087774.910,-574.219,-47.363,-22.461,-759.277
1630087774.913,-945.312,1.465,17.090,889.160
1630087774.917,333.008,-40.527,-10.742,523.926
1630087774.921,-1000.000,-105.469,-63.965,-984.863
1630087774.925,-1000.000,-64.941,-39.062,-1000.000
1630087774.929,396.484,-13.184,8.301,127.441
1630087774.931,810.059,-27.344,2.930,-971.191
1630087774.935,-751.465,-80.078,-37.109,-419.922
1630087774.939,-1000.000,-81.055,-38.086,-1000.000
1630087774.943,-163.086,-30.273,6.836,-209.473
1630087774.947,-869.141,-11.230,27.832,-846.680
1630087774.951,-45.898,-54.199,-15.625,167.480
1630087774.955,-1000.000,-70.801,-35.645,-1000.000
1630087774.958,-252.930,-36.621,-6.348,-420.410
1630087774.962,-841.309,-15.625,9.766,-880.371
1630087774.966,243.652,-49.805,-20.996,248.047
1630087774.970,-1000.000,-76.172,-43.945,-1000.000
1630087774.974,-702.148,-50.781,-23.438,-911.133
1630087774.978,950.684,0.000,27.344,667.969
1630087774.982,461.914,-11.230,15.625,689.453
1630087774.986,-1000.000,-61.035,-30.762,-876.465
1630087774.990,-1000.000,-74.707,-45.898,-1000.000
1630087774.994,209.473,-35.156,-10.254,-15.625
1630087774.998,969.727,-15.137,12.207,-880.371
1630087775.002,-531.250,-59.082,-30.273,-198.242
1630087775.005,-1000.000,-84.473,-47.852,-1000.000
1630087775.009,-201.660,-50.293,-17.090,-218.750
1630087775.013,-857.422,-2.930,19.043,-837.402
1630087775.017,79.590,-45.898,-24.414,229.980
1630087775.021,-1000.000,-83.496,-58.105,-1000.000
1630087775.022,-353.516,-45.410,-25.391,-540.039
1630087775.026,-865.234,4.883,16.602,-925.781
1630087775.030,246.094,-37.109,-17.090,333.496
1630087775.034,-1000.000,-89.844,-62.500,-1000.000
1630087775.038,-845.703,-61.035,-49.805,-1000.000
1630087775.042,778.320,-16.113,-6.836,460.449
1630087775.046,577.637,-31.738,-15.137,811.035
1630087775.049,-959.961,-88.867,-64.453,-750.977
1630087775.053,-1000.000,-83.008,-66.406,-1000.000
1630087775.057,66.895,-28.320,-24.414,-138.672
1630087775.061,-930.176,-18.555,-17.090,-864.258
1630087775.065,-333.984,-78.125,-63.965,-62.012
1630087775.066,-1000.000,-96.680,-75.195,-1000.000
1630087775.070,-212.402,-37.598,-40.039,-226.562
1630087775.074,-844.727,1.465,-14.160,-832.031
1630087775.078,195.312,-52.246,-54.688,242.676
1630087775.082,-1000.000,-88.379,-87.402,-1000.000
1630087775.086,-478.027,-43.945,-60.059,-654.785
1630087775.090,-901.855,-1.953,-26.367,997.559
1630087775.093,285.645,-47.852,-68.359,465.332
1630087775.097,-1000.000,-89.844,-101.074,-1000.000
1630087775.101,-981.934,-74.219,-81.543,-1000.000
1630087775.105,573.730,-26.367,-36.621,247.559
1630087775.109,699.707,-20.996,-29.297,938.477
1630087775.111,-870.117,-72.754,-71.289,-579.590
1630087775.115,-1000.000,-75.684,-74.707,-1000.000
1630087775.119,-58.105,-20.020,-24.414,-195.801
1630087775.123,-875.977,3.906,-0.488,-856.934
1630087775.127,-163.086,-54.688,-48.828,66.895
1630087775.131,-1000.000,-76.172,-67.871,-1000.000
1630087775.135,-220.703,-38.574,-39.551,-334.473
1630087775.138,-837.402,-5.859,-5.859,-858.398
1630087775.142,240.234,-43.945,-34.180,246.582
1630087775.146,-1000.000,-85.449,-73.242,-1000.000
1630087775.150,-594.238,-55.176,-57.129,-815.430
1630087775.154,-955.078,-8.301,-16.602,818.848
1630087775.158,349.121,-31.250,-28.809,542.480
1630087775.162,-1000.000,-83.984,-70.801,-980.957
1630087775.166,-1000.000,-65.430,-64.453,-1000.000
1630087775.170,358.887,-10.742,-19.043,100.098
1630087775.174,866.699,-14.648,-15.137,-936.523
1630087775.178,-685.059,-79.590,-64.941,-357.422
1630087775.182,-1000.000,-81.543,-70.801,-1000.000
1630087775.185,-170.410,-23.438,-28.320,-209.961
1630087775.189,-870.605,-3.418,-10.254,-846.191
1630087775.193,-38.574,-59.082,-57.129,168.457
1630087775.197,-1000.000,-83.496,-73.242,-1000.000
1630087775.201,-270.996,-41.504,-31.250,-456.055
1630087775.217,-847.168,-7.324,9.277,-895.020
1630087775.221,245.117,-36.133,-19.043,276.367
1630087775.225,-1000.000,-71.777,-57.129,-1000.000
1630087775.229,-732.422,-58.594,-44.922,-957.031
1630087775.233,919.922,-5.859,0.977,598.633
1630087775.237,507.324,-20.996,-14.160,734.863
1630087775.241,-996.582,-77.148,-63.965,-837.891
1630087775.244,-1000.000,-66.895,-50.781,-1000.000
1630087775.248,188.965,-15.137,-5.371,-33.691
1630087775.252,994.629,-0.977,3.906,-872.070
1630087775.256,-489.746,-57.617,-41.992,-170.410
1630087775.260,-1000.000,-72.266,-63.965,-1000.000
1630087775.277,-204.102,-19.531,-31.250,-220.215
1630087775.281,-854.492,9.277,-10.254,-836.426
1630087775.285,108.398,-42.480,-56.152,235.352
1630087775.289,-1000.000,-80.078,-82.520,-1000.000
1630087775.293,-386.719,-46.875,-59.570,-566.895
1630087775.297,-874.512,-3.418,-13.672,-938.477
1630087775.301,247.070,-32.227,-35.645,367.188
1630087775.304,-1000.000,-69.824,-71.289,-1000.000
1630087775.308,-886.230,-73.242,-68.848,-1000.000
1630087775.312,721.680,-53.223,-55.176,385.254
1630087775.316,601.562,-29.297,-41.504,841.309
1630087775.320,-948.242,-54.688,-63.965,-716.797
1630087775.307,-1000.000,-59.082,-71.777,-1000.000
1630087775.311,38.086,-15.625,-28.809,-158.691
1630087775.315,-923.340,-0.488,-12.695,-865.234
1630087775.319,-310.059,-53.711,-63.477,-41.016
1630087775.323,-1000.000,-66.895,-74.707,-1000.000
1630087775.327,-212.891,-16.602,-35.156,-247.070
1630087775.331,-844.238,9.766,-8.789,-837.891
1630087775.334,202.148,-43.945,-52.734,243.652
1630087775.338,-1000.000,-75.195,-86.426,-1000.000
1630087775.342,-503.906,-52.246,-66.406,-690.918
1630087775.346,-912.598,-10.254,-22.949,961.914
1630087775.350,296.875,-43.457,-53.223,479.980
1630087775.352,-1000.000,-112.305,-117.188,-1000.000
1630087775.356,-1000.000,-73.242,-84.961,-1000.000
1630087775.360,536.133,-12.207,-25.391,228.516
1630087775.364,732.422,-22.461,-36.621,970.215
1630087775.368,-835.938,-70.312,-83.984,-531.738
1630087775.372,-1000.000,-76.660,-90.332,-1000.000
1630087775.376,-92.285,-17.578,-37.598,-201.172
1630087775.379,-884.277,-10.742,-32.227,-856.445
1630087775.383,-157.227,-91.309,-101.074,73.730
1630087775.387,-1000.000,-94.238,-98.633,-1000.000
1630087775.391,-220.215,-33.203,-45.898,-338.379
1630087775.395,-837.891,-6.348,-19.043,-859.375
1630087775.397,240.723,-51.758,-57.129,245.117
1630087775.401,-1000.000,-82.031,-80.078,-1000.000
1630087775.405,-618.652,-54.688,-47.852,-840.332
1630087775.409,-969.238,-9.277,0.488,784.668
1630087775.413,383.301,-28.320,-13.184,588.379
1630087775.417,-1000.000,-70.312,-58.105,-955.078
1630087775.421,-1000.000,-65.918,-55.176,-1000.000
1630087775.424,308.105,-42.480,-17.090,76.172
1630087775.428,871.094,-30.273,-11.719,-924.805
1630087775.432,-673.828,-65.918,-58.594,-329.102
1630087775.436,-1000.000,-77.148,-62.988,-1000.000
1630087775.440,-187.012,-27.344,-16.113,-212.402
1630087775.443,-866.699,-3.418,-0.488,-844.238
1630087775.447,6.836,-55.176,-45.898,195.312
1630087775.451,-1000.000,-87.891,-74.707,-1000.000
1630087775.455,-293.457,-59.570,-50.781,-486.816
1630087775.459,-850.098,-7.324,-6.348,-906.250
1630087775.463,245.117,-36.133,-36.133,284.668
1630087775.467,-1000.000,-83.008,-83.984,-1000.000
1630087775.470,-763.672,-79.102,-81.055,-968.262
1630087775.474,883.789,-23.926,-28.320,587.891
1630087775.478,499.023,-22.461,-30.273,715.332
1630087775.482,-999.023,-75.684,-76.172,-854.004
1630087775.486,-1000.000,-72.754,-74.707,-1000.000
1630087775.486,148.926,-27.832,-29.297,-61.523
1630087775.490,997.070,-12.695,-12.207,-875.488
1630087775.494,-476.074,-65.918,-62.500,-161.133
1630087775.498,-1000.000,-79.102,-75.684,-1000.000
1630087775.502,-207.520,-25.391,-28.320,-220.703
1630087775.506,-850.586,10.742,2.930,-836.426
1630087775.510,147.949,-45.410,-46.875,244.629
1630087775.513,-1000.000,-83.496,-68.848,-1000.000
1630087775.517,-407.227,-39.551,-31.738,-591.797
1630087775.521,-876.953,11.230,1.953,-951.660
1630087775.525,245.605,-20.020,-30.273,368.164
1630087775.529,-1000.000,-65.918,-65.918,-1000.000
1630087775.532,-919.922,-54.688,-51.270,-1000.000
1630087775.536,670.898,-19.531,-13.672,347.168
1630087775.540,625.488,-26.855,-17.578,859.375
1630087775.544,-935.059,-80.566,-65.918,-694.824
1630087775.548,-1000.000,-78.125,-63.477,-1000.000
1630087775.552,-2.441,-16.602,-18.555,-175.293
1630087775.556,-891.602,0.977,-8.789,-857.910
1630087775.559,-226.562,-42.480,-50.293,23.926
1630087775.563,-1000.000,-60.547,-64.941,-1000.000
1630087775.567,-217.773,-37.109,-42.969,-283.203
1630087775.571,-839.844,-1.465,-20.996,-844.238
1630087775.575,222.656,-33.691,-50.293,246.094
1630087775.592,-1000.000,-65.430,-80.566,-1000.000
1630087775.596,-531.738,-22.461,-53.711,-722.656
1630087775.600,-923.340,22.949,-11.230,931.152
1630087775.604,304.688,-7.812,-31.250,492.188
1630087775.608,-1000.000,-54.199,-71.289,-1000.000
1630087775.612,-1000.000,-39.551,-61.035,-1000.000
1630087775.616,472.656,0.977,-17.578,187.500
1630087775.619,755.859,-0.488,-22.949,980.469
1630087775.623,-812.988,-45.898,-69.336,-510.742
1630087775.627,-1000.000,-57.617,-72.266,-1000.000
1630087775.631,-132.812,-12.207,-22.949,-203.613
1630087775.635,-874.023,18.555,0.000,-854.004
1630087775.636,-94.727,-37.598,-53.711,104.492
1630087775.640,-1000.000,-70.312,-75.684,-1000.000
1630087775.644,-225.098,-20.996,-40.039,-372.559
1630087775.648,-834.961,16.602,0.488,-868.652
1630087775.652,242.188,-38.574,-30.762,248.047
1630087775.656,-1000.000,-81.055,-70.801,-1000.000
1630087775.660,-657.715,-50.781,-55.176,-857.910
1630087775.663,995.117,0.977,-15.625,757.812
1630087775.667,406.738,-16.113,-35.156,629.883
1630087775.671,-1000.000,-68.848,-83.496,-924.805
1630087775.675,-1000.000,-65.430,-79.590,-1000.000
1630087775.679,249.023,-12.695,-31.738,18.066
1630087775.684,927.246,-3.906,-20.508,-886.719
1630087775.688,-593.262,-62.500,-68.359,-231.445
1630087775.692,-1000.000,-73.730,-86.426,-1000.000
1630087775.696,-200.684,-27.344,-42.480,-217.285
1630087775.700,-859.863,-2.441,-9.766,-838.379
1630087775.704,62.500,-47.363,-57.617,227.051
1630087775.708,-1000.000,-72.266,-80.566,-1000.000
1630087775.711,-332.031,-48.828,-48.340,-516.113
1630087775.715,-859.375,-16.113,-18.066,-914.062
1630087775.719,246.582,-42.969,-44.434,303.711
1630087775.723,-1000.000,-78.125,-81.055,-1000.000
1630087775.727,-802.246,-49.805,-75.195,-1000.000
1630087775.727,833.984,-0.977,-26.367,525.879
1630087775.731,542.480,-10.742,-26.855,770.996
1630087775.735,-976.562,-61.523,-81.055,-797.852
1630087775.739,-1000.000,-64.453,-83.984,-1000.000
1630087775.743,96.680,-20.508,-31.738,-110.840
1630087775.747,-946.777,-10.254,-23.926,-860.352
1630087775.751,-372.559,-53.223,-83.496,-76.172
1630087775.754,-1000.000,-68.848,-98.145,-1000.000
1630087775.758,-210.449,-44.922,-66.895,-226.074
1630087775.762,-847.168,0.488,-28.320,-832.520
1630087775.766,171.387,-27.832,-57.129,244.141
1630087775.770,-1000.000,-71.777,-87.891,-1000.000
1630087775.772,-452.148,-46.875,-56.641,-624.023
1630087775.776,-894.531,9.766,-8.789,-972.656
1630087775.780,254.883,-15.625,-40.527,402.344
1630087775.784,-1000.000,-64.941,-88.867,-1000.000
1630087775.788,-947.754,-46.875,-71.777,-1000.000
1630087775.792,618.164,1.465,-20.508,297.363
1630087775.796,679.199,-5.859,-18.066,935.059
1630087775.799,-887.695,-73.730,-77.148,-591.309
1630087775.803,-1000.000,-74.707,-81.055,-1000.000
1630087775.807,-29.785,-26.367,-21.484,-189.941
1630087775.811,-884.766,-11.719,-10.742,-857.910
1630087775.815,-199.707,-67.871,-72.754,41.992
1630087775.817,-1000.000,-91.309,-88.379,-1000.000
1630087775.821,-218.750,-42.480,-35.645,-294.922
1630087775.825,-838.867,-2.930,14.648,-846.680
1630087775.829,233.398,-49.316,-26.855,246.094
1630087775.833,-1000.000,-83.496,-62.500,-1000.000
1630087775.837,-566.406,-47.852,-38.574,-748.535
1630087775.841,-940.430,-4.883,9.766,901.367
1630087775.844,328.125,-44.434,-16.602,526.855
1630087775.848,-1000.000,-88.379,-68.848,-981.934
1630087775.852,-1000.000,-65.430,-46.387,-1000.000
1630087775.856,395.020,-3.906,13.672,126.465
1630087775.860,819.824,0.977,11.230,-961.426
1630087775.862,-741.699,-52.734,-41.016,-406.250
1630087775.866,-1000.000,-52.734,-48.828,-1000.000
1630087775.870,-160.645,-12.695,-20.020,-208.984
1630087775.874,-868.652,9.766,1.465,-846.680
1630087775.878,-46.875,-39.551,-43.457,162.109
1630087775.882,-1000.000,-60.059,-74.219,-1000.000
1630087775.886,-247.559,-8.789,-40.039,-412.109
1630087775.889,-839.355,22.949,7.812,-876.465
1630087775.893,243.164,-22.461,-18.066,245.117
1630087775.897,-1000.000,-52.246,-51.758,-1000.000
1630087775.901,-702.637,-26.367,-33.203,-926.758
1630087775.905,950.684,20.508,9.277,653.320
1630087775.908,451.172,-0.488,-3.418,666.992
1630087775.912,-1000.000,-54.199,-54.199,-899.902
1630087775.916,-1000.000,-41.504,-58.594,-1000.000
1630087775.920,213.867,0.977,-15.137,-22.461
1630087775.924,958.496,8.789,-8.789,-884.277
1630087775.928,-548.340,-44.922,-55.664,-205.566
1630087775.932,-1000.000,-62.500,-62.012,-1000.000
1630087775.935,-202.637,-12.695,-12.207,-218.750
1630087775.939,-856.934,10.254,14.160,-837.402
1630087775.943,84.473,-41.992,-36.133,237.793
1630087775.947,-1000.000,-70.801,-62.500,-1000.000
1630087775.951,-354.004,-39.551,-28.809,-536.133
1630087775.966,-864.746,4.883,17.090,-922.363
1630087775.970,247.070,-26.367,-13.184,351.074
1630087775.974,-1000.000,-71.777,-62.012,-1000.000
1630087775.978,-836.914,-54.688,-48.828,-1000.000
1630087775.982,787.109,1.465,0.977,466.797
1630087775.986,591.309,-4.395,-4.883,865.234
1630087775.990,-951.660,-75.195,-51.758,-685.059
1630087775.993,-1000.000,-75.195,-49.316,-1000.000
1630087775.997,69.336,-19.043,-4.395,-135.742
1630087776.001,-924.316,-2.441,12.207,-854.004
1630087776.005,-324.219,-57.129,-35.156,-25.879
1630087776.009,-1000.000,-81.543,-59.082,-1000.000
1630087776.011,-212.891,-32.715,-14.160,-229.980
1630087776.015,-844.727,3.906,27.832,-829.590
1630087776.019,194.824,-40.039,-20.020,241.699
1630087776.023,-1000.000,-65.430,-59.570,-1000.000
1630087776.027,-487.305,-38.086,-37.598,-663.574
1630087776.031,-907.227,12.207,11.230,989.746
1630087776.035,277.344,-17.578,-13.184,471.191
1630087776.038,-1000.000,-75.195,-65.430,-1000.000
1630087776.042,-981.445,-63.965,-60.547,-1000.000
1630087776.046,567.871,-30.762,-26.855,246.582
1630087776.050,709.473,-20.020,-24.902,970.215
1630087776.054,-859.863,-56.641,-61.035,-533.691
1630087776.057,-1000.000,-65.918,-58.105,-1000.000
1630087776.061,-74.219,-18.555,-4.883,-203.125
1630087776.065,-877.441,13.184,18.066,-852.539
1630087776.069,-154.785,-41.016,-35.156,89.844
1630087776.073,-1000.000,-73.242,-66.895,-1000.000
1630087776.077,-220.215,-37.109,-32.715,-308.594
1630087776.081,-837.402,-2.930,5.371,-845.703
1630087776.084,235.840,-36.621,-27.344,243.652
1630087776.088,-1000.000,-72.754,-57.617,-1000.000
1630087776.092,-587.891,-45.410,-32.715,-788.086
1630087776.096,-951.172,0.000,20.020,848.633
1630087776.100,367.188,-25.879,5.859,591.797
1630087776.101,-1000.000,-70.312,-31.250,-948.242
1630087776.105,-1000.000,-66.406,-17.578,-1000.000
1630087776.109,347.168,-23.438,30.273,95.215
1630087776.113,861.328,-0.977,33.203,-917.480
1630087776.117,-690.918,-58.105,-23.438,-321.777
1630087776.121,-1000.000,-73.242,-36.621,-1000.000
1630087776.125,-165.527,-15.625,11.230,-212.402
1630087776.128,-868.652,0.977,24.414,-842.773
1630087776.132,-36.133,-67.871,-41.504,192.871
1630087776.136,-1000.000,-84.961,-54.688,-1000.000
1630087776.140,-275.391,-42.969,-21.973,-457.031
1630087776.144,-848.633,-6.348,17.090,-892.090
1630087776.148,245.605,-40.527,-16.602,287.109
1630087776.152,-1000.000,-83.984,-62.500,-1000.000
1630087776.156,-732.910,-64.453,-34.668,-952.148
1630087776.160,920.410,-15.625,18.066,614.746
1630087776.164,490.723,-25.391,4.395,712.891
1630087776.168,-1000.000,-73.730,-44.922,-856.934
1630087776.172,-1000.000,-65.430,-48.828,-1000.000
1630087776.175,180.176,-23.438,-7.324,-35.156
1630087776.179,958.984,-12.695,9.766,-878.906
1630087776.183,-537.598,-68.848,-41.016,-185.059
1630087776.187,-1000.000,-80.566,-58.594,-1000.000
1630087776.191,-205.078,-36.621,-26.367,-220.215
1630087776.195,-854.492,-7.812,0.000,-836.426
1630087776.199,118.164,-40.039,-39.551,245.117
1630087776.203,-1000.000,-72.266,-72.754,-1000.000
1630087776.207,-385.254,-42.480,-34.668,-564.941
1630087776.211,-873.047,0.977,17.578,-936.523
1630087776.215,248.535,-32.715,-16.602,362.305
1630087776.219,-1000.000,-78.613,-62.988,-1000.000
1630087776.222,-865.234,-81.055,-61.035,-1000.000
1630087776.226,750.977,-31.250,-13.672,397.949
1630087776.230,607.422,-19.531,-13.672,872.070
1630087776.234,-944.824,-78.613,-70.312,-678.223
1630087776.238,-1000.000,-76.660,-64.453,-1000.000
1630087776.236,41.992,-24.902,-13.672,-160.156
1630087776.240,-901.367,-4.883,-1.953,-855.957
1630087776.244,-268.555,-54.688,-56.152,1.953
1630087776.248,-1000.000,-79.102,-77.637,-1000.000
1630087776.252,-215.820,-36.621,-42.480,-255.859
1630087776.256,-841.797,-0.488,-6.836,-836.426
1630087776.260,215.332,-54.199,-41.992,243.164
1630087776.263,-1000.000,-92.773,-70.312,-1000.000
1630087776.267,-514.160,-50.781,-55.176,-711.914
1630087776.271,-916.016,-12.695,-20.508,942.383
1630087776.275,286.621,-41.992,-41.992,475.098
1630087776.279,-1000.000,-81.543,-83.008,-1000.000
1630087776.296,-1000.000,-62.012,-70.312,-1000.000
1630087776.300,520.508,-16.602,-23.926,208.008
1630087776.304,741.211,-20.020,-22.461,977.051
1630087776.308,-833.008,-76.172,-72.266,-521.484
1630087776.312,-1000.000,-82.031,-74.707,-1000.000
1630087776.316,-87.402,-39.551,-33.203,-206.543
1630087776.320,-860.840,-9.766,-5.859,-851.074
1630087776.323,-93.262,-53.223,-46.387,130.371
1630087776.327,-1000.000,-90.332,-75.684,-1000.000
1630087776.331,-226.074,-65.430,-55.664,-374.023
1630087776.335,-833.984,-30.762,-18.555,-866.211
1630087776.339,244.141,-53.223,-36.621,247.559
1630087776.342,-1000.000,-93.750,-80.078,-1000.000
1630087776.346,-615.234,-73.730,-62.988,-854.980
1630087776.350,-965.820,-11.719,-4.395,766.113
1630087776.354,382.812,-20.996,-18.066,593.750
1630087776.358,-1000.000,-74.707,-64.941,-954.590
1630087776.362,-1000.000,-61.035,-57.617,-1000.000
1630087776.366,328.613,-12.695,-11.719,73.730
1630087776.369,876.953,-11.719,0.000,-916.992
1630087776.373,-669.922,-71.777,-50.781,-316.406
1630087776.377,-1000.000,-95.215,-73.730,-1000.000
1630087776.381,-183.594,-41.016,-21.484,-214.355
1630087776.385,-861.816,-5.859,14.160,-841.309
1630087776.388,22.461,-61.035,-36.133,213.379
1630087776.392,-1000.000,-87.891,-59.570,-1000.000
1630087776.396,-282.227,-33.691,-22.949,-481.445
1630087776.400,-844.727,6.836,20.996,-900.391
1630087776.404,243.652,-47.852,-24.414,285.156
1630087776.408,-1000.000,-88.867,-66.406,-1000.000
1630087776.412,-753.418,-56.152,-34.668,-980.957
1630087776.415,895.996,-15.625,8.789,575.684
1630087776.419,492.676,-43.457,-14.160,700.195
1630087776.423,-1000.000,-94.727,-65.430,-853.027
1630087776.427,-1000.000,-68.359,-50.293,-1000.000
1630087776.431,181.152,-10.742,3.418,-78.125
1630087776.431,959.961,2.441,11.230,916.504
1630087776.435,-536.621,-54.688,-44.434,-472.656
1630087776.439,-1000.000,-74.219,-63.965,-1000.000
1630087776.443,-187.012,-28.809,-22.461,-305.176
1630087776.447,-880.859,9.277,19.043,-959.473
1630087776.451,-41.992,-38.574,-22.949,-147.461
1630087776.455,-1000.000,-74.707,-49.316,-1000.000
1630087776.458,-377.441,-48.340,-13.672,-988.281
1630087776.462,-893.066,-7.812,31.250,386.719
1630087776.466,208.008,-37.109,4.883,68.359
1630087776.470,-1000.000,-79.590,-42.969,-1000.000
1630087776.474,-851.562,-62.500,-28.809,-1000.000
1630087776.477,757.324,-17.578,24.414,-74.707
1630087776.481,332.520,-36.133,20.508,220.215
1630087776.485,-1000.000,-84.961,-35.645,-1000.000
1630087776.489,-1000.000,-70.801,-44.434,-1000.000
1630087776.493,91.309,-29.785,6.836,-718.262
1630087776.497,834.961,-15.625,28.320,-349.609
1630087776.501,-680.176,-56.641,-22.949,-958.008
1630087776.504,-1000.000,-64.941,-37.109,-1000.000
1630087776.508,-200.195,-37.109,6.836,-952.637
1630087776.512,-868.652,-26.855,24.902,-840.820
1630087776.516,64.941,-52.246,-10.742,-948.242
1630087776.520,-1000.000,-69.336,-27.832,-992.188
1630087776.522,-472.656,-54.688,-7.812,-1000.000
1630087776.526,-920.410,-13.672,32.715,-147.461
1630087776.530,261.719,-36.133,18.555,-152.344
1630087776.534,-1000.000,-86.426,-32.715,-1000.000
1630087776.538,-921.387,-64.941,-19.531,-1000.000
1630087776.542,679.199,15.625,51.270,11.719
1630087776.546,430.176,18.555,46.875,238.281
1630087776.549,-1000.000,-46.875,-15.137,-1000.000
1630087776.553,-1000.000,-40.039,-22.461,-1000.000
1630087776.557,-9.766,10.742,14.160,-223.633
1630087776.561,845.215,14.160,33.691,417.969
1630087776.565,-628.418,-40.039,-0.488,-881.348
1630087776.567,-1000.000,-47.852,-16.113,-1000.000
1630087776.571,-194.824,-13.672,12.207,-688.477
1630087776.575,-874.023,25.391,40.039,679.199
1630087776.579,44.922,-6.836,4.883,-178.223
1630087776.583,-1000.000,-50.293,-36.621,-1000.000
1630087776.587,-570.312,-32.227,-13.672,-1000.000
1630087776.591,-973.633,11.719,35.156,346.680
1630087776.594,258.789,-25.391,8.301,305.176
1630087776.598,-1000.000,-65.430,-33.203,-1000.000
1630087776.602,-1000.000,-48.340,-21.484,-1000.000
1630087776.606,362.305,-11.230,28.320,-7.812
1630087776.610,646.973,-2.441,29.785,463.379
1630087776.613,-914.551,-51.270,-24.414,-937.988
1630087776.617,-1000.000,-57.129,-39.062,-1000.000
1630087776.621,-163.574,-13.184,0.000,-173.340
1630087776.625,-908.691,8.301,29.785,974.609
1630087776.629,-163.574,-46.387,-20.996,-326.172
1630087776.633,-1000.000,-61.035,-43.457,-1000.000
1630087776.637,-276.367,-36.621,-23.438,-541.992
1630087776.640,-859.375,-8.301,17.090,991.211
1630087776.644,246.094,-29.785,6.836,223.145
1630087776.648,-1000.000,-66.406,-32.715,-1000.000
1630087776.652,-761.719,-47.363,-19.043,-1000.000
1630087776.656,886.719,8.301,33.691,485.352
1630087776.657,405.273,2.441,27.344,414.551
1630087776.661,-1000.000,-49.805,-31.738,-1000.000
1630087776.665,-1000.000,-47.852,-27.832,-1000.000
1630087776.669,170.410,-6.348,17.090,-43.945
1630087776.673,892.090,1.465,17.090,792.969
1630087776.677,-631.836,-41.016,-20.996,-654.785
1630087776.681,-1000.000,-45.410,-34.668,-1000.000
1630087776.684,-194.824,-15.625,-17.578,-217.285
1630087776.688,-872.070,8.789,9.277,-903.809
1630087776.692,16.602,-36.621,-25.391,-20.508
1630087776.696,-1000.000,-68.359,-63.477,-1000.000
1630087776.700,-400.879,-33.203,-34.180,-628.418
1630087776.717,-891.602,20.020,25.879,955.078
1630087776.721,251.953,-23.926,2.441,273.438
1630087776.725,-1000.000,-74.707,-37.598,-1000.000
1630087776.729,-900.391,-42.480,-21.973,-1000.000
1630087776.733,702.148,7.324,22.949,365.723
1630087776.737,586.426,-5.371,22.949,619.141
1630087776.741,-954.590,-65.430,-32.227,-910.156
1630087776.744,-1000.000,-57.129,-45.410,-1000.000
1630087776.748,15.137,-11.719,-4.395,-123.047
1630087776.752,-944.336,-16.602,-1.953,-968.262
1630087776.756,-337.891,-55.176,-45.410,-276.367
1630087776.760,-1000.000,-67.871,-62.012,-1000.000
1630087776.762,-209.961,-29.297,-29.785,-274.902
1630087776.766,-848.145,13.672,9.277,-872.559
1630087776.770,179.688,-30.762,-28.809,178.711
1630087776.774,-1000.000,-69.824,-52.246,-1000.000
1630087776.778,-531.250,-39.062,-23.926,-725.586
1630087776.782,-930.664,12.695,13.184,897.461
1630087776.786,269.531,-7.812,-5.371,356.445
1630087776.789,-1000.000,-57.617,-49.316,-1000.000
1630087776.793,-1000.000,-46.387,-34.180,-1000.000
1630087776.797,451.660,6.836,19.531,230.469
1630087776.801,708.496,-3.906,6.836,793.945
1630087776.805,-860.840,-57.129,-47.363,-731.934
1630087776.807,-1000.000,-53.223,-51.758,-1000.000
1630087776.811,-147.461,-10.742,-17.578,-184.082
1630087776.815,-887.207,15.137,0.488,-887.695
1630087776.819,-131.348,-30.762,-42.480,-36.621
1630087776.823,-1000.000,-58.105,-64.941,-1000.000
1630087776.827,-219.727,-16.113,-33.203,-343.750
1630087776.831,-837.402,10.254,-1.465,-873.535
1630087776.834,243.652,-37.109,-25.391,241.699
1630087776.838,-1000.000,-58.594,-56.152,-1000.000
1630087776.842,-643.555,-30.273,-48.340,-821.289
1630087776.846,-989.746,6.836,-1.953,796.387
1630087776.850,370.605,-8.301,-12.207,499.512
1630087776.853,-1000.000,-49.316,-56.152,-992.676
1630087776.857,-1000.000,-44.434,-48.340,-1000.000
1630087776.861,258.301,-1.953,-11.230,87.891
1630087776.865,891.602,7.324,-10.254,995.605
1630087776.869,-647.949,-50.781,-60.547,-434.082
1630087776.873,-1000.000,-67.383,-79.102,-1000.000
1630087776.877,-194.824,-14.160,-35.645,-207.031
1630087776.880,-864.746,5.371,-4.883,-854.492
1630087776.884,29.297,-48.828,-47.852,130.859
1630087776.888,-1000.000,-69.336,-68.848,-1000.000
1630087776.892,-313.965,-29.785,-32.715,-463.379
1630087776.896,-854.980,9.277,5.859,-905.273
1630087776.897,243.164,-28.809,-21.484,280.762
1630087776.901,-1000.000,-69.824,-53.711,-1000.000
1630087776.905,-822.266,-53.223,-45.410,-977.539
1630087776.909,812.500,-10.742,-4.395,562.988
1630087776.913,521.973,-23.926,-9.766,666.992
1630087776.917,-989.746,-64.453,-57.617,-874.512
1630087776.921,-1000.000,-53.711,-60.547,-1000.000
1630087776.924,103.027,-35.156,-42.480,-53.223
1630087776.928,-983.398,-18.555,-25.879,-929.688
1630087776.932,-438.477,-48.340,-47.852,-238.770
1630087776.936,-1000.000,-67.383,-61.523,-1000.000
1630087776.940,-206.543,-20.020,-20.508,-224.121
1630087776.942,-851.074,6.348,5.859,-845.703
1630087776.946,145.020,-43.457,-39.551,193.359
1630087776.950,-1000.000,-66.895,-67.871,-1000.000
1630087776.954,-435.547,-40.039,-41.992,-585.938
1630087776.958,-890.137,-3.906,-3.906,-971.191
1630087776.962,248.047,-23.438,-23.438,363.770
