timestamps,TP9,AF7,AF8,TP10
1630087651.617,-607.910,-58.594,-63.477,-739.258
1630087651.621,-971.191,-19.531,-10.254,895.996
1630087651.625,576.172,-12.695,-4.395,682.617
1630087651.629,-959.473,-71.289,-72.266,-870.117
1630087651.633,-1000.000,-67.383,-70.801,-1000.000
1630087651.637,244.141,28.809,-8.789,104.004
1630087651.641,-863.281,41.504,1.953,-834.961
1630087651.644,-248.047,-59.082,-59.570,-142.090
1630087651.648,-1000.000,-126.953,-115.234,-1000.000
1630087651.652,-216.797,-105.957,-107.910,-226.074
1630087651.656,-829.590,-23.926,-23.926,-827.637
1630087651.660,217.773,-56.641,-37.109,240.723
1630087651.662,-1000.000,-94.727,-79.590,-1000.000
1630087651.666,-308.594,-36.133,-36.133,-409.180
1630087651.670,-829.102,27.344,20.508,-862.793
1630087651.674,292.969,-19.531,-26.855,365.723
1630087651.678,-1000.000,-103.516,-110.840,-1000.000
1630087651.682,-747.559,-77.148,-70.312,-882.812
1630087651.686,885.254,17.090,22.949,701.172
1630087651.689,709.473,-1.953,15.625,831.543
1630087651.693,-848.145,-124.023,-70.312,-718.750
1630087651.697,-1000.000,-105.957,-57.617,-1000.000
1630087651.701,119.629,-2.441,30.273,-0.488
1630087651.705,-831.055,3.418,48.340,-826.660
1630087651.707,-143.555,-75.684,-10.742,-47.852
1630087651.711,-1000.000,-103.516,-46.387,-1000.000
1630087651.715,-225.586,-30.273,14.160,-231.934
1630087651.719,-828.613,22.461,68.848,-826.660
1630087651.723,240.234,-42.969,12.695,243.164
1630087651.727,-1000.000,-92.285,-31.250,-1000.000
1630087651.731,-404.297,-26.855,19.043,-509.277
1630087651.734,-861.816,18.555,67.871,-908.203
1630087651.738,341.309,-104.492,-7.812,436.035
1630087651.742,-1000.000,-143.555,-30.273,-1000.000
1630087651.746,-850.586,-64.453,38.574,-989.258
1630087651.750,711.914,6.348,98.633,497.559
1630087651.752,887.695,18.555,93.750,-1000.000
1630087651.756,-642.578,-51.758,21.973,-491.211
1630087651.760,-1000.000,-60.059,18.066,-1000.000
1630087651.764,-14.648,17.090,71.777,-136.230
1630087651.768,-819.824,42.480,82.031,-828.613
1630087651.772,-1.465,-35.156,21.973,95.215
1630087651.776,-1000.000,-68.359,0.000,-1000.000
1630087651.779,-236.816,-94.727,-37.109,-252.930
1630087651.783,-824.707,-49.316,-2.441,-824.219
1630087651.787,242.188,-21.973,45.898,242.188
1630087651.791,-1000.000,-88.867,-6.836,-1000.000
1630087651.795,-531.738,-45.410,6.348,-647.949
1630087651.797,-921.875,23.926,61.523,995.117
1630087651.801,497.070,-10.742,54.688,579.590
1630087651.805,-1000.000,-77.148,-11.230,-962.891
1630087651.809,-1000.000,-64.941,-11.230,-1000.000
1630087651.813,420.410,15.137,50.781,237.793
1630087651.817,-949.707,33.203,66.895,-871.094
1630087651.821,-409.180,-66.895,-11.230,-259.766
1630087651.824,-1000.000,-120.605,-59.082,-1000.000
1630087651.828,-165.527,-32.715,20.508,-214.844
1630087651.832,-827.637,13.184,71.289,-829.590
1630087651.836,143.066,-79.102,15.137,211.914
1630087651.840,-1000.000,-102.539,-15.625,-1000.000
1630087651.842,-250.000,-12.695,35.156,-316.895
1630087651.846,-818.359,39.062,85.449,-832.520
1630087651.850,238.770,-31.738,49.805,270.020
1630087651.854,-1000.000,-92.285,-9.766,-1000.000
1630087651.858,-655.762,-47.363,15.137,-790.039
1630087651.862,986.328,34.180,81.055,831.055
1630087651.866,591.309,-10.742,51.758,703.125
1630087651.869,-957.031,-104.980,-9.766,-859.863
1630087651.873,-1000.000,-76.172,17.090,-1000.000
1630087651.877,227.051,-3.906,87.891,86.914
1630087651.881,-854.980,4.395,99.121,-828.613
1630087651.885,-228.027,-77.148,37.598,-116.699
1630087651.888,-1000.000,-90.332,26.855,-1000.000
1630087651.892,-201.660,-28.320,61.523,-227.539
1630087651.896,-824.707,-2.441,78.125,-827.148
1630087651.900,216.797,-50.293,67.383,241.699
1630087651.904,-1000.000,-96.191,48.340,-1000.000
1630087651.908,-321.289,-59.570,57.129,-430.664
1630087651.912,-832.520,6.836,97.168,-871.094
1630087651.915,304.199,-16.602,97.656,383.789
1630087651.919,-1000.000,-81.543,50.293,-1000.000
1630087651.923,-758.789,-72.754,40.527,-905.762
1630087651.927,868.164,-3.418,94.727,666.016
1630087651.931,729.980,5.371,127.441,851.562
1630087651.947,-824.707,-81.055,66.406,-695.312
1630087651.951,-1000.000,-80.566,58.594,-1000.000
1630087651.955,82.520,-0.977,118.164,-29.785
1630087651.959,-824.707,16.113,125.977,-820.801
1630087651.963,-93.750,-56.641,71.777,8.789
1630087651.967,-1000.000,-137.695,-11.719,-1000.000
1630087651.971,-229.980,-68.359,35.156,-237.793
1630087651.974,-826.660,40.039,143.555,-824.219
1630087651.978,240.723,-45.898,93.262,242.676
1630087651.982,-1000.000,-108.887,42.480,-1000.000
1630087651.986,-430.664,-42.969,87.891,-542.969
1630087651.990,-871.094,16.602,141.113,-925.781
1630087651.992,367.188,-46.387,99.609,458.008
1630087651.996,-1000.000,-104.492,20.508,-1000.000
1630087652.000,-941.895,-49.316,25.879,-1000.000
1630087652.004,593.262,37.109,96.680,390.137
1630087652.008,899.414,25.879,89.355,-993.652
1630087652.012,-644.531,-63.965,18.555,-490.234
1630087652.016,-1000.000,-73.242,12.207,-1000.000
1630087652.019,-30.762,11.719,77.637,-146.973
1630087652.023,-828.613,11.719,70.801,-833.496
1630087652.027,-30.762,-138.184,-62.988,75.195
1630087652.031,-1000.000,-143.555,-55.176,-1000.000
1630087652.035,-233.398,-15.137,48.340,-241.211
1630087652.037,-827.637,26.367,91.797,-822.754
1630087652.041,243.164,-42.969,53.711,240.234
1630087652.045,-1000.000,-95.215,-5.371,-1000.000
1630087652.049,-545.898,-62.012,23.926,-660.156
1630087652.053,-931.641,6.836,79.102,978.027
1630087652.057,523.926,-1.953,56.152,614.746
1630087652.061,-1000.000,-72.754,-6.836,-929.199
1630087652.064,-1000.000,-70.312,-14.160,-1000.000
1630087652.068,382.324,-44.922,13.184,204.102
1630087652.072,-951.660,-26.367,34.180,-879.395
1630087652.076,-418.945,-55.664,-4.883,-275.879
1630087652.080,-1000.000,-101.074,-40.527,-1000.000
1630087652.082,-152.832,-42.969,-3.906,-212.402
1630087652.086,-823.242,25.391,54.199,-831.055
1630087652.090,154.785,-45.898,7.812,214.355
1630087652.094,-1000.000,-98.145,-38.086,-1000.000
1630087652.098,-252.441,-29.297,12.207,-338.379
1630087652.102,-817.871,48.340,63.477,-839.355
1630087652.106,236.816,-6.348,37.109,286.621
1630087652.109,-1000.000,-115.723,-50.293,-1000.000
1630087652.113,-689.941,-114.258,-66.406,-823.242
1630087652.117,950.684,5.371,40.527,785.156
1630087652.121,619.141,12.207,59.570,738.770
1630087652.125,-939.453,-68.359,-7.324,-828.125
1630087652.128,-1000.000,-60.547,-11.230,-1000.000
1630087652.132,200.195,17.578,57.129,75.684
1630087652.136,-858.887,32.715,79.590,-831.543
1630087652.140,-234.375,-68.848,9.766,-122.559
1630087652.144,-1000.000,-93.750,-7.324,-1000.000
1630087652.148,-207.031,12.695,60.059,-226.562
1630087652.152,-826.660,49.316,101.562,-828.613
1630087652.155,221.680,-90.820,16.602,242.188
1630087652.159,-1000.000,-129.395,-25.391,-1000.000
1630087652.163,-330.566,-20.020,53.711,-448.730
1630087652.167,-834.961,48.828,95.215,-879.395
1630087652.171,301.270,-4.883,50.293,380.371
1630087652.172,-1000.000,-71.777,-2.930,-1000.000
1630087652.176,-783.203,-46.387,14.160,-928.711
1630087652.180,827.637,18.066,65.430,617.676
1630087652.184,765.625,3.906,56.152,889.648
1630087652.188,-794.922,-83.496,-12.695,-653.320
1630087652.192,-1000.000,-71.777,-8.789,-1000.000
1630087652.196,99.609,-12.695,15.137,-23.926
1630087652.199,-828.125,-91.309,-63.965,-822.266
1630087652.203,-119.141,-140.137,-75.195,-8.789
1630087652.207,-1000.000,-84.473,-11.719,-1000.000
1630087652.211,-227.539,2.930,44.434,-235.840
1630087652.215,-827.637,59.570,81.543,-824.707
1630087652.217,240.723,-16.113,37.109,243.164
1630087652.221,-1000.000,-86.914,-17.090,-1000.000
1630087652.225,-425.293,-25.391,17.090,-539.062
1630087652.229,-868.652,53.711,78.125,-924.316
1630087652.233,396.973,1.465,42.969,486.328
1630087652.237,-1000.000,-57.617,-17.578,-1000.000
1630087652.241,-939.941,-53.711,-32.227,-1000.000
1630087652.244,596.191,15.137,34.668,390.625
1630087652.248,920.410,34.180,60.059,-972.168
1630087652.252,-608.398,-60.059,-31.250,-450.195
1630087652.256,-1000.000,-85.449,-56.152,-1000.000
1630087652.260,-53.223,-4.395,22.949,-165.039
1630087652.262,-821.289,40.527,41.016,-831.055
1630087652.266,28.320,-46.875,-43.457,132.812
1630087652.270,-1000.000,-93.750,-83.496,-1000.000
1630087652.274,-239.258,-18.555,-24.414,-276.855
1630087652.278,-824.219,39.062,26.855,-828.613
1630087652.282,242.188,-55.664,-50.781,242.676
1630087652.286,-1000.000,-121.094,-130.371,-1000.000
1630087652.289,-569.336,-36.621,-71.777,-679.688
1630087652.293,-943.848,34.668,14.160,963.379
1630087652.297,501.465,-35.645,-38.574,593.262
1630087652.301,-1000.000,-120.117,-124.023,-956.055
1630087652.305,-1000.000,-62.988,-78.125,-1000.000
1630087652.322,392.090,15.137,-1.953,216.309
1630087652.326,-948.730,5.371,-10.254,-868.652
1630087652.330,-413.086,-67.383,-89.844,-258.301
1630087652.334,-1000.000,-68.848,-91.797,-1000.000
1630087652.338,-159.668,-5.371,-31.738,-213.867
1630087652.342,-823.730,20.020,3.906,-829.590
1630087652.346,164.062,-44.922,-47.852,220.215
1630087652.349,-1000.000,-93.750,-82.031,-1000.000
1630087652.353,-253.418,-37.109,-45.898,-339.355
1630087652.357,-816.895,-7.324,-20.020,-839.844
1630087652.361,239.746,-57.129,-32.227,283.691
1630087652.365,-1000.000,-95.703,-75.684,-1000.000
1630087652.367,-611.816,-69.336,-54.199,-746.582
1630087652.371,-983.887,2.441,22.949,866.699
1630087652.375,635.254,-10.742,7.812,755.371
1630087652.379,-926.270,-79.102,-55.176,-815.918
1630087652.383,-1000.000,-70.312,-59.570,-1000.000
1630087652.387,278.809,11.230,5.371,157.227
1630087652.391,-870.117,31.250,22.461,-839.844
1630087652.394,-230.469,-51.758,-41.504,-108.398
1630087652.398,-1000.000,-106.934,-74.707,-1000.000
1630087652.402,-216.309,-62.988,-49.805,-228.027
1630087652.406,-829.590,14.160,11.719,-827.637
1630087652.410,224.609,-40.527,-10.742,242.188
1630087652.412,-1000.000,-115.723,-47.852,-1000.000
1630087652.416,-341.797,-56.641,-12.695,-453.613
1630087652.420,-838.867,39.062,47.852,-881.348
1630087652.424,311.035,-6.836,26.855,394.531
1630087652.428,-1000.000,-82.520,-62.012,-1000.000
1630087652.432,-791.504,-40.527,-55.176,-929.688
1630087652.436,806.152,45.898,27.832,609.375
1630087652.439,803.711,29.785,25.391,916.504
1630087652.443,-747.070,-135.742,-115.723,-613.281
1630087652.447,-1000.000,-138.184,-109.863,-1000.000
1630087652.451,81.055,4.883,37.109,-40.039
1630087652.455,-823.730,25.391,55.664,-823.242
1630087652.457,-93.750,-51.270,-19.043,-1.953
1630087652.461,-1000.000,-82.520,-41.016,-1000.000
1630087652.465,-229.980,-3.906,25.391,-235.840
1630087652.469,-827.637,37.598,59.082,-824.707
1630087652.473,241.699,-46.875,8.789,243.164
1630087652.477,-1000.000,-93.750,-29.785,-1000.000
1630087652.481,-455.566,-24.414,6.348,-550.293
1630087652.484,-882.812,22.949,40.527,-929.688
1630087652.488,375.488,-78.613,-41.016,458.984
1630087652.492,-1000.000,-128.906,-89.844,-1000.000
1630087652.496,-950.195,-59.082,-33.691,-1000.000
1630087652.500,571.777,11.719,15.625,379.883
1630087652.502,923.828,32.227,8.301,-986.816
1630087652.506,-607.910,-47.363,-57.129,-479.492
1630087652.510,-1000.000,-72.754,-73.730,-1000.000
1630087652.514,-57.617,13.184,-10.742,-161.133
1630087652.518,-823.242,47.852,25.391,-833.008
1630087652.522,21.484,-17.090,-29.785,114.258
1630087652.526,-1000.000,-59.082,-64.453,-1000.000
1630087652.529,-238.770,-26.855,-37.109,-264.648
1630087652.533,-825.195,37.109,9.277,-826.660
1630087652.537,242.188,-20.020,-25.879,241.699
1630087652.541,-1000.000,-74.219,-74.219,-1000.000
1630087652.545,-582.031,-20.508,-48.828,-680.664
1630087652.547,-951.660,52.246,11.719,963.867
1630087652.551,513.184,12.207,1.953,584.473
1630087652.555,-1000.000,-64.941,-68.359,-961.426
1630087652.559,-1000.000,-39.062,-62.500,-1000.000
1630087652.563,379.395,35.156,-3.418,212.402
1630087652.567,-932.129,49.805,-2.930,-865.723
1630087652.571,-379.395,-32.227,-80.078,-249.512
1630087652.574,-1000.000,-72.266,-111.816,-1000.000
1630087652.578,-185.547,-6.348,-36.621,-218.262
1630087652.582,-830.566,47.363,0.488,-832.031
1630087652.586,161.133,-18.066,-61.523,210.938
1630087652.590,-1000.000,-68.848,-107.910,-1000.000
1630087652.593,-268.066,1.953,-60.059,-350.098
1630087652.597,-823.242,61.523,-3.418,-845.215
1630087652.601,240.234,-13.672,-59.570,281.250
1630087652.605,-1000.000,-96.191,-118.652,-1000.000
1630087652.609,-670.410,-59.570,-80.078,-803.711
1630087652.613,964.844,21.484,-20.996,807.617
1630087652.617,635.254,4.395,-42.480,733.887
1630087652.620,-914.551,-85.449,-114.746,-827.148
1630087652.624,-1000.000,-85.938,-100.586,-1000.000
1630087652.628,175.781,-10.742,-35.156,60.547
1630087652.632,-851.074,16.113,-33.203,-832.520
1630087652.636,-204.102,-56.641,-106.445,-113.770
1630087652.637,-1000.000,-96.680,-121.094,-1000.000
1630087652.641,-183.105,-25.879,-53.711,-189.941
1630087652.645,-932.617,0.000,-38.574,-932.617
1630087652.649,47.852,-90.332,-105.469,60.547
1630087652.653,-1000.000,-112.305,-141.602,-1000.000
1630087652.657,-327.637,-32.715,-97.168,-431.641
1630087652.661,-839.355,26.855,-44.922,-876.953
1630087652.664,295.410,-44.434,-72.754,368.652
1630087652.668,-1000.000,-120.117,-125.000,-1000.000
1630087652.672,-837.891,-75.195,-106.445,-961.914
1630087652.676,757.812,14.160,-42.480,570.801
1630087652.680,781.738,-4.395,-55.664,888.672
1630087652.697,-782.715,-87.402,-124.512,-656.738
1630087652.701,-1000.000,-80.078,-124.512,-1000.000
1630087652.705,58.105,-9.766,-60.547,-59.082
1630087652.709,-821.777,1.465,-44.434,-824.219
1630087652.713,-68.359,-78.125,-104.004,19.531
1630087652.717,-1000.000,-104.980,-115.723,-1000.000
1630087652.721,-231.934,-46.387,-71.777,-237.793
1630087652.724,-826.660,-10.742,-41.992,-824.219
1630087652.728,241.211,-69.824,-82.031,242.676
1630087652.732,-1000.000,-131.836,-144.531,-1000.000
1630087652.736,-461.426,-68.359,-105.957,-573.242
1630087652.740,-886.230,18.066,-32.227,-944.824
1630087652.742,434.082,-24.902,-47.363,498.535
1630087652.746,-1000.000,-107.910,-107.422,-1000.000
1630087652.750,-941.895,-85.938,-91.309,-1000.000
1630087652.754,578.613,-11.719,-38.086,357.910
1630087652.758,972.656,-12.695,-52.734,-919.922
1630087652.762,-528.320,-83.496,-108.398,-361.816
1630087652.766,-1000.000,-104.492,-123.535,-1000.000
1630087652.769,-66.895,-27.344,-76.660,-173.828
1630087652.773,-821.777,-15.137,-71.289,-828.125
1630087652.777,30.762,-120.117,-155.273,145.996
1630087652.781,-1000.000,-129.395,-159.668,-1000.000
1630087652.785,-239.258,-41.016,-98.633,-270.508
1630087652.787,-824.219,4.883,-76.172,-824.707
1630087652.791,242.188,-44.922,-98.633,254.395
1630087652.795,-1000.000,-87.891,-129.395,-1000.000
1630087652.799,-570.801,-49.316,-111.816,-680.176
1630087652.803,-947.754,20.508,-63.477,954.590
1630087652.807,539.551,-4.883,-76.660,648.926
1630087652.811,-996.094,-93.750,-128.418,-902.832
1630087652.814,-1000.000,-90.332,-125.977,-1000.000
1630087652.818,363.770,-20.996,-87.402,185.059
1630087652.822,-911.621,-3.906,-75.195,-849.121
1630087652.826,-344.238,-66.406,-117.188,-204.590
1630087652.830,-1000.000,-90.820,-140.137,-1000.000
1630087652.833,-174.805,-23.438,-97.656,-221.680
1630087652.837,-827.148,11.719,-61.523,-830.078
1630087652.841,159.180,-59.570,-90.820,223.145
1630087652.845,-1000.000,-122.559,-142.578,-1000.000
1630087652.849,-281.738,-59.570,-110.840,-373.535
1630087652.853,-826.660,24.414,-39.551,-851.562
1630087652.857,273.438,-11.230,-67.383,352.051
1630087652.860,-1000.000,-119.141,-142.090,-1000.000
1630087652.864,-723.633,-132.324,-158.203,-861.816
1630087652.868,917.480,-14.648,-65.430,742.676
1630087652.872,649.414,-0.488,-44.434,784.668
1630087652.876,-911.133,-77.148,-114.258,-779.297
1630087652.877,-1000.000,-78.125,-104.980,-1000.000
1630087652.881,174.805,6.836,-30.762,51.270
1630087652.885,-848.633,33.203,-18.066,-825.195
1630087652.889,-200.195,-46.387,-76.172,-81.543
1630087652.893,-1000.000,-72.266,-103.027,-1000.000
1630087652.897,-223.145,-1.953,-48.340,-229.980
1630087652.901,-829.102,39.062,-11.230,-827.148
1630087652.904,238.281,-64.453,-77.637,242.676
1630087652.908,-1000.000,-123.047,-123.047,-1000.000
1630087652.912,-359.863,-34.180,-70.312,-478.516
1630087652.916,-844.238,38.086,-24.414,-894.043
1630087652.920,339.844,-20.020,-50.293,437.500
1630087652.922,-1000.000,-81.543,-104.980,-1000.000
1630087652.926,-837.891,-55.664,-99.121,-968.262
1630087652.930,747.559,14.160,-36.621,545.898
1630087652.934,839.844,12.207,-32.227,967.773
1630087652.938,-714.355,-74.707,-91.797,-547.852
1630087652.942,-1000.000,-65.430,-74.707,-1000.000
1630087652.946,82.520,5.371,-25.879,-42.480
1630087652.949,-815.918,-23.438,-59.082,-813.965
1630087652.953,-60.059,-85.938,-103.027,46.875
1630087652.957,-1000.000,-89.355,-84.473,-1000.000
1630087652.961,-233.398,-21.973,-28.320,-241.699
1630087652.965,-826.172,23.438,9.766,-822.754
1630087652.967,241.699,-59.570,-28.320,242.676
1630087652.971,-1000.000,-107.910,-85.449,-1000.000
1630087652.975,-474.121,-27.344,-64.453,-593.262
1630087652.979,-892.578,49.316,-11.230,-958.496
1630087652.983,424.805,0.000,-31.250,522.461
1630087652.987,-1000.000,-67.383,-77.148,-1000.000
1630087652.991,-931.152,-64.453,-83.008,-1000.000
1630087652.994,601.074,1.953,-31.250,347.168
1630087652.998,944.336,18.555,-14.160,-936.523
1630087653.002,-574.219,-83.984,-81.543,-393.555
1630087653.006,-1000.000,-90.820,-87.891,-1000.000
1630087653.010,-42.969,1.465,-20.996,-173.828
1630087653.012,-810.547,37.598,12.207,-826.172
1630087653.016,73.730,-48.340,-52.246,176.758
1630087653.020,-1000.000,-108.887,-99.121,-1000.000
1630087653.024,-245.117,-12.207,-20.020,-286.621
1630087653.028,-821.289,54.199,23.438,-825.684
1630087653.032,241.211,-32.715,-39.062,271.484
1630087653.036,-1000.000,-97.656,-79.590,-1000.000
1630087653.039,-575.684,-39.551,-39.551,-713.867
1630087653.043,-950.195,30.762,10.254,926.270
1630087653.047,541.992,-22.461,-29.297,653.320
1630087653.051,-984.863,-114.746,-100.098,-898.438
1630087653.055,-1000.000,-75.684,-71.777,-1000.000
1630087653.072,309.570,-4.395,-19.043,146.973
1630087653.076,-890.137,1.953,-16.602,-841.309
1630087653.080,-312.012,-71.777,-71.289,-178.711
1630087653.084,-1000.000,-93.262,-84.961,-1000.000
1630087653.088,-182.617,-33.203,-35.156,-223.633
1630087653.092,-823.730,2.441,-20.508,-829.102
1630087653.096,201.660,-59.082,-74.219,235.840
1630087653.099,-1000.000,-113.281,-99.121,-1000.000
1630087653.103,-290.039,-44.922,-48.340,-392.578
1630087653.107,-825.195,23.926,-2.441,-857.422
1630087653.111,250.488,-43.945,-21.484,330.566
1630087653.115,-1000.000,-114.258,-64.453,-1000.000
1630087653.117,-720.215,-84.961,-53.711,-858.887
1630087653.121,906.250,-15.625,0.000,723.145
1630087653.125,687.500,-39.551,-5.859,826.660
1630087653.129,-869.141,-124.512,-61.523,-726.562
1630087653.133,-1000.000,-121.094,-64.453,-1000.000
1630087653.137,140.625,-49.805,-1.465,19.531
1630087653.141,-829.590,-17.578,23.926,-816.895
1630087653.144,-146.973,-93.262,-23.926,-19.043
1630087653.148,-1000.000,-147.949,-58.594,-1000.000
1630087653.152,-225.586,-100.098,-35.645,-236.328
1630087653.156,-828.613,-39.062,19.043,-823.730
1630087653.160,234.375,-79.102,-7.324,242.188
1630087653.162,-1000.000,-129.883,-51.270,-1000.000
1630087653.166,-397.461,-89.355,-19.531,-500.488
1630087653.170,-860.352,-26.855,14.160,-905.273
1630087653.174,341.309,-59.082,1.953,449.219
1630087653.178,-1000.000,-111.328,-44.922,-1000.000
1630087653.182,-827.148,-75.684,-40.527,-959.961
1630087653.186,766.113,9.766,18.555,563.965
1630087653.189,812.988,-6.348,16.113,954.102
1630087653.193,-735.840,-133.789,-77.637,-554.199
1630087653.197,-1000.000,-137.695,-85.449,-1000.000
1630087653.201,36.133,-45.410,7.324,-101.074
1630087653.205,-818.848,-20.508,23.438,-823.730
1630087653.207,-42.969,-82.031,-37.598,70.801
1630087653.211,-1000.000,-114.746,-62.988,-1000.000
1630087653.215,-233.887,-43.945,-19.531,-242.676
1630087653.219,-825.195,3.906,17.090,-821.289
1630087653.223,241.211,-69.336,-16.602,242.188
1630087653.227,-1000.000,-113.281,-67.383,-1000.000
1630087653.231,-471.680,-52.246,-28.320,-583.008
1630087653.234,-891.602,-11.230,-4.395,-953.613
1630087653.238,443.359,-71.777,-57.129,543.457
1630087653.242,-1000.000,-119.141,-79.102,-980.469
1630087653.246,-978.516,-74.707,-48.828,-1000.000
1630087653.250,529.785,-8.789,-1.953,301.758
1630087653.252,976.074,-15.137,3.418,-917.969
1630087653.256,-533.203,-71.777,-61.523,-359.863
1630087653.260,-1000.000,-77.637,-77.637,-1000.000
1630087653.264,-73.730,-18.555,-18.066,-189.941
1630087653.268,-814.453,5.371,8.789,-828.613
1630087653.272,81.543,-55.664,-37.598,188.965
1630087653.276,-1000.000,-99.609,-79.590,-1000.000
1630087653.279,-245.117,-68.359,-60.547,-297.852
1630087653.283,-821.289,-11.230,-20.020,-829.590
1630087653.287,241.211,-49.805,-44.922,250.488
1630087653.291,-1000.000,-91.309,-89.844,-1000.000
1630087653.295,-586.914,-41.504,-54.688,-712.891
1630087653.298,-960.938,24.414,-9.277,908.691
1630087653.302,582.031,0.000,-23.438,704.102
1630087653.306,-966.797,-80.078,-79.102,-852.539
1630087653.310,-1000.000,-71.289,-73.242,-1000.000
1630087653.314,326.660,2.930,-12.207,153.320
1630087653.318,-886.719,20.020,11.230,-838.867
1630087653.322,-302.734,-59.082,-50.293,-173.340
1630087653.325,-1000.000,-99.121,-91.309,-1000.000
1630087653.329,-182.129,-20.996,-37.598,-223.633
1630087653.333,-825.195,34.668,-1.953,-829.590
1630087653.337,190.430,-34.668,-53.223,230.469
1630087653.341,-1000.000,-90.332,-100.098,-1000.000
1630087653.342,-300.781,-36.133,-59.082,-402.832
1630087653.346,-830.566,16.602,-5.859,-862.793
1630087653.350,252.930,-25.391,-45.898,327.148
1630087653.354,-1000.000,-82.520,-99.121,-1000.000
1630087653.358,-707.520,-45.898,-75.195,-853.027
1630087653.362,921.387,41.016,-6.348,734.375
1630087653.366,671.875,-5.371,-44.434,810.059
1630087653.369,-881.348,-104.980,-125.977,-742.676
1630087653.373,-1000.000,-77.637,-94.238,-1000.000
1630087653.377,140.625,-3.418,-44.922,10.742
1630087653.381,-833.984,11.719,-29.785,-823.730
1630087653.385,-157.227,-58.594,-72.266,-44.434
1630087653.387,-1000.000,-81.055,-102.051,-1000.000
1630087653.391,-225.586,-15.137,-57.617,-232.910
1630087653.395,-828.125,22.949,-24.414,-825.684
1630087653.399,238.770,-45.898,-63.965,242.676
1630087653.403,-1000.000,-95.703,-106.934,-1000.000
1630087653.407,-379.395,-56.152,-88.379,-493.164
1630087653.411,-852.051,-8.789,-42.969,-901.855
1630087653.414,352.539,-24.902,-55.176,452.148
1630087653.418,-1000.000,-100.586,-109.863,-1000.000
1630087653.422,-835.449,-74.219,-83.984,-976.074
1630087653.426,756.348,26.367,-18.066,544.434
1630087653.430,826.172,2.930,-29.297,952.148
1630087653.447,-717.285,-87.891,-88.379,-557.617
1630087653.451,-1000.000,-90.820,-93.262,-1000.000
1630087653.455,19.531,-15.137,-41.016,-119.141
1630087653.459,-822.754,4.395,-23.438,-830.566
1630087653.463,-47.363,-77.148,-69.336,60.547
1630087653.467,-1000.000,-95.215,-88.379,-1000.000
1630087653.471,-232.910,-26.367,-49.316,-240.723
1630087653.474,-826.660,-0.977,-19.043,-822.754
1630087653.478,242.188,-65.918,-64.941,242.188
1630087653.482,-1000.000,-121.094,-104.004,-1000.000
1630087653.486,-493.164,-69.824,-61.035,-601.074
1630087653.490,-902.832,8.301,-7.324,-964.355
1630087653.492,448.730,-43.457,-41.992,541.992
1630087653.496,-1000.000,-126.953,-111.328,-992.676
1630087653.500,-958.008,-83.496,-69.824,-1000.000
1630087653.504,561.523,-0.488,-1.953,337.402
1630087653.508,966.797,-11.230,-11.230,-924.316
1630087653.512,-541.504,-90.820,-55.664,-368.652
1630087653.516,-1000.000,-94.238,-57.129,-1000.000
1630087653.519,-65.918,-23.438,2.441,-189.941
1630087653.523,-816.406,-31.738,-1.465,-830.566
1630087653.527,63.965,-146.484,-101.074,174.805
1630087653.531,-1000.000,-144.043,-95.215,-1000.000
1630087653.535,-243.164,-36.133,-13.672,-293.457
1630087653.538,-822.266,30.273,27.832,-829.102
1630087653.542,241.699,-27.832,-1.465,264.160
1630087653.546,-1000.000,-96.680,-42.969,-1000.000
1630087653.550,-598.633,-56.641,-20.996,-729.492
1630087653.554,-969.238,14.160,6.836,887.207
1630087653.558,598.145,-1.953,1.953,737.793
1630087653.562,-954.102,-69.336,-35.645,-813.965
1630087653.565,-1000.000,-70.312,-36.133,-1000.000
1630087653.569,311.035,-28.809,-15.137,131.348
1630087653.573,-901.855,-17.578,-4.395,-850.098
1630087653.577,-327.637,-63.477,-36.621,-193.359
1630087653.581,-1000.000,-82.031,-58.105,-1000.000
1630087653.582,-198.730,-5.859,-9.277,-223.145
1630087653.586,-827.148,33.203,19.043,-828.613
1630087653.590,208.984,-38.574,-27.344,239.258
1630087653.594,-1000.000,-86.914,-72.266,-1000.000
1630087653.598,-278.320,-21.484,-36.621,-379.883
1630087653.602,-819.824,35.156,4.395,-850.586
1630087653.606,263.672,-29.785,-23.926,347.656
1630087653.609,-1000.000,-110.840,-85.938,-1000.000
1630087653.613,-764.160,-126.465,-107.422,-916.016
1630087653.617,862.305,-47.852,-40.039,651.855
1630087653.621,699.219,-19.043,-6.348,833.984
1630087653.625,-861.816,-91.309,-63.477,-722.656
1630087653.628,-1000.000,-89.844,-58.594,-1000.000
1630087653.632,118.164,-19.531,0.977,-5.371
1630087653.636,-839.355,11.719,12.695,-830.078
1630087653.640,-163.086,-68.359,-44.922,-57.617
1630087653.644,-1000.000,-104.492,-62.988,-1000.000
1630087653.648,-224.609,-22.461,-5.371,-230.957
1630087653.652,-829.590,24.414,30.762,-827.637
1630087653.655,240.723,-135.742,-92.773,243.652
1630087653.659,-1000.000,-201.172,-149.414,-1000.000
1630087653.663,-414.062,-56.152,-36.621,-520.020
1630087653.667,-865.723,19.531,6.348,-914.062
1630087653.671,375.977,-24.902,-24.414,465.820
1630087653.672,-1000.000,-97.168,-75.195,-1000.000
1630087653.676,-872.559,-75.195,-64.453,-1000.000
1630087653.680,705.078,-9.766,-18.555,472.656
1630087653.684,861.816,-23.438,-18.066,979.492
1630087653.688,-684.570,-106.445,-73.242,-529.297
1630087653.692,-1000.000,-109.863,-75.195,-1000.000
1630087653.696,26.855,-28.320,-13.672,-104.492
1630087653.699,-819.824,-9.766,-0.977,-824.707
1630087653.703,-41.504,-92.285,-55.176,66.895
1630087653.707,-1000.000,-123.047,-78.613,-1000.000
1630087653.711,-233.887,-48.340,-21.484,-242.188
1630087653.715,-827.148,-15.137,4.395,-822.754
1630087653.717,242.676,-80.566,-52.246,241.699
1630087653.721,-1000.000,-110.840,-89.355,-1000.000
1630087653.725,-527.344,-59.082,-56.641,-638.184
1630087653.729,-919.434,11.230,-4.395,-994.141
1630087653.733,473.145,-29.297,-21.484,560.059
1630087653.737,-1000.000,-101.562,-75.684,-976.074
1630087653.741,-993.164,-72.754,-63.965,-1000.000
1630087653.744,516.113,-2.441,-9.277,277.344
1630087653.748,969.727,-11.719,-8.789,-916.016
1630087653.752,-538.086,-96.191,-68.848,-353.027
1630087653.756,-1000.000,-98.633,-83.984,-1000.000
1630087653.760,-112.793,-12.207,-20.508,-200.684
1630087653.763,-821.289,31.738,23.926,-831.543
1630087653.767,111.328,-48.340,-31.738,200.195
1630087653.771,-1000.000,-106.934,-88.867,-1000.000
1630087653.775,-248.047,-40.527,-43.945,-313.965
1630087653.779,-820.312,22.949,20.020,-832.520
1630087653.783,240.723,-28.320,-20.020,275.879
1630087653.787,-1000.000,-96.191,-71.289,-1000.000
1630087653.790,-628.418,-61.523,-39.551,-776.367
1630087653.794,-987.305,8.789,21.484,847.656
1630087653.798,586.914,-50.781,0.000,702.148
1630087653.802,-967.773,-138.672,-69.824,-865.723
1630087653.806,-1000.000,-85.938,-50.293,-1000.000
1630087653.822,312.012,-0.977,13.184,145.996
1630087653.826,-897.461,16.113,20.020,-845.703
1630087653.830,-321.289,-51.758,-31.738,-187.988
1630087653.834,-1000.000,-75.195,-52.734,-1000.000
1630087653.838,-197.754,4.395,10.254,-223.633
1630087653.842,-827.637,-6.348,-4.883,-829.590
1630087653.846,210.449,-104.980,-70.801,240.723
1630087653.849,-1000.000,-103.027,-32.715,-1000.000
1630087653.853,-296.875,-49.316,7.812,-403.809
1630087653.857,-826.660,0.000,37.598,-860.352
1630087653.861,263.672,-43.945,17.090,339.844
1630087653.865,-1000.000,-105.957,-25.879,-1000.000
1630087653.867,-739.746,-68.359,-14.160,-905.273
1630087653.871,878.418,6.348,26.855,648.438
1630087653.875,733.398,-9.766,29.297,869.629
1630087653.879,-828.125,-97.168,-11.230,-680.176
1630087653.883,-1000.000,-98.145,-15.625,-1000.000
1630087653.887,133.789,-16.602,30.273,-2.441
1630087653.891,-822.266,15.137,50.781,-816.406
1630087653.894,-113.770,-50.293,2.930,3.906
1630087653.898,-1000.000,-121.094,-42.969,-1000.000
1630087653.902,-229.004,-125.488,-59.082,-237.793
1630087653.906,-827.148,-36.133,-9.766,-824.219
1630087653.910,240.234,-34.668,-12.695,242.676
1630087653.912,-1000.000,-101.074,-50.781,-1000.000
1630087653.916,-417.480,-47.363,-14.160,-538.574
1630087653.920,-867.188,25.391,41.016,-924.316
1630087653.924,375.488,-23.438,19.531,468.262
1630087653.928,-1000.000,-94.727,-36.621,-1000.000
1630087653.932,-873.535,-72.754,-29.297,-1000.000
1630087653.936,694.824,-3.906,26.367,462.402
1630087653.939,885.742,-6.348,32.227,995.117
1630087653.943,-653.320,-136.719,-94.238,-503.418
1630087653.947,-1000.000,-130.371,-98.145,-1000.000
1630087653.951,17.090,11.719,28.809,-122.070
1630087653.955,-826.660,-4.883,13.184,-830.566
1630087653.957,-62.012,-146.973,-88.867,55.176
1630087653.961,-1000.000,-123.535,-66.895,-1000.000
1630087653.965,-231.445,-13.672,0.488,-239.746
1630087653.969,-827.637,23.438,41.504,-823.730
1630087653.973,242.676,-43.457,8.301,242.676
1630087653.977,-1000.000,-87.402,-47.852,-1000.000
1630087653.981,-502.441,-21.973,-5.371,-608.887
1630087653.984,-905.273,-13.184,-9.277,-966.797
1630087653.988,434.082,-137.695,-115.234,533.691
1630087653.992,-1000.000,-128.906,-94.727,-981.934
1630087653.996,-998.535,-47.363,-30.762,-1000.000
1630087654.000,473.145,-0.488,10.742,240.234
1630087654.003,-984.375,13.184,13.184,-888.672
1630087654.007,-471.191,-38.086,-46.387,-300.293
1630087654.011,-1000.000,-63.477,-52.246,-1000.000
1630087654.015,-135.742,-38.086,-27.344,-209.961
1630087654.019,-822.754,7.324,-0.488,-831.543
1630087654.023,139.648,-21.973,-22.461,215.820
1630087654.027,-1000.000,-82.031,-60.059,-1000.000
1630087654.030,-255.371,-122.070,-107.422,-345.215
1630087654.034,-819.824,-39.551,-51.758,-842.773
1630087654.038,240.234,-23.438,-3.906,277.344
1630087654.042,-1000.000,-97.168,-66.895,-1000.000
1630087654.046,-629.883,-57.129,-52.734,-780.762
1630087654.047,-990.234,1.953,7.812,836.426
1630087654.051,589.355,-20.996,3.906,719.238
1630087654.055,-954.590,-88.379,-58.105,-844.727
1630087654.059,-1000.000,-83.496,-54.199,-1000.000
1630087654.063,239.258,-12.207,1.465,101.562
1630087654.067,-862.793,17.578,23.438,-827.637
1630087654.071,-248.047,-105.469,-69.824,-120.605
1630087654.074,-1000.000,-258.301,-209.961,-1000.000
1630087654.078,-207.520,-132.812,-104.980,-227.051
1630087654.082,-828.125,19.531,29.297,-828.125
1630087654.086,212.402,-45.410,-23.438,236.328
1630087654.090,-1000.000,-95.215,-61.523,-1000.000
1630087654.092,-323.730,-48.828,-12.695,-438.965
1630087654.096,-833.984,13.672,29.297,-875.488
1630087654.100,303.223,-13.672,-1.953,390.137
1630087654.104,-1000.000,-77.637,-57.617,-1000.000
1630087654.108,-771.973,-53.223,-43.945,-928.223
1630087654.112,853.027,21.484,15.625,632.812
1630087654.116,726.562,-3.418,0.488,861.328
1630087654.119,-832.031,-88.867,-65.430,-687.012
1630087654.123,-1000.000,-87.891,-70.312,-1000.000
1630087654.127,90.820,-8.789,-19.043,-30.273
1630087654.131,-827.148,16.113,12.207,-822.754
1630087654.135,-110.840,-63.477,-39.062,-1.465
1630087654.137,-1000.000,-91.797,-88.867,-1000.000
1630087654.141,-228.516,-34.180,-42.969,-236.328
1630087654.145,-827.148,8.301,9.766,-824.219
1630087654.149,240.234,-53.711,-27.344,242.676
1630087654.153,-1000.000,-106.934,-71.777,-1000.000
1630087654.157,-416.504,-57.617,-48.828,-522.949
1630087654.161,-865.723,8.301,-4.883,-914.551
1630087654.164,375.977,-43.457,-23.438,463.867
1630087654.168,-1000.000,-100.586,-74.707,-1000.000
1630087654.172,-930.664,-85.449,-79.102,-1000.000
1630087654.176,613.770,-16.113,-26.367,391.602
1630087654.180,896.484,8.789,-5.859,-998.535
1630087654.197,-648.926,-76.660,-70.801,-499.023
1630087654.201,-1000.000,-79.590,-77.148,-1000.000
1630087654.205,-20.508,-11.719,-19.043,-140.625
1630087654.209,-814.941,20.020,25.391,-824.219
1630087654.213,33.691,-41.016,-16.113,135.254
1630087654.217,-1000.000,-84.473,-52.246,-1000.000
1630087654.221,-241.211,-18.555,-12.207,-249.512
1630087654.224,-822.266,46.875,25.879,-818.359
1630087654.228,241.699,-34.180,-4.395,239.258
1630087654.232,-1000.000,-110.840,-67.871,-1000.000
1630087654.236,-527.344,-42.969,-44.922,-653.320
1630087654.240,-920.410,33.203,20.020,988.281
1630087654.243,508.789,-15.625,3.418,597.656
1630087654.247,-1000.000,-91.797,-40.039,-948.730
1630087654.251,-1000.000,-64.941,-27.832,-1000.000
1630087654.255,436.035,16.113,18.555,229.980
1630087654.259,-990.234,-3.418,-0.488,-889.160
1630087654.263,-482.422,-88.867,-62.500,-297.852
1630087654.267,-1000.000,-74.219,-61.035,-1000.000
1630087654.270,-124.512,-2.930,-7.812,-204.590
1630087654.274,-827.148,-41.992,-35.156,-833.008
1630087654.278,79.590,-198.730,-154.297,180.176
1630087654.282,-1000.000,-149.902,-102.539,-1000.000
1630087654.286,-243.164,-20.508,-19.043,-318.848
1630087654.287,-822.754,20.020,-0.977,-836.426
1630087654.291,241.699,-33.691,-20.020,291.504
1630087654.295,-1000.000,-85.449,-57.617,-1000.000
1630087654.299,-609.863,-51.758,-41.992,-755.859
1630087654.303,-979.004,11.719,3.906,857.422
1630087654.307,618.652,-4.883,-5.371,760.254
1630087654.311,-929.688,-79.590,-71.289,-790.527
1630087654.314,-1000.000,-60.059,-71.777,-1000.000
1630087654.318,254.395,-50.781,-91.309,102.051
1630087654.322,-867.676,-42.969,-107.422,-834.473
1630087654.326,-258.789,-29.785,-88.379,-139.648
1630087654.330,-1000.000,-59.082,-105.957,-1000.000
1630087654.332,-209.473,13.672,-58.594,-226.074
1630087654.336,-829.590,69.824,-27.344,-829.590
1630087654.340,219.727,1.953,-74.707,242.676
1630087654.344,-1000.000,-48.340,-121.094,-1000.000
1630087654.348,-342.773,6.348,-95.215,-462.891
1630087654.352,-839.844,68.359,-36.621,-886.230
1630087654.356,307.617,19.043,-52.734,398.926
1630087654.359,-1000.000,-74.707,-128.418,-1000.000
1630087654.363,-795.410,-101.562,-159.668,-944.336
1630087654.367,821.289,-2.930,-83.496,608.887
1630087654.371,743.164,42.480,-49.316,869.629
1630087654.375,-822.266,-39.551,-108.398,-679.688
1630087654.377,-1000.000,-45.898,-99.609,-1000.000
1630087654.381,98.145,28.809,-38.086,-35.645
1630087654.385,-826.172,59.570,-28.320,-823.730
1630087654.389,-108.398,-3.418,-83.496,-0.977
1630087654.393,-1000.000,-33.691,-97.656,-1000.000
1630087654.397,-228.516,46.387,-46.387,-236.328
1630087654.401,-827.637,95.703,-27.832,-824.707
1630087654.404,240.723,-10.742,-96.680,243.164
1630087654.408,-1000.000,-66.406,-126.953,-1000.000
1630087654.412,-431.641,13.184,-66.406,-544.434
1630087654.416,-872.070,80.078,-27.832,-928.223
1630087654.420,403.809,26.367,-55.664,492.188
1630087654.422,-1000.000,-50.293,-103.516,-1000.000
1630087654.426,-912.598,-14.160,-82.031,-1000.000
1630087654.430,646.973,46.387,-36.133,418.945
1630087654.434,893.555,24.902,-45.898,-986.816
1630087654.438,-645.508,-45.898,-80.566,-476.562
1630087654.442,-1000.000,-47.363,-77.637,-1000.000
1630087654.446,-19.043,17.578,-41.992,-137.207
1630087654.449,-820.801,-7.812,-72.266,-826.172
1630087654.453,-2.930,-68.359,-101.074,111.816
1630087654.457,-1000.000,-52.246,-105.469,-1000.000
1630087654.461,-236.816,16.602,-61.523,-256.348
1630087654.465,-825.684,60.547,-1.953,-823.242
1630087654.468,242.676,-11.230,-41.016,240.234
1630087654.472,-1000.000,-79.102,-85.449,-1000.000
1630087654.476,-553.711,-42.480,-71.777,-674.805
1630087654.480,-936.523,33.691,-23.926,959.473
1630087654.484,530.273,12.207,-26.367,635.742
1630087654.488,-993.652,-60.059,-71.289,-912.109
1630087654.492,-1000.000,-72.754,-90.332,-1000.000
1630087654.495,353.516,-5.859,-43.945,189.453
1630087654.499,-931.152,34.180,-4.883,-863.770
1630087654.503,-388.672,-52.734,-58.594,-242.188
1630087654.507,-1000.000,-71.289,-84.961,-1000.000
1630087654.511,-137.207,8.301,-30.762,-212.891
1630087654.512,-818.848,46.875,6.836,-829.102
1630087654.516,148.926,-33.691,-52.734,220.215
1630087654.520,-1000.000,-83.008,-84.961,-1000.000
1630087654.524,-252.441,-15.137,-42.480,-349.609
1630087654.528,-817.871,58.594,1.465,-842.773
1630087654.532,238.281,-19.531,-42.969,306.641
1630087654.536,-1000.000,-129.883,-134.766,-1000.000
1630087654.539,-658.203,-71.289,-94.727,-803.711
1630087654.543,975.098,5.371,-3.906,801.758
1630087654.547,638.184,-2.441,-6.348,770.508
1630087654.551,-913.086,-59.570,-76.660,-784.668
1630087654.555,-1000.000,-75.195,-88.379,-1000.000
1630087654.572,201.172,-4.395,-41.016,69.824
1630087654.576,-852.051,26.367,-41.504,-827.637
1630087654.580,-215.332,-51.270,-104.004,-103.027
1630087654.584,-1000.000,-89.355,-129.883,-1000.000
1630087654.588,-208.008,-18.066,-87.891,-228.516
1630087654.592,-824.707,25.879,-58.594,-826.660
1630087654.596,227.051,-59.082,-120.605,241.699
1630087654.599,-1000.000,-113.281,-164.062,-1000.000
1630087654.603,-325.195,-43.457,-112.793,-441.406
1630087654.607,-832.520,24.414,-61.523,-875.488
1630087654.611,291.992,-30.762,-95.703,373.047
1630087654.615,-1000.000,-101.074,-152.344,-1000.000
1630087654.617,-802.734,-66.406,-135.254,-950.195
1630087654.621,804.199,15.137,-87.402,588.867
1630087654.625,762.695,2.930,-94.238,884.277
1630087654.629,-803.711,-77.637,-154.297,-664.062
1630087654.633,-1000.000,-61.035,-145.508,-1000.000
1630087654.637,90.332,18.555,-82.520,-36.133
1630087654.641,-820.801,34.668,-61.523,-818.359
1630087654.644,-82.031,-50.781,-116.211,27.344
1630087654.648,-1000.000,-87.891,-151.855,-1000.000
1630087654.652,-231.445,-20.508,-97.168,-239.746
1630087654.656,-827.637,24.902,-56.152,-823.730
1630087654.660,241.699,-49.805,-92.773,242.676
1630087654.662,-1000.000,-95.215,-133.301,-1000.000
1630087654.666,-478.516,-37.109,-104.492,-582.031
1630087654.670,-894.531,20.996,-54.688,-950.684
1630087654.674,418.457,-13.184,-71.289,502.441
1630087654.678,-1000.000,-74.219,-119.141,-1000.000
1630087654.682,-929.688,-48.828,-100.098,-1000.000
1630087654.686,607.910,19.531,-48.828,385.254
1630087654.689,928.223,23.926,-61.035,-963.379
1630087654.693,-595.703,-59.082,-128.418,-435.059
1630087654.697,-1000.000,-71.289,-126.465,-1000.000
1630087654.701,-46.875,13.672,-61.035,-167.480
1630087654.705,-817.383,40.039,-49.316,-828.125
1630087654.708,42.969,-34.180,-104.004,149.414
1630087654.712,-1000.000,-65.918,-134.277,-1000.000
1630087654.716,-241.699,2.441,-79.102,-260.742
1630087654.720,-821.777,38.574,-37.109,-820.801
1630087654.724,241.699,-26.855,-68.848,241.211
1630087654.728,-1000.000,-82.520,-83.496,-1000.000
1630087654.732,-523.438,-26.855,-47.852,-645.508
1630087654.735,-917.480,40.039,-7.812,996.582
1630087654.739,502.441,-34.180,-41.016,587.402
1630087654.743,-1000.000,-106.445,-76.172,-949.707
1630087654.747,-1000.000,-62.012,-36.133,-1000.000
1630087654.751,386.719,16.113,18.555,193.848
1630087654.752,-945.801,17.578,20.508,-863.770
1630087654.756,-406.738,-51.270,-25.879,-241.211
1630087654.760,-1000.000,-62.012,-42.969,-1000.000
1630087654.764,-166.016,-1.953,17.090,-216.309
1630087654.768,-823.730,24.414,43.945,-830.078
1630087654.772,185.547,-43.457,-10.742,229.492
1630087654.776,-1000.000,-81.055,-48.340,-1000.000
1630087654.779,-275.391,-19.043,-17.578,-371.094
1630087654.783,-822.266,35.156,32.227,-849.609
1630087654.787,241.699,-31.250,-3.418,312.500
1630087654.791,-1000.000,-93.262,-58.105,-1000.000
1630087654.795,-690.430,-55.176,-35.156,-835.938
1630087654.797,942.871,7.812,18.066,763.672
1630087654.801,647.461,-14.648,11.719,774.414
1630087654.805,-908.691,-91.309,-41.992,-786.621
1630087654.809,-1000.000,-87.891,-38.574,-1000.000
1630087654.813,177.246,-7.812,18.555,53.711
1630087654.817,-837.891,31.738,43.945,-821.777
1630087654.821,-174.805,-61.035,-23.926,-69.336
1630087654.824,-1000.000,-143.066,-87.402,-1000.000
1630087654.828,-221.191,-61.523,-6.836,-231.445
1630087654.832,-827.148,12.695,62.012,-826.172
1630087654.836,228.516,-57.617,-5.859,242.188
1630087654.840,-1000.000,-99.121,-49.805,-1000.000
1630087654.842,-351.562,-30.762,-1.953,-474.121
1630087654.846,-842.285,29.297,39.551,-891.602
1630087654.850,330.078,-23.438,10.254,424.316
1630087654.854,-1000.000,-95.215,-50.781,-1000.000
1630087654.858,-830.078,-61.035,-34.180,-969.727
1630087654.862,780.273,26.855,27.344,565.918
1630087654.866,763.672,-14.648,-12.695,906.738
1630087654.869,-799.805,-106.445,-80.566,-627.930
1630087654.873,-1000.000,-81.543,-58.594,-1000.000
1630087654.877,57.617,-21.973,-7.812,-71.289
1630087654.881,-822.754,-9.277,8.301,-824.219
1630087654.885,-71.777,-65.430,-39.551,32.715
1630087654.888,-1000.000,-71.777,-48.340,-1000.000
1630087654.892,-231.445,-23.926,-23.926,-239.258
1630087654.896,-825.195,-2.441,-13.184,-822.754
1630087654.900,240.234,-42.480,-24.414,242.188
1630087654.904,-1000.000,-83.496,-54.199,-1000.000
1630087654.908,-428.711,-70.312,-69.336,-546.387
1630087654.912,-870.117,-39.062,-59.082,-930.176
1630087654.915,416.016,-30.762,-22.461,511.719
1630087654.919,-1000.000,-72.266,-41.504,-996.094
1630087654.923,-976.074,-109.375,-86.426,-1000.000
1630087654.927,534.180,-40.527,-54.199,328.125
1630087654.931,963.379,26.855,12.695,-928.711
1630087654.948,-554.688,-74.219,-34.180,-379.883
1630087654.952,-1000.000,-94.727,-44.922,-1000.000
1630087654.956,-55.176,-6.348,10.254,-180.176
1630087654.960,-814.453,35.156,37.109,-830.078
1630087654.964,62.988,-26.367,-17.090,159.668
1630087654.968,-1000.000,-97.168,-75.684,-1000.000
1630087654.972,-243.652,-70.801,-47.363,-294.434
1630087654.975,-822.266,11.230,23.438,-832.031
1630087654.979,241.699,-26.855,-16.113,242.676
1630087654.983,-1000.000,-85.449,-69.824,-1000.000
1630087654.987,-580.078,-37.598,-30.762,-721.191
1630087654.991,-955.078,20.996,10.742,914.551
1630087654.992,558.105,-19.043,-7.324,639.160
1630087654.996,-990.234,-83.984,-62.500,-918.457
1630087655.000,-1000.000,-68.848,-66.406,-1000.000
1630087655.004,379.395,3.906,-11.230,180.176
1630087655.008,-913.086,8.789,-4.883,-865.723
1630087655.012,-348.633,-64.453,-68.848,-244.141
1630087655.016,-1000.000,-81.543,-90.332,-1000.000
1630087655.019,-161.133,-8.789,-39.062,-216.309
1630087655.023,-826.172,-3.418,-46.875,-837.402
1630087655.027,132.812,-132.324,-154.297,190.918
1630087655.031,-1000.000,-141.602,-155.273,-1000.000
1630087655.035,-267.578,-33.691,-73.730,-410.156
1630087655.037,-825.684,23.438,-35.156,-872.070
1630087655.041,241.699,-35.156,-72.754,272.461
1630087655.045,-1000.000,-117.188,-126.953,-1000.000
1630087655.049,-653.809,-67.383,-100.098,-874.023
1630087655.053,972.168,27.832,-46.875,718.262
1630087655.057,663.086,11.230,-54.199,724.609
1630087655.061,-898.438,-65.918,-108.887,-836.426
1630087655.064,-1000.000,-40.039,-109.863,-1000.000
1630087655.068,238.281,-63.477,-153.809,-1.465
1630087655.072,-854.492,-76.660,-151.855,-880.371
1630087655.076,-230.957,-42.969,-99.609,-203.125
1630087655.080,-1000.000,-54.199,-122.070,-1000.000
1630087655.082,-198.730,12.207,-80.078,-218.262
1630087655.086,-823.242,56.152,-46.875,-838.867
1630087655.090,226.074,-3.418,-82.031,222.168
1630087655.094,-1000.000,-67.383,-125.488,-1000.000
1630087655.098,-317.871,-25.391,-90.332,-563.477
1630087655.102,-829.102,56.152,-36.621,-940.430
1630087655.106,308.105,35.645,-42.969,329.102
1630087655.109,-1000.000,-98.633,-144.531,-1000.000
1630087655.113,-805.176,-180.664,-236.816,-1000.000
1630087655.117,790.039,-19.531,-107.910,410.156
1630087655.121,808.594,55.664,-37.109,846.680
1630087655.125,-752.930,-74.707,-128.418,-715.332
1630087655.127,-1000.000,-90.820,-125.977,-1000.000
1630087655.131,106.445,34.180,-24.902,-120.117
1630087655.135,-812.988,76.172,-8.301,-853.027
1630087655.139,-61.523,-5.371,-81.543,-38.574
1630087655.143,-1000.000,-34.180,-119.629,-1000.000
1630087655.147,-233.398,43.457,-77.637,-229.004
1630087655.151,-825.195,81.055,-18.066,-829.590
1630087655.154,240.723,-47.852,-97.656,244.141
1630087655.158,-1000.000,-101.074,-142.090,-1000.000
1630087655.162,-452.148,-4.883,-62.988,-609.863
1630087655.166,-882.324,54.199,-13.672,-967.285
1630087655.170,449.707,4.395,-33.691,511.719
1630087655.172,-1000.000,-70.312,-79.590,-1000.000
1630087655.176,-913.574,-41.016,-53.223,-1000.000
1630087655.180,607.910,10.742,-25.391,368.164
1630087655.184,953.613,-17.578,-57.617,-945.801
1630087655.188,-554.199,-77.148,-97.168,-405.273
1630087655.192,-1000.000,-71.777,-95.215,-1000.000
1630087655.196,-55.664,-11.719,-55.664,-179.199
1630087655.199,-813.965,-30.762,-73.242,-830.078
1630087655.203,65.918,-92.285,-97.168,160.645
1630087655.207,-1000.000,-88.379,-93.262,-1000.000
1630087655.211,-244.141,-15.625,-60.547,-282.715
1630087655.215,-822.266,44.922,-19.531,-827.637
1630087655.217,241.699,-7.324,-51.270,245.605
1630087655.221,-1000.000,-77.637,-102.539,-1000.000
1630087655.225,-582.031,-28.809,-80.078,-696.289
1630087655.229,-954.590,48.828,-19.531,929.688
1630087655.233,547.363,14.160,-41.992,679.199
1630087655.237,-982.422,-37.598,-87.402,-884.277
1630087655.241,-1000.000,-40.039,-107.910,-1000.000
1630087655.244,334.473,2.930,-76.660,205.566
1630087655.248,-944.336,37.109,-25.391,-841.797
1630087655.252,-402.344,-31.738,-75.195,-188.477
1630087655.256,-1000.000,-59.082,-91.797,-1000.000
1630087655.260,-192.383,-0.977,-26.855,-213.867
1630087655.262,-833.984,51.758,2.930,-821.777
1630087655.266,151.855,-10.254,-56.152,233.887
1630087655.270,-1000.000,-66.895,-94.238,-1000.000
1630087655.274,-259.766,1.465,-44.434,-306.641
1630087655.278,-822.266,57.129,16.113,-827.148
1630087655.282,238.770,-37.109,-40.527,447.754
1630087655.286,-1000.000,-125.000,-113.281,-1000.000
1630087655.289,-691.895,-45.898,-60.547,-706.055
1630087655.293,957.520,48.340,9.766,897.461
1630087655.297,571.289,-24.902,-52.734,892.578
1630087655.301,-964.355,-134.766,-157.715,-622.070
1630087655.305,-1000.000,-69.824,-99.609,-1000.000
1630087655.322,193.359,29.785,-20.508,183.594
1630087655.326,-885.254,39.062,-18.555,-789.062
1630087655.330,-292.480,-34.668,-83.984,35.156
1630087655.334,-1000.000,-63.965,-107.422,-1000.000
1630087655.338,-217.285,1.953,-41.504,-240.723
1630087655.342,-833.984,55.664,-7.812,-812.012
1630087655.346,215.820,-19.531,-69.824,235.352
1630087655.349,-1000.000,-86.914,-116.211,-1000.000
1630087655.353,-340.332,-29.297,-76.660,-370.605
1630087655.357,-840.332,10.742,-41.992,-855.957
1630087655.361,284.180,-30.273,-73.242,524.902
1630087655.365,-1000.000,-55.664,-103.516,-1000.000
1630087655.367,-815.430,-46.387,-94.727,-841.797
1630087655.371,790.039,-0.977,-56.152,701.660
1630087655.375,752.930,29.297,-30.273,-940.918
1630087655.379,-807.129,-31.250,-87.402,-372.070
1630087655.383,-1000.000,-58.105,-99.121,-1000.000
1630087655.387,59.570,18.066,-18.066,29.297
1630087655.391,-831.055,55.176,4.395,-781.738
1630087655.394,-109.863,-17.090,-59.082,153.809
1630087655.398,-1000.000,-111.816,-128.906,-1000.000
1630087655.402,-228.027,-100.098,-134.277,-260.742
1630087655.406,-828.125,33.203,-26.855,-808.105
1630087655.410,241.211,4.395,-30.762,266.602
1630087655.413,-1000.000,-67.383,-83.984,-1000.000
1630087655.417,-433.594,-5.371,-41.016,-447.754
1630087655.421,-873.047,59.570,17.578,-896.484
1630087655.425,369.141,2.930,-11.719,621.582
1630087655.429,-1000.000,-74.219,-83.008,-950.684
1630087655.433,-908.691,-24.414,-60.059,-968.262
1630087655.437,650.391,73.242,16.113,537.598
1630087655.440,873.047,60.059,14.160,-892.578
1630087655.444,-664.551,-50.293,-62.012,-278.320
1630087655.448,-1000.000,-60.547,-68.848,-1000.000
1630087655.452,-67.871,37.598,10.254,-145.508
1630087655.456,-822.754,71.777,34.668,-809.082
1630087655.457,41.992,-9.277,-38.574,199.707
1630087655.461,-1000.000,-59.570,-68.848,-1000.000
1630087655.465,-240.723,14.648,-9.277,-259.766
1630087655.469,-822.754,68.848,43.457,-812.988
1630087655.473,241.699,6.348,-4.883,252.930
1630087655.477,-1000.000,-38.086,-75.684,-1000.000
1630087655.481,-547.363,16.602,-44.434,-682.617
1630087655.484,-930.176,67.871,24.414,965.820
1630087655.488,500.488,-29.785,-35.156,594.238
1630087655.492,-1000.000,-103.516,-87.891,-942.383
1630087655.496,-1000.000,-38.086,-45.410,-1000.000
1630087655.500,392.578,54.199,26.367,163.574
1630087655.502,-956.055,64.453,35.156,-885.742
1630087655.506,-427.246,-34.180,-41.504,-285.156
1630087655.510,-1000.000,-57.617,-61.035,-1000.000
1630087655.514,-159.668,18.555,0.977,-217.773
1630087655.518,-822.266,50.781,33.203,-835.938
1630087655.522,189.453,-41.992,-25.391,225.586
1630087655.526,-1000.000,-94.238,-69.824,-1000.000
1630087655.529,-272.461,-45.410,-56.641,-412.109
1630087655.533,-820.312,29.785,-4.395,-867.676
1630087655.537,240.234,-11.719,-18.066,290.527
1630087655.541,-1000.000,-102.051,-88.867,-1000.000
1630087655.545,-653.320,-69.336,-85.449,-860.352
1630087655.547,975.586,32.715,2.930,732.422
1630087655.551,654.785,7.324,4.395,757.324
1630087655.555,-905.762,-93.750,-75.195,-810.547
1630087655.559,-1000.000,-83.984,-79.590,-1000.000
1630087655.563,232.422,9.766,-3.906,31.250
1630087655.567,-847.168,39.551,21.484,-833.984
1630087655.571,-204.102,-60.059,-67.871,-101.562
1630087655.574,-1000.000,-150.391,-150.879,-1000.000
1630087655.578,-220.215,-51.758,-66.895,-227.539
1630087655.582,-827.148,47.852,23.438,-829.102
1630087655.586,231.445,-30.273,-45.898,243.164
1630087655.590,-1000.000,-87.891,-102.539,-1000.000
1630087655.593,-325.195,-19.043,-58.105,-500.488
1630087655.597,-832.520,50.293,-5.859,-902.832
1630087655.601,287.109,-29.785,-50.293,372.559
1630087655.605,-1000.000,-104.980,-106.934,-1000.000
1630087655.609,-808.105,-64.453,-78.125,-999.512
1630087655.613,784.180,28.809,-18.555,489.258
1630087655.617,797.363,0.977,-57.129,935.059
1630087655.620,-755.859,-84.961,-117.676,-593.750
1630087655.624,-1000.000,-60.547,-93.262,-1000.000
1630087655.628,58.105,-2.930,-35.156,-111.328
1630087655.632,-823.242,23.438,-19.043,-833.984
1630087655.636,-77.148,-50.781,-83.008,33.203
1630087655.637,-1000.000,-90.820,-107.422,-1000.000
1630087655.641,-230.957,-26.855,-48.340,-237.305
1630087655.645,-827.148,30.762,-0.488,-824.707
1630087655.649,241.699,-50.781,-59.082,243.164
1630087655.653,-1000.000,-104.492,-107.422,-1000.000
1630087655.657,-473.145,-41.016,-79.102,-609.375
1630087655.661,-891.602,-58.105,-99.121,-965.332
1630087655.664,413.086,-86.426,-106.934,507.324
1630087655.668,-1000.000,-89.355,-89.844,-1000.000
1630087655.672,-942.383,-86.914,-80.566,-1000.000
1630087655.676,572.266,0.000,-11.230,271.484
1630087655.680,967.773,32.715,-4.883,-918.457
1630087655.697,-541.992,-55.664,-90.820,-359.375
1630087655.701,-1000.000,-78.613,-102.539,-1000.000
1630087655.705,-49.316,5.859,-25.879,-197.266
1630087655.709,-815.430,36.133,3.906,-834.473
1630087655.713,49.805,-58.594,-53.223,166.992
1630087655.717,-1000.000,-111.328,-99.121,-1000.000
1630087655.721,-242.188,-33.203,-61.035,-305.664
1630087655.724,-822.266,40.039,5.859,-835.449
1630087655.728,241.699,-22.949,-24.902,242.676
1630087655.732,-1000.000,-151.855,-154.297,-1000.000
1630087655.736,-552.734,-95.215,-123.047,-745.117
1630087655.740,-936.035,48.828,4.395,894.531
1630087655.742,525.879,10.254,-30.762,621.582
1630087655.746,-1000.000,-77.637,-104.004,-932.129
1630087655.750,-1000.000,-50.293,-89.844,-1000.000
1630087655.754,397.461,27.832,-24.414,121.582
1630087655.758,-893.066,25.879,-18.066,-849.609
1630087655.762,-314.941,-41.016,-92.773,-189.941
1630087655.766,-1000.000,-59.082,-110.840,-1000.000
1630087655.769,-140.625,9.277,-46.387,-221.680
1630087655.773,-817.383,29.785,-25.879,-833.496
1630087655.777,155.762,-74.707,-110.352,223.145
1630087655.781,-1000.000,-105.469,-129.395,-1000.000
1630087655.785,-273.438,-17.578,-59.082,-442.871
1630087655.787,-824.707,41.016,-8.301,-880.371
1630087655.791,243.652,-22.461,-49.805,307.129
1630087655.795,-1000.000,-82.520,-116.699,-1000.000
1630087655.799,-654.297,-38.574,-90.332,-898.926
1630087655.803,851.562,25.391,-33.691,588.379
1630087655.807,501.465,13.184,-49.316,715.332
1630087655.811,-879.883,-56.152,-106.934,-745.605
1630087655.814,-1000.000,-66.406,-103.027,-1000.000
1630087655.818,173.828,7.812,-45.410,-26.855
1630087655.822,-842.773,35.156,-34.668,-837.891
1630087655.826,-187.500,-41.016,-99.609,-74.707
1630087655.830,-1000.000,-69.824,-122.070,-1000.000
1630087655.832,-223.145,-7.812,-69.336,-229.004
1630087655.836,-830.078,31.738,-29.297,-829.590
1630087655.840,227.539,-36.133,-85.449,244.141
1630087655.844,-1000.000,-100.098,-125.977,-1000.000
1630087655.848,-376.465,-47.852,-84.961,-548.828
1630087655.852,-852.051,39.551,-36.133,-928.223
1630087655.856,324.219,-15.137,-70.312,434.570
1630087655.859,-1000.000,-125.977,-160.645,-1000.000
1630087655.863,-865.234,-122.559,-174.316,-1000.000
1630087655.867,722.656,0.000,-82.031,427.246
1630087655.871,804.688,20.508,-61.523,951.172
1630087655.875,-763.184,-71.777,-134.277,-576.660
1630087655.877,-1000.000,-78.125,-140.625,-1000.000
1630087655.881,68.359,1.953,-72.754,-105.957
1630087655.885,-821.289,34.180,-50.781,-826.172
1630087655.889,-72.266,-54.688,-130.371,67.383
1630087655.893,-1000.000,-100.098,-162.109,-1000.000
1630087655.897,-231.934,-13.672,-93.750,-241.699
1630087655.901,-827.637,34.668,-46.875,-822.266
1630087655.904,242.188,-71.777,-120.117,242.188
1630087655.908,-1000.000,-125.488,-178.223,-1000.000
1630087655.912,-488.281,-33.203,-124.512,-604.004
1630087655.916,-898.926,45.410,-56.641,-967.285
1630087655.920,430.664,-3.906,-79.590,561.035
1630087655.922,-1000.000,-79.590,-142.578,-969.238
1630087655.926,-992.676,-61.035,-127.930,-1000.000
1630087655.930,514.160,22.461,-68.848,272.949
1630087655.934,955.566,22.949,-65.918,-905.762
1630087655.938,-567.871,-58.594,-125.977,-336.914
1630087655.942,-1000.000,-73.730,-138.672,-1000.000
1630087655.946,-62.988,-9.277,-83.496,-188.477
1630087655.949,-820.801,6.836,-82.031,-829.590
1630087655.953,35.156,-64.453,-137.207,173.828
1630087655.957,-1000.000,-79.102,-148.438,-1000.000
1630087655.961,-240.234,-12.695,-87.402,-297.852
1630087655.965,-824.219,33.691,-34.668,-830.566
1630087655.967,242.188,-27.832,-85.449,271.973
1630087655.971,-1000.000,-92.773,-146.973,-1000.000
1630087655.975,-577.148,-48.828,-114.258,-715.820
1630087655.979,-952.148,22.461,-40.527,912.598
1630087655.983,554.199,-14.648,-61.035,696.289
1630087655.987,-974.121,-87.402,-119.629,-856.934
1630087655.991,-1000.000,-114.746,-146.973,-1000.000
1630087655.994,301.270,-44.922,-97.168,138.672
1630087655.998,-898.438,12.207,-50.781,-840.820
1630087656.002,-325.195,-66.406,-110.352,-172.852
1630087656.006,-1000.000,-101.074,-130.859,-1000.000
1630087656.010,-195.801,-17.578,-58.594,-223.633
1630087656.012,-830.078,30.762,-13.184,-830.078
1630087656.016,186.035,-51.758,-79.102,232.910
1630087656.020,-1000.000,-90.332,-123.535,-1000.000
1630087656.024,-300.293,-26.855,-74.707,-414.551
1630087656.028,-830.566,39.551,-7.324,-866.211
1630087656.032,273.438,-39.062,-66.406,354.492
1630087656.036,-1000.000,-129.395,-149.414,-1000.000
1630087656.039,-729.980,-66.406,-94.238,-876.953
1630087656.043,896.484,18.555,-13.672,701.172
1630087656.047,708.984,-31.738,-46.387,840.820
1630087656.051,-845.703,-119.141,-128.906,-705.566
1630087656.055,-1000.000,-67.871,-106.934,-1000.000
1630087656.072,125.977,10.254,-42.969,-5.371
1630087656.076,-839.355,9.277,-43.945,-829.590
1630087656.080,-165.527,-70.801,-99.121,-56.641
1630087656.084,-1000.000,-101.562,-100.586,-1000.000
1630087656.088,-224.609,-20.508,-59.570,-230.957
1630087656.092,-829.102,48.828,-36.621,-827.148
1630087656.096,240.234,-18.066,-77.148,242.676
1630087656.099,-1000.000,-80.566,-93.262,-1000.000
1630087656.103,-400.879,-31.738,-51.758,-505.371
1630087656.107,-860.352,21.484,-14.160,-909.180
1630087656.111,385.742,-27.344,-33.691,481.934
1630087656.115,-1000.000,-95.215,-83.496,-1000.000
1630087656.117,-869.141,-73.242,-74.219,-980.469
1630087656.121,701.172,1.465,-17.578,505.859
1630087656.125,893.555,-0.977,-18.555,-957.031
1630087656.129,-646.484,-80.566,-69.336,-430.176
1630087656.133,-1000.000,-104.004,-84.961,-1000.000
1630087656.137,34.668,-31.250,-36.621,-68.848
1630087656.141,-807.617,5.859,-6.348,-803.223
1630087656.144,14.160,-64.941,-57.129,139.648
1630087656.148,-1000.000,-134.277,-106.934,-1000.000
1630087656.152,-240.723,-107.910,-89.844,-253.418
1630087656.156,-821.289,-9.766,-19.531,-814.941
1630087656.160,240.723,-47.852,-48.828,240.723
1630087656.162,-1000.000,-111.328,-99.121,-1000.000
1630087656.166,-479.492,-54.688,-59.570,-561.035
1630087656.170,-902.344,8.789,-2.930,-967.285
1630087656.174,542.480,-29.785,-29.785,683.594
1630087656.178,-1000.000,-99.609,-96.680,-880.371
1630087656.182,-964.355,-74.707,-86.914,-1000.000
1630087656.186,534.668,7.324,-34.180,349.121
1630087656.189,-928.711,15.625,-19.531,-842.773
1630087656.193,-370.605,-119.629,-127.930,-194.824
1630087656.197,-1000.000,-147.949,-166.016,-1000.000
1630087656.201,-66.406,-14.648,-54.199,-176.270
1630087656.205,-797.852,23.926,-22.949,-810.547
1630087656.207,174.805,-51.270,-76.172,226.562
1630087656.211,-1000.000,-99.121,-104.004,-1000.000
1630087656.215,-260.254,-33.203,-56.641,-278.320
1630087656.219,-811.523,23.926,-17.578,-813.965
1630087656.223,263.184,-22.949,-53.223,366.211
1630087656.227,-1000.000,-82.031,-96.680,-1000.000
1630087656.231,-526.367,-33.203,-69.336,-633.301
1630087656.234,-929.199,6.348,-46.387,986.816
1630087656.238,614.258,-125.000,-146.973,770.996
1630087656.242,-936.523,-174.805,-176.270,-756.836
1630087656.246,-1000.000,-76.660,-90.820,-1000.000
1630087656.250,342.773,-9.277,-40.039,172.852
1630087656.252,-839.844,-3.418,-29.297,-805.664
1630087656.256,-181.641,-70.312,-71.289,-51.270
1630087656.260,-1000.000,-89.844,-90.332,-1000.000
1630087656.264,-189.453,-21.973,-53.223,-235.352
1630087656.268,-815.430,7.324,-27.832,-821.289
1630087656.272,229.980,-54.688,-63.965,239.258
1630087656.276,-1000.000,-103.027,-85.938,-1000.000
1630087656.279,-312.988,-100.098,-85.938,-404.297
1630087656.283,-827.148,-29.297,-49.805,-864.258
1630087656.287,361.816,-34.180,-41.016,469.238
1630087656.291,-1000.000,-110.840,-78.613,-1000.000
1630087656.295,-688.477,-76.660,-60.547,-840.820
1630087656.297,926.758,-2.441,-7.324,733.887
1630087656.301,797.852,-7.812,1.953,948.730
1630087656.305,-740.234,-93.750,-68.848,-550.781
1630087656.309,-1000.000,-117.676,-87.402,-1000.000
1630087656.313,154.785,-29.785,-7.812,13.672
1630087656.317,-795.410,8.301,25.391,-791.992
1630087656.321,15.137,-75.195,-31.738,135.254
1630087656.324,-1000.000,-176.270,-103.027,-1000.000
1630087656.328,-243.164,-88.379,-35.156,-255.371
1630087656.332,-817.383,-6.348,32.227,-814.453
1630087656.336,237.793,-77.148,2.930,240.234
1630087656.340,-1000.000,-125.977,-27.832,-1000.000
1630087656.342,-406.738,-75.195,0.977,-541.016
1630087656.346,-868.164,-3.906,53.223,-934.570
1630087656.350,509.766,-54.688,46.387,577.637
1630087656.354,-1000.000,-142.090,10.254,-977.051
1630087656.358,-871.094,-101.074,22.949,-1000.000
1630087656.362,693.848,-3.906,84.961,415.527
1630087656.366,989.746,-42.480,61.523,-930.176
1630087656.369,-505.371,-131.836,-0.488,-382.324
1630087656.373,-1000.000,-98.145,40.527,-1000.000
1630087656.377,43.945,-38.086,91.797,-123.535
1630087656.381,-783.203,-14.160,107.422,-808.594
1630087656.385,167.969,-62.500,68.848,199.219
1630087656.387,-1000.000,-100.098,43.945,-1000.000
1630087656.391,-261.230,-44.922,79.590,-260.742
1630087656.395,-810.547,2.930,107.910,-812.988
1630087656.399,237.793,-61.523,89.355,254.883
1630087656.403,-1000.000,-128.906,46.387,-1000.000
1630087656.407,-496.582,-71.777,60.059,-636.719
1630087656.411,-930.664,-4.395,115.234,975.586
1630087656.414,665.039,-36.621,109.375,721.191
1630087656.418,-892.090,-102.539,59.082,-818.848
1630087656.422,-1000.000,-117.188,49.316,-1000.000
1630087656.426,402.344,-64.941,73.730,192.383
1630087656.430,-873.047,-25.391,100.586,-851.562
1630087656.447,-274.414,-85.449,84.473,-209.961
1630087656.451,-1000.000,-113.281,62.012,-1000.000
1630087656.455,-155.762,-49.805,107.910,-218.262
1630087656.459,-812.500,-16.113,136.719,-828.613
1630087656.463,216.309,-61.523,89.844,230.469
1630087656.467,-1000.000,-96.191,57.617,-1000.000
1630087656.471,-274.902,-54.199,89.355,-373.047
1630087656.474,-814.453,-17.090,116.699,-850.586
1630087656.478,312.012,-56.152,107.910,371.582
1630087656.482,-1000.000,-170.410,26.367,-1000.000
1630087656.486,-667.480,-140.625,46.387,-821.289
1630087656.490,960.938,-9.766,148.438,788.086
1630087656.492,725.098,-44.434,152.832,797.363
1630087656.496,-824.707,-128.906,111.816,-749.512
1630087656.500,-1000.000,-104.492,117.676,-1000.000
1630087656.504,169.434,-22.949,171.875,48.828
1630087656.508,-815.918,-10.742,181.152,-821.289
1630087656.512,-99.121,-75.195,139.160,-64.453
1630087656.516,-1000.000,-93.750,123.535,-1000.000
1630087656.519,-224.609,-29.785,170.898,-231.445
1630087656.523,-820.801,-44.922,159.180,-827.148
1630087656.527,235.840,-177.734,55.176,237.793
1630087656.531,-1000.000,-162.109,77.637,-1000.000
1630087656.535,-344.238,-38.574,160.156,-492.188
1630087656.537,-837.891,-7.324,162.598,-899.414
1630087656.541,375.000,-57.617,148.926,379.395
1630087656.545,-1000.000,-91.309,128.906,-1000.000
1630087656.549,-826.660,-56.152,129.395,-1000.000
1630087656.553,751.953,21.484,172.852,491.211
1630087656.557,893.555,18.555,166.504,918.457
1630087656.561,-635.742,-57.617,99.121,-607.910
1630087656.564,-1000.000,-67.871,84.473,-1000.000
1630087656.568,45.410,-34.180,76.660,-131.836
1630087656.572,-812.988,-1.465,92.285,-849.609
1630087656.576,-28.809,-46.875,101.074,-13.184
1630087656.580,-1000.000,-75.195,62.988,-1000.000
1630087656.584,-235.352,-3.418,86.914,-231.445
1630087656.588,-824.219,23.438,125.488,-828.613
1630087656.592,241.211,-30.762,101.562,240.723
1630087656.596,-1000.000,-107.910,42.480,-1000.000
1630087656.600,-468.750,-104.980,47.852,-672.852
1630087656.604,-892.090,-42.480,110.352,979.004
1630087656.608,484.375,-56.641,116.211,452.148
1630087656.611,-1000.000,-123.535,48.340,-1000.000
1630087656.615,-957.031,-187.012,-18.555,-1000.000
1630087656.619,596.191,-83.008,68.848,217.773
1630087656.623,928.711,-16.602,135.254,856.934
1630087656.627,-610.352,-104.980,81.055,-678.223
1630087656.627,-1000.000,-109.375,75.195,-1000.000
1630087656.631,-1.953,-33.203,119.141,-201.172
1630087656.635,-802.734,-7.324,137.695,-862.305
1630087656.639,80.078,-79.102,109.375,58.594
1630087656.643,-1000.000,-120.117,83.008,-1000.000
1630087656.647,-247.559,-54.688,99.121,-341.309
1630087656.651,-821.289,6.348,139.160,-863.770
1630087656.654,241.211,-106.934,77.637,252.930
1630087656.658,-1000.000,-182.129,31.250,-1000.000
1630087656.662,-605.957,-88.867,99.121,-742.676
1630087656.666,-979.004,-21.973,143.066,852.539
1630087656.670,628.418,-41.992,146.484,777.832
1630087656.672,-918.457,-117.676,115.234,-795.898
1630087656.676,-1000.000,-119.629,117.188,-1000.000
1630087656.680,250.488,-46.387,152.344,182.617
1630087656.684,-860.352,-24.902,158.691,-790.527
1630087656.688,-250.000,-92.773,118.164,3.906
1630087656.692,-1000.000,-107.910,109.375,-1000.000
1630087656.696,-170.898,-47.852,110.352,-162.598
1630087656.699,-818.359,-57.129,94.238,-790.527
1630087656.703,170.898,-107.910,89.355,219.727
1630087656.707,-1000.000,-122.559,73.242,-1000.000
1630087656.711,-255.371,-76.172,75.195,-272.461
1630087656.715,-816.406,-27.344,106.934,-830.078
1630087656.717,256.836,-51.270,123.047,585.449
1630087656.721,-1000.000,-123.047,80.566,-1000.000
1630087656.725,-711.426,-100.586,63.965,-702.637
1630087656.729,921.387,-20.020,92.285,886.230
1630087656.733,687.012,-40.039,98.145,-993.164
1630087656.737,-858.398,-104.004,69.336,-403.809
1630087656.741,-1000.000,-141.602,3.418,-1000.000
1630087656.744,91.309,-82.520,14.648,65.430
1630087656.748,-820.312,-13.672,81.543,-783.691
1630087656.752,-83.008,-76.172,55.176,106.445
1630087656.756,-1000.000,-112.793,34.668,-1000.000
1630087656.760,-231.445,-58.594,56.152,-252.930
1630087656.763,-826.172,-18.555,83.496,-814.941
1630087656.767,240.723,-97.656,48.828,240.234
1630087656.771,-1000.000,-161.133,-6.836,-1000.000
1630087656.775,-438.477,-80.566,33.203,-518.066
1630087656.779,-874.023,-7.324,72.754,-923.340
1630087656.783,389.160,-68.848,45.898,573.730
1630087656.787,-1000.000,-149.902,-1.465,-996.582
1630087656.790,-957.520,-103.027,26.367,-993.652
1630087656.794,600.098,-16.602,85.449,521.973
1630087656.798,843.750,-65.430,47.852,-970.703
1630087656.802,-711.426,-145.996,-14.648,-431.152
1630087656.806,-1000.000,-96.191,22.461,-1000.000
1630087656.822,-56.152,-20.996,48.340,-138.672
1630087656.826,-822.754,4.395,50.781,-818.359
1630087656.830,30.273,-62.988,19.043,162.109
1630087656.834,-1000.000,-94.727,0.977,-1000.000
1630087656.838,-239.746,-20.508,25.879,-253.418
1630087656.842,-822.754,9.766,18.066,-815.918
1630087656.846,241.699,-71.777,-11.230,237.305
1630087656.849,-1000.000,-102.051,-4.395,-1000.000
1630087656.853,-522.949,-43.457,25.391,-681.152
1630087656.857,-919.922,24.414,50.781,963.867
1630087656.861,520.020,-6.348,59.082,573.730
1630087656.865,-1000.000,-74.707,43.457,-959.473
1630087656.867,-998.047,-59.570,41.992,-1000.000
1630087656.871,469.727,7.324,75.684,194.824
1630087656.875,-917.480,22.461,91.797,-902.344
1630087656.879,-356.445,-55.176,57.129,-320.312
1630087656.883,-1000.000,-79.102,37.598,-1000.000
1630087656.887,-117.188,-4.395,63.965,-213.867
1630087656.891,-809.570,32.715,85.938,-838.867
1630087656.894,169.434,-30.762,61.523,191.406
1630087656.898,-1000.000,-100.586,6.348,-1000.000
1630087656.902,-255.859,-138.184,-41.016,-382.812
1630087656.906,-815.430,-44.922,20.508,-862.305
1630087656.910,239.746,-7.324,72.754,258.789
1630087656.912,-1000.000,-80.078,31.250,-1000.000
1630087656.916,-610.352,-38.086,44.922,-825.684
1630087656.920,-974.609,37.109,78.613,790.039
1630087656.924,593.750,-3.906,66.895,659.668
1630087656.928,-955.566,-83.496,11.230,-903.809
1630087656.932,-1000.000,-55.176,2.930,-1000.000
1630087656.936,276.855,23.926,37.598,83.984
1630087656.939,-870.117,36.621,41.016,-854.980
1630087656.943,-271.484,-93.262,-53.223,-187.988
1630087656.947,-1000.000,-124.512,-82.031,-1000.000
1630087656.951,-206.055,0.000,-1.465,-221.680
1630087656.955,-829.102,34.668,17.578,-832.520
1630087656.957,213.867,-40.527,-16.113,232.910
1630087656.961,-1000.000,-74.219,-35.156,-1000.000
1630087656.965,-325.195,-7.812,-4.395,-442.871
1630087656.969,-835.449,44.922,13.672,-878.906
1630087656.973,289.551,-11.719,-8.789,377.441
1630087656.977,-1000.000,-82.520,-46.387,-1000.000
1630087656.981,-749.023,-29.785,-26.367,-887.695
1630087656.984,892.090,0.488,-24.902,697.754
1630087656.988,668.945,-109.863,-118.164,820.801
1630087656.992,-884.277,-116.699,-104.004,-731.934
1630087656.996,-1000.000,-42.480,-36.621,-1000.000
1630087657.000,97.656,23.926,0.000,-8.301
1630087657.002,-840.820,41.016,17.578,-820.801
1630087657.006,-158.203,-41.992,-23.926,-8.789
1630087657.010,-1000.000,-64.941,-20.020,-1000.000
1630087657.014,-224.609,-35.645,-14.648,-236.328
1630087657.018,-830.566,4.883,13.184,-823.730
1630087657.022,241.699,-19.043,16.113,242.188
1630087657.026,-1000.000,-64.941,-27.832,-1000.000
1630087657.029,-437.012,-82.031,-63.477,-503.418
1630087657.033,-875.000,-11.719,-12.207,-908.691
1630087657.037,362.793,8.301,35.645,486.328
1630087657.041,-1000.000,-64.941,-26.855,-1000.000
1630087657.045,-868.164,-34.180,-15.625,-950.195
1630087657.047,710.938,38.086,32.715,562.500
1630087657.051,845.703,27.832,37.598,-988.281
1630087657.055,-699.707,-63.477,-28.809,-465.820
1630087657.059,-1000.000,-91.309,-61.035,-1000.000
1630087657.063,5.859,0.000,11.230,-75.195
1630087657.067,-824.707,48.340,55.176,-812.500
1630087657.071,-45.898,-35.645,12.695,85.449
1630087657.074,-1000.000,-110.840,-43.457,-1000.000
1630087657.078,-232.910,-28.809,19.043,-245.605
1630087657.082,-826.660,50.293,97.168,-819.824
1630087657.086,242.188,-19.531,64.941,241.699
1630087657.090,-1000.000,-69.824,34.668,-1000.000
1630087657.092,-500.488,-7.324,62.988,-570.312
1630087657.096,-903.809,60.547,98.145,-945.312
1630087657.100,429.199,-1.465,72.266,524.414
1630087657.104,-1000.000,-75.684,19.043,-998.535
1630087657.108,-989.258,-43.945,22.949,-1000.000
1630087657.112,517.090,48.828,91.309,352.051
1630087657.116,956.055,-5.371,64.941,-936.523
1630087657.119,-566.895,-126.465,-15.625,-392.578
1630087657.123,-1000.000,-70.312,30.762,-1000.000
1630087657.127,-71.289,19.531,92.285,-168.945
1630087657.131,-816.406,48.340,105.469,-827.148
1630087657.135,69.336,-30.762,57.129,155.762
1630087657.137,-1000.000,-80.078,23.438,-1000.000
1630087657.141,-243.652,-13.672,62.988,-279.785
1630087657.145,-821.777,42.969,115.723,-826.660
1630087657.149,241.699,-27.832,75.684,241.699
1630087657.153,-1000.000,-83.008,35.645,-1000.000
1630087657.157,-576.172,-53.711,26.367,-693.848
1630087657.161,-948.730,-10.742,12.207,951.172
1630087657.164,535.156,-20.508,8.789,588.867
1630087657.168,-989.746,-84.473,-22.461,-950.195
1630087657.172,-1000.000,-97.656,-43.457,-1000.000
1630087657.176,328.125,-46.387,-12.695,180.176
1630087657.180,-926.270,-1.953,36.133,-897.949
1630087657.197,-377.930,-70.801,-5.371,-312.988
1630087657.201,-1000.000,-97.168,-27.344,-1000.000
1630087657.205,-179.199,-14.648,27.832,-214.355
1630087657.209,-827.148,29.785,62.500,-837.402
1630087657.213,164.062,-51.758,17.578,192.871
1630087657.217,-1000.000,-101.074,-20.020,-1000.000
1630087657.221,-256.836,-40.527,22.461,-359.375
1630087657.224,-818.848,12.695,79.102,-852.051
1630087657.228,240.234,-52.734,46.387,269.531
1630087657.232,-1000.000,-143.555,-35.645,-1000.000
1630087657.236,-638.672,-84.473,12.207,-786.133
1630087657.240,-996.582,37.109,121.582,835.938
1630087657.242,609.375,-10.254,83.984,685.547
1630087657.246,-933.105,-128.418,-3.418,-870.605
1630087657.250,-1000.000,-90.332,25.391,-1000.000
1630087657.254,181.641,10.254,105.957,71.777
1630087657.258,-851.074,21.973,105.957,-853.027
1630087657.262,-220.215,-57.129,38.086,-178.223
1630087657.266,-1000.000,-81.055,31.738,-1000.000
1630087657.269,-220.703,-13.184,91.309,-222.168
1630087657.273,-829.590,-8.789,89.844,-832.520
1630087657.277,229.980,-141.113,-20.020,231.445
1630087657.281,-1000.000,-148.926,-9.766,-1000.000
1630087657.285,-333.008,-33.203,69.824,-451.172
1630087657.287,-834.961,35.645,125.488,-882.324
1630087657.291,310.059,-37.109,115.723,334.961
1630087657.295,-1000.000,-103.027,67.383,-1000.000
1630087657.299,-777.344,-55.664,97.656,-936.035
1630087657.303,841.309,23.438,161.133,625.488
1630087657.307,757.812,11.230,142.578,802.246
1630087657.311,-794.434,-83.008,73.242,-754.395
1630087657.314,-1000.000,-91.309,64.941,-1000.000
1630087657.318,64.453,-34.668,103.516,-56.152
1630087657.322,-835.938,-5.859,124.023,-867.188
1630087657.326,-134.766,-63.477,79.590,-140.137
1630087657.330,-1000.000,-97.168,63.965,-1000.000
1630087657.332,-225.586,-17.090,127.930,-221.680
1630087657.336,-829.102,38.574,175.293,-836.426
1630087657.340,241.211,-41.992,133.301,234.863
1630087657.344,-1000.000,-116.699,83.496,-1000.000
1630087657.348,-424.805,-50.781,114.258,-600.098
1630087657.352,-868.164,41.016,182.129,-957.520
1630087657.356,326.172,-14.648,148.438,295.410
1630087657.359,-1000.000,-115.723,69.824,-1000.000
1630087657.363,-920.410,-167.969,31.250,-1000.000
1630087657.367,660.645,-71.289,114.746,286.133
1630087657.371,768.066,0.000,179.688,660.645
1630087657.375,-810.547,-92.773,100.098,-887.695
1630087657.377,-1000.000,-100.098,86.914,-1000.000
1630087657.381,41.992,-11.719,158.691,-149.414
1630087657.385,-849.609,21.484,189.453,992.188
1630087657.389,-167.969,-74.219,116.211,-333.008
1630087657.393,-1000.000,-112.793,72.266,-1000.000
1630087657.397,-222.168,-26.855,142.090,-351.562
1630087657.401,-835.449,41.992,219.727,-901.367
1630087657.404,244.141,-69.336,134.277,220.215
1630087657.408,-1000.000,-138.184,68.848,-1000.000
1630087657.412,-531.738,-56.641,137.695,-791.992
1630087657.416,-916.504,31.738,197.754,835.938
1630087657.420,412.109,-17.578,166.016,402.344
1630087657.422,-1000.000,-109.375,91.309,-1000.000
1630087657.426,-1000.000,-80.566,95.215,-1000.000
1630087657.430,378.418,12.695,167.969,174.316
1630087657.434,992.188,16.602,163.086,976.074
1630087657.438,-513.184,-90.820,70.801,-519.531
1630087657.442,-1000.000,-82.031,69.336,-1000.000
1630087657.446,-167.969,-26.367,108.398,-202.637
1630087657.449,-839.844,-97.168,27.344,-853.027
1630087657.453,76.660,-139.648,7.812,89.844
1630087657.457,-1000.000,-115.723,51.270,-1000.000
1630087657.461,-242.188,-28.320,97.656,-324.219
1630087657.465,-824.707,62.012,157.715,-851.562
1630087657.468,237.305,-20.996,94.727,243.652
1630087657.472,-1000.000,-102.051,20.020,-1000.000
1630087657.476,-724.609,-69.336,31.250,-818.848
1630087657.480,925.781,14.648,106.445,808.594
1630087657.484,571.289,-7.812,98.633,620.605
1630087657.488,-964.355,-98.145,23.438,-937.500
1630087657.492,-1000.000,-108.398,-8.789,-1000.000
1630087657.495,164.551,-21.484,47.363,76.660
1630087657.499,-903.320,19.043,79.102,-873.535
1630087657.503,-321.289,-82.520,-10.742,-232.910
1630087657.507,-1000.000,-99.609,-30.762,-1000.000
1630087657.511,-213.379,-8.789,34.668,-218.750
1630087657.512,-840.820,43.945,65.430,-834.473
1630087657.516,187.988,-64.453,-15.137,229.004
1630087657.520,-1000.000,-120.605,-63.477,-1000.000
1630087657.524,-394.043,-45.898,-9.277,-428.711
1630087657.528,-867.188,28.809,53.711,-872.559
1630087657.532,246.582,-23.438,-8.789,354.004
1630087657.536,-1000.000,-171.875,-145.020,-1000.000
1630087657.539,-870.117,-140.625,-112.793,-875.000
1630087657.543,737.305,17.578,0.488,699.219
1630087657.547,656.738,-14.648,-21.973,854.004
1630087657.551,-916.504,-105.957,-93.262,-701.660
1630087657.555,-1000.000,-77.148,-101.562,-1000.000
1630087657.572,49.805,5.371,-30.762,40.039
1630087657.576,-856.934,22.461,-13.672,-807.617
1630087657.580,-181.641,-63.965,-101.562,7.324
1630087657.584,-1000.000,-90.820,-134.766,-1000.000
1630087657.588,-222.168,-13.672,-62.012,-239.746
1630087657.592,-832.031,41.504,-11.719,-817.871
1630087657.596,241.211,-45.410,-90.332,238.770
1630087657.599,-1000.000,-122.559,-149.414,-1000.000
1630087657.603,-429.688,-50.293,-97.168,-409.668
1630087657.607,-871.582,15.625,-37.109,-872.559
1630087657.611,340.332,-42.480,-74.707,545.898
1630087657.615,-1000.000,-117.188,-111.328,-1000.000
1630087657.617,-896.484,-101.074,-79.590,-882.812
1630087657.621,672.363,11.719,7.812,662.109
1630087657.625,842.285,14.160,10.254,-949.219
1630087657.629,-708.008,-79.590,-74.219,-386.719
1630087657.633,-1000.000,-90.820,-92.773,-1000.000
1630087657.637,-24.902,-5.371,-17.090,-30.762
1630087657.641,-826.172,45.410,16.602,-794.434
1630087657.644,-28.320,-51.758,-57.129,140.625
1630087657.648,-1000.000,-125.000,-105.957,-1000.000
1630087657.652,-233.887,-72.754,-73.242,-230.957
1630087657.656,-815.430,16.113,8.301,-925.781
1630087657.660,231.445,-23.438,-31.738,983.398
1630087657.662,-1000.000,-103.516,-95.703,-528.809
1630087657.666,-272.461,-44.922,-42.480,-308.105
1630087657.670,-825.195,52.734,50.293,-960.449
1630087657.674,550.293,11.230,20.996,-852.539
1630087657.678,-1000.000,-88.379,-67.871,-30.273
1630087657.682,-758.301,-75.195,-51.758,-581.543
1630087657.686,826.660,20.020,26.855,888.184
1630087657.689,-981.445,17.578,16.113,-837.891
1630087657.693,-383.789,-112.305,-95.703,64.453
1630087657.697,-1000.000,-135.742,-105.469,-1000.000
1630087657.701,-67.871,-8.789,-1.953,-56.641
1630087657.705,-800.781,58.594,31.738,-761.719
1630087657.707,148.438,-27.344,-53.711,203.613
1630087657.711,-1000.000,-101.074,-100.098,-1000.000
1630087657.715,-254.883,-27.832,-32.227,-267.090
1630087657.719,-817.383,59.570,29.785,-811.035
1630087657.723,239.746,-15.625,-39.551,272.461
1630087657.727,-1000.000,-104.980,-107.910,-1000.000
1630087657.731,-636.719,-59.570,-66.895,-725.586
1630087657.734,-988.770,49.805,24.414,929.688
1630087657.738,586.426,38.086,23.926,606.445
1630087657.742,-947.266,-101.074,-80.078,-933.594
1630087657.746,-1000.000,-109.375,-88.379,-1000.000
1630087657.750,227.051,0.977,1.953,147.461
1630087657.752,-938.477,20.996,4.883,-942.871
1630087657.756,-392.090,-84.473,-81.543,-377.441
1630087657.760,-1000.000,-114.258,-86.426,-1000.000
1630087657.764,-212.402,-40.527,-14.648,-210.449
1630087657.768,-841.797,5.859,24.414,-848.145
1630087657.772,187.500,-69.336,-48.828,172.363
1630087657.776,-1000.000,-125.000,-98.145,-1000.000
1630087657.779,-377.930,-84.473,-44.922,-493.164
1630087657.783,-860.840,3.906,35.645,-913.086
1630087657.787,245.605,-33.691,-7.812,253.906
1630087657.791,-1000.000,-117.188,-85.449,-1000.000
1630087657.795,-853.027,-91.797,-47.852,-983.398
1630087657.797,762.695,-3.906,38.086,572.266
1630087657.801,648.926,-17.578,34.668,651.855
1630087657.805,-922.363,-113.281,-29.785,-916.992
1630087657.809,-1000.000,-121.094,-22.461,-1000.000
1630087657.813,54.199,-22.949,63.477,-61.035
1630087657.817,-861.328,26.367,87.402,-892.578
1630087657.821,-203.125,-89.844,-35.645,-202.637
1630087657.824,-1000.000,-195.801,-132.812,-1000.000
1630087657.828,-219.727,-97.656,-43.457,-216.797
1630087657.832,-836.914,34.668,68.848,-839.844
1630087657.836,236.816,-44.434,-7.812,225.586
1630087657.840,-1000.000,-115.234,-80.566,-1000.000
1630087657.842,-506.348,-46.875,-17.090,-587.402
1630087657.846,-908.203,38.574,65.430,-953.125
1630087657.850,299.805,-29.297,2.441,311.035
1630087657.854,-1000.000,-105.957,-81.055,-1000.000
1630087657.858,-991.211,-73.730,-45.898,-1000.000
1630087657.862,546.875,39.062,66.895,379.395
1630087657.866,763.672,-25.391,-8.789,784.180
1630087657.869,-814.941,-154.785,-133.301,-787.109
1630087657.873,-1000.000,-79.102,-58.105,-1000.000
1630087657.877,-70.312,16.113,30.762,-162.109
1630087657.881,-850.098,17.578,23.926,-867.188
1630087657.885,-84.473,-69.824,-51.758,-48.340
1630087657.887,-1000.000,-93.750,-70.801,-1000.000
1630087657.891,-226.562,-18.066,-2.930,-226.562
1630087657.895,-832.520,42.969,75.684,-831.543
1630087657.899,244.141,-43.945,3.906,243.652
1630087657.903,-1000.000,-99.609,-67.871,-1000.000
1630087657.907,-581.055,-59.570,-50.293,-638.184
1630087657.911,-944.336,-4.395,12.695,-983.398
1630087657.914,420.410,-29.785,4.883,440.430
1630087657.918,-1000.000,-96.680,-62.988,-1000.000
1630087657.922,-1000.000,-114.258,-88.379,-1000.000
1630087657.926,335.449,-46.387,-39.062,234.375
1630087657.930,943.359,28.320,17.578,967.285
1630087657.933,-586.426,-63.965,-52.734,-538.574
1630087657.937,-1000.000,-100.586,-81.543,-1000.000
1630087657.941,-179.199,0.488,-3.906,-200.195
1630087657.945,-852.539,50.293,41.504,-856.934
1630087657.949,41.016,-60.547,-53.223,65.430
1630087657.953,-1000.000,-97.656,-94.238,-1000.000
1630087657.957,-256.348,-2.930,-20.508,-312.500
1630087657.960,-833.984,65.918,42.969,-850.098
1630087657.964,241.211,-25.879,-41.992,244.629
1630087657.968,-1000.000,-128.906,-125.488,-1000.000
1630087657.972,-719.238,-64.453,-67.383,-791.016
1630087657.976,934.082,62.012,27.832,846.191
1630087657.992,538.086,14.648,-19.531,583.496
1630087657.996,-982.422,-94.238,-111.328,-957.031
1630087658.000,-1000.000,-80.566,-101.562,-1000.000
1630087658.004,185.059,13.672,-17.578,116.699
1630087658.008,-949.707,11.719,-28.809,-925.293
1630087658.012,-407.227,-109.863,-139.160,-341.797
1630087658.016,-1000.000,-99.609,-141.113,-1000.000
1630087658.019,-209.473,1.953,-51.270,-210.938
1630087658.023,-844.238,31.738,-18.066,-843.750
1630087658.027,158.691,-85.449,-129.395,174.805
1630087658.031,-1000.000,-123.047,-166.992,-1000.000
1630087658.035,-357.910,-27.344,-80.566,-426.758
1630087658.037,-856.445,62.012,3.906,-880.859
1630087658.041,242.676,-9.766,-64.453,256.348
1630087658.045,-1000.000,-98.633,-151.367,-1000.000
1630087658.049,-855.469,-62.500,-114.746,-931.152
1630087658.053,757.324,26.367,-26.855,641.602
1630087658.057,662.109,3.418,-43.945,702.148
1630087658.061,-910.645,-86.914,-142.090,-865.723
1630087658.064,-1000.000,-83.496,-147.461,-1000.000
1630087658.068,46.387,-14.648,-53.711,-33.203
1630087658.072,-862.305,3.906,-35.645,-878.418
1630087658.076,-200.684,-80.078,-124.512,-186.523
1630087658.080,-1000.000,-104.004,-153.809,-1000.000
1630087658.082,-220.703,-4.395,-71.777,-219.238
1630087658.086,-835.938,58.594,-15.625,-837.402
1630087658.090,243.652,-41.016,-107.422,234.375
1630087658.094,-1000.000,-111.816,-171.387,-1000.000
1630087658.098,-495.605,-45.898,-106.934,-564.941
1630087658.102,-900.879,55.176,-14.160,-938.477
1630087658.106,334.473,6.348,-60.547,356.934
1630087658.109,-1000.000,-117.188,-158.203,-1000.000
1630087658.113,-974.121,-115.723,-150.391,-1000.000
1630087658.117,572.754,9.766,-34.668,432.617
1630087658.121,797.363,17.090,-31.250,815.918
1630087658.125,-774.902,-97.168,-134.277,-745.117
1630087658.127,-1000.000,-99.121,-137.207,-1000.000
1630087658.131,-64.941,-0.977,-41.504,-157.227
1630087658.135,-841.309,29.297,-5.371,-866.699
1630087658.139,-53.223,-80.078,-103.516,-52.734
1630087658.143,-1000.000,-127.930,-139.160,-1000.000
1630087658.147,-229.492,-40.039,-60.059,-226.562
1630087658.151,-830.566,21.484,-4.883,-832.031
1630087658.154,243.652,-63.477,-83.984,241.211
1630087658.158,-1000.000,-125.488,-157.715,-1000.000
1630087658.162,-590.332,-72.266,-113.281,-688.965
1630087658.166,-950.684,21.973,-27.344,967.285
1630087658.170,431.152,-25.879,-79.590,437.500
1630087658.173,-1000.000,-127.441,-157.715,-1000.000
1630087658.177,-1000.000,-124.512,-135.254,-1000.000
1630087658.181,348.633,-16.113,-42.480,226.562
1630087658.185,966.309,0.488,-26.855,965.820
1630087658.189,-554.688,-121.094,-130.371,-542.480
1630087658.193,-1000.000,-139.160,-146.973,-1000.000
1630087658.197,-164.062,-34.668,-47.363,-194.824
1630087658.200,-843.750,15.137,-7.324,-857.422
1630087658.204,58.594,-103.516,-114.746,60.059
1630087658.208,-1000.000,-159.180,-161.133,-1000.000
1630087658.212,-254.883,-66.406,-89.355,-329.590
1630087658.216,-826.660,8.301,-13.672,-856.445
1630087658.217,229.980,-83.008,-87.891,244.629
1630087658.221,-1000.000,-155.762,-163.086,-1000.000
1630087658.225,-648.926,-89.355,-107.422,-795.898
1630087658.229,944.824,8.789,-20.020,828.613
1630087658.233,540.039,-33.691,-51.270,565.918
1630087658.237,-978.516,-128.906,-144.043,-965.332
1630087658.241,-1000.000,-104.492,-133.789,-1000.000
1630087658.244,178.223,-10.254,-47.852,92.285
1630087658.248,-921.387,-3.418,-50.293,-928.711
1630087658.252,-357.422,-113.770,-155.762,-341.797
1630087658.256,-1000.000,-138.184,-182.129,-1000.000
1630087658.260,-214.355,-39.062,-104.492,-212.891
1630087658.262,-839.355,20.508,-63.965,-842.285
1630087658.266,203.125,-71.289,-154.297,196.777
1630087658.270,-1000.000,-131.836,-203.125,-1000.000
1630087658.274,-372.070,-59.570,-137.695,-441.895
1630087658.278,-856.445,40.527,-60.059,-884.766
1630087658.282,244.629,-35.645,-137.695,275.391
1630087658.286,-1000.000,-137.695,-219.238,-1000.000
1630087658.289,-838.867,-100.098,-162.109,-916.992
1630087658.293,773.438,10.254,-70.312,663.086
1630087658.297,678.223,-19.043,-111.816,710.449
1630087658.301,-891.602,-127.930,-212.891,-854.492
1630087658.305,-1000.000,-106.934,-203.125,-1000.000
1630087658.322,40.527,-12.207,-104.980,-38.086
1630087658.326,-847.656,15.625,-82.031,-868.652
1630087658.330,-162.109,-93.750,-188.477,-161.133
1630087658.334,-1000.000,-128.906,-215.820,-1000.000
1630087658.338,-222.656,-35.645,-131.348,-220.703
1630087658.342,-833.984,32.715,-77.637,-835.449
1630087658.346,243.652,-56.152,-176.270,237.793
1630087658.349,-1000.000,-137.695,-229.980,-1000.000
1630087658.353,-497.559,-67.871,-148.438,-549.316
1630087658.357,-901.855,24.414,-72.754,-928.711
1630087658.361,327.637,-40.527,-127.930,345.703
1630087658.365,-1000.000,-119.141,-187.988,-1000.000
1630087658.367,-972.168,-85.938,-155.273,-1000.000
1630087658.371,552.246,5.371,-42.480,437.012
1630087658.375,852.539,-6.836,-42.969,867.188
1630087658.379,-707.520,-108.887,-144.043,-685.059
1630087658.383,-1000.000,-114.258,-139.648,-1000.000
1630087658.387,-70.312,-9.277,-32.715,-145.996
1630087658.391,-835.449,42.969,9.766,-852.539
1630087658.394,-23.438,-46.387,-87.402,-8.789
1630087658.398,-1000.000,-93.262,-122.070,-1000.000
1630087658.402,-232.910,-10.742,-52.246,-231.445
1630087658.406,-829.102,76.172,10.254,-828.613
1630087658.410,243.652,7.812,-53.223,242.676
1630087658.412,-1000.000,-94.238,-141.113,-1000.000
1630087658.416,-598.145,-40.039,-96.191,-646.973
1630087658.420,-957.031,83.984,34.668,-994.141
1630087658.424,472.656,34.668,-5.371,493.164
1630087658.428,-1000.000,-58.105,-107.910,-1000.000
1630087658.432,-1000.000,-30.762,-89.844,-1000.000
1630087658.436,339.355,72.266,16.602,267.090
1630087658.439,-997.559,71.777,17.090,-989.258
1630087658.443,-496.094,-84.473,-142.578,-478.516
1630087658.447,-1000.000,-96.191,-155.762,-1000.000
1630087658.451,-188.477,44.434,-15.625,-203.613
1630087658.455,-842.285,82.031,20.996,-843.750
1630087658.457,105.957,-16.602,-72.754,144.043
1630087658.461,-1000.000,-62.988,-111.816,-1000.000
1630087658.465,-270.508,29.785,-39.551,-316.895
1630087658.469,-832.031,101.074,16.113,-842.285
1630087658.473,242.188,-2.930,-69.336,245.605
1630087658.477,-1000.000,-65.918,-128.906,-1000.000
1630087658.481,-703.613,8.301,-81.543,-750.977
1630087658.484,950.195,92.773,5.859,894.043
1630087658.488,548.340,18.555,-49.805,586.426
1630087658.492,-974.121,-75.195,-128.418,-948.730
1630087658.496,-1000.000,-41.504,-103.516,-1000.000
1630087658.500,151.367,51.270,-15.625,89.844
1630087658.502,-885.742,65.918,14.648,-884.277
1630087658.506,-285.645,-45.410,-77.148,-254.395
1630087658.510,-1000.000,-69.336,-101.074,-1000.000
1630087658.514,-180.176,26.855,-11.230,-181.152
1630087658.518,-941.895,62.988,34.668,-941.406
1630087658.522,42.969,-43.457,-65.918,45.410
1630087658.526,-1000.000,-90.820,-114.746,-1000.000
1630087658.529,-408.691,-21.973,-39.551,-453.125
1630087658.533,-875.000,51.270,44.434,-891.602
1630087658.537,246.094,-25.391,-20.020,273.926
1630087658.541,-1000.000,-103.027,-100.098,-1000.000
1630087658.545,-880.859,-59.570,-72.754,-954.102
1630087658.547,704.590,31.738,9.766,597.168
1630087658.551,732.910,13.184,-10.254,757.324
1630087658.555,-845.215,-98.633,-102.051,-816.895
1630087658.559,-1000.000,-81.055,-94.238,-1000.000
1630087658.563,32.227,33.691,1.953,-39.062
1630087658.567,-844.238,75.195,36.621,-857.422
1630087658.571,-145.020,-23.438,-55.176,-128.906
1630087658.574,-1000.000,-90.332,-104.980,-1000.000
1630087658.578,-223.633,-0.488,-12.695,-223.633
1630087658.582,-833.496,88.379,66.895,-833.496
1630087658.586,244.141,-7.812,-18.066,244.141
1630087658.590,-1000.000,-84.473,-74.707,-1000.000
1630087658.592,-515.137,-13.672,-14.648,-563.965
1630087658.596,-909.668,83.496,64.941,-935.059
1630087658.600,338.379,21.973,5.371,372.070
1630087658.604,-1000.000,-82.031,-80.078,-1000.000
1630087658.608,-1000.000,-57.617,-55.176,-1000.000
1630087658.612,520.996,57.129,56.152,385.742
1630087658.616,791.504,-10.254,0.488,836.914
1630087658.619,-780.273,-128.906,-110.840,-722.168
1630087658.623,-1000.000,-69.824,-53.711,-1000.000
1630087658.627,-118.652,21.484,36.133,-167.480
1630087658.631,-850.586,59.570,58.105,-862.793
1630087658.635,-31.250,-40.039,-49.805,-19.531
1630087658.638,-1000.000,-78.125,-96.191,-1000.000
1630087658.642,-229.980,-10.254,-42.480,-249.512
1630087658.646,-830.566,22.949,9.277,-836.914
1630087658.650,243.652,-54.199,-50.293,243.652
1630087658.654,-1000.000,-113.281,-95.215,-1000.000
1630087658.658,-621.094,-74.219,-61.523,-689.453
1630087658.662,-969.238,0.000,-5.371,964.844
1630087658.665,453.613,-17.090,-19.531,486.328
1630087658.669,-1000.000,-98.145,-87.891,-1000.000
1630087658.673,-1000.000,-119.629,-104.492,-1000.000
1630087658.677,289.551,-14.160,-40.527,207.031
1630087658.681,-994.141,45.898,-1.465,-991.699
1630087658.697,-492.676,-65.918,-81.055,-477.051
1630087658.701,-1000.000,-97.168,-93.750,-1000.000
1630087658.705,-201.660,2.441,-18.066,-203.613
1630087658.709,-851.074,73.730,17.578,-852.051
1630087658.713,87.891,-28.809,-90.332,101.562
1630087658.717,-1000.000,-82.520,-147.949,-1000.000
1630087658.721,-299.316,0.977,-82.031,-347.168
1630087658.724,-844.238,62.012,-25.879,-858.887
1630087658.728,243.652,-28.320,-106.445,244.629
1630087658.732,-1000.000,-104.980,-183.594,-1000.000
1630087658.736,-764.648,-52.734,-144.043,-844.727
1630087658.740,882.812,35.645,-53.223,777.832
1630087658.742,562.012,0.000,-74.219,605.957
1630087658.746,-974.609,-87.891,-164.062,-948.242
1630087658.750,-1000.000,-62.988,-142.090,-1000.000
1630087658.754,150.879,26.367,-42.480,82.520
1630087658.758,-902.832,42.480,-37.598,-901.367
1630087658.762,-320.312,-56.641,-129.395,-292.480
1630087658.766,-1000.000,-88.379,-146.484,-1000.000
1630087658.769,-215.332,-10.742,-62.500,-215.332
1630087658.773,-839.844,49.805,-6.348,-839.355
1630087658.777,209.961,-109.375,-156.250,219.238
1630087658.781,-1000.000,-180.664,-212.402,-1000.000
1630087658.785,-415.527,-27.832,-77.148,-466.797
1630087658.787,-873.535,61.523,-1.465,-892.578
1630087658.791,252.441,-19.531,-72.266,290.039
1630087658.795,-1000.000,-105.469,-141.113,-1000.000
1630087658.799,-872.070,-59.082,-102.539,-943.848
1630087658.803,715.820,39.551,-9.766,616.699
1630087658.807,732.910,24.902,-30.762,752.441
1630087658.811,-837.402,-76.172,-130.371,-816.406
1630087658.814,-1000.000,-84.961,-131.836,-1000.000
1630087658.818,3.906,15.137,-44.434,-51.758
1630087658.822,-848.145,52.734,-12.695,-860.352
1630087658.826,-137.695,-61.035,-95.215,-129.395
1630087658.830,-1000.000,-103.516,-118.652,-1000.000
1630087658.832,-223.633,-7.812,-43.457,-223.145
1630087658.836,-833.984,59.570,2.441,-834.961
1630087658.840,244.141,-33.203,-101.074,245.117
1630087658.844,-1000.000,-103.027,-184.570,-1000.000
1630087658.848,-537.109,-50.781,-150.879,-599.121
1630087658.852,-920.898,41.016,-62.988,-956.055
1630087658.856,360.352,-9.277,-112.305,378.906
1630087658.859,-1000.000,-112.305,-207.520,-1000.000
1630087658.863,-1000.000,-96.680,-186.035,-1000.000
1630087658.867,517.090,12.207,-88.867,375.977
1630087658.871,809.570,12.207,-89.355,839.844
1630087658.875,-760.254,-98.145,-189.941,-718.750
1630087658.878,-1000.000,-89.355,-187.500,-1000.000
1630087658.882,-109.375,0.488,-103.027,-166.504
1630087658.886,-846.680,25.879,-77.637,-863.770
1630087658.890,-26.367,-83.496,-172.852,-22.949
1630087658.894,-1000.000,-118.164,-211.426,-1000.000
1630087658.898,-230.957,-11.719,-126.465,-251.953
1630087658.902,-830.078,66.895,-49.805,-837.891
1630087658.905,243.164,-63.477,-151.855,243.164
1630087658.909,-1000.000,-137.207,-221.680,-1000.000
1630087658.913,-624.023,-40.527,-137.695,-709.961
1630087658.917,-971.680,52.246,-46.387,944.336
1630087658.921,463.379,0.488,-86.914,486.328
1630087658.922,-1000.000,-100.098,-161.621,-1000.000
1630087658.926,-1000.000,-75.195,-142.578,-1000.000
1630087658.930,285.156,22.949,-54.199,204.102
1630087658.934,-992.676,26.855,-49.316,-1000.000
1630087658.938,-490.723,-89.844,-153.320,-488.281
1630087658.942,-1000.000,-96.680,-153.320,-1000.000
1630087658.946,-201.172,-9.766,-77.148,-207.520
1630087658.949,-846.191,-75.684,-153.320,-847.656
1630087658.953,113.770,-161.133,-237.305,144.043
1630087658.957,-1000.000,-116.211,-174.805,-1000.000
1630087658.961,-298.828,-31.738,-96.680,-350.098
1630087658.965,-840.820,48.340,-19.043,-854.980
1630087658.967,242.676,-30.273,-82.031,242.676
1630087658.971,-1000.000,-103.027,-154.297,-1000.000
1630087658.975,-764.648,-62.012,-120.605,-853.027
1630087658.979,879.883,19.531,-38.574,767.578
1630087658.983,595.703,-18.066,-59.082,614.258
1630087658.987,-944.824,-97.656,-120.117,-938.477
1630087658.991,-1000.000,-154.785,-185.059,-1000.000
1630087658.994,94.238,-97.168,-138.184,50.293
1630087658.998,-904.297,21.484,-34.668,-914.551
1630087659.002,-302.246,-62.988,-121.582,-301.758
1630087659.006,-1000.000,-90.332,-146.484,-1000.000
1630087659.010,-214.844,-6.836,-60.547,-213.379
1630087659.012,-839.844,48.340,-10.742,-841.797
1630087659.016,209.473,-49.805,-106.445,206.055
1630087659.020,-1000.000,-116.211,-162.598,-1000.000
1630087659.024,-423.340,-38.574,-101.074,-480.957
1630087659.028,-875.000,55.176,-19.043,-900.391
1630087659.032,274.902,-23.926,-94.238,295.410
1630087659.036,-1000.000,-155.762,-229.004,-1000.000
1630087659.039,-909.668,-89.844,-184.082,-986.328
1630087659.043,682.617,59.570,-44.434,564.453
1630087659.047,696.289,-9.766,-99.609,727.539
1630087659.051,-875.977,-160.156,-231.445,-844.238
1630087659.055,-1000.000,-85.938,-161.621,-1000.000
1630087659.072,-22.461,19.531,-50.293,-72.266
1630087659.076,-855.469,38.086,-40.039,-873.535
1630087659.080,-143.555,-55.664,-125.488,-150.391
1630087659.084,-1000.000,-103.516,-137.695,-1000.000
1630087659.088,-222.656,-30.273,-73.730,-220.703
1630087659.092,-834.473,28.809,-32.227,-835.938
1630087659.096,244.141,-66.895,-105.469,244.629
1630087659.099,-1000.000,-125.977,-140.137,-1000.000
1630087659.103,-535.156,-49.805,-79.590,-595.703
1630087659.107,-919.922,21.484,-21.973,-953.613
1630087659.111,383.789,-34.180,-67.383,390.625
1630087659.115,-1000.000,-93.750,-121.094,-1000.000
1630087659.117,-1000.000,-71.289,-107.422,-1000.000
1630087659.121,489.258,-16.113,-48.340,363.281
1630087659.125,879.395,7.812,-25.879,884.277
1630087659.129,-670.898,-72.266,-100.098,-664.551
1630087659.133,-1000.000,-92.773,-111.816,-1000.000
1630087659.137,-124.023,5.371,-30.762,-172.363
1630087659.141,-844.727,50.293,9.277,-855.957
1630087659.144,-3.906,-51.758,-75.195,27.344
1630087659.148,-1000.000,-132.812,-156.250,-1000.000
1630087659.152,-232.910,-98.633,-140.625,-281.250
1630087659.156,-829.102,31.738,-41.992,-842.773
1630087659.160,243.164,-14.160,-99.609,246.094
1630087659.162,-1000.000,-105.957,-172.363,-1000.000
1630087659.166,-630.859,-59.570,-114.258,-713.379
1630087659.170,-977.539,37.109,-25.391,938.965
1630087659.174,493.652,1.465,-67.383,507.324
1630087659.178,-1000.000,-126.465,-188.477,-996.582
1630087659.182,-1000.000,-101.562,-170.410,-1000.000
1630087659.186,270.996,20.996,-35.645,198.242
1630087659.189,-980.469,27.832,-6.348,-983.398
1630087659.193,-468.750,-139.160,-140.625,-461.914
1630087659.197,-1000.000,-155.273,-166.992,-1000.000
1630087659.201,-206.055,12.695,-27.832,-207.520
1630087659.205,-848.145,60.059,18.555,-848.145
1630087659.212,116.699,-43.945,-81.543,145.996
1630087659.216,-1000.000,-90.820,-124.512,-1000.000
1630087659.220,-317.383,-4.883,-46.875,-383.789
1630087659.224,-846.680,54.199,5.371,-868.164
1630087659.228,245.117,-40.527,-72.754,248.047
1630087659.232,-1000.000,-108.398,-123.535,-1000.000
1630087659.236,-768.066,-46.875,-75.195,-859.863
1630087659.239,877.441,20.508,-22.949,758.789
1630087659.243,572.754,-124.512,-159.180,606.445
1630087659.247,-963.867,-204.102,-235.840,-947.266
1630087659.251,-1000.000,-93.750,-140.625,-1000.000
1630087659.255,111.816,2.930,-54.688,60.059
1630087659.252,-887.207,10.742,-43.945,-896.484
1630087659.256,-279.785,-93.750,-130.859,-275.391
1630087659.260,-1000.000,-102.539,-166.016,-1000.000
1630087659.264,-217.285,2.441,-92.773,-215.820
1630087659.268,-837.891,63.477,-40.039,-839.844
1630087659.272,230.469,-22.461,-135.742,226.074
1630087659.276,-1000.000,-99.609,-184.082,-1000.000
1630087659.279,-443.359,-86.914,-179.688,-510.254
1630087659.283,-879.395,-1.953,-114.746,-911.133
1630087659.287,300.293,-18.066,-119.141,314.453
1630087659.291,-1000.000,-111.328,-199.707,-1000.000
1630087659.295,-919.922,-103.516,-198.242,-984.375
1630087659.297,651.855,3.906,-98.633,547.852
1630087659.301,771.973,5.371,-98.145,798.828
1630087659.305,-797.852,-104.492,-208.984,-768.555
1630087659.309,-1000.000,-104.492,-204.590,-1000.000
1630087659.313,-31.738,-7.812,-107.910,-86.426
1630087659.317,-845.215,37.598,-70.801,-850.586
1630087659.321,-98.633,-79.102,-167.480,-66.406
1630087659.324,-1000.000,-218.262,-289.551,-1000.000
1630087659.328,-226.074,-107.910,-182.129,-227.539
1630087659.332,-832.031,42.969,-42.969,-831.543
1630087659.336,244.141,-43.457,-123.047,244.629
1630087659.340,-1000.000,-121.094,-177.734,-1000.000
1630087659.343,-541.016,-53.223,-127.441,-606.934
1630087659.347,-922.852,56.641,-22.949,-960.449
1630087659.351,336.426,-41.992,-93.750,369.629
1630087659.355,-1000.000,-147.949,-186.523,-1000.000
1630087659.359,-1000.000,-78.613,-127.441,-1000.000
1630087659.363,463.867,41.992,-20.996,352.539
1630087659.367,871.094,-25.391,-75.684,880.859
1630087659.370,-680.664,-154.297,-186.035,-667.969
1630087659.374,-1000.000,-92.285,-132.324,-1000.000
1630087659.378,-152.832,10.742,-42.480,-185.059
1630087659.382,-853.516,50.293,-17.090,-860.840
1630087659.386,-3.418,-45.898,-116.211,23.926
1630087659.387,-1000.000,-90.332,-161.621,-1000.000
1630087659.391,-231.934,-18.066,-91.309,-287.598
1630087659.395,-829.590,55.664,-15.137,-846.191
1630087659.399,241.211,-25.391,-91.309,246.094
1630087659.403,-1000.000,-100.098,-148.926,-1000.000
1630087659.407,-672.363,-58.594,-115.723,-740.723
1630087659.411,983.887,-62.988,-134.766,911.133
1630087659.414,503.906,-91.309,-163.574,520.996
1630087659.418,-995.605,-90.332,-153.320,-990.723
1630087659.422,-1000.000,-94.727,-147.461,-1000.000
1630087659.426,215.332,1.465,-60.059,167.969
1630087659.430,-979.980,35.156,-31.738,-965.332
1630087659.447,-461.426,-85.449,-122.070,-426.270
1630087659.451,-1000.000,-101.562,-141.602,-1000.000
1630087659.455,-205.566,3.418,-62.500,-208.008
1630087659.459,-848.145,55.664,-20.020,-847.168
1630087659.463,117.188,-45.898,-117.676,149.902
1630087659.467,-1000.000,-120.117,-179.688,-1000.000
1630087659.471,-324.219,-41.504,-113.281,-389.160
1630087659.474,-849.121,41.016,-28.809,-870.117
1630087659.478,245.117,-33.691,-80.078,248.535
1630087659.482,-1000.000,-203.613,-247.070,-1000.000
1630087659.486,-782.715,-158.203,-225.098,-861.816
1630087659.490,853.516,42.480,-36.621,744.629
1630087659.492,632.324,9.766,-65.430,669.434
1630087659.496,-924.805,-95.703,-163.086,-895.996
1630087659.500,-1000.000,-83.008,-154.785,-1000.000
1630087659.504,80.078,0.977,-64.453,25.391
1630087659.508,-868.164,19.043,-51.758,-870.605
1630087659.512,-230.469,-64.453,-142.090,-198.730
1630087659.516,-1000.000,-93.262,-171.875,-1000.000
1630087659.519,-217.773,-8.301,-93.262,-218.750
1630087659.523,-836.426,17.090,-57.617,-836.426
1630087659.527,224.121,-191.895,-237.305,222.656
1630087659.531,-1000.000,-224.121,-265.625,-1000.000
1630087659.535,-436.035,-33.203,-97.168,-496.094
1630087659.537,-876.465,53.223,-14.160,-904.297
1630087659.541,300.293,-24.902,-76.172,314.453
1630087659.545,-1000.000,-104.492,-135.254,-1000.000
1630087659.549,-938.965,-62.012,-106.934,-995.605
1630087659.553,623.047,28.809,-26.855,527.832
1630087659.557,777.344,8.301,-28.809,810.547
1630087659.561,-790.039,-93.750,-125.977,-750.488
1630087659.564,-1000.000,-82.520,-127.930,-1000.000
1630087659.568,-56.152,-40.527,-87.402,-121.094
1630087659.572,-855.469,-14.160,-65.918,-866.211
1630087659.576,-117.676,-64.453,-96.191,-89.844
1630087659.580,-1000.000,-117.188,-130.859,-1000.000
1630087659.583,-223.633,-19.531,-69.336,-223.633
1630087659.587,-834.473,61.035,-18.555,-833.496
1630087659.591,244.141,-23.438,-91.309,244.629
1630087659.595,-1000.000,-118.652,-172.852,-1000.000
1630087659.599,-566.895,-81.055,-150.391,-617.676
1630087659.603,-936.035,37.109,-31.738,-966.797
1630087659.607,416.992,11.230,-51.758,435.059
1630087659.610,-1000.000,-113.770,-172.363,-1000.000
1630087659.614,-1000.000,-190.430,-233.398,-1000.000
1630087659.618,350.098,-45.410,-94.727,268.066
1630087659.622,953.613,28.809,-31.250,979.004
1630087659.626,-572.266,-88.867,-128.906,-526.855
1630087659.628,-1000.000,-92.773,-130.371,-1000.000
1630087659.632,-167.969,-1.953,-51.270,-191.895
1630087659.636,-847.168,41.504,-22.949,-851.562
1630087659.640,43.945,-50.781,-117.188,68.848
1630087659.644,-1000.000,-102.539,-156.738,-1000.000
1630087659.648,-236.816,-16.113,-70.801,-289.062
1630087659.652,-826.660,74.707,29.297,-841.797
1630087659.655,239.746,-104.492,-135.254,244.141
1630087659.659,-1000.000,-208.496,-239.746,-1000.000
1630087659.663,-689.941,-62.012,-98.633,-749.023
1630087659.667,965.820,24.902,-16.602,902.344
1630087659.671,515.137,-24.902,-56.641,529.785
1630087659.672,-992.188,-106.445,-144.531,-985.352
1630087659.676,-1000.000,-80.566,-138.672,-1000.000
1630087659.680,207.520,8.789,-52.246,153.320
1630087659.684,-970.215,18.066,-51.270,-954.590
1630087659.688,-445.312,-98.633,-152.832,-404.297
1630087659.692,-1000.000,-104.492,-158.691,-1000.000
1630087659.696,-204.102,-22.461,-94.238,-206.055
1630087659.699,-850.098,-147.949,-212.402,-849.609
1630087659.703,102.051,-237.793,-295.898,125.000
1630087659.707,-1000.000,-127.441,-183.105,-1000.000
1630087659.711,-326.172,-41.016,-109.375,-397.461
1630087659.715,-851.074,45.410,-35.156,-875.977
1630087659.726,243.164,-25.879,-88.379,251.465
1630087659.730,-1000.000,-119.629,-161.133,-1000.000
1630087659.734,-821.289,-72.754,-121.582,-879.883
1630087659.738,805.664,20.508,-34.180,724.121
1630087659.742,633.789,-5.371,-67.871,656.738
1630087659.746,-927.246,-81.055,-152.832,-904.785
1630087659.750,-1000.000,-154.297,-220.215,-1000.000
1630087659.753,55.664,-93.262,-147.949,-4.883
1630087659.757,-864.258,20.508,-40.527,-873.047
1630087659.761,-211.426,-76.660,-122.070,-188.965
1630087659.765,-1000.000,-138.184,-174.316,-1000.000
1630087659.769,-219.727,-43.945,-94.727,-219.727
1630087659.765,-835.938,26.855,-21.484,-836.426
1630087659.769,237.793,-74.219,-107.910,231.445
1630087659.773,-1000.000,-130.859,-171.875,-1000.000
1630087659.777,-468.262,-62.988,-132.812,-521.973
1630087659.781,-888.672,37.109,-38.574,-914.551
1630087659.785,314.453,-45.898,-103.516,332.031
1630087659.789,-1000.000,-187.988,-238.281,-1000.000
1630087659.792,-974.121,-128.418,-171.875,-1000.000
1630087659.796,574.219,5.859,-44.922,479.004
1630087659.800,780.762,-46.387,-108.887,810.547
1630087659.804,-792.969,-168.457,-222.656,-754.395
1630087659.808,-1000.000,-113.770,-174.805,-1000.000
1630087659.809,-57.129,-5.859,-74.707,-123.047
1630087659.813,-852.051,-15.137,-84.473,-860.840
1630087659.817,-103.027,-129.395,-178.711,-66.406
1630087659.821,-1000.000,-122.559,-166.016,-1000.000
1630087659.825,-225.098,-24.902,-94.727,-226.074
1630087659.829,-833.496,30.273,-48.828,-832.520
1630087659.833,244.141,-54.688,-125.000,244.141
1630087659.836,-1000.000,-121.582,-177.246,-1000.000
1630087659.840,-574.219,-72.266,-119.141,-622.070
1630087659.844,-940.918,-11.719,-65.430,-969.238
1630087659.848,423.828,-61.035,-100.098,439.941
1630087659.852,-1000.000,-119.629,-157.715,-1000.000
1630087659.867,-1000.000,-95.703,-157.227,-1000.000
1630087659.871,366.699,-14.160,-64.941,279.785
1630087659.875,958.008,-9.277,-56.152,973.633
1630087659.879,-562.012,-91.797,-135.742,-533.203
1630087659.883,-1000.000,-145.996,-173.828,-1000.000
1630087659.887,-185.059,-106.934,-143.555,-201.172
1630087659.891,-850.098,-4.395,-59.082,-856.445
1630087659.894,67.383,-61.523,-96.680,71.777
1630087659.898,-1000.000,-179.688,-203.613,-1000.000
1630087659.902,-275.391,-200.684,-237.793,-328.125
1630087659.906,-837.402,-23.438,-67.383,-855.469
1630087659.910,243.652,-27.344,-64.941,246.094
1630087659.912,-1000.000,-123.535,-149.414,-1000.000
1630087659.916,-719.238,-76.172,-112.305,-806.641
1630087659.920,933.105,19.043,-33.203,830.566
1630087659.924,537.109,-17.090,-46.875,543.945
1630087659.928,-986.328,-130.371,-134.766,-982.422
1630087659.932,-1000.000,-109.863,-124.512,-1000.000
1630087659.936,208.984,2.930,-29.785,134.766
1630087659.939,-957.031,24.902,-3.906,-957.520
1630087659.943,-425.293,-179.688,-176.758,-403.320
1630087659.947,-1000.000,-232.422,-220.703,-1000.000
1630087659.951,-210.449,-28.809,-29.785,-208.984
1630087659.955,-842.773,38.574,15.137,-846.680
1630087659.957,169.922,-61.523,-85.938,161.133
1630087659.961,-1000.000,-112.305,-131.836,-1000.000
1630087659.965,-338.379,-36.133,-59.570,-415.527
1630087659.969,-847.168,34.180,10.254,-878.418
1630087659.973,240.723,-43.457,-66.895,248.535
1630087659.977,-1000.000,-111.816,-143.066,-1000.000
1630087659.981,-836.914,-53.223,-102.539,-906.738
1630087659.984,791.504,0.000,-53.711,692.871
1630087659.988,597.168,-149.414,-181.152,608.398
1630087659.992,-952.148,-192.871,-213.379,-943.359
1630087659.996,-1000.000,-85.938,-103.516,-1000.000
1630087660.000,44.434,-51.758,-69.824,-25.879
1630087660.002,-856.934,-33.203,-63.477,-873.047
1630087660.006,-190.430,-89.844,-108.887,-181.641
1630087660.010,-1000.000,-125.488,-155.762,-1000.000
1630087660.014,-221.191,-35.645,-80.566,-219.727
1630087660.018,-835.449,32.715,-25.391,-835.938
1630087660.022,243.652,-48.340,-108.398,237.305
1630087660.026,-1000.000,-107.422,-145.996,-1000.000
1630087660.029,-493.164,-81.055,-122.559,-530.273
1630087660.033,-900.391,1.465,-51.758,-918.457
1630087660.037,317.871,-36.133,-83.496,336.914
1630087660.041,-1000.000,-134.277,-161.133,-1000.000
1630087660.045,-974.609,-98.145,-136.719,-1000.000
1630087660.048,562.988,2.441,-54.199,470.215
1630087660.052,808.594,-7.324,-69.336,853.516
1630087660.056,-760.254,-125.000,-182.129,-700.684
1630087660.060,-1000.000,-148.438,-196.777,-1000.000
1630087660.064,-71.777,-46.387,-95.703,-132.812
1630087660.068,-845.703,23.926,-56.152,-855.469
1630087660.072,-65.430,-73.242,-157.227,-36.621
1630087660.075,-1000.000,-167.480,-211.914,-1000.000
1630087660.079,-228.516,-74.707,-119.629,-229.004
1630087660.083,-832.031,21.484,-32.227,-830.566
1630087660.087,244.141,-74.219,-110.840,243.164
1630087660.091,-1000.000,-146.973,-175.781,-1000.000
1630087660.092,-602.539,-78.125,-117.188,-640.625
1630087660.096,-957.520,21.484,-32.715,-987.305
1630087660.100,431.641,-29.297,-78.125,467.773
1630087660.104,-1000.000,-134.766,-163.574,-1000.000
1630087660.108,-1000.000,-118.164,-145.996,-1000.000
1630087660.112,334.473,0.977,-40.039,266.602
1630087660.116,964.844,-1.465,-41.992,993.652
1630087660.119,-553.711,-133.301,-157.227,-502.930
1630087660.123,-1000.000,-131.836,-154.785,-1000.000
1630087660.127,-189.453,-29.297,-55.176,-199.707
1630087660.131,-847.168,17.090,-16.602,-848.145
1630087660.135,83.496,-75.195,-94.727,104.492
1630087660.137,-1000.000,-134.766,-135.742,-1000.000
1630087660.141,-260.254,-67.871,-72.266,-305.176
1630087660.145,-830.566,14.648,14.160,-842.773
1630087660.149,240.234,-58.594,-47.852,243.652
1630087660.153,-1000.000,-135.254,-124.023,-1000.000
1630087660.157,-720.703,-94.238,-92.773,-768.066
1630087660.161,931.641,-25.879,-44.922,874.023
1630087660.164,547.852,-55.664,-58.594,586.914
1630087660.168,-976.562,-135.742,-106.445,-950.684
1630087660.172,-1000.000,-153.320,-127.441,-1000.000
1630087660.176,163.574,-65.918,-58.594,102.539
1630087660.180,-916.504,-4.883,-24.414,-907.227
1630087660.197,-345.215,-105.469,-106.934,-308.105
1630087660.201,-1000.000,-132.812,-118.652,-1000.000
1630087660.205,-211.426,-30.273,-39.062,-212.402
1630087660.209,-842.285,14.160,13.184,-841.797
1630087660.213,171.875,-88.379,-71.777,185.547
1630087660.217,-1000.000,-139.648,-120.117,-1000.000
1630087660.221,-385.742,-67.383,-52.734,-426.270
1630087660.224,-865.723,16.602,27.344,-878.418
1630087660.228,246.582,-54.688,-19.531,276.367
1630087660.232,-1000.000,-166.504,-112.793,-1000.000
1630087660.236,-862.305,-121.582,-76.660,-922.852
1630087660.240,750.977,0.488,28.320,662.598
1630087660.242,646.973,-29.297,7.324,687.988
1630087660.246,-922.363,-145.020,-94.238,-876.465
1630087660.250,-1000.000,-130.371,-94.238,-1000.000
1630087660.254,41.016,-39.062,3.418,-33.203
1630087660.258,-870.117,-3.906,17.578,-879.395
1630087660.262,-218.262,-83.984,-67.871,-187.988
1630087660.266,-1000.000,-107.422,-97.168,-1000.000
1630087660.269,-218.750,-23.926,-26.367,-218.750
1630087660.273,-837.891,15.137,31.738,-837.402
1630087660.277,237.305,-107.910,-70.801,231.934
1630087660.281,-1000.000,-160.156,-127.441,-1000.000
1630087660.285,-511.719,-68.359,-27.832,-554.688
1630087660.287,-910.156,13.672,65.430,-933.105
1630087660.291,332.031,-53.223,-4.883,362.793
1630087660.295,-1000.000,-141.113,-76.172,-1000.000
1630087660.299,-981.445,-109.375,-43.457,-1000.000
1630087660.303,546.875,-23.438,35.156,453.125
1630087660.307,829.102,-31.250,25.391,864.258
1630087660.311,-733.398,-136.719,-62.012,-684.082
1630087660.314,-1000.000,-140.137,-62.012,-1000.000
1630087660.318,-97.656,-63.965,-3.418,-156.738
1630087660.322,-843.750,-20.996,26.367,-856.934
1630087660.326,-29.297,-88.379,-36.133,-16.113
1630087660.330,-1000.000,-142.578,-75.195,-1000.000
1630087660.332,-230.957,-59.082,0.977,-230.469
1630087660.336,-830.078,14.648,72.266,-829.590
1630087660.340,243.652,-76.172,-2.441,241.211
1630087660.344,-1000.000,-151.855,-71.289,-1000.000
1630087660.348,-614.258,-98.633,-24.902,-675.293
1630087660.352,-964.355,-2.930,51.270,979.492
1630087660.356,434.082,-40.039,-1.465,469.727
1630087660.359,-1000.000,-142.090,-94.238,-1000.000
1630087660.363,-1000.000,-157.227,-104.492,-1000.000
1630087660.367,304.199,-49.805,-3.418,216.309
1630087660.371,953.125,-16.113,35.156,976.074
1630087660.375,-572.266,-112.305,-66.406,-524.414
1630087660.377,-1000.000,-117.188,-108.398,-1000.000
1630087660.381,-192.383,-26.855,-24.902,-202.148
1630087660.385,-851.562,19.531,22.461,-854.004
1630087660.389,73.730,-83.008,-65.918,84.961
1630087660.393,-1000.000,-143.066,-112.305,-1000.000
1630087660.397,-279.785,-60.547,-41.016,-323.242
1630087660.401,-838.379,41.016,36.621,-851.562
1630087660.404,242.676,-126.953,-119.141,244.141
1630087660.408,-1000.000,-235.840,-208.984,-1000.000
1630087660.412,-740.723,-96.191,-73.242,-811.523
1630087660.416,909.668,8.301,16.113,820.801
1630087660.420,555.176,-28.320,-16.602,590.332
1630087660.422,-976.074,-131.836,-77.637,-953.613
1630087660.426,-1000.000,-107.910,-60.547,-1000.000
1630087660.430,158.691,-11.719,12.207,91.797
1630087660.434,-900.879,1.465,25.391,-906.250
1630087660.438,-317.871,-97.656,-67.871,-302.734
1630087660.442,-1000.000,-117.676,-85.938,-1000.000
1630087660.446,-213.379,-37.109,-15.137,-212.891
1630087660.449,-841.309,-83.008,-49.805,-842.285
1630087660.453,189.453,-162.109,-101.562,193.848
1630087660.457,-1000.000,-120.117,-45.898,-1000.000
1630087660.461,-413.574,-86.914,-32.227,-464.355
1630087660.465,-875.488,-14.648,16.602,-895.508
1630087660.467,249.023,-29.785,6.348,274.902
1630087660.471,-1000.000,-125.000,-72.754,-1000.000
1630087660.475,-880.859,-100.586,-42.480,-956.055
1630087660.479,715.332,-8.789,56.641,600.586
1630087660.483,692.383,-20.020,41.992,730.469
1630087660.487,-878.906,-89.355,-34.180,-840.332
1630087660.491,-1000.000,-161.621,-95.703,-1000.000
1630087660.494,3.418,-102.539,-37.109,-48.828
1630087660.498,-859.863,7.812,59.570,-872.559
1630087660.502,-169.922,-86.914,-19.043,-162.598
1630087660.506,-1000.000,-127.441,-53.711,-1000.000
1630087660.510,-221.191,-37.109,20.508,-221.191
1630087660.513,-835.449,35.645,83.984,-835.938
1630087660.517,244.141,-62.988,-5.859,245.117
1630087660.521,-1000.000,-149.902,-73.242,-1000.000
1630087660.525,-528.320,-81.055,-5.371,-587.402
1630087660.529,-916.992,8.301,70.801,-949.219
1630087660.533,355.469,-50.781,21.973,378.906
1630087660.537,-1000.000,-156.738,-62.500,-1000.000
1630087660.540,-1000.000,-134.766,-48.340,-1000.000
1630087660.544,514.160,-35.156,44.434,379.395
1630087660.548,831.055,-55.176,12.695,859.375
1630087660.552,-735.840,-152.344,-88.867,-695.312
1630087660.556,-1000.000,-125.977,-67.383,-1000.000
1630087660.572,-91.797,-27.344,21.484,-157.227
1630087660.576,-843.750,6.348,51.758,-860.840
1630087660.580,-36.133,-99.121,-39.551,-23.926
1630087660.584,-1000.000,-160.645,-87.402,-1000.000
1630087660.588,-230.469,-68.848,-6.836,-248.535
1630087660.592,-831.055,-15.625,32.227,-836.914
1630087660.596,243.652,-131.348,-56.641,243.164
1630087660.599,-1000.000,-173.340,-78.613,-1000.000
1630087660.603,-623.047,-93.750,-22.461,-699.219
1630087660.607,-970.215,-8.301,58.105,955.078
1630087660.611,447.754,-69.336,20.996,481.445
1630087660.615,-1000.000,-163.574,-69.336,-1000.000
1630087660.617,-1000.000,-127.930,-59.570,-1000.000
1630087660.621,286.621,-35.156,37.109,197.754
1630087660.625,-976.562,-20.996,47.852,-973.145
1630087660.629,-466.309,-113.281,-34.180,-446.777
1630087660.633,-1000.000,-144.043,-43.945,-1000.000
1630087660.637,-200.684,-53.223,28.320,-208.496
1630087660.641,-845.215,7.812,69.336,-846.191
1630087660.644,117.188,-80.566,-5.859,151.855
1630087660.648,-1000.000,-146.484,-56.641,-1000.000
1630087660.652,-305.176,-107.422,-27.344,-365.723
1630087660.656,-842.285,-21.973,38.574,-860.352
1630087660.660,244.629,-66.895,4.395,247.070
1630087660.662,-1000.000,-140.137,-73.730,-1000.000
1630087660.666,-746.094,-85.938,-45.410,-829.590
1630087660.670,897.461,5.371,43.945,794.434
1630087660.674,606.934,-29.297,12.695,618.652
1630087660.678,-945.801,-124.512,-76.172,-938.477
1630087660.682,-1000.000,-99.609,-72.754,-1000.000
1630087660.686,157.715,0.000,1.465,85.449
1630087660.689,-888.672,4.395,8.789,-896.973
1630087660.693,-293.457,-107.910,-82.031,-285.156
1630087660.697,-1000.000,-125.488,-96.680,-1000.000
1630087660.701,-217.285,-25.391,-16.602,-216.309
1630087660.705,-837.402,22.949,28.809,-839.355
1630087660.707,229.492,-62.500,-47.852,226.074
1630087660.711,-1000.000,-119.629,-107.910,-1000.000
1630087660.715,-425.293,-64.453,-51.758,-482.910
1630087660.719,-873.047,20.020,37.109,-898.438
1630087660.723,283.691,-28.809,-17.578,304.688
1630087660.727,-1000.000,-107.910,-97.168,-1000.000
1630087660.731,-887.695,-61.035,-70.801,-963.379
1630087660.734,714.355,30.273,0.977,597.656
1630087660.738,699.219,-37.109,-44.434,731.934
1630087660.742,-874.023,-140.625,-123.047,-840.332
1630087660.746,-1000.000,-92.773,-93.750,-1000.000
1630087660.750,1.465,3.906,-12.207,-61.035
1630087660.753,-843.262,37.598,7.324,-847.656
1630087660.757,-118.652,-53.711,-74.707,-82.031
1630087660.761,-1000.000,-103.027,-104.980,-1000.000
1630087660.765,-225.586,-45.898,-62.500,-227.051
1630087660.769,-833.008,15.137,-0.488,-832.031
1630087660.773,244.141,-45.410,-48.340,244.141
1630087660.777,-1000.000,-108.887,-98.633,-1000.000
1630087660.780,-532.715,-89.355,-74.707,-593.750
1630087660.784,-918.945,-4.883,-0.488,-952.637
1630087660.788,358.398,-34.668,-18.555,379.395
1630087660.792,-1000.000,-130.371,-95.703,-1000.000
1630087660.796,-1000.000,-98.633,-67.871,-1000.000
1630087660.797,488.281,-0.977,12.207,359.375
1630087660.801,888.184,0.000,1.465,896.484
1630087660.805,-660.645,-107.910,-81.055,-650.391
1630087660.809,-1000.000,-118.652,-89.355,-1000.000
1630087660.813,-119.629,-19.531,-0.977,-172.852
1630087660.817,-843.262,31.738,42.480,-853.027
1630087660.821,-2.930,-68.848,-54.199,34.180
1630087660.824,-1000.000,-150.879,-115.723,-1000.000
1630087660.828,-232.910,-66.406,-47.852,-259.277
1630087660.832,-829.102,42.480,41.016,-834.473
1630087660.836,243.164,-36.621,-22.461,242.188
1630087660.840,-1000.000,-111.816,-83.008,-1000.000
1630087660.842,-633.301,-49.805,-25.879,-718.750
1630087660.846,-978.027,43.945,67.383,936.035
1630087660.850,487.793,-1.465,23.438,508.789
1630087660.854,-1000.000,-98.633,-67.871,-996.094
1630087660.858,-1000.000,-75.195,-47.363,-1000.000
1630087660.862,258.789,33.691,58.105,197.754
1630087660.866,-996.582,-1.465,23.926,-995.117
1630087660.869,-492.188,-122.559,-78.613,-479.492
1630087660.873,-1000.000,-100.098,-36.133,-1000.000
1630087660.877,-206.055,2.441,69.824,-208.496
1630087660.881,-848.145,38.086,84.473,-847.656
1630087660.885,118.652,-57.617,-4.395,154.297
1630087660.887,-1000.000,-107.422,-15.625,-1000.000
1630087660.891,-313.477,-39.551,46.387,-376.953
1630087660.895,-845.215,45.898,108.398,-864.746
1630087660.899,245.117,-31.738,43.457,247.559
1630087660.903,-1000.000,-108.398,-23.926,-1000.000
1630087660.907,-761.230,-81.055,4.395,-843.262
1630087660.911,881.348,-34.668,51.270,777.344
1630087660.914,606.934,-42.480,39.062,622.070
1630087660.918,-942.871,-107.422,-11.719,-937.012
1630087660.922,-1000.000,-125.488,-22.949,-1000.000
1630087660.926,117.676,-42.480,44.922,61.523
1630087660.930,-879.883,9.766,86.426,-882.812
1630087660.947,-266.113,-80.078,7.812,-245.605
1630087660.951,-1000.000,-117.188,-36.621,-1000.000
1630087660.955,-216.797,-24.902,36.133,-217.285
1630087660.959,-837.402,44.922,97.168,-837.891
1630087660.963,222.168,-52.734,7.812,222.656
1630087660.967,-1000.000,-110.352,-52.246,-1000.000
1630087660.971,-430.664,-38.086,11.230,-492.676
1630087660.974,-876.953,44.434,85.938,-904.297
1630087660.978,272.461,-20.508,25.391,297.852
1630087660.982,-1000.000,-124.512,-54.688,-1000.000
1630087660.986,-895.020,-88.867,-9.766,-979.004
1630087660.990,686.523,11.230,94.727,562.988
1630087660.993,749.023,3.906,79.590,767.578
1630087660.997,-819.336,-96.191,-10.254,-803.711
1630087661.001,-1000.000,-105.469,-22.461,-1000.000
1630087661.005,-32.227,-3.418,56.641,-88.379
1630087661.009,-847.656,43.945,94.727,-852.051
1630087661.013,-109.375,-48.340,14.648,-69.824
1630087661.017,-1000.000,-106.934,-28.320,-1000.000
1630087661.020,-225.098,-37.109,33.691,-227.051
1630087661.024,-832.520,43.945,103.516,-831.543
1630087661.028,244.141,-24.902,46.875,244.141
1630087661.032,-1000.000,-109.863,-23.926,-1000.000
1630087661.036,-536.133,-58.594,19.531,-594.727
1630087661.037,-920.410,31.738,97.656,-953.125
1630087661.041,367.188,-30.273,43.457,386.230
1630087661.045,-1000.000,-125.000,-36.133,-1000.000
1630087661.049,-1000.000,-95.703,-14.648,-1000.000
1630087661.053,469.238,-5.371,63.965,357.422
1630087661.057,881.348,-9.277,58.594,892.578
1630087661.061,-665.527,-108.398,-25.391,-652.344
1630087661.064,-1000.000,-118.652,-38.574,-1000.000
1630087661.068,-153.809,-45.898,14.648,-184.082
1630087661.072,-853.516,-3.906,42.969,-859.375
1630087661.076,-2.930,-84.473,-19.531,24.414
1630087661.080,-1000.000,-137.695,-54.199,-1000.000
1630087661.082,-231.934,-44.922,5.859,-276.855
1630087661.086,-829.102,30.273,70.312,-842.285
1630087661.090,243.164,-68.848,11.230,245.605
1630087661.094,-1000.000,-141.602,-45.898,-1000.000
1630087661.098,-633.789,-79.102,4.395,-719.238
1630087661.102,-978.516,25.879,105.957,934.082
1630087661.106,508.301,-18.555,75.684,529.785
1630087661.109,-986.328,-127.930,-22.949,-979.492
1630087661.113,-1000.000,-148.926,-56.641,-1000.000
1630087661.117,211.914,-61.523,32.227,157.227
1630087661.121,-978.516,-9.766,93.750,-972.656
1630087661.125,-457.520,-108.887,21.973,-432.129
1630087661.127,-1000.000,-131.348,11.719,-1000.000
1630087661.131,-207.031,-39.551,89.355,-209.473
1630087661.135,-846.191,11.719,126.953,-845.215
1630087661.139,133.301,-82.031,35.645,166.992
1630087661.143,-1000.000,-138.672,-19.043,-1000.000
1630087661.147,-321.289,-54.199,44.434,-385.254
1630087661.151,-845.703,23.438,116.211,-866.211
1630087661.154,244.629,-54.199,62.012,247.070
1630087661.158,-1000.000,-135.254,-4.883,-1000.000
1630087661.162,-776.855,-92.285,18.555,-861.816
1630087661.166,864.258,9.766,98.145,755.371
1630087661.170,602.051,-31.738,63.965,620.605
1630087661.172,-939.941,-138.184,-22.949,-932.617
1630087661.176,-1000.000,-121.094,-21.484,-1000.000
1630087661.180,80.566,-32.227,53.711,27.344
1630087661.184,-908.203,-7.812,67.871,-916.016
1630087661.188,-304.199,-103.516,-18.555,-294.434
1630087661.192,-1000.000,-122.070,-33.203,-1000.000
1630087661.196,-215.820,-17.090,47.852,-214.844
1630087661.199,-838.867,16.602,79.102,-841.309
1630087661.203,228.516,-85.938,-4.395,225.586
1630087661.207,-1000.000,-125.977,-25.391,-1000.000
1630087661.211,-440.430,-54.688,50.781,-510.254
1630087661.215,-878.906,26.855,137.207,-911.621
1630087661.218,283.203,-43.945,88.379,305.664
1630087661.222,-1000.000,-134.277,17.578,-1000.000
1630087661.226,-920.410,-96.191,43.945,-985.840
1630087661.230,646.484,-0.488,123.047,543.457
1630087661.234,769.043,-18.066,105.469,794.922
1630087661.238,-799.805,-109.863,20.996,-769.531
1630087661.242,-1000.000,-127.930,8.789,-1000.000
1630087661.245,-40.527,-49.316,98.145,-98.633
1630087661.249,-851.074,4.395,139.160,-857.910
1630087661.253,-114.746,-98.145,47.852,-82.031
1630087661.257,-1000.000,-139.160,33.691,-1000.000
1630087661.261,-226.074,-43.457,106.445,-229.492
1630087661.262,-826.660,23.438,159.668,-818.359
