timestamps,TP9,AF7,AF8,TP10
1626640479.596,-1.953,-30.762,-25.879,87.402
1626640479.600,-29.785,-47.852,-32.227,-84.961
1626640479.604,-36.621,-12.695,-25.879,-136.230
1626640479.608,-41.992,-28.320,-29.297,-4.883
1626640479.612,-20.996,-34.180,-14.648,82.520
1626640479.616,-29.785,-27.344,-19.043,-49.316
1626640479.620,-49.316,-24.902,-29.785,-160.156
1626640479.623,-28.320,-22.949,-18.555,-41.504
1626640479.627,-3.906,-32.227,-11.230,97.656
1626640479.631,0.977,-30.762,-12.695,12.695
1626640479.635,-40.039,-46.387,-38.574,-156.250
1626640479.639,-49.316,-61.035,-40.039,-95.215
1626640479.640,-8.789,-11.719,-24.902,88.379
1626640479.644,-22.461,-21.973,-29.785,-68.848
1626640479.647,-33.691,-22.949,-34.180,-140.625
1626640479.651,-3.418,3.418,-26.367,16.602
1626640479.655,19.531,-5.859,-17.090,126.465
1626640479.659,-3.418,-49.805,-27.344,-11.230
1626640479.663,-37.109,-42.480,-35.645,-147.949
1626640479.683,-33.203,-14.648,-25.391,-45.410
1626640479.687,-22.461,-12.695,-32.227,92.285
1626640479.691,-34.180,-31.250,-47.852,11.230
1626640479.695,-39.062,-31.250,-48.340,-150.879
1626640479.699,-29.297,-19.531,-33.691,-100.098
1626640479.703,-13.184,-24.902,-16.602,77.637
1626640479.707,-15.137,-39.551,-24.414,59.082
1626640479.710,-30.273,-18.066,-35.156,-101.562
1626640479.714,-37.598,-22.949,-29.785,-124.023
1626640479.718,-23.926,-33.203,-32.227,37.109
1626640479.722,-20.020,-15.625,-36.621,98.633
1626640479.726,-50.293,-34.180,-41.504,-71.777
1626640479.724,-55.664,-36.133,-42.480,-164.551
1626640479.728,-29.785,-27.344,-30.273,-10.742
1626640479.732,-10.254,-38.086,-20.508,108.887
1626640479.736,-16.113,-29.785,-24.902,-4.395
1626640479.740,-32.227,-11.719,-25.391,-132.812
1626640479.744,-34.180,-19.531,-13.184,-47.363
1626640479.748,-29.297,-37.598,-16.113,96.191
1626640479.751,-26.855,-31.250,-29.297,45.898
1626640479.755,-44.922,-25.879,-37.598,-122.070
1626640479.759,-47.363,-30.273,-27.832,-104.004
1626640479.763,-20.508,-24.902,-23.926,74.219
1626640479.767,-21.973,-26.855,-30.273,78.125
1626640479.756,-53.223,-45.410,-33.203,-99.121
1626640479.760,-56.152,-37.598,-30.273,-139.648
1626640479.764,-22.949,-13.184,-7.812,34.180
1626640479.768,-27.832,-43.457,-20.020,96.680
1626640479.772,-51.270,-60.547,-38.086,-62.012
1626640479.776,-65.430,-32.227,-35.645,-166.992
1626640479.780,-34.668,-34.180,-31.738,-23.438
1626640479.783,25.879,-22.461,-9.766,141.113
1626640479.787,-8.301,-39.062,-27.832,21.484
1626640479.791,-87.402,-104.004,-77.148,-186.523
1626640479.795,-64.453,-68.848,-58.594,-104.004
1626640479.799,-21.973,-17.578,-18.555,82.031
1626640479.837,-26.855,-34.180,-12.695,26.367
1626640479.841,-60.059,-42.480,-29.785,-161.133
1626640479.845,-77.148,-30.273,-41.504,-160.645
1626640479.849,-31.250,-26.855,-30.762,31.250
1626640479.853,-17.090,-18.555,-30.273,63.477
1626640479.857,-26.855,-11.719,-34.668,-86.914
1626640479.861,-32.715,-19.531,-32.227,-145.020
1626640479.864,-33.203,-27.344,-34.668,-15.625
1626640479.868,-16.113,-24.902,-26.367,80.078
1626640479.872,-14.648,-15.137,-4.883,-34.180
1626640479.876,-27.344,-15.625,-8.789,-147.461
1626640479.880,-25.879,-17.578,-31.250,-44.922
1626640479.858,-22.949,-34.180,-41.016,85.938
1626640479.862,-35.156,-61.035,-38.086,1.465
1626640479.866,-52.246,-53.223,-36.621,-158.203
1626640479.870,-41.992,-29.785,-33.203,-108.398
1626640479.874,-12.207,-21.484,-44.922,67.871
1626640479.878,-16.602,-15.625,-56.641,40.527
1626640479.882,-26.855,-6.348,-33.203,-118.164
1626640479.885,-28.320,-20.020,-18.066,-122.559
1626640479.889,-10.742,-34.180,-7.812,43.945
1626640479.893,-4.395,-17.578,-7.324,91.797
1626640479.897,-30.762,-16.602,-23.438,-76.660
1626640479.901,-35.156,-37.598,-17.090,-142.578
1626640479.920,-20.508,-32.227,-20.020,-3.418
1626640479.924,-9.277,-24.414,-36.133,91.797
1626640479.928,-21.484,-35.156,-42.480,-38.086
1626640479.932,-56.152,-48.828,-62.988,-188.477
1626640479.936,-63.965,-46.875,-71.289,-98.633
1626640479.940,-14.160,-41.504,-45.898,84.473
1626640479.944,1.465,-42.969,-36.133,35.156
1626640479.947,-19.531,-32.227,-20.020,-127.930
1626640479.951,-25.391,-9.766,-15.137,-94.727
1626640479.955,-21.484,0.977,-25.879,61.035
1626640479.959,-19.531,-10.742,-30.273,60.059
1626640479.963,-54.199,-37.598,-47.363,-123.047
1626640479.964,-56.641,-40.039,-39.551,-144.043
1626640479.968,-0.488,-7.812,-18.066,56.152
1626640479.972,24.414,-8.789,-24.902,133.789
1626640479.976,-6.836,-33.203,-29.297,-27.832
1626640479.980,-49.805,-44.434,-28.320,-151.367
1626640479.984,-31.738,-36.621,-30.273,-26.855
1626640479.988,-4.883,-19.531,-32.227,105.957
1626640479.991,-22.949,-10.254,-43.457,-2.930
1626640479.995,-34.668,-28.809,-33.691,-155.273
1626640479.999,-25.391,-59.082,-23.438,-82.520
1626640480.003,-15.137,-47.363,-31.738,84.473
1626640480.007,-10.254,-8.789,-33.691,51.758
1626640479.997,-20.508,-3.906,-43.457,-115.234
1626640480.001,-31.250,-24.414,-40.527,-104.980
1626640480.005,-35.156,-37.109,-26.367,59.082
1626640480.009,-39.551,-44.434,-28.320,66.406
1626640480.013,-54.199,-45.898,-29.785,-106.934
1626640480.017,-54.199,-36.133,-25.391,-148.926
1626640480.021,-27.344,-27.832,-20.020,24.414
1626640480.024,-19.531,-39.551,-29.297,104.980
1626640480.028,-37.598,-50.293,-34.668,-42.969
1626640480.032,-64.453,-67.383,-36.621,-164.062
1626640480.036,-71.289,-25.391,-53.711,-65.918
1626640480.040,-38.574,21.973,-35.156,84.473
1626640480.076,-18.555,-40.527,-4.395,32.715
1626640480.080,-56.641,-79.102,-19.531,-142.578
1626640480.084,-66.895,-55.176,-21.973,-103.027
1626640480.088,-32.715,-36.621,-16.602,76.660
1626640480.092,-31.738,-39.551,-25.879,49.316
1626640480.096,-47.363,-52.246,-27.344,-119.141
1626640480.100,-41.504,-47.363,-31.738,-116.699
1626640480.103,-14.160,-58.594,-33.691,62.988
1626640480.107,-23.926,-69.336,-49.805,79.102
1626640480.111,-51.758,-44.434,-46.387,-97.656
1626640480.115,-26.855,-25.391,-15.625,-129.395
1626640480.119,-12.695,-36.133,-18.555,19.531
1626640480.083,-1.465,-39.551,-7.324,125.488
1626640480.087,-8.789,-30.273,-3.906,-0.977
1626640480.091,-62.500,-53.711,-42.480,-169.922
1626640480.095,-51.270,-52.734,-39.062,-57.617
1626640480.099,-13.672,-54.199,-22.461,107.910
1626640480.103,-18.555,-63.477,-17.578,30.762
1626640480.107,-58.105,-50.293,-21.973,-144.043
1626640480.110,-73.730,-47.363,-42.969,-114.746
1626640480.114,-34.180,-50.293,-32.715,72.266
1626640480.118,-14.648,-53.711,-8.789,79.590
1626640480.122,-18.066,-51.270,-2.930,-79.102
1626640480.126,-27.832,-45.410,-21.973,-105.957
1626640480.158,-16.602,-30.762,-22.461,59.082
1626640480.162,-17.090,-22.461,-28.320,103.027
1626640480.166,-37.598,-20.508,-37.598,-60.059
1626640480.170,-28.320,-11.719,-20.020,-126.465
1626640480.174,-21.484,-26.367,-18.555,0.977
1626640480.178,-40.527,-43.457,-45.410,80.078
1626640480.182,-37.598,-40.039,-45.898,-19.531
1626640480.185,-26.367,-36.133,-13.184,-130.371
1626640480.189,-27.344,-37.598,-4.395,-54.199
1626640480.193,-15.137,-35.156,-17.578,91.797
1626640480.197,3.418,-17.578,-30.762,53.711
1626640480.201,-15.137,-29.297,-46.387,-110.352
1626640480.215,-38.086,-45.898,-42.969,-102.539
1626640480.219,-17.578,-32.715,-20.996,68.848
1626640480.223,-26.367,-44.922,-27.832,63.477
1626640480.227,-59.082,-59.082,-24.414,-113.281
1626640480.231,-52.246,-33.203,-12.695,-141.602
1626640480.235,-29.297,-12.695,-25.391,21.484
1626640480.239,-17.578,-22.461,-17.578,102.051
1626640480.242,-7.812,-23.438,4.395,-20.020
1626640480.246,-22.461,-31.250,-4.395,-134.277
1626640480.250,-29.297,-33.203,-19.043,-26.367
1626640480.254,-15.625,-39.551,-28.320,101.562
1626640480.258,-12.695,-46.387,-38.574,13.184
1626640480.237,-30.273,-30.273,-45.410,-135.254
1626640480.241,-51.270,-21.973,-43.945,-90.820
1626640480.245,-30.273,-15.137,-35.156,76.172
1626640480.249,-24.414,-41.016,-36.133,42.969
1626640480.253,-45.898,-43.945,-36.621,-127.930
1626640480.257,-50.781,-28.320,-29.785,-118.164
1626640480.261,-26.367,-26.855,-27.344,55.176
1626640480.264,-20.508,-26.367,-30.762,73.242
1626640480.268,-44.434,-26.367,-36.621,-97.168
1626640480.272,-39.551,-12.207,-38.574,-146.973
1626640480.276,-2.930,-20.996,-17.578,17.090
1626640480.280,2.930,-22.949,-12.207,97.656
1626640480.276,-41.504,-22.949,-48.340,-64.941
1626640480.280,-69.336,-17.578,-62.500,-190.918
1626640480.284,-30.762,-9.277,-43.457,-54.199
1626640480.288,1.953,-24.414,-30.273,101.562
1626640480.292,-14.160,-23.438,-27.832,15.625
1626640480.296,-29.785,-21.484,-37.598,-139.648
1626640480.300,-27.344,-22.949,-33.203,-91.309
1626640480.303,-19.043,-36.621,-30.273,69.336
1626640480.307,-10.742,-38.574,-25.879,56.152
1626640480.311,-41.016,-33.691,-36.133,-126.465
1626640480.315,-70.801,-33.691,-45.898,-160.156
1626640480.319,-40.527,-28.809,-27.832,19.531
1626640480.324,-17.578,-25.391,-22.461,79.590
1626640480.328,-33.691,-23.926,-18.066,-73.730
1626640480.332,-60.547,-40.527,-24.902,-159.180
1626640480.336,-47.852,-51.758,-33.203,-19.531
1626640480.340,-9.277,-34.668,-22.461,110.352
1626640480.344,-22.949,-29.297,-26.855,-16.602
1626640480.348,-48.340,-34.668,-32.227,-157.227
1626640480.351,-43.457,-44.434,-41.504,-63.965
1626640480.355,-38.086,-40.527,-61.523,65.918
1626640480.359,-27.344,-13.672,-39.551,11.230
1626640480.363,-41.992,-21.484,-18.555,-138.184
1626640480.367,-46.387,-27.832,-34.668,-105.469
1626640480.377,-5.371,-28.809,-44.434,74.219
1626640480.381,9.277,-47.852,-36.133,86.914
1626640480.385,-34.668,-39.551,-36.133,-108.887
1626640480.389,-68.359,-20.020,-32.227,-168.457
1626640480.393,-58.594,-22.949,-21.973,0.000
1626640480.397,-31.738,-27.832,-18.066,78.125
1626640480.401,-52.246,-27.344,-19.531,-74.707
1626640480.404,-125.000,-46.387,-51.270,-215.332
1626640480.408,-84.473,-65.430,-36.621,-61.035
1626640480.412,-11.230,-44.922,9.766,116.699
1626640480.416,-31.738,-47.852,-6.836,8.789
1626640480.420,-60.059,-57.617,-29.297,-150.391
1626640480.416,-66.406,-57.129,-32.227,-84.473
1626640480.420,-28.809,-48.828,-24.902,94.727
1626640480.424,-28.320,-35.645,-27.832,45.410
1626640480.428,-76.172,-38.086,-34.180,-145.996
1626640480.432,-58.105,-18.555,-12.695,-115.723
1626640480.436,-26.855,-31.738,-8.301,63.477
1626640480.440,-36.621,-59.082,-30.273,65.918
1626640480.443,-30.273,-38.574,-30.273,-87.402
1626640480.447,-5.859,-27.832,-10.742,-104.004
1626640480.451,-17.090,5.371,-14.160,31.250
1626640480.455,-41.016,29.785,-34.180,75.684
1626640480.459,-41.992,-40.527,-43.457,-48.340
1626640480.481,-35.645,-57.129,-45.410,-144.531
1626640480.485,-16.602,-16.602,-20.996,-22.949
1626640480.489,-1.953,-5.859,-12.695,115.723
1626640480.493,-19.043,-38.086,-30.762,16.113
1626640480.497,-36.621,-42.969,-15.137,-135.254
1626640480.501,-32.227,-43.945,-25.391,-70.312
1626640480.505,-15.137,-46.387,-42.969,81.543
1626640480.508,-22.461,-39.062,-32.227,38.086
1626640480.512,-56.152,-51.270,-44.434,-145.508
1626640480.516,-65.430,-55.176,-59.082,-159.180
1626640480.520,-40.039,-42.480,-52.246,17.090
1626640480.524,-5.371,-34.180,-27.832,83.496
1626640480.538,-24.414,-43.457,-34.180,-76.660
1626640480.542,-44.922,-37.109,-38.574,-159.180
1626640480.546,-25.391,-16.602,-21.973,-11.230
1626640480.550,-13.184,-29.785,-12.695,90.332
1626640480.554,-15.625,-33.691,1.465,-28.809
1626640480.558,-34.668,-25.391,-0.977,-156.250
1626640480.562,-36.133,-31.250,-27.832,-58.105
1626640480.565,-29.785,-31.250,-57.129,72.266
1626640480.569,-41.992,-28.809,-66.895,-20.996
1626640480.573,-41.992,-26.367,-37.109,-158.691
1626640480.577,-40.527,-40.527,-27.832,-106.934
1626640480.581,-60.059,-67.383,-61.523,23.438
1626640480.581,-73.242,-76.660,-81.055,-4.883
1626640480.585,-47.852,-35.156,-57.617,-136.719
1626640480.589,-20.996,-13.672,-20.508,-125.488
1626640480.593,-0.488,-16.602,-6.836,43.457
1626640480.597,-1.465,-6.836,-13.184,89.844
1626640480.601,-24.902,-6.836,-25.391,-64.941
1626640480.605,-48.340,-36.621,-46.875,-163.086
1626640480.608,-32.227,-42.969,-32.227,-24.414
1626640480.612,-25.391,-27.344,-25.879,83.496
1626640480.616,-35.156,-27.832,-40.527,-35.645
1626640480.620,-48.828,-27.344,-38.086,-165.039
1626640480.624,-34.180,-38.086,-27.832,-72.266
1626640480.598,-13.184,-36.133,-34.180,80.078
1626640480.602,6.836,-17.578,-24.902,45.898
1626640480.606,-6.836,-33.691,-14.160,-104.004
1626640480.610,-54.199,-46.875,-40.039,-123.047
1626640480.614,-30.762,-28.809,-40.039,44.434
1626640480.618,-17.578,-31.250,-35.156,71.777
1626640480.622,-31.250,-37.598,-29.297,-90.332
1626640480.625,-41.504,-31.250,-23.438,-141.113
1626640480.629,-27.344,-33.691,-25.391,19.531
1626640480.633,-3.906,-35.645,-22.949,108.887
1626640480.637,-20.020,-30.273,-23.926,-44.434
1626640480.641,-28.320,-23.438,-13.672,-148.438
1626640480.658,-3.906,-7.324,-12.695,-11.230
1626640480.662,-21.484,-12.695,-56.641,87.402
1626640480.666,-30.762,-28.809,-58.594,-20.020
1626640480.670,-15.625,-20.020,-23.438,-133.301
1626640480.674,-20.508,-15.625,-28.809,-66.895
1626640480.678,-23.438,-20.020,-46.875,74.707
1626640480.682,-61.523,-51.758,-85.938,-4.395
1626640480.685,-63.477,-60.547,-62.012,-148.438
1626640480.689,-32.715,-41.504,-22.949,-110.840
1626640480.693,-9.766,-34.180,-25.391,49.316
1626640480.697,-11.719,-28.320,-24.902,75.684
1626640480.701,-42.969,-26.367,-30.762,-103.516
1626640480.697,-40.527,-11.719,-21.973,-157.715
1626640480.701,-20.020,-6.836,-21.484,5.859
1626640480.705,-3.906,-21.484,-27.344,102.051
1626640480.709,-0.977,-21.484,-19.531,-19.043
1626640480.713,-16.602,-23.438,-17.578,-132.812
1626640480.717,-23.926,-36.133,-31.738,-31.738
1626640480.721,-6.836,-17.090,-26.367,107.422
1626640480.724,-15.137,-12.695,-23.438,15.137
1626640480.728,-57.129,-28.809,-50.781,-158.203
1626640480.732,-85.938,-82.031,-83.496,-138.184
1626640480.736,-101.562,-133.789,-98.633,-8.301
1626640480.740,-54.688,-68.848,-60.547,17.578
1626640480.737,-34.180,-28.809,-35.156,-113.770
1626640480.741,-39.551,-32.227,-18.555,-134.277
1626640480.745,1.465,-23.438,-6.348,48.340
1626640480.749,6.348,-11.719,-27.344,103.027
1626640480.753,-16.602,0.000,-23.926,-56.641
1626640480.757,-32.227,-3.418,-17.578,-143.555
1626640480.761,-12.695,1.953,-16.602,3.418
1626640480.764,-1.465,-33.203,-15.137,106.445
1626640480.768,-53.711,-93.750,-40.527,-58.105
1626640480.772,-52.246,-46.875,-28.320,-170.410
1626640480.776,-10.742,0.000,-11.719,-42.480
1626640480.780,-0.977,-0.977,-25.391,101.562
1626640480.818,-20.508,-33.203,-49.805,24.414
1626640480.822,-36.133,-44.434,-41.992,-127.930
1626640480.826,-23.438,-15.625,-4.883,-77.148
1626640480.830,-0.977,-11.719,-6.348,82.520
1626640480.834,-10.742,-20.020,-37.109,64.941
1626640480.838,-53.711,-16.113,-49.805,-118.164
1626640480.842,-57.129,-8.789,-35.645,-150.879
1626640480.845,-19.043,-17.578,-14.648,21.484
1626640480.849,-6.348,-25.391,-10.254,94.727
1626640480.853,-17.090,-15.625,-11.719,-50.781
1626640480.857,-49.316,-13.184,-28.809,-161.133
1626640480.861,-42.969,-16.113,-44.434,-35.645
1626640480.839,-15.625,-21.973,-39.062,94.727
1626640480.843,-28.320,-31.738,-42.480,-7.324
1626640480.847,-31.738,-23.438,-35.156,-140.137
1626640480.851,-33.691,-25.391,-39.062,-71.777
1626640480.855,-39.551,-54.199,-49.805,66.406
1626640480.859,-17.578,-25.879,-22.949,40.527
1626640480.863,-16.113,-1.465,-5.859,-104.980
1626640480.866,-32.715,-21.973,-18.066,-115.234
1626640480.870,-22.461,-21.484,-26.855,41.504
1626640480.874,-4.883,-28.320,-35.645,74.707
1626640480.878,-17.090,-29.297,-48.340,-86.914
1626640480.882,-28.809,-25.391,-41.016,-137.695
1626640480.897,-21.484,-27.344,-28.320,7.324
1626640480.901,-2.930,-12.695,-22.949,94.727
1626640480.905,-40.039,-42.969,-48.828,-62.500
1626640480.909,-65.918,-47.363,-58.105,-187.012
1626640480.913,-30.273,-20.508,-37.598,-41.504
1626640480.917,-4.395,-20.996,-25.879,100.586
1626640480.921,-2.441,-10.742,-26.855,24.902
1626640480.924,-49.316,-63.477,-52.734,-151.855
1626640480.928,-80.566,-147.461,-70.801,-130.371
1626640480.932,-31.250,-80.566,-38.086,66.895
1626640480.936,1.465,-7.812,-10.742,75.684
1626640480.940,-37.598,-10.742,-24.902,-110.840
1626640480.938,-62.012,-26.855,-41.992,-141.602
1626640480.942,-16.602,-25.879,-29.785,44.434
1626640480.946,5.859,-11.719,-34.668,99.609
1626640480.950,-24.902,-24.902,-49.805,-76.172
1626640480.954,-39.062,-11.719,-34.668,-151.367
1626640480.958,-33.691,-27.832,-32.227,-6.348
1626640480.962,-12.207,-41.504,-29.785,105.469
1626640480.965,-17.578,-15.137,-31.250,-23.438
1626640480.969,-60.059,-26.855,-39.062,-184.570
1626640480.973,-51.270,-19.043,-31.738,-80.566
1626640480.977,-39.062,-46.387,-40.039,71.289
1626640480.981,-63.477,-121.582,-67.871,-26.855
1626640480.989,-41.504,-62.012,-45.898,-154.297
1626640480.993,-17.578,8.301,-22.949,-83.496
1626640480.997,-1.465,-3.418,-20.508,83.496
1626640481.001,6.348,-15.137,-11.230,82.520
1626640481.005,-33.203,-24.414,-34.668,-103.516
1626640481.009,-43.945,-20.996,-47.852,-141.602
1626640481.013,-20.020,-25.391,-47.363,30.762
1626640481.016,-11.230,-39.551,-59.082,88.867
1626640481.020,-14.648,-35.645,-53.711,-55.664
1626640481.024,-68.848,-103.516,-62.988,-179.199
1626640481.028,-92.285,-122.559,-66.406,-80.566
1626640481.032,-40.039,-48.828,-35.156,66.406
1626640481.061,-20.508,-14.160,-23.438,-18.066
1626640481.065,-35.645,3.418,-29.785,-152.344
1626640481.069,-35.645,-9.766,-41.504,-67.383
1626640481.073,-4.395,-11.230,-24.414,107.910
1626640481.077,3.418,5.859,-19.043,58.105
1626640481.081,-37.109,-9.766,-35.156,-128.906
1626640481.085,-32.227,-23.926,-20.020,-103.516
1626640481.088,-6.836,-33.691,-21.973,68.359
1626640481.092,-18.066,-37.109,-36.133,67.383
1626640481.096,-38.574,-33.203,-27.832,-103.027
1626640481.100,-47.363,-21.484,-20.996,-148.438
1626640481.104,-29.785,-22.949,-30.762,15.137
1626640481.070,-22.949,-48.828,-44.434,84.961
1626640481.074,-34.668,-32.227,-34.180,-56.152
1626640481.078,-34.668,-7.812,-11.719,-151.855
1626640481.082,-27.344,-16.113,-23.438,-40.527
1626640481.086,-7.324,2.441,-26.855,99.609
1626640481.090,-9.766,-13.672,-31.250,8.301
1626640481.094,-34.668,-38.086,-33.691,-148.926
1626640481.097,-30.273,-29.297,-26.367,-75.684
1626640481.101,-9.766,-17.090,-34.668,84.961
1626640481.105,1.465,-14.160,-18.066,61.523
1626640481.109,-46.875,-66.406,-29.785,-134.766
1626640481.113,-78.125,-89.844,-49.805,-162.598
1626640481.121,-47.363,-47.363,-39.551,20.020
1626640481.125,-46.875,-32.715,-41.504,51.270
1626640481.129,-56.641,-24.902,-37.109,-109.375
1626640481.133,-62.012,-28.809,-49.316,-169.434
1626640481.137,-77.148,-94.238,-76.660,-47.852
1626640481.141,-34.180,-77.148,-58.105,72.754
1626640481.145,-6.348,-14.648,-25.879,-16.602
1626640481.148,-27.832,-17.090,-20.020,-143.555
1626640481.152,-35.645,-50.781,-24.902,-45.898
1626640481.156,-25.391,-66.406,-35.645,85.938
1626640481.160,-14.160,-20.508,-32.227,17.090
1626640481.164,-41.992,-25.391,-40.039,-151.367
1626640481.189,-54.199,-39.551,-44.922,-120.605
1626640481.193,-34.668,-37.109,-36.133,43.945
1626640481.197,-24.414,-24.414,-29.297,33.691
1626640481.201,-38.574,-9.766,-36.621,-125.977
1626640481.205,-37.598,-20.508,-27.832,-134.277
1626640481.209,-16.602,-28.809,-4.883,41.016
1626640481.213,-6.836,11.230,2.930,99.121
1626640481.216,-45.898,-6.348,-24.902,-86.914
1626640481.220,-68.359,-45.410,-46.387,-187.012
1626640481.224,-42.969,-37.109,-39.062,-28.809
1626640481.228,-30.762,-43.457,-53.223,82.031
1626640481.232,-31.738,-33.203,-42.969,-27.832
1626640481.217,-47.852,-36.133,-23.926,-160.645
1626640481.221,-39.062,-63.477,-23.438,-76.660
1626640481.225,-3.418,-48.340,-9.766,94.727
1626640481.229,-8.789,-0.488,-13.672,38.574
1626640481.233,-43.945,-5.371,-29.297,-138.672
1626640481.237,-41.504,-14.160,-23.438,-107.910
1626640481.241,-6.836,-18.066,-17.578,78.125
1626640481.244,3.906,-23.438,-17.578,87.891
1626640481.248,-24.414,-24.414,-25.879,-97.168
1626640481.252,-54.199,-17.578,-36.133,-153.320
1626640481.256,-39.062,-68.359,-41.016,3.418
1626640481.260,-23.926,-111.816,-35.645,83.984
1626640481.283,-40.039,-56.152,-39.551,-61.035
1626640481.287,-48.340,-46.875,-41.992,-152.344
1626640481.291,-35.645,-25.879,-35.156,-20.996
1626640481.295,-28.809,-20.996,-38.086,89.355
1626640481.299,-32.715,-19.043,-31.250,-6.348
1626640481.303,-57.617,-11.230,-34.668,-163.574
1626640481.307,-49.805,-16.113,-22.949,-98.633
1626640481.310,-25.391,-9.766,-13.184,69.824
1626640481.314,-21.973,-25.879,-13.672,37.109
1626640481.318,-45.410,-39.551,-6.348,-128.418
1626640481.322,-65.918,-27.832,-14.648,-130.371
1626640481.326,-41.016,-34.668,-20.996,38.086
1626640481.321,-22.461,-19.043,-27.344,62.500
1626640481.325,-51.270,-34.668,-37.109,-121.094
1626640481.329,-75.195,-57.617,-39.551,-187.012
1626640481.333,-63.477,-23.926,-41.504,-30.273
1626640481.337,-46.387,-17.090,-31.738,60.547
1626640481.341,-53.223,-27.344,-24.414,-77.637
1626640481.345,-98.633,-49.316,-38.086,-215.332
1626640481.348,-97.656,-44.922,-33.691,-107.910
1626640481.352,-71.777,-14.160,-22.949,30.273
1626640481.356,-117.188,-21.973,-43.945,-97.168
1626640481.360,-173.828,-36.133,-53.223,-281.738
1626640481.364,-192.383,-23.926,-39.062,-250.000
1626640481.370,-205.078,-113.770,-41.016,-124.023
1626640481.374,-209.473,-154.297,-34.180,-140.625
1626640481.378,-216.309,-55.176,-14.160,-299.316
1626640481.382,-228.516,-38.086,-19.531,-322.266
1626640481.386,-203.613,-35.645,-30.273,-147.461
1626640481.390,-191.406,-44.434,-23.926,-104.004
1626640481.394,-242.676,-77.637,-19.043,-305.176
1626640481.397,-244.629,-64.941,-5.371,-368.164
1626640481.401,-194.336,-7.812,17.578,-194.336
1626640481.405,-201.660,15.625,3.418,-115.234
1626640481.409,-241.699,-29.785,-47.852,-258.301
1626640481.413,-269.531,-77.148,-71.777,-399.414
1626640481.438,-224.609,-75.684,-44.434,-250.488
1626640481.442,-166.016,-54.688,-47.363,-55.664
1626640481.446,-177.734,-43.457,-41.504,-131.836
1626640481.450,-177.734,-40.039,-6.348,-273.438
1626640481.454,-149.902,-38.086,0.977,-221.680
1626640481.458,-137.207,-41.992,-21.484,-58.105
1626640481.462,-120.605,-64.453,-35.156,-43.945
1626640481.465,-107.910,-78.613,-38.574,-183.105
1626640481.469,-107.422,-70.801,-55.176,-206.055
1626640481.473,-79.590,-77.637,-57.129,-31.738
1626640481.477,-32.227,-29.785,-31.738,68.848
1626640481.481,-17.578,-15.137,-33.691,-47.363
1626640481.444,-10.254,-28.320,-38.086,-112.305
1626640481.448,16.113,-25.879,-26.367,40.527
1626640481.452,57.129,-12.695,-14.160,177.246
1626640481.456,60.059,-21.973,-18.555,75.195
1626640481.460,37.109,-50.781,-23.438,-65.430
1626640481.464,56.152,-31.738,-10.254,39.551
1626640481.468,71.777,-29.297,-17.090,193.359
1626640481.471,48.828,-43.457,-42.480,115.234
1626640481.475,29.785,-40.527,-52.734,-57.129
1626640481.479,41.016,-35.156,-48.340,-20.996
1626640481.483,76.172,7.324,-44.922,169.922
1626640481.487,80.566,-2.930,-42.480,185.059
1626640481.521,53.711,-38.086,-42.480,4.395
1626640481.525,44.434,-14.160,-37.598,-41.992
1626640481.529,62.500,-16.602,-42.480,123.535
1626640481.533,83.984,-28.320,-38.086,211.426
1626640481.537,69.336,-28.809,-32.715,70.312
1626640481.541,54.688,-62.988,-32.227,-33.203
1626640481.545,78.613,-111.328,-17.578,95.215
1626640481.548,101.074,-62.012,-13.184,226.074
1626640481.552,72.266,-10.254,-36.133,115.723
1626640481.556,35.645,-19.043,-46.875,-54.688
1626640481.560,56.641,-26.367,-31.738,23.438
1626640481.564,69.824,-41.992,-38.086,174.805
1626640481.568,55.664,-28.320,-43.457,118.652
1626640481.572,29.297,-15.137,-46.875,-63.477
1626640481.576,15.625,-21.973,-47.363,-66.895
1626640481.580,44.922,-10.742,-33.203,115.234
1626640481.584,52.734,-16.602,-39.551,147.461
1626640481.588,27.344,-29.785,-41.992,-21.484
1626640481.592,23.438,-5.859,-29.297,-76.172
1626640481.595,41.016,0.000,-30.762,75.195
1626640481.599,64.941,-22.949,-21.973,175.781
1626640481.603,45.898,-16.113,-26.855,37.598
1626640481.607,16.113,-1.465,-36.133,-96.191
1626640481.611,32.227,-29.297,-31.250,17.578
1626640481.599,49.805,-38.086,-32.227,152.344
1626640481.603,17.578,-71.289,-45.410,44.922
1626640481.607,-32.715,-181.641,-58.594,-137.695
1626640481.611,-15.625,-110.840,-41.992,-69.336
1626640481.615,22.461,16.113,-27.832,109.863
1626640481.619,27.344,9.766,-26.855,100.098
1626640481.623,16.113,-6.348,-27.344,-59.570
1626640481.626,5.859,-11.230,-26.367,-85.449
1626640481.630,6.836,-2.930,-29.297,69.336
1626640481.634,7.812,0.000,-30.762,114.258
1626640481.638,-2.930,16.602,-26.367,-35.156
1626640481.642,-17.090,-55.176,-50.293,-121.582
1626640481.636,1.953,-127.441,-48.340,23.926
1626640481.640,15.137,-37.598,-27.344,128.906
1626640481.644,-5.859,9.277,-17.090,1.465
1626640481.648,-26.367,6.836,-11.230,-131.836
1626640481.652,-16.602,-15.625,-18.066,-41.504
1626640481.656,14.160,-24.414,-14.160,110.352
1626640481.660,11.230,-4.395,-20.996,43.457
1626640481.663,-24.902,-33.203,-41.504,-135.742
1626640481.667,-22.461,-26.855,-27.344,-99.609
1626640481.671,11.719,15.625,-11.719,87.402
1626640481.675,0.977,-72.266,-20.996,84.961
1626640481.679,-13.672,-89.355,-23.438,-75.684
1626640481.698,-19.531,3.418,-36.621,-110.840
1626640481.702,-19.531,-1.953,-45.410,33.691
1626640481.706,5.371,-9.766,-30.762,109.863
1626640481.710,-10.254,-13.672,-22.949,-39.062
1626640481.714,-39.062,-15.625,-33.203,-155.273
1626640481.718,-19.531,-5.371,-50.293,-11.230
1626640481.722,-12.207,-17.578,-49.805,114.258
1626640481.725,-30.273,-13.184,-43.457,-11.230
1626640481.729,-42.969,-96.191,-24.902,-148.438
1626640481.733,-38.574,-135.254,-17.578,-69.336
1626640481.737,-6.348,-10.254,-34.668,91.797
1626640481.741,-3.418,11.230,-45.898,51.758
1626640481.722,-24.414,-10.254,-62.012,-116.211
1626640481.726,-14.160,-14.160,-41.016,-94.727
1626640481.730,10.742,-5.371,-12.207,81.055
1626640481.734,-4.883,-9.277,-23.438,84.473
1626640481.738,-55.176,-32.715,-29.297,-113.281
1626640481.742,-73.242,-32.227,-32.227,-174.316
1626640481.746,-51.758,-26.367,-35.645,0.977
1626640481.749,-22.949,-31.738,-25.391,99.121
1626640481.753,-36.621,-27.832,-29.785,-52.734
1626640481.757,-76.660,-39.062,-49.805,-184.570
1626640481.761,-52.246,-33.203,-33.203,-52.246
1626640481.765,-16.602,-79.102,-19.531,100.586
1626640481.801,-25.879,-83.984,-35.156,0.000
1626640481.805,-52.734,-18.555,-51.270,-158.203
1626640481.809,-53.711,-10.254,-37.598,-87.402
1626640481.813,-17.578,10.742,-8.301,95.215
1626640481.817,-24.902,-65.918,-29.297,60.547
1626640481.821,-86.914,-233.887,-62.012,-144.531
1626640481.825,-96.191,-201.172,-61.035,-167.480
1626640481.828,-30.273,-43.457,-30.762,35.156
1626640481.832,2.930,-5.371,-14.648,106.445
1626640481.836,-39.062,-22.461,-35.645,-77.637
1626640481.840,-66.406,-20.020,-44.434,-171.387
1626640481.844,-38.574,2.930,-32.715,-11.230
1626640481.836,-13.672,10.254,-36.133,107.910
1626640481.840,-14.648,8.789,-33.691,-12.695
1626640481.844,-35.156,-20.996,-25.391,-152.344
1626640481.848,-44.434,-63.477,-26.855,-67.383
1626640481.852,-4.883,-18.555,-5.371,97.656
1626640481.856,8.301,4.395,-4.883,43.457
1626640481.860,-31.738,-4.883,-17.578,-129.395
1626640481.863,-35.156,-6.348,-18.555,-100.586
1626640481.867,-30.273,-40.039,-36.621,45.410
1626640481.871,-25.391,-29.297,-40.039,48.340
1626640481.875,-33.203,-24.902,-30.273,-104.492
1626640481.879,-41.504,-32.227,-41.016,-134.766
1626640481.898,-19.531,3.906,-45.898,32.227
1626640481.902,-11.719,-51.758,-24.414,83.984
1626640481.906,-20.508,-79.590,-18.066,-59.570
1626640481.910,-30.273,-16.602,-31.250,-150.391
1626640481.914,-33.691,-7.812,-41.016,-36.621
1626640481.918,-17.578,2.441,-47.363,85.938
1626640481.922,-15.625,-8.301,-41.992,-17.090
1626640481.925,-35.156,-22.949,-30.762,-158.691
1626640481.929,-40.527,-22.949,-33.203,-74.219
1626640481.933,-25.879,-18.555,-33.691,78.613
1626640481.937,-10.254,1.465,-19.043,37.598
1626640481.941,-36.621,-35.156,-38.086,-128.906
1626640481.924,-56.152,-51.758,-52.246,-119.141
1626640481.928,-20.508,-0.977,-28.320,62.012
1626640481.932,14.648,5.859,-20.996,102.539
1626640481.936,-14.160,-4.395,-37.109,-68.359
1626640481.940,-50.293,-6.836,-32.715,-148.926
1626640481.944,-21.973,-4.883,-17.578,14.648
1626640481.948,-2.930,-2.930,-25.391,105.469
1626640481.951,-10.742,-8.301,-27.344,-31.738
1626640481.955,-25.879,-5.371,-23.438,-140.137
1626640481.959,-21.484,-30.273,-21.973,-21.484
1626640481.963,1.953,-39.062,-20.020,106.445
1626640481.967,-12.695,-16.602,-28.320,0.977
1626640481.964,-45.410,-22.949,-43.945,-158.691
1626640481.968,-17.090,1.465,-41.992,-77.148
1626640481.972,18.066,17.578,-25.879,100.586
1626640481.976,-19.531,-67.871,-27.832,31.250
1626640481.980,-69.824,-101.074,-46.387,-164.062
1626640481.984,-62.012,-22.949,-36.621,-138.184
1626640481.988,-30.762,10.254,-20.508,56.641
1626640481.991,-14.648,-2.441,-23.438,89.355
1626640481.995,-18.555,-78.125,-12.695,-64.941
1626640481.999,-24.902,-63.477,-14.160,-126.465
1626640482.003,-12.695,-30.273,-26.367,19.531
1626640482.007,-1.953,-44.922,-15.625,112.793
1626640482.021,-17.578,-24.414,-21.484,-26.855
1626640482.025,-38.574,-15.137,-34.668,-158.691
1626640482.029,-29.785,5.371,-34.668,-50.781
1626640482.033,-9.766,4.395,-34.668,102.539
1626640482.037,-26.855,-17.090,-42.480,10.254
1626640482.041,-48.828,-33.203,-36.133,-152.344
1626640482.045,-53.223,-66.406,-29.785,-98.145
1626640482.048,-33.691,-41.992,-29.297,62.988
1626640482.052,-22.461,-17.578,-38.086,46.387
1626640482.056,-36.133,-24.902,-35.156,-118.164
1626640482.060,-49.805,-17.578,-26.367,-138.672
1626640482.064,-39.551,-68.359,-25.879,25.391
1626640482.076,-40.039,-100.586,-34.668,70.801
1626640482.080,-54.688,-54.199,-44.434,-89.355
1626640482.084,-42.480,-34.668,-32.715,-151.855
1626640482.088,-22.461,-19.531,-29.297,-1.953
1626640482.092,-21.484,-22.949,-30.273,94.238
1626640482.096,-35.156,-33.691,-39.551,-30.273
1626640482.100,-54.688,-33.203,-41.992,-166.016
1626640482.103,-56.641,-32.715,-52.246,-85.938
1626640482.107,-31.738,-10.742,-60.059,64.941
1626640482.111,-19.531,-53.711,-24.414,30.273
1626640482.115,-32.227,-81.543,-9.277,-120.605
1626640482.119,-47.852,-25.391,-31.738,-108.398
1626640482.098,-38.574,-25.391,-43.945,46.387
1626640482.102,-25.391,-3.418,-32.715,57.617
1626640482.106,-36.133,-17.090,-25.391,-93.750
1626640482.110,-49.805,-56.641,-46.387,-143.555
1626640482.114,-34.668,-32.227,-47.852,8.301
1626640482.118,-13.184,-11.230,-26.855,88.379
1626640482.122,-31.250,-8.789,-29.297,-54.688
1626640482.125,-64.453,-41.016,-49.805,-171.387
1626640482.129,-60.059,-54.688,-54.199,-62.012
1626640482.133,-30.273,-19.531,-42.969,76.660
1626640482.137,-31.250,-3.418,-38.574,-10.742
1626640482.141,-63.477,-2.441,-45.898,-170.410
1626640482.180,-53.223,-7.812,-33.691,-87.891
1626640482.184,-10.742,-37.109,-24.414,88.867
1626640482.188,1.953,-30.762,-33.691,49.805
1626640482.192,-4.883,3.418,-27.832,-98.633
1626640482.196,13.672,5.371,-22.949,-69.336
1626640482.200,40.527,4.395,-31.250,99.121
1626640482.204,26.367,-83.496,-42.480,105.469
1626640482.207,18.555,-87.402,-38.086,-47.363
1626640482.211,21.973,4.395,-28.320,-90.820
1626640482.215,33.203,28.809,-32.227,61.035
1626640482.219,62.988,29.297,-24.414,164.062
1626640482.223,57.129,13.184,-13.672,35.645
1626640482.221,36.133,10.742,-18.066,-75.684
1626640482.225,32.227,-2.441,-31.738,20.020
1626640482.229,62.500,-0.488,-20.508,159.668
1626640482.233,66.406,0.000,-6.348,88.867
1626640482.237,10.254,-26.855,-36.133,-99.609
1626640482.241,-0.977,-14.160,-47.852,-58.594
1626640482.245,17.578,14.160,-45.410,118.164
1626640482.248,12.695,13.672,-44.434,88.379
1626640482.252,-1.465,-0.977,-33.691,-86.914
1626640482.256,-4.883,-18.555,-31.738,-91.797
1626640482.260,29.297,-6.348,-25.391,92.285
1626640482.264,43.945,0.000,-25.391,136.230
1626640482.262,8.301,-11.719,-38.086,-37.598
1626640482.266,-15.625,-7.324,-38.086,-120.605
1626640482.270,3.906,-28.320,-26.367,22.461
1626640482.274,13.672,-24.414,-26.855,129.395
1626640482.278,3.418,8.789,-39.551,-0.488
1626640482.282,-0.977,9.277,-26.855,-117.188
1626640482.286,14.160,8.789,-6.348,-0.977
1626640482.289,20.508,-18.066,-20.996,121.094
1626640482.293,9.277,-24.414,-30.273,40.039
1626640482.297,-17.578,-7.324,-22.949,-115.234
1626640482.301,-15.625,-8.301,-21.484,-76.172
1626640482.305,17.090,2.930,-18.555,100.586
1626640482.319,16.113,-22.949,-27.344,88.379
1626640482.323,1.465,-66.895,-33.691,-81.543
1626640482.327,6.348,-41.992,-18.066,-94.238
1626640482.331,18.066,-3.906,-14.648,68.848
1626640482.335,33.203,-9.766,-15.137,133.301
1626640482.339,16.113,-30.273,-22.461,-17.090
1626640482.343,-15.625,-38.574,-37.109,-129.883
1626640482.346,-9.766,-6.836,-36.133,2.441
1626640482.350,2.930,0.000,-37.109,120.117
1626640482.354,-4.883,-18.066,-36.133,2.930
1626640482.358,-22.949,-24.902,-34.180,-129.395
1626640482.362,-57.129,-132.324,-64.453,-84.473
1626640482.338,-30.762,-118.164,-53.223,78.125
1626640482.342,0.977,2.930,-23.926,62.988
1626640482.346,-23.926,-4.395,-26.855,-111.328
1626640482.350,-22.949,-9.277,-20.508,-87.891
1626640482.354,-1.465,-7.812,-19.531,84.961
1626640482.358,-5.371,-21.484,-33.203,94.238
1626640482.362,-26.367,-22.949,-34.668,-65.430
1626640482.365,-21.484,-13.184,-20.020,-110.352
1626640482.369,-21.973,-25.879,-20.020,26.855
1626640482.373,-28.809,-52.734,-35.645,86.914
1626640482.377,-24.414,-40.527,-23.926,-32.227
1626640482.381,-40.039,-20.996,-9.277,-131.836
1626640482.418,-43.945,-20.508,-11.230,-28.809
1626640482.422,-33.203,-18.555,-17.578,97.656
1626640482.426,-54.688,-59.570,-45.410,-20.020
1626640482.430,-64.941,-67.383,-52.734,-174.805
1626640482.434,-35.645,-29.785,-37.109,-90.332
1626640482.438,-5.859,-26.367,-23.438,94.238
1626640482.442,9.766,-15.137,-13.672,82.520
1626640482.445,-33.203,-44.434,-45.410,-111.328
1626640482.449,-68.848,-67.383,-54.688,-138.672
1626640482.453,-20.508,-33.691,-14.648,56.152
1626640482.457,-1.953,-31.250,-1.953,108.398
1626640482.461,-22.461,-33.691,-8.301,-48.340
1626640482.456,-25.391,-20.996,-15.625,-112.305
1626640482.460,-20.508,-30.273,-17.090,24.902
1626640482.464,-10.254,-40.527,-17.578,122.070
1626640482.468,-26.367,-38.086,-30.762,-17.578
1626640482.472,-45.410,-12.207,-27.832,-148.438
1626640482.476,-27.832,11.719,-25.391,-27.344
1626640482.480,-10.742,0.488,-32.715,112.305
1626640482.483,-8.301,-9.766,-26.855,34.668
1626640482.487,-12.695,-8.301,-11.230,-100.098
1626640482.491,-23.438,-23.438,-12.207,-66.406
1626640482.495,-2.441,-27.832,-31.738,94.238
1626640482.499,11.230,-26.855,-30.762,90.332
1626640482.476,-19.531,-35.156,-18.555,-96.191
1626640482.480,-33.691,-36.133,-9.277,-126.465
1626640482.484,-29.297,-21.484,-7.812,33.203
1626640482.488,-22.949,-21.484,-25.391,81.055
1626640482.492,-52.246,-51.758,-49.316,-83.496
1626640482.496,-57.129,-28.809,-42.480,-153.809
1626640482.500,-22.461,-12.695,-34.180,7.324
1626640482.503,-7.324,-21.973,-36.621,105.957
1626640482.507,-17.578,-22.461,-26.855,-18.555
1626640482.511,-40.527,-16.113,-18.555,-146.973
1626640482.515,-27.344,-13.672,-12.695,-45.410
1626640482.519,-3.906,-40.039,-20.996,95.215
1626640482.543,-23.438,-32.715,-29.785,12.695
1626640482.547,-62.012,-26.855,-25.879,-166.992
1626640482.551,-52.734,-17.090,-20.020,-127.930
1626640482.555,-25.391,-7.812,-32.227,47.363
1626640482.559,-30.762,-31.250,-34.668,44.922
1626640482.563,-55.176,-48.828,-34.180,-128.906
1626640482.567,-47.363,-32.227,-50.781,-160.645
1626640482.570,-26.367,-63.965,-54.199,0.488
1626640482.574,-16.113,-68.848,-23.438,72.754
1626640482.578,-30.273,-12.207,-0.977,-72.754
1626640482.582,-42.969,13.672,-2.441,-168.457
1626640482.586,-35.156,-1.465,-17.578,-41.992
1626640482.576,-31.738,-25.879,-30.762,74.707
1626640482.580,-33.691,-24.414,-36.621,-27.344
1626640482.584,-51.270,-18.555,-41.504,-169.434
1626640482.588,-42.480,-20.508,-40.039,-82.031
1626640482.592,-6.348,-16.602,-33.691,94.727
1626640482.596,16.113,-25.391,-16.113,76.660
1626640482.600,-25.879,-54.199,-17.578,-111.328
1626640482.603,-57.129,-45.410,-26.855,-129.883
1626640482.607,-36.621,-25.391,-28.809,43.945
1626640482.611,-25.879,-16.113,-24.414,78.613
1626640482.615,-37.598,-42.480,-17.090,-84.961
1626640482.619,-62.012,-142.090,-37.598,-156.738
1626640482.638,-40.527,-133.789,-39.062,4.883
1626640482.642,-17.090,-62.012,-23.438,100.586
1626640482.646,-48.340,-29.785,-32.227,-54.199
1626640482.650,-61.035,-19.531,-27.344,-163.086
1626640482.654,-40.527,-22.949,-18.066,-43.457
1626640482.658,-25.391,-30.273,-25.391,83.496
1626640482.662,-43.457,-52.246,-28.809,-3.418
1626640482.665,-72.754,-35.156,-24.902,-156.738
1626640482.669,-61.523,-27.344,-9.766,-90.332
1626640482.673,-33.691,-82.520,-7.324,72.754
1626640482.677,-22.461,-47.363,-23.438,48.828
1626640482.681,-41.016,-9.766,-27.832,-118.164
1626640482.686,-52.246,-26.367,-27.344,-128.418
1626640482.690,-18.066,-13.184,-20.996,57.617
1626640482.694,-8.301,-25.879,-17.578,96.680
1626640482.698,-36.621,-41.504,-23.438,-82.520
1626640482.702,-47.363,-36.133,-22.461,-156.250
1626640482.706,-38.574,-21.973,-34.180,-15.137
1626640482.710,-29.297,-11.719,-41.504,79.590
1626640482.713,-34.668,-28.809,-37.598,-37.109
1626640482.717,-63.477,-38.574,-39.062,-175.293
1626640482.721,-50.293,-21.484,-27.832,-70.801
1626640482.725,-19.531,-18.555,-24.414,88.379
1626640482.729,-41.016,-27.344,-25.879,1.953
1626640482.733,-62.012,-37.109,-29.297,-162.598
1626640482.737,-51.270,-33.691,-34.668,-119.141
1626640482.741,-36.133,-30.273,-23.926,50.293
1626640482.745,-37.109,-38.086,-15.137,41.016
1626640482.749,-66.406,-36.621,-20.020,-148.438
1626640482.753,-72.754,-68.848,-19.531,-172.363
1626640482.757,-32.715,-70.312,-13.184,26.367
1626640482.760,-30.762,-40.039,-22.949,77.637
1626640482.764,-47.852,-32.227,-30.273,-81.055
1626640482.768,-53.223,-8.301,-31.738,-166.992
1626640482.772,-40.527,-60.547,-24.902,-32.715
1626640482.776,-20.508,-183.105,-32.715,85.449
1626640482.796,-26.367,-144.531,-38.086,-22.949
1626640482.800,-29.297,-27.832,-18.066,-148.438
1626640482.804,-11.230,-3.906,-4.395,-61.035
1626640482.808,-4.395,-2.441,-14.648,82.520
1626640482.812,-23.926,2.441,-33.691,16.113
1626640482.816,-52.734,-6.836,-43.457,-148.926
1626640482.820,-55.664,-21.973,-38.574,-125.000
1626640482.823,-29.297,-5.371,-29.785,41.504
1626640482.827,-4.395,-23.438,-34.180,69.824
1626640482.831,-26.855,-101.562,-36.133,-96.680
1626640482.835,-42.969,-67.383,-22.949,-136.719
1626640482.839,-24.414,-18.066,-23.926,22.949
1626640482.801,-21.484,-27.344,-25.391,87.402
1626640482.805,-20.508,-33.691,-22.949,-49.316
1626640482.809,-38.574,-30.273,-23.926,-156.738
1626640482.813,-32.227,-5.859,-20.020,-32.715
1626640482.817,-6.836,-16.113,-21.973,96.191
1626640482.821,-27.832,-17.578,-37.598,-6.836
1626640482.825,-76.660,-33.691,-51.270,-168.457
1626640482.828,-64.941,-56.641,-50.293,-107.910
1626640482.832,-24.414,-23.926,-41.016,65.918
1626640482.836,-32.715,-23.926,-36.133,33.691
1626640482.840,-55.176,-24.414,-46.387,-144.043
1626640482.844,-66.406,-25.391,-44.922,-149.414
1626640482.879,-46.387,-36.621,-38.086,16.602
1626640482.883,-37.109,-37.109,-44.434,47.852
1626640482.887,-47.363,-29.297,-41.504,-104.980
1626640482.891,-52.246,-29.297,-29.785,-155.273
1626640482.895,-24.414,-20.996,-20.508,3.906
1626640482.899,-19.043,-73.730,-28.809,88.867
1626640482.903,-62.988,-146.484,-52.734,-65.430
1626640482.906,-72.754,-102.051,-50.293,-183.594
1626640482.910,-48.828,-26.855,-31.738,-63.477
1626640482.914,-14.648,-10.254,-29.785,91.309
1626640482.918,-11.719,-21.973,-40.527,14.648
1626640482.922,-48.340,-32.715,-46.387,-149.414
1626640482.921,-54.199,-29.297,-37.109,-103.516
1626640482.925,-37.109,-15.137,-29.785,61.035
1626640482.929,-46.387,-23.926,-33.203,31.250
1626640482.933,-66.895,-40.527,-35.645,-142.578
1626640482.937,-50.781,-41.504,-40.527,-145.508
1626640482.941,-18.066,-14.160,-31.250,33.203
1626640482.945,-9.766,4.395,-22.461,88.867
1626640482.948,-20.508,-11.230,-15.625,-66.895
1626640482.952,-50.781,-35.156,-30.273,-166.504
1626640482.956,-50.781,-26.855,-44.434,-38.086
1626640482.960,-32.715,-9.277,-52.246,83.496
1626640482.964,-25.879,-14.648,-47.852,-16.602
1626640482.937,-44.434,-10.742,-27.344,-149.902
1626640482.941,-48.340,-50.293,-36.133,-68.359
1626640482.945,-20.996,-64.941,-50.293,85.938
1626640482.949,-9.766,-8.789,-33.691,38.086
1626640482.953,-14.648,-1.953,-27.344,-124.023
1626640482.957,-10.742,6.348,-17.090,-88.379
1626640482.961,-15.625,-30.762,-26.367,64.453
1626640482.964,-25.879,-57.617,-45.898,46.387
1626640482.968,-41.504,-24.414,-36.621,-113.281
1626640482.972,-54.199,-17.578,-41.504,-154.785
1626640482.976,-32.227,-17.578,-46.875,13.184
1626640482.980,0.000,-28.320,-40.527,99.121
1626640483.037,-19.043,-144.531,-45.410,-63.965
1626640483.041,-73.730,-252.441,-66.895,-200.195
1626640483.045,-56.641,-129.883,-52.734,-60.547
1626640483.049,1.465,25.879,-27.344,114.746
1626640483.053,-7.324,18.555,-43.945,8.301
1626640483.057,-21.484,11.230,-31.250,-134.277
1626640483.061,-6.836,22.949,-16.602,-43.945
1626640483.064,-8.301,12.207,-32.715,82.031
1626640483.068,-21.973,-1.465,-33.203,19.043
1626640483.072,-42.969,-18.555,-30.762,-138.672
1626640483.076,-37.109,-29.297,-22.949,-108.398
1626640483.080,-8.301,-27.344,-34.180,62.988
1626640483.042,-1.465,-27.832,-47.852,70.801
1626640483.046,-36.133,-20.508,-38.574,-120.117
1626640483.050,-66.895,-8.789,-26.367,-193.359
1626640483.054,-45.898,-13.184,-20.508,-27.832
1626640483.058,-38.086,-11.230,-32.715,61.035
1626640483.062,-69.336,-10.742,-44.434,-86.914
1626640483.066,-88.379,-34.180,-45.898,-210.449
1626640483.069,-72.754,-41.992,-20.996,-102.539
1626640483.073,-54.688,-71.777,-4.395,33.203
1626640483.077,-86.914,-75.195,-38.086,-76.660
1626640483.081,-128.906,-42.480,-60.547,-251.465
1626640483.085,-133.301,-43.945,-47.363,-191.895
1626640483.118,-117.188,-33.203,-35.156,-21.484
1626640483.122,-135.254,-61.035,-39.551,-62.500
1626640483.126,-164.551,-70.312,-53.223,-248.535
1626640483.130,-139.648,-49.805,-27.344,-232.422
1626640483.134,-92.773,-46.875,-4.395,-27.344
1626640483.138,-78.125,-36.133,-14.648,27.344
1626640483.142,-91.309,-74.707,-25.391,-122.559
1626640483.145,-108.398,-159.180,-34.180,-203.125
1626640483.149,-90.332,-171.387,-39.062,-58.105
1626640483.153,-58.594,-91.309,-40.039,57.617
1626640483.157,-49.805,-39.551,-23.926,-49.316
1626640483.161,-71.289,-55.176,-21.973,-176.758
1626640483.161,-72.266,-36.133,-22.949,-81.055
1626640483.165,-45.898,-20.508,-21.484,70.312
1626640483.169,-45.898,-26.367,-31.250,-0.977
1626640483.173,-61.035,-16.602,-29.297,-157.715
1626640483.177,-55.664,-8.789,-28.320,-109.863
1626640483.181,-41.016,-26.855,-40.527,48.340
1626640483.185,-38.574,-22.461,-41.992,36.621
1626640483.188,-60.547,-26.855,-52.246,-130.859
1626640483.192,-66.406,-33.691,-48.828,-166.504
1626640483.196,-31.250,-42.480,-20.020,14.160
1626640483.200,-31.738,-108.398,-32.227,77.637
1626640483.204,-60.547,-78.613,-52.246,-90.332
1626640483.179,-70.312,-21.973,-43.457,-172.852
1626640483.183,-43.945,-8.789,-26.367,-15.137
1626640483.187,-14.648,-0.977,-14.160,113.770
1626640483.191,-35.645,-17.090,-28.809,-4.883
1626640483.195,-75.195,-19.043,-51.270,-170.898
1626640483.199,-65.918,-18.066,-42.969,-93.750
1626640483.203,-17.090,-17.578,-14.648,89.355
1626640483.206,-9.766,-13.672,-20.996,41.992
1626640483.210,-29.785,-44.434,-30.762,-123.047
1626640483.214,-43.457,-51.758,-24.902,-109.863
1626640483.218,-38.574,-16.113,-33.203,50.781
1626640483.222,-32.715,-16.113,-44.922,65.430
1626640483.238,-54.199,-10.742,-49.805,-104.492
1626640483.242,-53.223,-41.016,-33.691,-143.066
1626640483.246,-11.230,-107.422,-11.719,36.621
1626640483.250,-5.859,-75.195,-9.277,108.887
1626640483.254,-47.363,-17.090,-28.320,-64.941
1626640483.258,-61.035,-26.855,-33.691,-173.340
1626640483.262,-40.527,-17.578,-35.645,-42.969
1626640483.265,-23.438,7.324,-43.457,84.473
1626640483.269,-24.414,-24.902,-32.227,-6.348
1626640483.273,-33.203,-30.762,-22.949,-145.508
1626640483.277,-36.133,-2.441,-35.156,-80.078
1626640483.281,-52.246,-15.137,-66.406,41.992
1626640483.300,-36.133,-18.066,-59.570,20.996
1626640483.304,-18.066,1.953,-21.973,-98.633
1626640483.308,-35.645,-7.324,-20.996,-106.445
1626640483.312,-19.043,-20.508,-23.926,58.105
1626640483.316,-7.812,-18.555,-27.832,96.680
1626640483.320,-29.785,-17.578,-45.410,-69.336
1626640483.324,-36.621,-18.555,-44.434,-135.742
1626640483.327,-28.809,-31.738,-28.320,10.254
1626640483.331,-16.113,-50.781,-18.066,101.562
1626640483.335,-15.137,-39.551,-20.996,-20.020
1626640483.339,-31.738,-10.254,-21.973,-134.277
1626640483.343,-32.227,-18.555,-30.273,-36.621
1626640483.321,-41.504,-39.551,-41.992,79.102
1626640483.325,-37.598,-42.480,-34.668,6.348
1626640483.329,-38.086,-19.043,-36.621,-137.207
1626640483.333,-51.270,-5.859,-32.715,-93.750
1626640483.337,-31.250,-12.207,-17.090,72.754
1626640483.341,-29.785,-19.043,-18.066,53.223
1626640483.345,-41.504,-25.391,-27.344,-108.887
1626640483.348,-39.062,-11.719,-24.414,-117.188
1626640483.352,-29.785,-21.973,-32.715,40.039
1626640483.356,-19.043,-49.805,-37.109,83.496
1626640483.360,-40.039,-50.293,-32.227,-71.289
1626640483.364,-60.547,-36.621,-31.250,-157.227
1626640483.376,-24.414,-25.879,-21.484,2.441
1626640483.380,-21.973,-14.160,-48.340,98.633
1626640483.384,-53.711,-14.160,-53.711,-44.922
1626640483.388,-51.758,-13.672,-34.668,-159.180
1626640483.392,-30.273,-5.859,-36.621,-61.035
1626640483.396,-6.348,-17.578,-22.949,90.820
1626640483.400,-10.742,-21.484,-18.555,26.367
1626640483.403,-39.062,-22.461,-32.715,-150.391
1626640483.407,-31.738,-22.461,-33.203,-111.816
1626640483.411,-12.207,-23.926,-25.879,58.105
1626640483.415,-11.230,-29.297,-29.297,62.012
1626640483.419,-17.578,-38.574,-26.855,-83.008
1626640483.419,-29.785,-40.039,-19.531,-117.676
1626640483.423,-25.391,-31.738,-22.949,26.367
1626640483.427,-18.066,-10.742,-20.996,89.355
1626640483.431,-44.434,-12.695,-21.484,-64.453
1626640483.435,-53.223,-23.438,-22.461,-161.133
1626640483.439,-23.438,-21.484,-26.367,-16.113
1626640483.443,-11.719,-30.762,-34.180,109.375
1626640483.446,-23.926,-31.250,-26.367,3.906
1626640483.450,-41.504,-29.297,-17.090,-141.602
1626640483.454,-53.223,-32.715,-29.297,-77.148
1626640483.458,-51.758,-53.711,-47.852,63.965
1626640483.462,-41.992,-59.570,-32.715,28.809
1626640483.468,-39.551,-27.832,-25.879,-115.723
1626640483.472,-33.203,-22.461,-31.738,-94.238
1626640483.476,-12.207,-26.367,-16.113,70.801
1626640483.480,-12.695,-20.020,-7.324,87.891
1626640483.484,-25.879,-16.113,-13.672,-69.336
1626640483.488,-41.504,-34.668,-30.273,-134.766
1626640483.492,-34.668,-35.156,-36.621,6.348
1626640483.495,-16.113,-33.691,-34.668,96.680
1626640483.499,-31.250,-56.152,-38.574,-43.457
1626640483.503,-43.457,-52.734,-24.414,-155.273
1626640483.507,-34.180,-36.133,-24.902,-33.691
1626640483.511,-26.855,-19.043,-32.227,106.934
1626640483.504,-27.344,-27.344,-25.391,27.344
1626640483.508,-51.270,-60.547,-23.438,-145.020
1626640483.512,-44.434,-48.340,-25.391,-86.914
1626640483.516,-0.488,-25.391,-40.039,101.562
1626640483.520,22.949,-10.254,-17.090,93.750
1626640483.524,-20.020,-24.902,-10.742,-93.750
1626640483.528,-55.176,-35.156,-31.738,-128.418
1626640483.531,-28.809,-20.996,-21.973,44.922
1626640483.535,-20.508,-40.039,-10.254,84.473
1626640483.539,-16.602,-43.945,-4.395,-59.082
1626640483.543,-32.715,-35.156,-23.926,-139.648
1626640483.547,-54.199,-49.316,-41.504,-24.414
1626640483.560,-30.273,-50.781,-47.852,92.285
1626640483.564,-29.785,-37.598,-47.363,-17.578
1626640483.568,-41.016,-17.090,-22.461,-139.160
1626640483.572,-28.320,-12.207,-14.160,-40.527
1626640483.576,-30.273,-113.281,-26.855,89.844
1626640483.580,-40.527,-144.531,-37.109,10.254
1626640483.584,-32.715,-37.598,-30.762,-135.742
1626640483.587,-31.250,-28.320,-26.855,-91.309
1626640483.591,-29.785,-43.945,-29.297,69.336
1626640483.595,-24.902,-41.992,-30.762,64.453
1626640483.599,-31.738,-43.945,-22.949,-99.121
1626640483.603,-39.062,-31.738,-21.484,-133.789
1626640483.620,-15.137,-11.230,-24.414,30.273
1626640483.624,3.906,-5.371,-20.996,89.355
1626640483.628,-37.109,-64.453,-47.363,-88.379
1626640483.632,-64.453,-78.613,-54.688,-179.199
1626640483.636,-25.879,-28.320,-27.344,-12.695
1626640483.640,2.441,-29.297,-24.902,117.676
1626640483.644,-5.371,-12.207,-38.574,2.930
1626640483.647,-28.809,-29.785,-41.992,-144.531
1626640483.651,-49.316,-159.180,-55.176,-88.379
1626640483.655,-23.926,-137.207,-45.410,63.477
1626640483.659,-0.977,-15.625,-19.043,39.062
1626640483.663,-30.762,1.953,-12.695,-128.418
1626640483.674,-27.832,-3.906,-10.742,-100.586
1626640483.678,6.348,-6.836,-23.438,79.590
1626640483.682,-5.371,0.000,-44.922,65.918
1626640483.686,-37.109,-3.906,-41.016,-110.840
1626640483.690,-44.922,-4.395,-28.809,-153.809
1626640483.694,-49.316,-19.531,-28.809,-15.625
1626640483.698,-28.809,-26.367,-20.996,78.613
1626640483.701,-7.812,-2.441,-5.371,-34.668
1626640483.705,-36.133,-25.391,-17.578,-158.691
1626640483.709,-40.527,-27.832,-35.156,-52.246
1626640483.713,-19.043,8.301,-27.344,92.773
1626640483.717,-56.641,-98.145,-52.246,-25.879
1626640483.697,-78.125,-127.441,-59.082,-186.523
1626640483.701,-62.012,-24.902,-41.016,-105.469
1626640483.705,-52.246,-9.766,-45.410,40.527
1626640483.709,-38.574,-0.488,-41.992,7.324
1626640483.713,-52.246,-14.160,-31.738,-148.926
1626640483.717,-42.480,-11.230,-26.367,-139.160
1626640483.721,-2.930,10.254,-30.762,45.410
1626640483.724,10.742,2.441,-29.785,90.820
1626640483.728,-16.602,-13.672,-35.156,-85.449
1626640483.732,-39.062,-72.754,-41.504,-166.016
1626640483.736,-42.969,-170.898,-51.270,-29.785
1626640483.740,-19.531,-103.516,-34.180,89.355
1626640483.739,-17.578,-6.836,-29.297,-19.531
1626640483.743,-57.617,-16.602,-45.410,-170.410
1626640483.747,-56.152,-19.531,-41.016,-76.172
1626640483.751,-26.855,-9.766,-35.156,80.078
1626640483.755,-21.484,-15.625,-34.180,12.695
1626640483.759,-40.527,-22.461,-35.156,-146.484
1626640483.763,-35.645,-6.836,-32.715,-93.750
1626640483.766,-18.066,-35.156,-36.133,73.730
1626640483.770,-20.508,-48.828,-37.109,56.152
1626640483.774,-36.621,-11.230,-33.691,-108.398
1626640483.778,-45.410,-2.930,-24.902,-123.047
1626640483.782,-41.504,-14.160,-38.574,28.809
1626640483.802,-28.320,-41.016,-68.848,71.777
1626640483.806,-35.156,-40.527,-58.594,-76.660
1626640483.810,-46.387,-26.367,-28.320,-160.645
1626640483.814,-23.926,-37.598,-14.648,-19.531
1626640483.818,2.441,-1.465,-5.859,104.492
1626640483.822,-19.531,-5.371,-15.625,-12.695
1626640483.826,-99.121,-154.785,-70.801,-207.520
1626640483.829,-104.492,-192.871,-86.914,-134.277
1626640483.833,-28.320,-42.480,-43.457,81.543
1626640483.837,6.348,30.762,-18.066,61.523
1626640483.841,-14.648,3.418,-24.902,-104.492
1626640483.845,-11.719,-0.977,-21.484,-75.195
1626640483.860,10.742,13.672,-18.066,101.074
1626640483.864,-3.906,-2.441,-24.414,93.750
1626640483.868,-29.297,-8.789,-30.273,-80.566
1626640483.872,-40.527,-8.789,-30.762,-127.930
1626640483.876,-13.184,-11.230,-18.555,34.668
1626640483.880,7.812,-5.859,-12.695,111.816
1626640483.884,-1.953,-21.484,-21.484,-32.227
1626640483.887,-24.414,-42.969,-29.785,-136.719
1626640483.891,-25.391,-13.672,-27.832,-21.973
1626640483.895,-29.785,-68.848,-52.246,73.730
1626640483.899,-49.805,-89.355,-59.570,-29.297
1626640483.903,-36.621,5.859,-28.320,-139.648
1626640483.899,-20.020,1.465,-16.113,-69.336
1626640483.903,-7.812,-9.766,-18.066,81.055
1626640483.907,-15.137,-18.066,-29.297,37.598
1626640483.911,-27.832,-17.090,-23.926,-121.094
1626640483.915,-19.043,8.301,-8.301,-104.980
1626640483.919,-15.625,1.953,-26.855,47.363
1626640483.923,-16.602,-7.324,-29.785,73.242
1626640483.926,-25.879,-26.367,-22.949,-82.520
1626640483.930,-46.875,-42.969,-38.086,-151.367
1626640483.934,-34.668,-30.273,-45.410,-3.418
1626640483.938,-20.996,-33.203,-46.387,96.191
1626640483.942,-21.973,-19.043,-42.480,-30.762
1626640483.936,-43.945,-41.504,-44.922,-153.809
1626640483.940,-79.590,-168.945,-59.570,-73.730
1626640483.944,-55.176,-135.254,-46.387,64.941
1626640483.948,-21.973,-15.137,-26.855,12.207
1626640483.952,-39.062,-5.859,-27.832,-137.207
1626640483.956,-46.387,-10.742,-33.203,-93.262
1626640483.960,-13.672,-14.648,-23.438,85.938
1626640483.963,9.766,-5.371,-18.555,86.426
1626640483.967,-35.156,-22.949,-29.297,-112.793
1626640483.971,-62.988,-17.090,-24.902,-144.043
1626640483.975,-26.855,-10.742,-21.484,32.715
1626640483.979,-31.250,-88.867,-25.879,62.012
1626640484.021,-62.012,-83.496,-40.527,-109.375
1626640484.025,-68.359,-6.348,-36.621,-183.105
1626640484.029,-56.152,4.395,-28.320,-29.297
1626640484.033,-31.738,-2.930,-30.762,98.145
1626640484.037,-35.645,-20.996,-34.180,-21.973
1626640484.041,-64.941,-43.457,-42.480,-179.199
1626640484.045,-69.336,-52.734,-37.109,-91.309
1626640484.048,-48.340,-32.227,-17.090,65.430
1626640484.052,-42.480,-16.602,-12.695,0.000
1626640484.056,-61.523,-27.832,-25.391,-165.039
1626640484.060,-54.688,-21.484,-21.484,-120.117
1626640484.064,-29.297,-17.578,-27.832,58.105
1626640484.023,-14.160,-19.043,-25.879,76.660
1626640484.027,-10.742,-7.812,-8.301,-76.172
1626640484.031,-77.148,-89.844,-56.641,-167.969
1626640484.035,-83.984,-101.074,-72.754,-29.297
1626640484.039,-18.555,1.465,-18.066,83.984
1626640484.043,-40.527,0.488,-27.344,-69.824
1626640484.047,-67.871,-12.207,-45.410,-181.152
1626640484.050,-50.293,-28.809,-38.086,-39.062
1626640484.054,-20.508,-33.691,-25.879,93.262
1626640484.058,-20.996,-30.273,-27.344,-10.254
1626640484.062,-40.039,-32.715,-38.574,-150.879
1626640484.066,-47.363,-35.156,-47.363,-86.914
1626640484.085,-39.062,-43.945,-49.805,64.941
1626640484.089,-33.691,-43.945,-44.434,27.832
1626640484.093,-41.992,-23.926,-32.227,-127.441
1626640484.097,-45.410,-19.531,-28.809,-121.582
1626640484.101,-18.555,-20.020,-19.531,47.852
1626640484.105,-23.438,-60.059,-29.297,59.082
1626640484.109,-69.824,-127.441,-62.988,-144.531
1626640484.112,-68.848,-45.410,-48.340,-193.848
1626640484.116,-39.551,8.301,-26.855,-10.254
1626640484.120,-13.672,-18.066,-21.973,97.168
1626640484.124,-15.137,-7.324,-22.461,-34.668
1626640484.128,-29.297,-10.254,-26.367,-158.691
1626640484.123,-28.320,-21.484,-26.855,-43.945
1626640484.127,-14.648,-19.043,-32.715,91.309
1626640484.131,-13.184,-10.254,-32.227,5.371
1626640484.135,-36.133,-12.207,-26.855,-146.484
1626640484.139,-33.691,-15.625,-24.902,-76.172
1626640484.143,-7.812,-15.625,-29.785,93.750
1626640484.147,-7.324,-38.086,-33.203,54.688
1626640484.150,-25.391,-51.758,-29.785,-116.699
1626640484.154,-28.320,-27.832,-26.367,-112.793
1626640484.158,-43.457,-58.594,-38.574,28.809
1626640484.162,-14.648,-50.781,-18.555,76.172
1626640484.166,7.324,-12.207,0.977,-48.340
1626640484.156,-34.668,-17.578,-31.250,-144.531
1626640484.160,-28.809,-5.859,-43.457,-11.230
1626640484.164,-22.461,-10.742,-26.367,87.891
1626640484.168,-41.504,-15.625,-16.113,-41.016
1626640484.172,-50.781,-14.160,-19.043,-163.086
1626640484.176,-36.133,-20.020,-20.020,-53.223
1626640484.180,-4.395,-0.977,-8.301,109.863
1626640484.183,-58.105,-108.887,-50.293,-11.230
1626640484.187,-113.770,-203.613,-87.891,-209.961
1626640484.191,-40.039,-68.359,-33.203,-96.191
1626640484.195,15.137,9.277,3.418,113.281
1626640484.199,-0.488,5.859,-3.906,74.219
1626640484.245,-38.086,-5.371,-23.438,-126.465
1626640484.249,-39.551,-13.184,-20.508,-140.625
1626640484.253,-25.879,-14.648,-20.020,28.809
1626640484.257,-26.367,-25.879,-35.645,74.707
1626640484.261,-28.320,-20.020,-31.738,-65.430
1626640484.265,-46.875,-52.246,-29.297,-150.879
1626640484.269,-42.969,-62.500,-33.203,-22.461
1626640484.272,-21.973,-24.414,-26.855,99.121
1626640484.276,-40.039,-40.527,-26.855,-19.531
1626640484.280,-41.504,-27.832,-13.672,-145.508
1626640484.284,-18.555,-23.438,-6.348,-50.293
1626640484.288,-6.348,-24.902,-17.578,88.867
1626640484.278,-17.578,-18.066,-25.879,25.879
1626640484.282,-38.574,-34.668,-33.203,-138.184
1626640484.286,-39.551,-20.020,-34.668,-110.352
1626640484.290,-25.391,-21.973,-41.992,53.223
1626640484.294,-24.414,-28.809,-49.316,48.828
1626640484.298,-37.109,-13.184,-43.945,-114.258
1626640484.302,-45.410,-9.277,-31.738,-144.043
1626640484.305,-21.973,-10.742,-32.227,20.020
1626640484.309,0.488,-18.066,-37.598,98.633
1626640484.313,-8.301,-19.531,-22.461,-39.551
1626640484.317,-33.691,-20.508,-21.484,-146.973
1626640484.321,-21.973,-19.043,-34.668,-19.043
1626640484.319,12.207,-6.836,-28.320,120.117
1626640484.323,-6.348,-32.227,-32.227,11.719
1626640484.327,-45.410,-65.430,-55.176,-157.227
1626640484.331,-33.203,-35.156,-34.668,-67.383
1626640484.335,-8.301,-5.859,-9.766,95.215
1626640484.339,0.488,0.000,-11.719,54.199
1626640484.343,-16.602,-11.719,-23.438,-96.680
1626640484.346,-25.391,-22.949,-22.949,-93.750
1626640484.350,8.301,-8.789,-13.184,87.402
1626640484.354,13.672,-16.602,-23.438,110.840
1626640484.358,-31.250,-37.109,-44.922,-72.754
1626640484.362,-61.523,-44.922,-38.574,-148.926
1626640484.364,-59.082,-30.273,-37.598,-11.719
1626640484.368,-26.367,-16.113,-29.785,89.844
1626640484.372,-20.996,-16.602,-13.672,-27.344
1626640484.376,-41.016,-23.438,-19.043,-142.578
1626640484.380,-22.461,-23.438,-21.973,-24.414
1626640484.384,21.973,-18.555,-2.930,141.602
1626640484.388,13.184,-20.020,-6.836,50.293
1626640484.391,-33.691,-38.086,-33.691,-138.672
1626640484.395,-38.086,-49.805,-27.832,-87.891
1626640484.399,-16.113,-36.133,-26.367,82.031
1626640484.403,-12.695,-16.113,-25.391,62.500
1626640484.407,-52.734,-33.203,-35.645,-126.953
1626640484.399,-58.105,-50.293,-40.527,-143.555
1626640484.403,-27.832,-27.832,-29.297,41.016
1626640484.407,-9.766,-24.414,-28.809,103.027
1626640484.411,-20.020,-40.039,-23.438,-50.293
1626640484.415,-50.293,-35.156,-22.461,-141.113
1626640484.419,-31.250,-20.508,-17.578,12.695
1626640484.423,0.977,-11.719,-9.766,126.953
1626640484.426,-23.926,-21.484,-18.555,-15.137
1626640484.430,-45.898,-10.742,-36.133,-156.250
1626640484.434,10.742,83.984,6.348,-13.672
1626640484.438,33.691,86.914,9.277,135.254
1626640484.442,-29.785,-20.508,-44.922,8.789
1626640484.436,-54.688,-33.203,-37.109,-149.414
1626640484.440,-41.992,-22.949,-23.438,-107.422
1626640484.444,-20.996,-33.691,-24.414,58.105
1626640484.448,-14.648,-31.738,-23.926,62.988
1626640484.452,-41.016,-39.062,-39.062,-111.816
1626640484.456,-45.410,-55.176,-42.969,-142.090
1626640484.460,-7.324,-37.598,-19.531,52.734
1626640484.463,18.555,0.977,-18.555,130.859
1626640484.467,-11.230,-15.625,-29.297,-41.992
1626640484.471,-46.387,-35.645,-25.391,-161.621
1626640484.475,-37.109,-27.344,-33.203,-38.574
1626640484.479,-22.949,-21.973,-43.457,84.473
1626640484.521,-35.645,-31.250,-32.227,-17.578
1626640484.525,-46.875,-47.363,-18.066,-151.855
1626640484.529,-35.645,-46.875,-22.949,-67.383
1626640484.533,-6.836,-37.598,-14.648,101.562
1626640484.537,-10.742,-30.762,-18.555,53.223
1626640484.541,-40.527,-31.250,-38.574,-126.465
1626640484.545,-41.016,-37.109,-36.621,-120.117
1626640484.548,-12.695,-39.551,-23.438,54.688
1626640484.552,-1.953,-43.457,-22.461,75.684
1626640484.556,-34.180,-41.992,-37.109,-105.957
1626640484.560,-39.551,-29.297,-42.480,-147.949
1626640484.564,-22.949,-36.621,-41.504,12.207
1626640484.558,-23.926,-48.828,-42.480,83.008
1626640484.562,-32.227,-39.062,-41.016,-53.711
1626640484.566,-46.387,-46.387,-38.086,-163.574
1626640484.570,-32.715,5.859,-30.762,-37.598
1626640484.574,-0.488,32.227,-27.344,112.305
1626640484.578,-2.930,-37.598,-28.809,18.555
1626640484.582,-34.180,-58.105,-25.391,-145.508
1626640484.585,-40.039,-49.316,-24.902,-87.891
1626640484.589,-22.949,-27.832,-35.156,70.801
1626640484.593,-22.461,-15.137,-38.086,46.387
1626640484.597,-44.434,-24.902,-31.250,-125.000
1626640484.601,-56.641,-40.527,-39.062,-144.531
1626640484.603,-40.527,-52.246,-49.805,29.297
1626640484.607,-21.484,-14.160,-40.039,80.566
1626640484.611,-21.973,35.156,-16.113,-63.477
1626640484.615,-42.969,-11.230,-23.926,-140.625
1626640484.619,-38.086,-50.781,-38.574,-12.207
1626640484.623,-30.762,-54.688,-43.457,74.219
1626640484.627,-39.551,-44.434,-37.109,-40.039
1626640484.630,-47.852,-37.109,-34.668,-153.809
1626640484.634,-33.203,-46.875,-27.344,-56.152
1626640484.638,-14.160,-50.781,-21.973,97.656
1626640484.642,-13.672,-52.734,-32.227,28.809
1626640484.646,-44.922,-39.062,-33.203,-142.578
1626640484.650,-25.879,-52.734,-42.969,48.828
1626640484.654,-42.480,-61.523,-38.086,-108.887
1626640484.658,-49.805,-31.738,-37.598,-133.301
1626640484.662,-29.297,-0.488,-30.762,27.344
1626640484.666,-19.531,-12.695,-41.504,81.543
1626640484.669,-31.738,-19.531,-36.621,-65.430
1626640484.673,-51.758,-38.574,-25.391,-158.691
1626640484.677,-52.246,-67.871,-23.926,-30.273
1626640484.681,-17.090,-17.578,-5.859,107.422
1626640484.685,-4.395,29.297,4.883,14.160
1626640484.685,-37.598,-25.391,-12.207,-135.254
1626640484.689,-49.316,-62.500,-31.250,-63.965
1626640484.693,-27.832,-51.270,-31.738,83.496
1626640484.697,-15.137,-37.109,-20.996,35.156
1626640484.701,-37.109,-33.691,-20.508,-127.441
1626640484.705,-53.223,-33.203,-27.344,-115.723
1626640484.709,-29.785,-36.133,-34.668,59.082
1626640484.712,-19.043,-68.359,-40.039,66.406
1626640484.716,-18.555,-27.344,-20.508,-80.078
1626640484.720,-31.738,6.836,-17.090,-126.465
1626640484.724,-43.457,-44.434,-44.922,1.953
1626640484.728,-24.902,-50.781,-52.246,86.914
1626640484.768,-37.109,-46.387,-47.852,-55.664
1626640484.772,-55.664,-61.035,-33.691,-169.434
1626640484.776,-46.875,-65.918,-22.949,-45.898
1626640484.780,-23.926,-39.551,-32.715,85.449
1626640484.784,-16.602,-22.949,-33.203,-7.324
1626640484.788,-44.434,-26.855,-34.180,-157.227
1626640484.792,-32.715,-28.809,-26.367,-75.195
1626640484.795,6.348,-33.203,-3.418,101.074
1626640484.799,-12.207,-34.180,-13.672,43.945
1626640484.803,-43.457,-47.363,-23.438,-133.301
1626640484.807,-38.086,-47.363,-28.320,-125.977
1626640484.811,-24.902,-61.523,-45.898,37.598
1626640484.819,-27.832,-70.801,-44.434,58.105
1626640484.823,-46.387,-51.270,-35.645,-108.398
1626640484.827,-62.988,-57.129,-41.504,-178.223
1626640484.831,-41.016,-51.270,-40.039,-16.602
1626640484.835,-18.066,-42.969,-31.250,89.844
1626640484.839,-32.227,-31.250,-23.926,-43.945
1626640484.843,-50.781,-34.180,-20.508,-157.227
1626640484.846,-35.156,-32.227,-21.484,-35.156
1626640484.850,-9.277,-23.926,-35.156,102.539
1626640484.854,-9.277,-26.367,-43.457,19.531
1626640484.858,-37.109,-37.598,-31.250,-141.602
1626640484.862,-45.410,-56.641,-33.691,-101.562
1626640484.834,-24.414,-48.828,-34.668,65.918
1626640484.838,-27.832,-27.832,-36.133,47.852
1626640484.842,-37.109,-11.230,-37.109,-110.840
1626640484.846,-33.691,-9.277,-22.461,-115.234
1626640484.850,-29.297,-27.344,-22.949,41.504
1626640484.854,-24.902,-41.992,-29.297,71.777
1626640484.858,-33.203,-33.691,-28.809,-84.961
1626640484.861,-57.129,-37.109,-22.461,-161.621
1626640484.865,-35.156,-36.133,-7.324,-8.789
1626640484.869,-7.324,-38.086,-18.066,110.352
1626640484.873,-33.203,-49.805,-33.691,-28.809
1626640484.877,-64.453,-52.246,-30.762,-167.480
1626640484.876,-38.574,-45.898,-27.832,-65.430
1626640484.880,-15.137,-38.086,-33.203,86.426
1626640484.884,-27.344,-49.316,-29.785,22.949
1626640484.888,-45.898,-50.293,-31.738,-124.023
1626640484.892,-51.758,-35.645,-37.598,-87.891
1626640484.896,-32.715,-15.137,-36.133,59.082
1626640484.900,-20.996,-9.766,-30.762,63.477
1626640484.903,-22.949,-16.113,-18.555,-88.867
1626640484.907,-32.715,-21.484,-22.949,-132.812
1626640484.911,-24.414,-20.996,-23.926,24.414
1626640484.915,-8.789,-17.578,-21.973,100.098
1626640484.919,-36.621,-22.949,-37.109,-61.523
1626640484.927,-64.941,-22.949,-39.062,-178.223
1626640484.931,-53.711,-34.668,-36.133,-54.199
1626640484.935,-24.902,-37.598,-29.297,82.031
1626640484.939,-29.785,-41.016,-35.645,-16.113
1626640484.943,-51.758,-42.969,-41.992,-166.992
1626640484.947,-56.152,-29.297,-32.715,-90.820
1626640484.951,-39.551,-26.367,-48.828,67.871
1626640484.954,-26.367,-27.832,-54.199,30.762
1626640484.958,-47.852,-36.621,-35.645,-139.648
1626640484.962,-54.688,-54.688,-21.973,-127.930
1626640484.966,-25.879,-49.316,-18.066,55.176
1626640484.970,-4.395,-33.691,-30.762,75.195
1626640484.984,-30.762,-25.391,-46.875,-94.238
1626640484.988,-64.941,-27.344,-57.617,-157.715
1626640484.992,-40.039,-21.973,-32.715,5.859
1626640484.996,-16.602,-19.043,-12.695,97.168
1626640485.000,-40.527,-39.551,-35.156,-52.734
1626640485.004,-47.852,-39.551,-32.715,-147.949
1626640485.008,-34.668,-23.926,-19.531,-23.926
1626640485.011,-23.438,-36.621,-30.273,96.680
1626640485.015,-9.277,-47.852,-18.066,16.602
1626640485.019,-11.230,-19.531,-10.742,-123.535
1626640485.023,-23.926,-18.066,-28.809,-76.172
1626640485.027,-24.902,-22.949,-33.203,73.242
1626640485.039,-29.785,-19.531,-35.645,26.367
1626640485.043,-51.758,-13.184,-34.180,-142.090
1626640485.047,-53.711,-19.531,-34.180,-141.113
1626640485.051,-24.902,-36.133,-34.180,26.367
1626640485.055,-6.348,-35.156,-35.156,75.684
1626640485.059,-18.066,-39.551,-34.668,-69.336
1626640485.063,-42.969,-52.734,-25.879,-146.484
1626640485.066,-42.480,-36.133,-33.691,-11.719
1626640485.070,-13.672,-7.324,-22.461,101.074
1626640485.074,-16.113,-11.719,-14.160,-27.832
1626640485.078,-58.594,-25.391,-41.504,-173.340
1626640485.082,-40.039,-20.996,-32.715,-59.570
1626640485.062,5.859,-20.020,-15.625,111.816
1626640485.066,-12.695,-30.273,-31.250,26.367
1626640485.070,-44.434,-37.598,-50.781,-146.973
1626640485.074,-26.367,-21.484,-37.109,-81.543
1626640485.078,10.742,-17.090,-14.648,115.234
1626640485.082,2.930,-42.969,-37.598,90.332
1626640485.086,-39.551,-49.316,-51.758,-109.863
1626640485.089,-67.383,-52.246,-39.551,-152.344
1626640485.093,-57.617,-42.969,-42.480,3.906
1626640485.097,-26.855,-10.742,-33.691,69.824
1626640485.101,-38.574,-6.836,-24.902,-72.266
1626640485.105,-68.359,-18.066,-32.715,-166.504
1626640485.136,-31.738,-1.465,-21.973,-17.090
1626640485.140,13.184,-4.883,-13.184,119.141
1626640485.144,9.766,0.000,-15.137,14.648
1626640485.148,-14.160,10.254,-19.531,-128.906
1626640485.152,-10.742,-20.020,-20.020,-44.434
1626640485.156,4.395,-17.090,-21.973,108.887
1626640485.160,1.465,-5.859,-34.180,44.434
1626640485.163,-5.371,-4.395,-23.926,-104.492
1626640485.167,0.000,-14.648,-7.324,-78.613
1626640485.171,6.836,-23.926,-10.742,77.148
1626640485.175,-2.441,-18.066,-33.203,75.195
1626640485.179,-21.973,-14.160,-53.711,-108.398
1626640485.141,-26.367,-15.625,-45.898,-146.484
1626640485.145,-7.324,-16.602,-28.809,28.320
1626640485.149,-3.906,-28.809,-29.785,96.680
1626640485.153,-24.902,-43.945,-39.551,-50.293
1626640485.157,-34.180,-37.598,-27.832,-154.297
1626640485.161,-14.648,-23.438,-17.090,-22.461
1626640485.165,-6.836,-21.973,-32.227,102.051
1626640485.168,-24.414,-25.391,-42.480,-12.695
1626640485.172,-38.086,-29.297,-37.598,-158.203
1626640485.176,-28.320,-25.879,-27.344,-76.660
1626640485.180,-0.488,-20.020,-21.484,97.656
1626640485.184,3.906,-22.461,-24.414,65.430
1626640485.220,-34.180,-20.508,-38.574,-125.000
1626640485.224,-40.039,-22.949,-34.180,-126.465
1626640485.228,-13.184,-25.879,-26.855,50.781
1626640485.232,-32.227,-36.133,-44.434,57.617
1626640485.236,-40.527,-34.180,-35.156,-94.238
1626640485.240,-20.020,-26.855,-8.789,-123.047
1626640485.244,-32.227,-42.969,-13.672,4.395
1626640485.247,-35.645,-48.340,-34.668,73.242
1626640485.251,-50.781,-30.762,-39.551,-61.523
1626640485.255,-66.406,-29.297,-25.391,-174.805
1626640485.259,-37.598,-31.250,-10.742,-47.363
1626640485.263,-36.133,-27.344,-25.879,78.613
1626640485.256,-46.387,-34.180,-43.945,-11.719
1626640485.260,-53.223,-46.387,-40.039,-162.598
1626640485.264,-37.598,-41.504,-22.949,-101.562
1626640485.268,-25.391,-36.133,-32.715,64.453
1626640485.272,-41.992,-37.109,-48.340,32.715
1626640485.276,-47.852,-32.227,-34.180,-127.930
1626640485.280,-43.945,-33.203,-29.785,-134.277
1626640485.283,-26.367,-25.879,-28.320,34.668
1626640485.287,-7.324,-8.301,-22.461,92.773
1626640485.291,-38.574,-16.602,-33.203,-77.637
1626640485.295,-64.941,-39.551,-47.852,-166.504
1626640485.299,-48.828,-49.316,-61.523,-20.508
1626640485.296,-21.973,-22.461,-42.480,103.516
1626640485.300,-23.926,4.883,-22.949,-11.230
1626640485.304,-66.406,-22.461,-38.574,-171.387
1626640485.308,-58.594,-30.273,-45.410,-81.055
1626640485.312,-15.625,-13.184,-27.344,95.703
1626640485.316,-21.973,-28.320,-27.832,35.156
1626640485.320,-39.062,-25.391,-29.785,-130.859
1626640485.323,-32.227,-14.648,-27.832,-92.773
1626640485.327,-19.531,-21.484,-22.461,78.125
1626640485.331,-26.367,-51.758,-26.855,63.965
1626640485.335,-40.527,-71.289,-26.367,-110.352
1626640485.339,-45.898,-47.852,-19.531,-143.066
1626640485.341,-37.598,-37.109,-37.598,5.371
1626640485.345,-22.949,-36.133,-47.852,74.219
1626640485.349,-29.297,-34.668,-38.574,-60.059
1626640485.353,-37.109,-35.645,-19.531,-147.461
1626640485.357,-27.832,-13.184,-19.531,-16.602
1626640485.361,-26.367,-5.371,-43.457,93.262
1626640485.365,-38.086,-21.973,-52.734,-21.973
1626640485.368,-53.711,-38.086,-40.039,-165.527
1626640485.372,-41.016,-40.039,-29.297,-73.242
1626640485.376,1.953,-32.715,-12.695,109.863
1626640485.380,-6.348,-41.992,-7.324,58.594
1626640485.384,-55.664,-43.457,-28.320,-136.230
1626640485.399,-62.012,-26.855,-47.363,-135.254
1626640485.403,-47.363,-44.922,-57.617,16.602
1626640485.407,-24.414,-41.504,-36.133,55.664
1626640485.411,-18.066,0.000,-12.207,-82.520
1626640485.415,-34.180,-20.020,-15.137,-154.297
1626640485.419,-45.898,-54.688,-27.832,-28.320
1626640485.423,-48.340,-41.016,-41.504,46.387
1626640485.426,-50.781,-45.898,-45.410,-82.520
1626640485.430,-50.293,-98.145,-36.133,-178.223
1626640485.434,-29.785,-83.984,-27.344,-63.965
1626640485.438,-19.531,-28.809,-26.855,61.523
1626640485.442,-29.785,-32.227,-34.180,-30.762
1626640485.436,-49.316,-37.109,-43.945,-187.500
1626640485.440,-37.598,-21.484,-36.133,-122.070
1626640485.444,-3.906,-10.742,-20.020,60.059
1626640485.448,-23.926,-20.996,-37.109,21.973
1626640485.452,-53.711,-22.949,-41.016,-157.715
1626640485.456,-39.551,-28.320,-32.227,-145.996
1626640485.460,-25.879,-41.504,-48.340,15.625
1626640485.463,-21.973,-35.645,-56.152,47.852
1626640485.467,-36.621,-28.320,-51.758,-103.027
1626640485.471,-49.805,-31.738,-35.156,-175.781
1626640485.475,-21.973,-27.832,-15.625,-15.625
1626640485.479,7.324,-7.324,-7.324,103.027
1626640485.496,-8.789,-1.953,-13.672,-25.391
1626640485.500,-51.758,-22.949,-36.133,-172.852
1626640485.504,-49.805,-26.367,-46.875,-82.520
1626640485.508,-5.859,-12.695,-40.039,83.984
1626640485.512,-20.508,-23.926,-47.852,10.742
1626640485.516,-51.758,-44.434,-51.758,-146.484
1626640485.520,-29.785,-24.902,-44.434,-84.473
1626640485.523,-1.953,-14.160,-40.039,83.008
1626640485.527,-17.090,-50.293,-23.926,72.754
1626640485.531,-46.875,-28.809,-6.836,-92.285
1626640485.535,-67.383,6.836,-13.184,-127.930
1626640485.539,-58.105,-34.180,-25.879,28.809
1626640485.519,-29.297,-40.527,-15.137,100.586
1626640485.523,-47.852,-35.645,-22.949,-53.223
1626640485.527,-72.754,-34.180,-35.156,-150.879
1626640485.531,-48.340,-34.668,-22.461,-8.789
1626640485.535,-21.484,-39.551,-8.789,121.582
1626640485.539,-29.785,-52.734,-8.789,13.184
1626640485.543,-72.266,-80.566,-24.414,-146.484
1626640485.546,-71.777,-62.988,-32.227,-72.266
1626640485.550,-36.621,-32.715,-39.062,89.844
1626640485.554,-33.691,-21.973,-37.109,40.527
1626640485.558,-41.992,-18.066,-22.949,-113.281
1626640485.562,-51.270,-20.020,-39.551,-103.027
1626640485.597,-37.109,-43.945,-43.457,62.988
1626640485.601,-28.809,-46.875,-22.461,72.754
1626640485.605,-50.781,-34.180,-12.207,-101.562
1626640485.609,-48.828,-39.551,-3.418,-126.465
1626640485.613,-31.738,-37.598,-12.207,39.062
1626640485.617,-18.555,-34.668,-23.926,112.793
1626640485.621,-34.668,-35.156,-20.996,-31.250
1626640485.624,-59.082,-37.598,-20.508,-147.949
1626640485.628,-39.551,-30.273,-14.648,-19.043
1626640485.632,-15.137,-16.602,-7.324,122.559
1626640485.636,-24.902,-27.344,-17.578,5.371
1626640485.640,-47.852,-37.109,-33.691,-152.344
1626640485.636,-42.480,-25.879,-22.461,-70.801
1626640485.640,-18.066,-20.508,-14.648,100.098
1626640485.644,-20.996,-24.902,-33.203,64.453
1626640485.648,-50.293,-32.227,-41.992,-108.887
1626640485.652,-52.246,-31.250,-42.969,-115.234
1626640485.656,-10.254,-54.688,-24.902,69.824
1626640485.660,7.324,-63.965,-8.301,120.605
1626640485.663,-44.922,-41.504,-22.949,-81.543
1626640485.667,-72.266,-32.227,-22.949,-168.457
1626640485.671,-40.039,-29.297,-13.672,-9.277
1626640485.675,-28.320,-9.766,-16.602,82.520
1626640485.679,-40.527,-19.043,-24.902,-52.734
1626640485.659,-55.176,-34.180,-26.855,-182.617
1626640485.663,-33.691,-29.785,-12.695,-52.246
1626640485.667,-7.324,-40.527,-16.113,115.234
1626640485.671,-25.879,-41.016,-37.109,22.461
1626640485.675,-46.387,-44.922,-39.062,-148.926
1626640485.679,-56.641,-43.945,-36.133,-106.934
1626640485.683,-51.758,-46.875,-39.062,50.781
1626640485.686,-15.137,-67.871,-13.184,54.199
1626640485.690,-20.020,-56.152,-8.789,-103.027
1626640485.694,-46.875,-29.297,-25.879,-137.207
1626640485.698,-32.227,-14.160,-16.602,26.855
1626640485.702,-32.715,-11.719,-33.691,74.219
1626640485.768,-36.621,-47.363,-40.527,-73.730
1626640485.772,-44.922,-88.379,-24.902,-154.297
1626640485.776,-38.086,-57.617,-34.180,-21.484
1626640485.780,-7.324,-29.297,-39.551,99.609
1626640485.784,-18.066,-46.875,-36.621,-9.277
1626640485.788,-51.758,-44.434,-46.387,-156.250
1626640485.792,-39.062,-12.207,-41.504,-68.848
1626640485.795,-28.320,-14.160,-54.199,79.102
1626640485.799,-33.203,-39.062,-64.453,18.555
1626640485.803,-20.020,-16.602,-23.438,-118.164
1626640485.807,-13.184,-12.207,0.000,-82.520
1626640485.811,-19.531,-38.086,-30.762,56.152
1626640485.768,-28.809,-26.855,-55.664,43.457
1626640485.772,-49.316,-12.695,-52.734,-124.512
1626640485.776,-51.758,-26.855,-37.598,-156.738
1626640485.780,-38.086,-64.453,-28.320,10.254
1626640485.784,-28.320,-51.758,-34.180,78.125
1626640485.788,-40.039,-18.066,-37.109,-71.777
1626640485.792,-43.457,-13.184,-34.180,-162.598
1626640485.795,-28.320,-20.508,-27.344,-34.668
1626640485.799,-13.184,-41.504,-21.973,87.891
1626640485.803,-27.344,-41.992,-34.668,-23.438
1626640485.807,-66.895,-29.297,-48.340,-187.012
1626640485.811,-56.152,-30.273,-38.574,-101.074
1626640485.815,-31.738,-17.090,-30.762,66.406
1626640485.819,-44.434,-32.715,-32.715,17.090
1626640485.823,-60.059,-62.988,-37.109,-144.043
1626640485.827,-66.406,-42.969,-45.898,-136.719
1626640485.831,-39.551,-29.297,-37.109,34.180
1626640485.835,-19.043,-28.320,-26.367,65.918
1626640485.839,-39.551,-25.391,-30.762,-99.609
1626640485.842,-48.340,-89.844,-19.531,-157.715
1626640485.846,-23.926,-130.371,-13.672,4.395
1626640485.850,-13.672,-73.242,-32.715,93.750
1626640485.854,-33.203,-21.973,-44.922,-53.711
1626640485.858,-51.758,-20.020,-46.387,-177.734
1626640485.879,-53.711,-33.203,-46.875,-69.824
1626640485.883,-23.438,-29.785,-23.438,83.496
1626640485.887,-20.508,-32.227,-5.859,7.812
1626640485.891,-47.852,-26.855,-19.531,-153.320
1626640485.895,-55.176,-17.090,-33.203,-99.609
1626640485.899,-25.879,-68.359,-24.414,74.707
1626640485.903,-32.227,-71.289,-26.855,41.016
1626640485.906,-56.641,-15.625,-38.086,-132.324
1626640485.910,-49.805,-14.648,-41.016,-134.766
1626640485.914,-27.344,-24.414,-36.133,31.250
1626640485.918,3.418,-31.738,-11.230,98.145
1626640485.922,-14.160,-27.832,-11.230,-62.012
1626640485.900,-56.152,-31.738,-34.668,-163.086
1626640485.904,-34.668,-23.926,-31.250,-6.836
1626640485.908,-4.395,-12.695,-22.461,110.352
1626640485.912,-20.996,-56.641,-27.832,-18.066
1626640485.916,-45.410,-71.289,-31.250,-155.762
1626640485.920,-43.945,-33.203,-32.227,-58.594
1626640485.924,-23.438,-15.137,-29.785,97.168
1626640485.927,-25.391,-9.766,-33.203,17.090
1626640485.931,-35.156,-18.555,-27.344,-142.090
1626640485.935,-24.902,-24.414,-18.555,-91.309
1626640485.939,-11.719,-6.836,-17.090,73.730
1626640485.943,-10.742,-3.418,-22.949,67.871
1626640485.956,-25.879,-4.395,-29.785,-103.516
1626640485.960,-31.738,-12.695,-30.762,-138.184
1626640485.964,-10.254,-71.289,-26.367,29.785
1626640485.968,-6.348,-75.684,-24.902,87.891
1626640485.972,-24.902,-23.926,-25.879,-63.965
1626640485.976,-37.598,-28.809,-19.531,-144.043
1626640485.980,-11.719,-28.320,-18.555,6.348
1626640485.983,-1.953,-41.016,-25.879,115.234
1626640485.987,-22.949,-31.738,-25.391,-12.695
1626640485.991,-61.035,-5.371,-33.203,-167.969
1626640485.995,-67.383,-7.812,-41.992,-100.098
1626640485.999,-33.691,-8.789,-36.621,65.430
1626640486.000,-17.090,-29.297,-37.598,34.180
1626640486.004,-38.086,-26.855,-41.016,-135.742
1626640486.008,-34.668,-2.441,-28.320,-115.723
1626640486.012,-0.977,11.719,-24.902,62.012
1626640486.016,-10.254,-20.020,-38.574,60.059
1626640486.020,-36.133,-33.203,-35.645,-110.840
1626640486.024,-39.062,-14.648,-25.879,-152.832
1626640486.027,-34.668,-25.391,-25.879,-2.441
1626640486.031,-32.715,-28.320,-28.320,83.008
1626640486.035,-33.203,-23.926,-27.832,-42.480
1626640486.039,-45.898,-37.598,-32.227,-161.133
1626640486.043,-35.645,-28.809,-29.297,-39.062
1626640486.045,-7.812,-13.672,-11.719,110.352
1626640486.049,-17.090,-17.578,-16.602,4.883
1626640486.053,-47.363,-16.113,-32.715,-162.109
1626640486.057,-32.715,-11.719,-21.973,-82.520
1626640486.061,3.418,-23.926,-10.742,100.586
1626640486.065,3.906,-35.645,-22.461,72.754
1626640486.069,-28.320,-30.273,-26.367,-113.281
1626640486.072,-42.969,-20.020,-24.414,-124.512
1626640486.076,-23.926,-47.852,-31.738,41.504
1626640486.080,1.953,-116.699,-25.879,81.543
1626640486.084,-13.184,-97.656,-19.531,-69.824
1626640486.088,-44.922,-40.039,-34.180,-153.809
1626640486.120,-30.273,-25.879,-39.062,-11.230
1626640486.124,-19.531,-18.555,-39.551,90.820
1626640486.128,-36.621,-20.020,-37.109,-44.434
1626640486.132,-53.223,-26.367,-35.645,-170.410
1626640486.136,-41.504,-23.438,-32.227,-52.246
1626640486.140,-18.066,-9.766,-37.598,88.867
1626640486.144,-11.230,-31.250,-33.691,13.184
1626640486.147,-43.945,-74.219,-26.855,-146.973
1626640486.151,-48.828,-50.781,-27.344,-105.469
1626640486.155,-27.832,-30.762,-33.691,59.082
1626640486.159,-33.691,-39.551,-41.992,44.922
1626640486.163,-51.758,-44.434,-47.852,-116.699
1626640486.137,-47.363,-24.414,-33.691,-129.395
1626640486.141,-16.113,-0.488,-24.414,40.527
1626640486.145,-14.648,-15.625,-30.273,83.984
1626640486.149,-36.133,-35.645,-34.180,-84.473
1626640486.153,-38.086,-23.926,-33.691,-164.551
1626640486.157,-20.996,-10.254,-32.715,-12.207
1626640486.161,0.488,2.930,-28.320,115.234
1626640486.164,-11.230,-1.465,-19.043,-2.930
1626640486.168,-51.270,-29.297,-27.344,-160.645
1626640486.172,-46.875,-40.527,-35.645,-72.266
1626640486.176,-10.742,-31.250,-39.062,96.191
1626640486.180,-20.508,-36.133,-47.363,34.668
1626640486.177,-42.480,-27.832,-34.668,-136.719
1626640486.181,-39.551,-13.672,-20.020,-104.492
1626640486.185,-30.762,-35.156,-29.297,56.152
1626640486.189,-19.531,1.465,-22.949,61.035
1626640486.193,-32.227,28.320,-28.320,-102.051
1626640486.197,-41.016,-6.836,-32.227,-140.137
1626640486.201,-21.973,-18.066,-18.555,26.367
1626640486.204,-23.438,-35.156,-28.320,84.473
1626640486.208,-35.156,-27.344,-54.199,-66.406
1626640486.212,-73.730,-28.320,-70.801,-173.828
1626640486.216,-62.012,-25.879,-52.246,-48.828
1626640486.220,-13.184,-29.297,-32.227,90.332
1626640486.249,-20.508,-55.176,-19.531,-11.230
1626640486.253,-46.387,-48.828,-7.324,-159.668
1626640486.257,-53.223,-37.598,-17.090,-92.773
1626640486.261,-44.922,-42.480,-42.480,62.012
1626640486.265,-40.039,-31.250,-40.527,31.250
1626640486.269,-46.387,-19.531,-26.855,-130.859
1626640486.273,-47.852,-46.875,-29.297,-123.047
1626640486.276,-32.715,-52.734,-36.621,45.898
1626640486.280,-16.113,-32.227,-29.297,79.590
1626640486.284,-40.039,-28.809,-39.062,-94.238
1626640486.288,-72.754,-23.926,-49.805,-176.270
1626640486.292,-42.969,-46.387,-35.156,-8.301
1626640486.285,-19.531,-54.199,-27.832,99.121
1626640486.289,-36.621,-37.598,-23.926,-37.109
1626640486.293,-55.176,-49.805,-20.996,-160.645
1626640486.297,-43.945,-36.133,-22.949,-49.805
1626640486.301,-22.949,-26.367,-20.508,90.332
1626640486.305,-31.250,-29.785,-23.926,2.930
1626640486.309,-40.527,-24.902,-20.508,-140.625
1626640486.312,-42.969,-34.668,-23.926,-92.773
1626640486.316,-33.203,-35.156,-38.086,62.988
1626640486.320,-24.902,-44.922,-33.203,47.852
1626640486.324,-30.273,-63.965,-24.902,-113.281
1626640486.328,-25.391,-56.152,-26.367,-120.605
1626640486.340,-9.766,-27.832,-20.996,46.387
1626640486.344,-16.602,-25.391,-27.344,87.891
1626640486.348,-23.926,-29.297,-36.133,-67.871
1626640486.352,-24.414,-29.785,-34.180,-138.184
1626640486.356,-29.785,-36.621,-23.438,-3.418
1626640486.360,-32.227,-34.180,-8.301,87.402
1626640486.364,-40.527,-33.203,-15.625,-35.156
1626640486.367,-56.152,-37.598,-30.762,-171.875
1626640486.371,-35.645,-52.246,-22.949,-63.965
1626640486.375,-11.230,-64.941,-25.879,96.191
1626640486.379,-27.832,-42.969,-30.273,16.602
1626640486.383,-52.246,-41.016,-17.090,-146.484
1626640486.376,-51.270,-55.664,-16.602,-104.492
1626640486.380,-28.809,-39.062,-24.902,66.895
1626640486.384,-14.648,-6.348,-22.461,71.289
1626640486.388,-30.762,-10.742,-19.043,-98.145
1626640486.392,-48.828,-25.879,-17.090,-144.531
1626640486.396,-28.320,-20.020,-12.695,20.020
1626640486.400,-19.531,-7.812,-20.508,85.938
1626640486.403,-36.621,-12.695,-25.391,-58.105
1626640486.407,-57.129,-38.086,-29.785,-156.738
1626640486.411,-48.340,-40.039,-41.016,-40.039
1626640486.415,-22.949,-23.926,-41.016,83.984
1626640486.419,-22.949,-24.902,-41.016,-10.254
1626640486.419,-51.758,-46.875,-48.340,-155.273
1626640486.423,-58.594,-58.105,-49.805,-80.566
1626640486.427,-21.973,-37.109,-32.227,79.102
1626640486.431,-5.859,-18.066,-5.859,36.133
1626640486.435,-41.504,-24.414,-22.949,-141.602
1626640486.439,-48.340,-46.875,-40.527,-125.977
1626640486.443,-16.113,-43.457,-23.438,62.500
1626640486.446,-9.766,-22.949,-15.625,82.520
1626640486.450,-40.527,-41.016,-36.133,-97.168
1626640486.454,-59.570,-45.410,-44.922,-160.156
1626640486.458,-29.785,32.227,-33.691,0.000
1626640486.462,-20.020,31.738,-30.762,83.008
1626640486.472,-46.875,-35.156,-45.410,-66.895
1626640486.476,-53.711,-27.344,-43.457,-171.875
1626640486.480,-20.508,-27.832,-23.926,-23.926
1626640486.484,-0.488,-50.781,-30.273,107.910
1626640486.488,-25.391,-42.480,-34.668,-15.137
1626640486.492,-46.387,-29.785,-33.203,-172.363
1626640486.496,-31.738,-24.902,-32.227,-85.449
1626640486.499,-11.719,-42.480,-34.180,91.797
1626640486.503,-7.324,-64.941,-33.691,52.734
1626640486.507,-29.785,-45.898,-27.832,-126.953
1626640486.511,-40.039,-32.715,-24.902,-131.348
1626640486.515,-16.602,-28.809,-21.484,42.969
1626640486.518,-11.230,-42.480,-37.598,85.449
1626640486.522,-34.180,-51.758,-43.457,-81.055
1626640486.526,-46.387,-26.367,-29.297,-147.461
1626640486.530,-28.809,-24.414,-30.273,5.371
1626640486.534,-13.184,-22.949,-27.344,109.375
1626640486.538,-30.273,-32.227,-39.062,-20.996
1626640486.542,-38.086,-27.832,-46.875,-142.578
1626640486.545,-17.578,8.301,-33.203,-33.203
1626640486.549,-14.160,-19.531,-36.133,94.238
1626640486.553,-13.184,-42.969,-27.832,28.320
1626640486.557,-17.090,-32.227,-18.066,-112.305
1626640486.561,-37.109,-40.527,-37.598,-91.309
1626640486.577,-14.160,-38.574,-38.086,68.848
1626640486.581,-12.207,-39.551,-31.738,50.293
1626640486.585,-58.105,-60.059,-40.039,-135.742
1626640486.589,-64.941,-50.293,-33.691,-155.762
1626640486.593,-37.109,-22.949,-23.438,27.832
1626640486.597,-24.414,-23.926,-25.879,89.355
1626640486.601,-39.551,-43.457,-40.527,-78.125
1626640486.604,-56.641,-57.617,-41.992,-164.062
1626640486.608,-27.832,-50.293,-29.785,-6.348
1626640486.612,8.301,-67.383,-13.672,119.141
1626640486.616,-17.090,-77.637,-16.113,-7.324
1626640486.620,-63.965,-41.992,-37.109,-177.246
1626640486.625,-56.152,-30.273,-31.250,-91.309
1626640486.629,-14.160,-19.043,-8.301,94.238
1626640486.633,-3.906,-4.395,-3.418,48.828
1626640486.637,-50.293,-18.555,-25.391,-137.207
1626640486.641,-75.195,-41.504,-41.016,-132.812
1626640486.645,-48.340,-40.039,-45.410,35.645
1626640486.649,-35.645,-36.133,-42.480,41.016
1626640486.652,-41.992,-45.410,-28.809,-116.211
1626640486.656,-40.039,-50.293,-18.066,-146.484
1626640486.660,-19.043,-43.457,-7.812,18.066
1626640486.664,-4.883,-34.180,-12.695,97.656
1626640486.668,-34.180,-37.109,-37.109,-60.059
1626640486.657,-56.152,-29.785,-47.363,-173.828
1626640486.661,-18.555,-50.781,-20.996,-20.996
1626640486.665,-12.695,-68.359,-16.602,104.492
1626640486.669,-45.898,-33.203,-30.762,-24.414
1626640486.673,-62.012,-25.879,-26.855,-171.387
1626640486.677,-52.734,-32.227,-16.602,-96.680
1626640486.681,-20.996,-37.109,-17.090,67.871
1626640486.684,-12.695,-29.297,-12.207,41.504
1626640486.688,-37.109,-41.016,-11.719,-122.070
1626640486.692,-47.852,-39.551,-25.391,-129.395
1626640486.696,-31.738,-21.973,-46.387,31.738
1626640486.700,-12.695,-84.961,-53.223,75.195
1626640486.703,-29.297,-102.051,-38.574,-88.867
1626640486.707,-73.242,-42.969,-53.223,-188.477
1626640486.711,-45.898,-21.973,-44.922,-19.531
1626640486.715,-24.902,-18.555,-20.020,90.332
1626640486.719,-41.016,-25.391,-21.973,-56.152
1626640486.723,-57.129,-24.902,-16.602,-173.340
1626640486.727,-41.992,-17.578,-9.766,-45.898
1626640486.730,-19.531,-23.438,-19.531,103.516
1626640486.734,-27.832,-35.645,-32.715,6.348
1626640486.738,-43.457,-53.711,-25.879,-150.391
1626640486.742,-47.852,-46.387,-24.902,-103.027
1626640486.746,-35.156,-13.672,-37.598,55.664
1626640486.740,-28.320,-10.254,-35.645,42.969
1626640486.744,-42.969,-10.742,-33.691,-120.117
1626640486.748,-50.781,-27.344,-35.645,-137.695
1626640486.752,-22.949,-23.438,-17.090,36.621
1626640486.756,-13.184,-20.020,-17.578,84.473
1626640486.760,-29.297,-39.551,-41.992,-73.730
1626640486.764,-57.129,-35.645,-52.246,-166.504
1626640486.767,-26.855,-23.926,-28.320,-11.719
1626640486.771,33.203,-49.805,8.301,147.461
1626640486.775,14.160,-62.500,6.836,23.926
1626640486.779,-39.551,-33.203,-27.832,-146.973
1626640486.783,-55.664,-18.555,-48.340,-77.637
1626640486.823,-32.715,-18.555,-42.480,72.754
1626640486.827,-34.668,-28.320,-38.574,11.719
1626640486.831,-55.664,-17.090,-35.156,-156.738
1626640486.835,-39.062,-9.766,-25.879,-108.398
1626640486.839,-15.625,-13.672,-31.738,63.965
1626640486.843,-13.672,-7.324,-33.203,64.941
1626640486.847,-3.418,-61.035,-7.812,-66.895
1626640486.850,-20.020,-103.516,-20.020,-120.117
1626640486.854,-25.391,-41.016,-30.273,16.113
1626640486.858,-5.859,-7.812,-22.461,94.727
1626640486.862,-19.043,-15.137,-45.410,-53.223
1626640486.866,-28.320,-25.391,-37.598,-145.020
1626640486.858,-2.930,-10.254,-17.090,-2.441
1626640486.862,14.160,0.488,-30.273,118.652
1626640486.866,-6.348,-10.742,-45.898,-10.254
1626640486.870,-25.879,-23.926,-39.551,-150.879
1626640486.874,-10.742,-22.461,-34.180,-59.570
1626640486.878,8.789,-36.621,-39.551,97.168
1626640486.882,-1.465,-40.527,-47.852,47.852
1626640486.885,-22.949,-23.926,-56.152,-123.535
1626640486.889,-32.715,-15.625,-47.363,-117.188
1626640486.893,-31.250,-16.602,-40.527,47.852
1626640486.897,-18.555,-25.879,-36.133,74.707
1626640486.901,-19.531,-26.367,-20.996,-85.449
1626640486.878,-34.668,-20.508,-14.648,-135.254
1626640486.882,-29.785,-12.207,-22.949,10.742
1626640486.886,-3.906,-27.832,-14.648,99.609
1626640486.890,17.578,-25.879,1.953,-5.859
1626640486.894,-25.879,-14.160,-28.320,-140.137
1626640486.898,-60.059,-28.809,-47.363,-52.734
1626640486.902,-48.340,-34.668,-48.340,74.219
1626640486.905,-31.738,-54.688,-45.410,-4.883
1626640486.909,-50.781,-51.758,-47.363,-155.273
1626640486.913,-57.129,-21.484,-41.504,-101.074
1626640486.917,-31.738,-22.461,-24.902,71.289
1626640486.921,-20.996,-14.648,-25.391,49.316
1626640486.980,-35.156,-15.625,-28.809,-124.023
1626640486.984,-32.715,-6.836,-25.879,-122.559
1626640486.988,-10.742,3.906,-22.461,60.547
1626640486.992,-3.418,-19.043,-24.414,95.215
1626640486.996,-25.879,-32.715,-40.039,-77.148
1626640487.000,-37.598,-15.137,-36.621,-142.090
1626640487.004,-29.297,7.324,-25.879,6.348
1626640487.007,-42.969,-29.297,-48.340,76.660
1626640487.011,-26.367,-44.434,-43.457,-43.945
1626640487.015,-24.414,-59.570,-18.066,-155.762
1626640487.019,-37.598,-55.664,-33.203,-57.617
1626640487.023,-25.879,-9.766,-49.805,83.984
1626640487.005,-24.902,-13.184,-28.809,11.719
1626640487.009,-42.969,-24.414,-13.184,-142.090
1626640487.013,-53.711,-22.461,-28.320,-112.305
1626640487.017,-35.156,-33.691,-31.250,60.059
1626640487.021,-5.371,-27.344,-16.602,71.777
1626640487.025,-32.227,-25.391,-25.391,-104.980
1626640487.029,-61.523,-48.340,-43.457,-150.879
1626640487.032,-29.785,-70.312,-40.039,13.184
1626640487.036,-7.812,-44.434,-34.668,80.566
1626640487.040,-17.578,-15.625,-36.621,-57.129
1626640487.044,-26.855,-11.719,-30.273,-138.184
1626640487.048,-25.879,-16.602,-20.996,-8.301
1626640487.036,-15.137,-26.855,-12.695,108.398
1626640487.040,-6.836,-20.996,-5.859,8.301
1626640487.044,-28.809,-20.996,-13.672,-131.348
1626640487.048,-48.340,-36.621,-40.527,-76.660
1626640487.052,-29.297,-31.250,-51.758,74.219
1626640487.056,-23.438,-31.250,-43.945,32.715
1626640487.060,-56.152,-16.113,-36.133,-147.461
1626640487.063,-54.199,-94.727,-23.926,-129.395
1626640487.067,-14.648,-141.113,-12.207,63.965
1626640487.071,-4.395,-43.457,-19.531,78.613
1626640487.075,-40.527,-43.945,-35.156,-104.492
1626640487.079,-57.617,-37.598,-34.668,-153.809
1626640487.077,-22.461,-10.742,-16.602,31.250
1626640487.081,-5.371,-48.828,-33.203,115.234
1626640487.085,-2.441,-58.594,-44.922,-30.762
1626640487.089,-30.273,-35.645,-34.668,-141.602
1626640487.093,-43.457,-21.973,-35.156,-38.574
1626640487.097,-20.508,-17.578,-26.855,92.773
1626640487.101,-22.461,-13.184,-23.438,-0.488
1626640487.104,-26.855,-5.859,-27.344,-136.719
1626640487.108,-17.578,-18.066,-27.832,-70.801
1626640487.112,3.906,-18.066,-22.461,91.309
1626640487.116,19.043,-1.953,-19.531,75.195
1626640487.120,9.766,12.207,-11.719,-85.449
1626640487.118,-4.395,-22.461,-20.508,-92.773
1626640487.122,-0.977,-36.133,-38.086,69.824
1626640487.126,-13.672,-33.203,-42.969,85.449
1626640487.130,-44.434,-39.062,-47.363,-99.121
1626640487.134,-54.199,-30.762,-43.457,-160.156
1626640487.138,-31.738,-41.992,-40.039,6.348
1626640487.142,-6.348,-30.273,-26.367,113.770
1626640487.145,-3.418,-24.902,-11.719,-13.184
1626640487.149,-26.855,-34.180,-24.902,-142.578
1626640487.153,-29.297,-23.438,-35.156,-42.969
1626640487.157,-2.441,-20.020,-28.809,104.980
1626640487.161,-8.301,-33.203,-32.227,23.438
1626640487.203,-27.832,-31.250,-35.645,-134.766
1626640487.207,-16.602,-21.484,-23.438,-80.566
1626640487.211,0.977,-30.273,-20.508,84.473
1626640487.215,-16.113,-43.945,-32.715,49.316
1626640487.219,-51.270,-43.457,-39.551,-126.953
1626640487.223,-53.223,-38.086,-36.621,-135.742
1626640487.227,-16.113,-37.109,-30.762,44.922
1626640487.230,-2.930,4.883,-33.203,96.191
1626640487.234,-24.414,20.508,-36.621,-67.383
1626640487.238,-34.180,-30.273,-28.320,-141.602
1626640487.242,-13.672,-43.457,-17.090,8.301
1626640487.246,-4.883,-49.805,-28.320,113.770
1626640487.237,-21.973,-55.176,-35.645,-20.508
1626640487.241,-38.086,-43.457,-24.414,-161.621
1626640487.245,-25.391,-35.156,-27.832,-55.176
1626640487.249,-0.977,-24.414,-26.855,108.398
1626640487.253,2.930,-17.578,-17.578,44.434
1626640487.257,-22.949,-16.113,-22.461,-120.605
1626640487.261,-50.293,-34.668,-31.250,-106.934
1626640487.264,-37.598,-46.387,-27.344,58.105
1626640487.268,-24.902,-30.273,-24.902,75.195
1626640487.272,-44.922,-33.691,-34.180,-101.562
1626640487.276,-51.758,-36.621,-21.973,-135.742
1626640487.280,-32.227,-21.973,-23.926,29.297
1626640487.278,-18.066,-27.344,-43.945,102.051
1626640487.282,-34.180,-43.945,-37.598,-42.480
1626640487.286,-54.688,-53.711,-31.738,-158.203
1626640487.290,-37.598,-14.160,-25.391,-26.367
1626640487.294,-20.996,30.762,-25.879,102.539
1626640487.298,-24.414,-13.672,-24.902,4.883
1626640487.302,-43.457,-36.621,-20.020,-145.020
1626640487.305,-46.387,-43.945,-19.531,-81.055
1626640487.309,-13.672,-26.367,-16.602,94.238
1626640487.313,-28.320,-30.273,-35.156,35.156
1626640487.317,-51.758,-47.363,-26.855,-138.672
1626640487.321,-44.922,-34.668,-13.184,-118.164
1626640487.317,-34.180,-44.434,-27.832,46.387
1626640487.321,-32.227,-23.926,-38.086,71.289
1626640487.325,-62.988,16.602,-45.898,-108.398
1626640487.329,-72.754,-9.766,-41.504,-167.969
1626640487.333,-45.898,-29.297,-32.227,-10.254
1626640487.337,-25.391,-16.602,-30.273,84.961
1626640487.341,-35.645,-26.367,-27.344,-35.645
1626640487.344,-49.316,-27.344,-24.414,-152.832
1626640487.348,-40.039,-32.227,-25.879,-39.062
1626640487.352,-28.320,-37.109,-26.855,90.820
1626640487.356,-41.504,-41.992,-37.109,-12.207
1626640487.360,-63.965,-63.477,-35.645,-159.668
1626640487.359,-55.176,-27.344,-33.203,-90.332
1626640487.363,-24.414,-0.977,-37.598,69.824
1626640487.367,-27.832,-45.898,-41.992,38.086
1626640487.371,-54.688,-58.105,-49.805,-138.672
1626640487.375,-61.523,-51.270,-60.059,-160.645
1626640487.379,-40.039,-15.625,-43.457,11.230
1626640487.383,-13.184,-15.625,-14.160,79.590
1626640487.386,-14.160,-39.062,-5.859,-64.941
1626640487.390,-25.391,-52.734,-12.207,-140.137
1626640487.394,-33.691,-62.988,-31.250,-17.578
1626640487.398,-31.250,-48.340,-42.480,73.242
1626640487.402,-45.898,-16.113,-44.922,-56.152
1626640487.408,-56.152,-5.859,-39.551,-172.852
1626640487.412,-36.621,-39.551,-36.621,-56.641
1626640487.416,-23.926,-39.062,-29.297,84.961
1626640487.420,-40.527,-27.344,-34.668,1.953
1626640487.424,-57.129,-23.438,-33.203,-160.156
1626640487.428,-56.152,-29.785,-16.113,-107.422
1626640487.432,-43.457,-41.016,-22.461,61.035
1626640487.435,-33.203,-41.992,-33.203,55.176
1626640487.439,-42.969,-19.043,-31.250,-104.004
1626640487.443,-53.223,-1.465,-26.367,-133.789
1626640487.447,-24.902,-19.531,-19.531,41.992
1626640487.451,-13.184,-55.176,-24.902,96.191
1626640487.437,-51.270,-79.102,-34.180,-80.078
1626640487.441,-64.453,-45.898,-23.438,-172.852
1626640487.445,-34.668,-21.973,-17.578,-19.531
1626640487.449,2.930,-14.160,-14.648,121.582
1626640487.453,-20.508,-31.250,-30.762,-5.371
1626640487.457,-57.617,-53.223,-44.434,-168.945
1626640487.461,-53.223,-36.621,-33.203,-84.473
1626640487.464,-32.715,-24.902,-30.762,78.125
1626640487.468,-16.113,-24.414,-33.203,34.668
1626640487.472,-42.969,-25.879,-29.297,-137.207
1626640487.476,-67.383,-43.457,-29.297,-136.719
1626640487.480,-48.340,-44.434,-40.039,34.180
1626640487.500,-34.668,-46.875,-36.621,55.664
1626640487.504,-56.641,-57.617,-26.855,-110.352
1626640487.508,-57.617,-47.852,-31.250,-153.809
1626640487.512,-13.184,-22.461,-29.297,16.602
1626640487.516,-6.348,-20.996,-20.996,99.121
1626640487.520,-26.855,-18.066,-21.973,-47.852
1626640487.524,-35.645,-15.137,-22.949,-145.996
1626640487.527,-12.207,-9.277,-17.090,-9.766
1626640487.531,12.207,-19.531,-15.137,119.141
1626640487.535,-24.414,-48.340,-30.762,2.441
1626640487.539,-52.734,-43.945,-34.668,-155.762
1626640487.543,-48.828,-32.227,-28.320,-91.309
1626640487.560,-40.039,-27.832,-33.203,68.359
1626640487.564,-31.250,-30.273,-42.480,38.574
1626640487.568,-45.898,-48.340,-47.852,-135.254
1626640487.572,-47.363,-40.527,-37.598,-133.301
1626640487.576,-31.738,-42.480,-28.320,41.992
1626640487.580,-8.301,-48.828,-17.578,76.172
1626640487.584,-20.996,-22.461,-20.020,-85.449
1626640487.587,-57.129,-27.344,-49.316,-169.434
1626640487.591,-52.246,-23.926,-61.035,-38.086
1626640487.595,-32.227,-1.465,-39.551,71.777
1626640487.599,-41.016,-26.367,-20.508,-45.898
1626640487.603,-61.523,-57.617,-29.297,-177.246
1626640487.602,-34.668,-37.598,-24.414,-54.199
1626640487.606,-9.277,-23.438,-22.949,94.727
1626640487.610,-19.043,-34.668,-29.785,11.230
1626640487.614,-42.480,-43.457,-29.297,-140.137
1626640487.618,-45.410,-49.316,-34.180,-101.562
1626640487.622,-31.738,-41.504,-40.527,65.430
1626640487.626,-17.578,-9.766,-30.762,71.289
1626640487.629,-36.133,-21.484,-23.438,-107.422
1626640487.633,-76.172,-57.129,-37.598,-164.551
1626640487.637,-56.641,-46.387,-43.945,4.883
1626640487.641,-23.438,-29.785,-35.156,83.984
1626640487.645,-27.832,-29.785,-27.832,-71.777
1626640487.642,-27.344,-1.465,-27.832,-150.879
1626640487.646,-16.113,-3.418,-39.062,-5.371
1626640487.650,-19.043,-30.273,-41.992,96.191
1626640487.654,-37.598,-37.598,-34.180,-34.180
1626640487.658,-50.293,-37.598,-29.297,-173.828
1626640487.662,-35.645,-31.250,-25.391,-77.637
1626640487.666,-10.254,-29.785,-22.461,82.031
1626640487.669,-18.555,-27.832,-25.391,21.973
1626640487.673,-41.016,-27.344,-30.273,-145.508
1626640487.677,-44.434,-36.621,-25.879,-123.535
1626640487.681,-30.762,-40.527,-29.297,41.016
1626640487.685,-20.996,-40.039,-35.156,46.875
1626640487.717,-25.879,-43.945,-30.762,-106.934
1626640487.721,-24.902,-29.297,-31.250,-138.184
1626640487.725,-17.090,-24.902,-41.016,10.254
1626640487.729,-8.789,-31.738,-50.781,80.566
1626640487.733,-16.602,-32.227,-49.316,-52.246
1626640487.737,-38.574,-34.668,-43.945,-157.227
1626640487.741,-35.156,-25.391,-33.203,-32.227
1626640487.744,-21.973,-22.461,-31.250,89.355
1626640487.748,-41.992,4.883,-47.852,-30.762
1626640487.752,-53.711,24.902,-47.852,-168.945
1626640487.756,-25.879,-1.953,-32.715,-71.777
1626640487.760,4.395,-22.461,-28.809,98.633
1626640487.744,-1.953,-37.598,-41.016,54.199
1626640487.748,-31.250,-46.875,-45.898,-125.000
1626640487.752,-37.598,-40.527,-37.598,-121.582
1626640487.756,-31.738,-32.227,-39.551,32.227
1626640487.760,-13.672,-20.508,-27.344,73.242
1626640487.764,-3.906,-21.484,-9.766,-63.965
1626640487.768,-32.227,-44.434,-30.762,-148.926
1626640487.771,-37.598,-56.641,-56.641,-17.578
1626640487.775,0.488,-24.902,-38.086,95.215
1626640487.779,-9.766,-3.906,-26.855,-32.715
1626640487.783,-59.082,-28.809,-47.852,-169.922
1626640487.787,-47.852,-34.668,-44.434,-57.129
1626640487.777,-24.902,-31.738,-37.109,85.449
1626640487.781,-29.297,-26.855,-41.016,4.395
1626640487.785,-42.480,-29.297,-40.039,-153.320
1626640487.789,-37.109,-44.922,-37.109,-100.098
1626640487.793,-5.371,-29.785,-23.438,87.402
1626640487.797,-7.812,-21.973,-25.879,66.895
1626640487.801,-26.367,-25.391,-37.598,-114.746
1626640487.804,-26.367,-22.461,-29.297,-122.070
1626640487.808,-14.648,-18.555,-39.062,33.203
1626640487.812,-7.812,-13.672,-54.199,62.500
1626640487.816,-48.828,-30.762,-77.148,-110.352
1626640487.820,-81.055,-41.016,-76.172,-188.965
1626640487.837,-48.828,-33.203,-43.457,-30.762
1626640487.841,-1.465,-26.367,-16.602,104.492
1626640487.845,-1.953,-29.785,-12.695,3.418
1626640487.849,-25.879,-31.250,-28.320,-135.742
1626640487.853,-27.832,-41.016,-27.344,-46.875
1626640487.857,9.277,-50.781,-5.859,120.605
1626640487.861,0.000,-60.547,-4.883,46.387
1626640487.864,-41.016,-47.852,-15.137,-137.695
1626640487.868,-24.414,1.953,-14.648,-94.238
1626640487.872,-12.695,7.812,-36.133,67.383
1626640487.876,-41.504,-32.715,-50.781,40.527
1626640487.880,-69.824,-48.828,-59.570,-142.090
1626640487.885,-51.270,-25.879,-43.945,-150.391
1626640487.889,-20.020,-27.344,-17.578,32.715
1626640487.893,-5.371,-51.270,-12.695,98.633
1626640487.897,-18.555,-39.551,-31.738,-45.410
1626640487.901,-44.922,-34.668,-36.133,-148.438
1626640487.905,-33.203,-36.133,-19.531,-25.391
1626640487.909,-12.207,-26.855,-17.090,102.539
1626640487.912,-20.508,-39.062,-17.578,-7.324
1626640487.916,-39.551,-37.598,-29.785,-146.973
1626640487.920,-27.344,-20.996,-22.461,-54.688
1626640487.924,6.348,-27.344,-9.766,107.910
1626640487.928,5.859,-17.090,-12.695,61.523
1626640487.936,-37.109,-21.484,-35.645,-131.836
1626640487.940,-52.734,-44.434,-46.387,-131.836
1626640487.944,-20.996,-38.086,-24.902,53.711
1626640487.948,0.977,-21.484,-20.508,92.773
1626640487.952,-36.621,1.465,-32.715,-86.426
1626640487.956,-61.035,-8.789,-35.156,-152.344
1626640487.960,-7.812,-36.621,-22.461,37.598
1626640487.963,7.812,-31.738,-16.602,118.652
1626640487.967,-21.484,-31.250,-22.461,-38.574
1626640487.971,-33.691,-24.902,-24.414,-148.926
1626640487.975,-9.277,21.484,-13.184,-17.578
1626640487.979,14.160,29.297,-6.348,118.164
1626640487.978,-12.207,-29.785,-20.508,3.906
1626640487.982,-43.945,-40.527,-29.297,-158.203
1626640487.986,-54.199,-43.945,-29.785,-103.027
1626640487.990,-48.340,-52.246,-39.062,44.434
1626640487.994,-49.805,-43.457,-46.875,3.418
1626640487.998,-60.059,-52.734,-48.340,-161.621
1626640488.002,-45.898,-40.039,-37.598,-145.508
1626640488.005,-12.207,-28.320,-31.250,43.945
1626640488.009,-4.395,-33.203,-27.832,76.172
1626640488.013,-26.855,-44.434,-19.531,-95.703
1626640488.017,-34.180,-52.734,-11.719,-146.484
1626640488.021,-41.016,-42.480,-17.578,-3.418
1626640488.016,-46.875,-46.875,-28.809,76.660
1626640488.020,-41.992,30.762,-20.508,-44.922
1626640488.024,-51.270,59.082,-18.066,-171.875
1626640488.028,-37.598,-20.020,-21.973,-53.223
1626640488.032,-12.207,-35.156,-14.648,104.492
1626640488.036,-31.738,-46.387,-20.508,13.184
1626640488.040,-62.012,-41.992,-31.738,-155.273
1626640488.043,-56.152,-43.945,-33.691,-110.840
1626640488.047,-25.879,-56.152,-26.855,63.965
1626640488.051,-13.184,-43.945,-17.090,56.641
1626640488.055,-45.898,-61.035,-23.438,-126.465
1626640488.059,-63.965,-29.785,-35.156,-157.715
1626640488.057,-28.320,15.625,-32.227,29.297
1626640488.061,-14.160,-31.738,-29.297,89.844
1626640488.065,-35.156,-35.645,-35.645,-79.590
1626640488.069,-49.316,-11.230,-20.020,-158.691
1626640488.073,-33.203,3.906,-19.043,-11.719
1626640488.077,-5.859,-8.789,-26.367,101.562
1626640488.081,-41.992,-46.387,-33.691,-33.203
1626640488.084,-75.195,-47.363,-43.945,-187.012
1626640488.088,-59.570,-48.340,-38.574,-88.379
1626640488.092,-31.738,-20.996,-23.438,76.172
1626640488.096,-16.113,10.742,-11.230,29.785
1626640488.100,-34.180,-41.504,-10.254,-134.766
1626640488.125,-34.668,-69.336,-7.812,-106.934
1626640488.129,-6.836,-59.570,-5.371,71.289
1626640488.133,-18.066,-49.316,-28.809,67.871
1626640488.137,-41.016,-35.645,-42.480,-101.562
1626640488.141,-43.945,-23.926,-31.738,-136.230
1626640488.145,-26.855,-30.762,-16.602,22.461
1626640488.149,-14.648,-41.504,-14.648,92.285
1626640488.152,-33.691,-37.109,-24.902,-57.129
1626640488.156,-77.637,-19.043,-46.875,-181.641
1626640488.160,-70.801,-14.648,-44.922,-59.570
1626640488.164,-14.160,-33.203,-11.230,100.586
1626640488.168,-21.484,-49.316,-20.508,3.418
1626640488.176,-61.523,-53.223,-33.691,-165.527
1626640488.180,-58.594,-55.176,-31.738,-96.191
1626640488.184,-20.508,-49.805,-30.762,84.961
1626640488.188,-7.812,-35.156,-28.809,56.641
1626640488.192,-31.250,-33.203,-23.438,-113.281
1626640488.196,-30.273,-32.227,-20.020,-106.445
1626640488.200,-7.324,-36.621,-24.902,63.965
1626640488.203,6.348,-33.691,-23.438,84.473
1626640488.207,-15.625,-35.156,-24.414,-92.285
1626640488.211,-54.199,-44.922,-32.227,-163.574
1626640488.215,-41.992,-36.621,-34.668,-7.812
1626640488.219,-16.113,3.418,-35.156,94.727
1626640488.216,-13.184,-4.395,-26.367,-29.785
1626640488.220,-22.949,-44.434,-3.418,-134.277
1626640488.224,-53.711,-43.457,-23.926,-52.734
1626640488.228,-28.320,-34.668,-39.062,87.402
1626640488.232,-12.207,-27.344,-22.949,21.484
1626640488.236,-41.992,-46.875,-17.090,-134.766
1626640488.240,-46.387,-39.551,-21.484,-82.031
1626640488.243,-23.438,-26.367,-25.391,74.219
1626640488.247,-21.484,-47.852,-37.598,49.805
1626640488.251,-33.203,-37.598,-39.551,-117.188
1626640488.255,-30.273,-25.879,-22.949,-122.559
1626640488.259,-18.066,-35.156,-10.254,53.223
1626640488.241,-7.812,-42.480,-16.113,95.703
1626640488.245,-34.668,-63.965,-28.320,-75.684
1626640488.249,-62.988,-33.203,-28.320,-167.480
1626640488.253,-38.574,93.262,-35.156,-22.461
1626640488.257,-15.137,62.988,-33.203,96.680
1626640488.261,-27.344,-39.551,-27.344,-21.484
1626640488.265,-44.922,-49.316,-34.180,-150.391
1626640488.268,-55.664,-42.969,-39.551,-70.801
1626640488.272,-38.574,-37.598,-34.180,73.242
1626640488.276,-30.273,-54.199,-25.391,12.695
1626640488.280,-54.688,-49.805,-27.344,-161.621
1626640488.284,-52.734,-72.266,-29.785,-125.488
1626640488.305,-37.109,-46.875,-35.156,47.852
1626640488.309,-24.902,31.738,-30.762,54.199
1626640488.313,-20.996,-19.531,-21.973,-98.145
1626640488.317,-38.086,-67.871,-39.062,-134.277
1626640488.321,-31.250,-51.270,-37.109,21.973
1626640488.325,-25.391,-49.316,-33.203,80.566
1626640488.329,-35.156,55.176,-32.715,-65.918
1626640488.332,-46.875,82.031,-20.996,-160.645
1626640488.336,-31.250,-20.996,-26.855,-24.414
1626640488.340,-8.301,-42.969,-32.715,105.469
1626640488.344,-17.090,-44.434,-33.691,-9.277
1626640488.348,-29.297,-47.852,-30.762,-151.367
1626640488.338,-21.484,-62.988,-21.973,-62.012
1626640488.342,-8.789,-63.477,-28.320,90.820
1626640488.346,-19.531,-53.223,-29.297,41.016
1626640488.350,-60.547,-78.613,-39.062,-141.602
1626640488.354,-70.312,-82.031,-39.551,-134.277
1626640488.358,-29.785,-53.711,-10.254,55.176
1626640488.362,-24.902,-53.223,-13.184,68.848
1626640488.365,-59.570,-62.012,-36.621,-116.211
1626640488.369,-54.688,-69.824,-26.855,-154.785
1626640488.373,-14.160,27.344,-9.277,22.949
1626640488.377,0.488,101.562,-9.766,106.934
1626640488.381,-36.621,-12.695,-25.391,-57.617
1626640488.376,-61.523,-64.941,-28.809,-181.641
1626640488.380,-43.457,-63.965,-23.438,-48.828
1626640488.384,-10.254,-48.340,-41.016,97.168
1626640488.388,-4.395,-36.621,-36.621,18.555
1626640488.392,-25.879,-56.641,-17.578,-136.719
1626640488.396,-33.203,-66.895,-23.438,-92.285
1626640488.400,-20.020,-62.500,-26.367,74.707
1626640488.403,-20.020,-41.992,-31.738,54.199
1626640488.407,-46.875,-7.324,-34.180,-126.953
1626640488.411,-59.570,-24.902,-27.832,-141.113
1626640488.415,-40.039,-55.176,-38.574,33.691
1626640488.419,-20.020,-36.621,-41.016,84.961
1626640488.461,-35.156,-45.410,-38.086,-80.078
1626640488.465,-60.059,-51.758,-40.039,-166.016
1626640488.469,-42.480,-30.273,-43.457,-18.555
1626640488.473,-10.254,-20.996,-36.621,92.773
1626640488.477,-19.531,-35.156,-20.508,-33.203
1626640488.481,-36.621,-41.016,-24.414,-154.297
1626640488.485,-29.785,-24.902,-44.922,-41.504
1626640488.488,-10.254,-38.574,-35.645,94.238
1626640488.492,-16.113,-55.176,-13.184,14.648
1626640488.496,-62.500,-65.430,-29.297,-167.969
1626640488.500,-73.730,-61.035,-44.922,-139.648
1626640488.504,-30.273,-42.480,-29.785,54.199
1626640488.478,-16.602,-24.414,-21.973,63.477
1626640488.482,-43.457,-22.461,-40.039,-108.398
1626640488.486,-47.852,-26.855,-44.922,-135.254
1626640488.490,-10.742,-28.320,-26.855,45.898
1626640488.494,-7.812,-50.781,-26.855,92.285
1626640488.498,-54.688,-63.965,-31.250,-87.402
1626640488.502,-60.059,-34.180,-19.043,-166.992
1626640488.505,-33.691,-26.367,-17.090,-22.949
1626640488.509,-8.301,-51.758,-19.531,97.168
1626640488.513,-24.902,-61.035,-32.715,-21.973
1626640488.517,-56.641,-48.828,-47.363,-170.410
1626640488.521,-44.434,-29.297,-38.086,-79.102
1626640488.524,-25.391,-25.879,-36.133,78.613
1626640488.528,-34.180,-48.340,-34.668,24.414
1626640488.532,-60.547,-9.766,-25.391,-141.113
1626640488.536,-52.246,52.246,-14.160,-112.305
1626640488.540,-22.949,2.441,-16.602,56.641
1626640488.544,-24.414,-46.875,-30.762,60.547
1626640488.548,-46.387,-43.945,-38.086,-106.934
1626640488.551,-37.109,-32.715,-20.508,-131.836
1626640488.555,6.836,-11.719,-2.930,57.129
1626640488.559,-8.301,-31.250,-30.273,100.586
1626640488.563,-55.664,-63.477,-38.574,-70.801
1626640488.567,-78.125,-67.383,-35.645,-183.594
1626640488.598,-49.316,-68.359,-36.133,-50.293
1626640488.602,-21.973,-57.617,-45.898,89.355
1626640488.606,-31.250,-41.992,-43.457,-12.695
1626640488.610,-47.363,-39.062,-28.320,-162.109
1626640488.614,-57.617,-56.152,-37.109,-100.098
1626640488.618,-16.602,-45.898,-25.879,80.078
1626640488.622,31.738,-3.906,-3.418,88.379
1626640488.625,-15.137,-21.484,-22.949,-102.539
1626640488.629,-62.988,-45.898,-46.875,-146.973
1626640488.633,-62.988,-46.387,-59.570,15.625
1626640488.637,-46.387,-39.062,-42.969,62.988
1626640488.641,-42.969,-25.879,-23.926,-85.449
1626640488.619,-60.059,-46.387,-26.855,-153.809
1626640488.623,-55.664,-61.523,-29.297,-3.418
1626640488.627,-25.879,-39.551,-27.832,99.121
1626640488.631,-27.832,-33.691,-27.832,-30.762
1626640488.635,-51.758,-51.758,-27.832,-152.832
1626640488.639,-28.809,-56.152,-24.414,-31.250
1626640488.643,-8.301,-42.480,-26.367,110.840
1626640488.646,-12.695,-19.043,-13.184,37.109
1626640488.650,-41.504,-22.949,-10.254,-125.977
1626640488.654,-58.594,-42.480,-19.531,-92.773
1626640488.658,-27.344,-25.879,-22.949,73.242
1626640488.662,-21.973,-26.367,-40.039,50.293
1626640488.676,-42.969,-43.945,-45.410,-116.211
1626640488.680,-41.504,-55.664,-40.039,-125.000
1626640488.684,-16.602,-40.039,-31.250,41.992
1626640488.688,-14.648,-46.387,-30.273,80.078
1626640488.692,-43.457,-64.453,-37.109,-87.891
1626640488.696,-59.570,-33.203,-40.527,-166.992
1626640488.700,-50.293,-26.855,-39.551,-23.926
1626640488.703,-8.301,6.836,-7.812,108.398
1626640488.707,-9.277,13.184,-0.488,-7.324
1626640488.711,-51.270,-41.016,-30.762,-171.387
1626640488.715,-41.504,-33.203,-34.180,-76.660
1626640488.719,-8.301,-20.508,-29.297,93.750
1626640488.728,-5.371,-22.949,-31.250,34.668
1626640488.732,-39.551,-30.273,-44.434,-147.949
1626640488.736,-48.828,-35.156,-41.016,-120.117
1626640488.740,-21.484,-28.320,-34.668,60.547
1626640488.744,-23.438,-38.574,-46.387,46.875
1626640488.748,-48.828,-31.738,-40.527,-131.836
1626640488.752,-55.664,-21.973,-35.156,-158.203
1626640488.755,-39.062,-41.992,-40.039,2.930
1626640488.759,-32.715,-35.645,-39.551,69.336
1626640488.763,-49.805,-42.480,-34.668,-75.195
1626640488.767,-33.691,-4.395,-18.555,-145.508
1626640488.771,-12.695,16.602,-19.043,-4.395
1626640488.760,-14.648,-42.480,-46.387,94.727
1626640488.764,-15.625,-35.156,-62.500,-2.441
1626640488.768,-50.781,-41.504,-58.105,-159.180
1626640488.772,-57.129,-33.203,-24.414,-86.914
1626640488.776,-20.508,-23.926,-3.906,91.309
1626640488.780,-15.625,-41.992,-5.859,56.152
1626640488.784,-28.320,-22.461,-4.395,-96.191
1626640488.787,-43.457,-24.902,-12.695,-101.562
1626640488.791,-23.926,-27.344,-20.996,59.570
1626640488.795,16.602,63.477,-4.883,114.746
1626640488.799,-15.137,61.523,-13.672,-68.359
1626640488.803,-39.062,-22.461,-27.344,-137.207
1626640488.837,-2.930,-34.180,-22.461,37.109
1626640488.841,-1.465,-49.805,-38.574,114.258
1626640488.845,-26.367,-49.805,-47.852,-26.367
1626640488.849,-38.574,-43.945,-40.527,-140.137
1626640488.853,-22.949,-31.738,-34.180,-34.668
1626640488.857,-8.301,-34.668,-25.879,100.098
1626640488.861,-8.789,-52.246,-15.137,21.484
1626640488.864,-10.254,22.949,6.836,-120.117
1626640488.868,-33.691,25.391,-14.648,-75.684
1626640488.872,-43.945,-53.711,-40.039,69.336
1626640488.876,-44.922,-55.664,-30.273,41.992
1626640488.880,-67.383,-58.105,-41.992,-129.883
1626640488.856,-59.570,-42.969,-42.480,-128.906
1626640488.860,-26.855,-34.668,-24.902,49.805
1626640488.864,-24.414,-44.434,-28.320,89.844
1626640488.868,-36.133,-44.922,-29.785,-66.406
1626640488.872,-51.758,-52.246,-30.762,-145.508
1626640488.876,-37.598,-52.734,-27.344,3.418
1626640488.880,-0.488,-21.484,-13.184,126.465
1626640488.883,-16.602,-29.785,-28.809,-1.953
1626640488.887,-56.152,-57.129,-48.828,-158.203
1626640488.891,-62.988,-59.082,-47.363,-71.777
1626640488.895,-30.273,-34.180,-32.715,96.680
1626640488.899,-32.715,-24.902,-34.180,20.020
1626640488.919,-49.316,-47.363,-38.574,-137.695
1626640488.923,-30.762,-55.176,-39.062,-78.613
1626640488.927,-9.766,-56.152,-32.227,77.637
1626640488.931,-13.672,-3.418,-19.043,60.547
1626640488.935,-42.480,114.258,-29.297,-112.305
1626640488.939,-48.340,60.547,-24.902,-145.508
1626640488.943,-33.203,-46.875,-26.367,16.602
1626640488.946,-21.484,-52.246,-41.016,75.684
1626640488.950,-24.414,-8.789,-28.809,-62.988
1626640488.954,-42.480,8.789,-30.273,-162.598
1626640488.958,-32.227,-61.523,-36.133,-39.062
1626640488.962,-13.672,-55.664,-20.996,94.238
1626640488.957,-35.645,-53.223,-33.203,-33.691
1626640488.961,-47.852,-24.414,-45.898,-177.734
1626640488.965,-40.039,12.207,-37.598,-78.125
1626640488.969,-14.160,-22.949,-29.297,90.332
1626640488.973,3.418,-28.320,-24.414,49.805
1626640488.977,-42.969,-44.434,-39.062,-142.578
1626640488.981,-50.293,-29.297,-46.875,-123.047
1626640488.984,-12.695,-7.324,-39.551,66.406
1626640488.988,-25.391,-37.598,-25.391,67.871
1626640488.992,-58.105,-44.434,-13.672,-106.445
1626640488.996,-62.500,-54.688,-12.207,-152.832
1626640489.000,-40.039,-76.660,-23.438,5.371
1626640488.997,-0.488,-4.883,-2.441,107.910
1626640489.001,7.324,25.391,8.789,-13.184
1626640489.005,-41.992,-46.387,-26.855,-148.926
1626640489.009,-33.203,-51.270,-35.645,-24.902
1626640489.013,-1.953,-32.715,-36.621,118.652
1626640489.017,7.324,-43.457,-10.742,38.574
1626640489.021,-7.812,-83.496,3.906,-108.887
1626640489.024,-28.809,-84.961,-14.160,-63.477
1626640489.028,-10.254,-37.109,-15.625,99.121
1626640489.032,-39.062,-52.734,-36.133,33.203
1626640489.036,-68.848,-48.340,-40.527,-147.461
1626640489.040,-53.223,-35.645,-29.297,-130.859
1626640489.038,-29.785,-57.617,-33.203,56.152
1626640489.042,-19.043,-49.316,-20.020,93.750
1626640489.046,-27.832,-32.227,-12.207,-74.219
1626640489.050,-35.156,-17.090,-9.277,-129.883
1626640489.054,-19.043,-27.344,-7.812,10.742
1626640489.058,-9.766,-31.250,-20.996,97.168
1626640489.062,-28.809,-32.227,-40.039,-29.785
1626640489.065,-35.156,-31.250,-45.898,-158.691
1626640489.069,-19.531,-21.484,-23.438,-44.434
1626640489.073,-4.883,-7.812,-11.719,103.027
1626640489.077,-21.484,-20.996,-26.855,8.789
1626640489.081,-49.805,-45.410,-34.668,-166.016
1626640489.101,-43.457,-50.293,-32.227,-114.258
1626640489.105,-25.879,-64.453,-41.992,67.871
1626640489.109,-18.066,-66.895,-39.551,62.988
1626640489.113,-4.395,-39.551,-17.090,-80.566
1626640489.117,-8.301,-28.320,-26.855,-99.121
1626640489.121,-32.715,-31.250,-48.828,34.668
1626640489.125,-20.508,-7.812,-28.320,93.750
1626640489.128,-10.742,37.598,0.488,-37.109
1626640489.132,-46.875,0.488,-11.230,-138.184
1626640489.136,-47.363,-47.852,-29.785,-19.043
1626640489.140,-41.016,-58.594,-33.691,88.867
1626640489.144,-54.688,-55.664,-33.203,-24.414
1626640489.137,-61.035,-47.852,-37.109,-155.273
1626640489.141,-53.223,-52.734,-30.762,-54.688
1626640489.145,-29.785,-49.805,-17.578,101.074
1626640489.149,-40.527,-61.523,-30.273,17.090
1626640489.153,-74.707,-49.316,-43.945,-163.574
1626640489.157,-60.059,-15.137,-45.898,-122.559
1626640489.161,-10.254,0.000,-33.691,76.172
1626640489.164,2.441,-25.879,-25.879,80.566
1626640489.168,-19.531,-44.434,-27.344,-93.750
1626640489.172,-32.227,-43.945,-29.297,-134.277
1626640489.176,-13.184,16.113,-23.926,25.391
1626640489.180,-5.371,54.688,-26.855,101.562
1626640489.196,-30.762,-21.484,-44.434,-60.547
1626640489.200,-44.922,-41.992,-40.039,-159.668
1626640489.204,-31.738,-39.551,-31.738,-21.973
1626640489.208,7.324,-25.879,-17.578,117.188
1626640489.212,6.836,-14.648,-11.230,20.020
1626640489.216,-39.062,-30.762,-35.645,-146.484
1626640489.220,-41.992,-28.809,-44.922,-83.984
1626640489.223,-21.484,-18.555,-41.992,74.219
1626640489.227,-11.230,-5.859,-38.086,36.621
1626640489.231,-38.086,-18.555,-47.363,-142.090
1626640489.235,-51.758,-41.504,-49.316,-138.184
1626640489.239,-35.645,-34.668,-41.016,29.297
1626640489.238,-35.156,-70.312,-34.180,56.152
1626640489.242,-37.598,-7.812,-20.020,-92.285
1626640489.246,-48.340,79.590,-20.508,-156.250
1626640489.250,-29.785,-2.930,-17.578,-0.488
1626640489.254,-20.996,-55.176,-24.902,80.078
1626640489.258,-49.805,-52.246,-35.156,-67.871
1626640489.262,-62.500,-20.020,-33.691,-174.316
1626640489.265,-59.082,-23.926,-55.664,-75.195
1626640489.269,-52.246,-57.129,-61.035,55.176
1626640489.273,-44.434,-43.457,-42.969,-16.602
1626640489.277,-52.734,-40.527,-37.598,-161.133
1626640489.281,-36.133,-6.348,-26.367,-90.820
1626640489.296,24.902,88.867,-4.883,118.652
1626640489.300,17.578,33.691,-16.602,82.031
1626640489.304,-41.016,-49.316,-51.270,-129.883
1626640489.308,-54.199,-54.688,-48.828,-137.695
1626640489.312,-31.250,-41.504,-30.762,30.273
1626640489.316,-9.766,-17.090,-29.297,85.938
1626640489.320,-26.855,-33.203,-31.738,-77.148
1626640489.323,-54.199,-62.012,-41.016,-176.270
1626640489.327,-42.969,-78.125,-50.293,-32.227
1626640489.331,-25.879,-49.316,-43.945,84.961
1626640489.335,-19.531,5.859,-18.555,-9.766
1626640489.339,-43.457,-24.902,-33.691,-150.391
1626640489.321,-48.340,-66.406,-46.387,-63.965
1626640489.325,-6.348,-48.828,-30.273,104.492
1626640489.329,8.789,-26.367,-20.020,53.711
1626640489.333,-22.949,-26.855,-23.438,-120.117
1626640489.337,-42.480,-32.227,-51.758,-115.234
1626640489.341,-22.949,-28.809,-50.781,52.734
1626640489.345,-21.973,-39.551,-38.086,48.340
1626640489.348,-41.016,-38.086,-37.598,-115.723
1626640489.352,-57.617,-33.203,-38.574,-144.531
1626640489.356,-46.875,-53.711,-32.227,9.766
1626640489.360,-20.996,-59.570,-29.297,81.055
1626640489.364,-38.574,-53.223,-36.621,-65.918
1626640489.378,-49.316,-68.848,-25.391,-152.832
1626640489.382,-17.090,-7.324,-17.090,-1.953
1626640489.386,8.301,78.125,-23.438,123.047
1626640489.390,-19.531,14.648,-20.508,-0.977
1626640489.394,-57.617,-49.316,-22.461,-162.598
1626640489.398,-50.293,-49.316,-28.809,-79.590
1626640489.402,-20.508,-11.719,-16.602,98.633
1626640489.405,-27.344,-16.602,-20.996,43.457
1626640489.409,-54.688,-64.941,-36.621,-140.625
1626640489.413,-54.688,-67.871,-38.086,-125.488
1626640489.417,-42.480,-90.332,-38.574,41.992
1626640489.421,-23.926,-34.180,-23.438,69.824
1626640489.423,-26.855,20.996,-20.020,-82.031
1626640489.427,-55.176,-28.320,-27.344,-151.855
1626640489.431,-45.898,-39.551,-24.414,-1.465
1626640489.435,-32.227,-48.828,-30.762,80.566
1626640489.439,-50.781,-55.664,-36.133,-73.730
1626640489.443,-68.359,-52.734,-44.922,-187.500
1626640489.447,-50.293,-45.898,-46.387,-55.664
1626640489.450,-18.066,-37.598,-33.203,93.750
1626640489.454,-13.672,-36.621,-25.391,11.230
1626640489.458,-44.922,-36.621,-29.297,-149.902
1626640489.462,-50.781,-36.133,-26.855,-96.191
1626640489.466,-23.438,-40.527,-20.020,72.266
1626640489.466,-15.137,-27.832,-9.766,51.270
1626640489.470,-37.598,-25.391,-15.625,-111.328
1626640489.474,-49.316,-41.992,-34.668,-122.559
1626640489.478,-40.039,-44.434,-40.527,34.180
1626640489.482,-41.504,-53.223,-47.363,56.152
1626640489.486,-54.688,-44.434,-51.758,-103.027
1626640489.490,-56.152,-32.715,-45.410,-162.109
1626640489.493,-33.203,-49.316,-36.621,-10.254
1626640489.497,6.348,11.719,-8.789,111.816
1626640489.501,12.207,41.992,7.812,-7.324
1626640489.505,-22.949,-7.324,-8.301,-151.367
1626640489.509,-17.090,-2.441,-11.719,-40.527
1626640489.541,-21.484,-20.020,-27.832,82.031
1626640489.545,-50.781,-46.875,-48.340,-27.832
1626640489.549,-69.824,-51.270,-37.598,-179.199
1626640489.553,-61.523,-48.828,-31.738,-121.094
1626640489.557,-29.297,-43.457,-36.133,53.223
1626640489.561,-19.531,-29.785,-29.785,47.363
1626640489.565,-39.551,-39.551,-35.156,-122.070
1626640489.568,-41.992,-43.945,-30.762,-143.555
1626640489.572,-22.949,-30.762,-32.227,18.066
1626640489.576,-15.137,-26.367,-36.133,76.172
1626640489.580,-25.879,-31.738,-23.926,-62.012
1626640489.584,-41.504,-40.527,-27.832,-158.691
1626640489.578,-39.062,-30.762,-51.270,-36.133
1626640489.582,-30.273,-33.691,-48.340,76.172
1626640489.586,-38.086,-68.359,-28.809,-37.109
1626640489.590,-48.340,-49.316,-32.715,-168.945
1626640489.594,-41.504,-26.855,-25.879,-77.637
1626640489.598,-13.184,-28.809,-18.555,83.496
1626640489.602,1.465,-9.277,-10.742,43.457
1626640489.605,-23.438,-19.043,-12.207,-130.859
1626640489.609,-40.039,-40.039,-29.785,-122.070
1626640489.613,-26.367,-48.828,-29.297,44.922
1626640489.617,-36.621,-57.129,-38.574,37.598
1626640489.621,-49.316,-54.688,-40.039,-127.441
1626640489.600,-62.988,-44.922,-29.785,-161.621
1626640489.604,-58.594,-30.273,-33.203,-4.395
1626640489.608,-21.973,-38.086,-26.367,85.449
1626640489.612,-28.809,-57.617,-27.832,-53.223
1626640489.616,-60.547,-40.527,-34.668,-169.922
1626640489.620,-33.691,-31.250,-19.531,-27.832
1626640489.624,-12.695,-30.762,-15.625,107.422
1626640489.627,-26.855,-23.926,-25.391,0.000
1626640489.631,-52.246,-30.762,-26.367,-157.715
1626640489.635,-55.176,-25.879,-27.344,-97.168
1626640489.639,-22.461,-18.555,-32.715,73.242
1626640489.643,-29.785,-34.180,-42.480,29.297
1626640489.678,-37.598,-31.738,-33.203,-127.930
1626640489.682,-12.207,-58.594,-24.414,-94.238
1626640489.686,0.977,-92.285,-24.414,69.336
1626640489.690,-6.348,-67.383,-20.020,83.496
1626640489.694,-23.438,-35.156,-20.020,-78.125
