timestamps,TP9,AF7,AF8,TP10
1626465842.123,-38.574,-45.410,-24.902,-32.715
1626465842.127,191.895,-35.645,-27.344,5.371
1626465842.131,6.348,-40.039,-42.969,-25.879
1626465842.135,-206.055,-41.992,-22.949,-44.922
1626465842.139,-112.305,-39.062,-14.648,-32.227
1626465842.143,147.461,-34.180,-17.578,-4.883
1626465842.147,65.918,-42.480,-41.016,-24.902
1626465842.150,-210.449,-50.781,-44.434,-61.035
1626465842.154,-184.082,-35.156,-29.297,-47.363
1626465842.158,83.008,-33.203,-22.461,-13.184
1626465842.162,135.254,-39.062,-40.039,-6.348
1626465842.166,-145.996,-38.086,-41.016,-52.246
1626465842.166,-217.773,-34.180,-32.715,-61.035
1626465842.170,6.836,-29.297,-26.367,-29.785
1626465842.174,167.480,-30.273,-32.227,-12.207
1626465842.178,-83.984,-34.668,-48.828,-53.711
1626465842.182,-235.352,-37.598,-36.621,-63.965
1626465842.186,-54.199,-29.297,-26.367,-25.391
1626465842.190,176.270,-35.156,-34.668,1.465
1626465842.193,-2.441,-46.387,-50.781,-37.109
1626465842.197,-216.797,-40.527,-40.039,-52.246
1626465842.201,-121.094,-39.062,-26.367,-35.645
1626465842.205,133.789,-42.969,-16.602,-3.418
1626465842.209,85.938,-45.410,-37.109,-13.184
1626465842.213,-184.082,-43.457,-37.598,-50.781
1626465842.217,-191.895,-40.527,-33.691,-56.152
1626465842.221,66.895,-36.133,-23.926,-23.926
1626465842.225,153.320,-38.574,-32.227,-9.277
1626465842.229,-125.000,-48.828,-37.109,-49.805
1626465842.233,-212.402,-45.898,-29.785,-50.781
1626465842.237,17.090,-35.645,-21.484,-12.695
1626465842.240,197.754,-28.320,-23.438,11.230
1626465842.244,-56.152,-38.574,-39.062,-38.086
1626465842.248,-231.445,-41.016,-30.762,-57.617
1626465842.252,-67.383,-33.203,-19.531,-31.250
1626465842.256,181.152,-34.180,-18.066,2.441
1626465842.271,37.598,-39.551,-39.551,-20.508
1626465842.275,-200.195,-37.598,-30.762,-45.410
1626465842.279,-139.648,-31.738,-20.996,-41.016
1626465842.283,124.023,-29.785,-16.602,-5.859
1626465842.287,105.957,-36.133,-37.109,-7.324
1626465842.291,-175.781,-49.316,-45.410,-51.270
1626465842.295,-193.848,-45.898,-36.133,-50.781
1626465842.298,50.781,-36.133,-27.832,-22.949
1626465842.302,163.086,-37.598,-32.227,-2.930
1626465842.306,-102.539,-40.039,-41.016,-35.645
1626465842.310,-217.773,-36.621,-44.922,-50.781
1626465842.314,-16.113,-28.320,-32.227,-27.344
1626465842.316,192.871,-23.438,-21.973,4.395
1626465842.320,-29.785,-32.715,-45.410,-34.180
1626465842.324,-231.445,-36.133,-38.574,-61.523
1626465842.328,-88.379,-30.762,-24.414,-36.621
1626465842.332,170.410,-32.227,-26.855,1.465
1626465842.336,61.035,-33.203,-40.039,-24.414
1626465842.340,-187.012,-35.645,-31.738,-48.828
1626465842.343,-156.738,-35.645,-26.855,-40.527
1626465842.347,97.168,-38.574,-25.391,-18.066
1626465842.351,122.070,-39.062,-36.621,-19.531
1626465842.355,-158.691,-33.203,-37.598,-57.129
1626465842.359,-210.449,-38.086,-35.156,-56.641
1626465842.362,32.227,-38.086,-26.855,-21.484
1626465842.366,170.410,-35.156,-35.156,-3.906
1626465842.370,-89.355,-36.621,-43.945,-50.293
1626465842.374,-211.914,-35.156,-27.344,-53.223
1626465842.378,-32.227,-33.203,-25.879,-26.367
1626465842.382,174.316,-28.809,-34.180,-1.953
1626465842.386,-20.020,-35.645,-47.363,-37.109
1626465842.389,-229.492,-38.574,-38.086,-62.988
1626465842.393,-122.070,-41.016,-34.180,-46.875
1626465842.397,141.602,-37.109,-28.809,-2.930
1626465842.401,56.641,-38.574,-39.062,-21.484
1626465842.405,-203.613,-43.945,-34.180,-60.547
1626465842.406,-178.711,-39.062,-29.785,-54.199
1626465842.410,90.332,-26.855,-25.879,-24.414
1626465842.414,148.438,-30.273,-34.180,-13.672
1626465842.418,-144.531,-41.992,-39.551,-52.246
1626465842.422,-220.215,-40.527,-32.227,-59.082
1626465842.426,11.719,-38.574,-22.461,-24.414
1626465842.430,172.363,-40.527,-29.297,0.977
1626465842.433,-86.426,-46.875,-42.969,-41.992
1626465842.437,-244.629,-52.246,-33.203,-58.594
1626465842.441,-59.082,-43.457,-20.996,-32.227
1626465842.445,182.617,-29.785,-22.949,0.488
1626465842.449,-0.488,-43.457,-39.551,-35.156
1626465842.451,-230.957,-51.270,-36.133,-65.918
1626465842.455,-141.602,-40.039,-22.461,-52.246
1626465842.459,132.324,-30.273,-10.254,-10.254
1626465842.463,83.496,-34.180,-35.645,-26.367
1626465842.467,-199.707,-38.086,-38.574,-69.336
1626465842.471,-194.824,-32.715,-26.855,-58.594
1626465842.475,59.570,-31.250,-22.461,-29.297
1626465842.478,139.160,-35.156,-36.621,-20.508
1626465842.482,-141.113,-46.387,-43.945,-64.453
1626465842.486,-227.051,-43.457,-34.180,-71.777
1626465842.490,5.371,-31.250,-26.855,-36.621
1626465842.494,190.430,-23.926,-33.203,-5.371
1626465842.499,-53.223,-30.273,-46.875,-45.410
1626465842.503,-228.516,-30.762,-40.527,-64.941
1626465842.507,-80.078,-28.320,-35.645,-46.387
1626465842.511,169.922,-26.855,-30.273,-8.301
1626465842.515,28.320,-34.668,-43.457,-30.273
1626465842.519,-200.684,-33.691,-26.367,-55.664
1626465842.523,-131.836,-35.156,-23.926,-39.062
1626465842.526,124.023,-37.598,-31.250,-5.371
1626465842.530,117.676,-27.344,-41.016,-9.277
1626465842.534,-166.504,-33.691,-38.574,-51.270
1626465842.538,-197.266,-37.598,-26.855,-52.734
1626465842.542,49.316,-35.156,-20.996,-20.996
1626465842.541,160.156,-35.645,-27.832,-5.371
1626465842.545,-104.492,-44.434,-39.062,-41.992
1626465842.549,-214.355,-42.480,-33.691,-48.340
1626465842.553,-12.695,-34.668,-27.344,-26.367
1626465842.557,188.477,-31.738,-35.156,-2.930
1626465842.561,-33.691,-35.156,-49.316,-38.574
1626465842.565,-232.910,-46.875,-43.945,-62.988
1626465842.568,-96.191,-41.016,-36.133,-42.969
1626465842.572,172.852,-22.461,-27.344,1.953
1626465842.576,57.129,-30.762,-48.340,-18.066
1626465842.580,-205.566,-36.133,-44.434,-55.664
1626465842.584,-159.180,-32.715,-31.250,-48.828
1626465842.588,114.746,-27.344,-25.879,-9.766
1626465842.592,128.418,-33.691,-43.945,-12.207
1626465842.596,-154.785,-46.875,-39.551,-54.688
1626465842.600,-201.172,-46.875,-32.715,-55.664
1626465842.604,44.922,-31.250,-26.855,-15.625
1626465842.608,187.988,-23.926,-28.320,6.836
1626465842.612,-89.355,-37.109,-41.016,-44.922
1626465842.615,-223.633,-42.969,-31.738,-55.176
1626465842.619,-35.156,-40.527,-18.555,-24.414
1626465842.623,175.293,-44.922,-20.020,-5.371
1626465842.627,-20.508,-49.805,-37.598,-41.016
1626465842.631,-219.727,-43.457,-27.832,-49.316
1626465842.646,-104.980,-34.668,-15.625,-32.715
1626465842.650,154.785,-27.832,-13.184,-8.789
1626465842.654,71.289,-30.273,-31.738,-21.973
1626465842.658,-193.848,-29.297,-26.367,-48.828
1626465842.662,-173.340,-27.344,-17.578,-41.016
1626465842.666,85.449,-29.785,-18.555,-16.602
1626465842.670,132.324,-37.109,-36.133,-11.230
1626465842.673,-148.926,-41.992,-37.598,-41.992
1626465842.677,-214.844,-42.480,-29.297,-45.898
1626465842.681,29.297,-39.551,-19.043,-11.230
1626465842.685,195.312,-31.250,-25.879,10.742
1626465842.689,-62.012,-32.715,-37.598,-30.273
1626465842.692,-217.285,-38.574,-27.344,-41.016
1626465842.696,-41.992,-31.738,-16.113,-15.625
1626465842.700,195.312,-20.996,-11.230,17.090
1626465842.704,11.230,-25.391,-37.598,-20.508
1626465842.708,-220.215,-33.691,-34.668,-49.805
1626465842.712,-119.629,-27.832,-23.438,-24.902
1626465842.716,156.250,-15.137,-17.578,16.113
1626465842.719,104.004,-20.508,-28.320,3.906
1626465842.723,-178.711,-37.598,-26.855,-37.109
1626465842.727,-182.617,-41.992,-23.438,-36.133
1626465842.731,79.102,-31.250,-15.137,-2.441
1626465842.735,160.156,-28.320,-20.996,2.930
1626465842.737,-121.094,-39.551,-23.438,-42.969
1626465842.741,-208.496,-37.109,-16.602,-47.852
1626465842.745,15.625,-29.297,-10.742,-17.578
1626465842.749,188.965,-36.621,-18.555,2.930
1626465842.753,-58.105,-53.711,-35.645,-37.109
1626465842.757,-224.121,-46.875,-30.273,-52.246
1626465842.761,-67.383,-30.273,-20.020,-32.227
1626465842.764,178.223,-21.973,-17.090,1.953
1626465842.768,27.344,-30.762,-37.598,-29.297
1626465842.772,-219.238,-38.574,-37.109,-69.824
1626465842.776,-147.949,-31.738,-25.879,-54.688
1626465842.780,136.230,-24.414,-16.602,-12.207
1626465842.781,123.047,-31.738,-35.156,-13.184
1626465842.785,-160.156,-38.574,-39.551,-41.504
1626465842.789,-185.547,-35.156,-33.691,-44.434
1626465842.793,66.895,-25.879,-24.414,-17.090
1626465842.797,164.062,-21.484,-37.109,-8.789
1626465842.801,-122.559,-32.715,-42.969,-65.918
1626465842.805,-215.820,-35.156,-33.203,-70.312
1626465842.808,-11.230,-29.785,-36.133,-39.551
1626465842.812,179.688,-31.738,-38.086,-10.254
1626465842.816,-38.574,-40.527,-44.434,-41.016
1626465842.820,-225.586,-37.109,-31.738,-64.941
1626465842.824,-86.426,-27.832,-29.785,-45.898
1626465842.827,168.457,-21.484,-31.738,-13.184
1626465842.831,47.852,-24.902,-43.945,-36.133
1626465842.835,-200.684,-28.809,-38.086,-62.988
1626465842.839,-149.414,-27.344,-36.133,-53.223
1626465842.843,108.398,-22.949,-37.598,-20.996
1626465842.847,121.582,-25.391,-48.828,-19.531
1626465842.851,-155.273,-33.203,-43.457,-60.059
1626465842.854,-213.379,-37.598,-40.039,-69.336
1626465842.858,22.461,-34.668,-36.621,-41.504
1626465842.862,155.762,-25.879,-39.551,-16.113
1626465842.866,-105.957,-29.297,-46.387,-48.340
1626465842.870,-220.703,-40.527,-39.062,-56.152
1626465842.873,-21.973,-35.645,-35.156,-30.762
1626465842.877,194.336,-22.949,-33.203,6.348
1626465842.881,-7.324,-30.762,-45.898,-27.344
1626465842.885,-214.355,-35.156,-37.109,-49.805
1626465842.889,-97.168,-23.438,-29.785,-28.809
1626465842.893,170.898,-18.066,-23.926,5.371
1626465842.897,80.078,-30.273,-41.992,-18.066
1626465842.900,-187.012,-37.598,-44.434,-56.641
1626465842.904,-160.645,-32.715,-38.086,-42.480
1626465842.908,101.562,-31.250,-30.273,-6.348
1626465842.912,133.789,-31.250,-39.551,-1.465
1626465842.916,-158.691,-40.527,-46.387,-43.457
1626465842.916,-220.703,-42.969,-36.621,-50.781
1626465842.920,20.996,-32.227,-18.555,-14.648
1626465842.924,176.270,-30.762,-26.367,5.371
1626465842.928,-88.379,-42.969,-44.434,-41.992
1626465842.932,-236.328,-44.434,-33.203,-53.711
1626465842.936,-47.852,-32.227,-19.043,-27.344
1626465842.940,186.035,-35.645,-30.273,1.953
1626465842.943,-5.371,-42.969,-51.758,-32.227
1626465842.947,-231.445,-37.109,-36.133,-59.082
1626465842.951,-129.395,-30.762,-24.414,-44.922
1626465842.955,138.672,-33.691,-20.020,-12.695
1626465842.959,71.777,-40.039,-41.504,-25.391
1626465842.965,-198.242,-36.621,-34.668,-57.129
1626465842.969,-181.641,-32.715,-26.367,-50.293
1626465842.973,74.219,-28.809,-24.414,-21.484
1626465842.977,140.625,-30.762,-38.086,-19.043
1626465842.981,-149.902,-44.434,-46.387,-65.918
1626465842.985,-236.816,-41.504,-36.133,-72.266
1626465842.989,-12.695,-38.574,-28.809,-36.133
1626465842.992,173.340,-35.156,-25.879,-0.977
1626465842.996,-58.105,-35.156,-32.715,-36.621
1626465843.000,-225.098,-41.992,-34.180,-59.082
1626465843.004,-67.871,-40.527,-30.273,-36.621
1626465843.008,180.664,-30.762,-26.367,-1.465
1626465843.021,32.227,-30.273,-45.898,-31.250
1626465843.025,-215.332,-43.945,-38.086,-65.430
1626465843.029,-143.066,-41.992,-25.391,-55.176
1626465843.033,131.836,-32.715,-20.508,-18.555
1626465843.037,112.305,-36.133,-37.109,-26.367
1626465843.041,-163.574,-35.156,-39.062,-60.547
1626465843.045,-185.059,-38.086,-33.203,-57.617
1626465843.048,69.824,-37.109,-23.438,-22.461
1626465843.052,167.969,-31.250,-33.203,-13.184
1626465843.056,-113.281,-41.504,-39.062,-58.105
1626465843.060,-219.727,-46.387,-30.273,-65.918
1626465843.064,-15.137,-41.016,-26.855,-39.062
1626465843.066,184.082,-33.203,-25.391,-13.184
1626465843.070,-41.016,-37.598,-35.156,-51.758
1626465843.074,-225.098,-39.551,-28.809,-68.848
1626465843.078,-85.449,-31.250,-21.973,-49.805
1626465843.082,163.574,-31.738,-21.973,-18.066
1626465843.086,40.039,-43.457,-40.527,-37.598
1626465843.090,-210.449,-45.410,-36.621,-64.941
1626465843.093,-155.273,-33.691,-37.109,-56.641
1626465843.097,126.465,-30.762,-28.320,-6.836
1626465843.101,116.211,-39.062,-35.156,-11.719
1626465843.105,-177.734,-43.945,-36.621,-67.383
1626465843.109,-191.895,-36.621,-21.484,-50.293
1626465843.111,54.199,-29.297,-8.301,-11.230
1626465843.115,165.039,-43.945,-18.555,3.906
1626465843.119,-104.004,-54.688,-17.090,-34.668
1626465843.123,-214.355,-54.688,-6.348,-39.551
1626465843.127,-34.180,-61.523,-6.348,-13.184
1626465843.131,179.688,-54.688,0.977,18.066
1626465843.135,-17.578,-59.082,-6.836,-2.441
1626465843.138,-221.680,-67.871,1.953,-19.531
1626465843.142,-112.793,-73.730,8.789,-10.742
1626465843.146,150.879,-66.406,16.602,30.762
1626465843.150,64.453,-67.383,0.977,18.066
1626465843.154,-214.844,-83.496,-3.418,-25.391
1626465843.156,-181.152,-75.684,2.930,-26.367
1626465843.160,89.844,-60.547,14.648,10.742
1626465843.164,130.859,-62.012,-6.836,12.695
1626465843.168,-145.996,-72.754,-14.160,-25.879
1626465843.172,-207.031,-70.312,-2.930,-24.414
1626465843.176,34.180,-56.152,3.906,10.254
1626465843.180,197.754,-46.387,-1.465,42.480
1626465843.183,-65.430,-58.105,-13.672,0.488
1626465843.187,-219.727,-62.988,-9.766,-20.996
1626465843.191,-43.945,-48.340,0.488,4.395
1626465843.195,188.965,-39.551,3.906,39.062
1626465843.199,13.672,-46.875,-12.695,6.836
1626465843.203,-209.961,-52.734,-6.836,-20.996
1626465843.207,-110.352,-50.293,-6.348,-6.836
1626465843.211,165.039,-44.922,-3.906,35.645
1626465843.215,93.262,-51.270,-25.391,17.090
1626465843.219,-182.617,-57.617,-25.391,-27.832
1626465843.223,-166.992,-50.293,-10.742,-24.414
1626465843.227,84.473,-43.945,-2.441,10.742
1626465843.230,152.832,-44.922,-15.137,19.043
1626465843.234,-118.652,-49.316,-20.020,-22.949
1626465843.238,-201.660,-45.410,-19.531,-30.273
1626465843.242,22.949,-38.574,-14.160,-0.488
1626465843.246,208.496,-37.109,-15.625,28.809
1626465843.248,-32.227,-43.945,-31.250,-15.137
1626465843.252,-202.637,-43.945,-20.508,-30.273
1626465843.256,-52.734,-39.062,-15.137,-17.090
1626465843.260,187.500,-35.645,-12.695,8.301
1626465843.264,37.598,-44.922,-32.715,-13.184
1626465843.268,-188.477,-49.316,-29.785,-35.645
1626465843.272,-111.816,-50.293,-26.367,-26.367
1626465843.275,142.578,-48.340,-28.809,2.441
1626465843.279,113.281,-46.387,-37.598,-3.418
1626465843.283,-169.434,-45.898,-34.668,-37.598
1626465843.287,-180.664,-35.645,-20.996,-28.809
1626465843.291,68.359,-32.227,-12.207,-7.324
1626465843.292,158.203,-41.992,-26.367,-3.418
1626465843.296,-113.281,-47.363,-27.344,-36.133
1626465843.300,-219.238,-44.434,-20.508,-49.805
1626465843.304,-10.742,-42.969,-20.996,-29.297
1626465843.308,169.922,-42.480,-24.414,-4.395
1626465843.312,-64.453,-47.852,-36.621,-47.852
1626465843.316,-237.793,-52.246,-32.227,-56.152
1626465843.319,-72.754,-43.457,-32.227,-20.508
1626465843.323,186.523,-34.668,-33.691,5.371
1626465843.327,46.875,-37.109,-49.805,-32.715
1626465843.331,-199.219,-46.875,-41.016,-63.965
1626465843.335,-151.367,-41.992,-37.598,-55.664
1626465843.338,104.980,-25.879,-35.645,-30.273
1626465843.342,115.234,-23.926,-48.340,-35.156
1626465843.346,-171.875,-34.180,-53.711,-81.055
1626465843.350,-215.332,-31.250,-46.875,-82.031
1626465843.354,31.738,-23.926,-36.133,-44.922
1626465843.358,152.832,-27.344,-51.758,-30.273
1626465843.362,-114.258,-34.668,-68.359,-75.684
1626465843.365,-226.074,-39.551,-55.176,-78.613
1626465843.369,-30.273,-35.156,-46.387,-43.457
1626465843.373,181.641,-27.344,-49.316,-12.695
1626465843.377,-25.391,-29.785,-65.430,-52.246
1626465843.381,-221.680,-35.156,-52.734,-68.359
1626465843.396,-96.680,-37.109,-44.434,-39.551
1626465843.400,161.133,-27.344,-40.527,-5.859
1626465843.404,65.918,-23.926,-50.781,-26.855
1626465843.408,-203.125,-29.785,-46.387,-61.035
1626465843.412,-187.012,-40.527,-36.133,-55.176
1626465843.416,82.031,-35.645,-31.738,-20.508
1626465843.420,119.141,-30.762,-55.176,-19.531
1626465843.423,-176.758,-39.551,-59.570,-75.684
1626465843.427,-227.539,-40.527,-49.316,-76.660
1626465843.431,14.160,-33.203,-38.574,-40.039
1626465843.435,151.855,-30.762,-46.387,-31.250
1626465843.439,-93.750,-33.203,-56.641,-63.965
1626465843.441,-215.332,-28.809,-44.922,-70.312
1626465843.445,-31.738,-23.926,-42.969,-44.434
1626465843.449,190.430,-18.555,-49.316,-16.113
1626465843.453,10.254,-22.461,-56.641,-46.875
1626465843.457,-207.031,-32.227,-46.875,-65.918
1626465843.461,-109.375,-31.738,-31.738,-44.922
1626465843.465,150.879,-28.320,-25.391,-7.812
1626465843.468,77.637,-34.668,-49.316,-29.297
1626465843.472,-192.871,-38.574,-44.922,-64.941
1626465843.476,-177.246,-32.715,-33.691,-53.711
1626465843.480,83.008,-24.902,-25.391,-19.043
1626465843.484,150.391,-23.926,-42.480,-15.137
1626465843.486,-123.047,-28.320,-41.992,-55.176
1626465843.490,-204.102,-35.645,-32.715,-63.477
1626465843.494,18.066,-30.273,-31.738,-40.527
1626465843.498,190.918,-24.902,-34.180,-20.020
1626465843.502,-53.711,-39.062,-41.504,-55.176
1626465843.506,-213.867,-40.039,-32.715,-62.500
1626465843.510,-59.570,-34.180,-26.855,-44.434
1626465843.513,170.410,-37.109,-23.438,-15.137
1626465843.517,21.973,-38.086,-42.969,-39.062
1626465843.521,-203.613,-38.574,-35.645,-56.152
1626465843.525,-127.930,-37.109,-24.902,-38.574
1626465843.529,133.789,-27.832,-20.508,-3.418
1626465843.531,99.121,-31.738,-35.156,-9.277
1626465843.535,-171.387,-42.969,-33.691,-42.480
1626465843.539,-181.152,-39.062,-27.832,-43.457
1626465843.543,61.035,-29.297,-23.926,-17.578
1626465843.547,152.832,-28.320,-31.250,-1.953
1626465843.551,-111.816,-31.250,-38.574,-44.434
1626465843.555,-201.660,-28.809,-38.574,-57.129
1626465843.558,-0.977,-28.320,-38.574,-33.203
1626465843.562,175.293,-29.785,-37.598,-7.324
1626465843.566,-44.922,-25.391,-43.945,-41.016
1626465843.570,-220.703,-31.250,-36.133,-62.012
1626465843.574,-90.820,-38.574,-34.180,-50.293
1626465843.576,143.555,-28.320,-31.738,-18.066
1626465843.580,24.414,-29.297,-42.969,-33.203
1626465843.584,-223.145,-38.086,-35.156,-62.500
1626465843.588,-179.199,-39.551,-25.391,-47.852
1626465843.592,84.961,-38.574,-24.902,-7.324
1626465843.596,85.938,-36.621,-33.203,-7.324
1626465843.600,-187.988,-39.062,-28.809,-46.875
1626465843.603,-216.309,-39.551,-26.855,-51.270
1626465843.607,21.484,-32.227,-23.926,-22.461
1626465843.611,142.090,-24.414,-29.785,-9.766
1626465843.615,-104.004,-28.809,-34.180,-49.316
1626465843.619,-224.609,-38.574,-30.762,-56.152
1626465843.622,-36.621,-36.621,-22.461,-35.156
1626465843.626,175.781,-32.715,-29.297,-7.324
1626465843.630,-27.344,-35.645,-46.875,-38.086
1626465843.634,-223.145,-37.109,-38.574,-59.570
1626465843.638,-109.375,-38.086,-31.738,-46.875
1626465843.642,149.902,-26.855,-23.926,-14.160
1626465843.646,59.570,-32.227,-41.016,-27.832
1626465843.649,-198.730,-40.039,-36.621,-61.523
1626465843.653,-165.527,-35.156,-23.926,-53.711
1626465843.657,90.820,-35.156,-25.879,-13.672
1626465843.661,117.676,-36.621,-43.457,-6.348
1626465843.665,-160.645,-40.039,-41.504,-47.852
1626465843.668,-214.355,-36.621,-35.156,-53.223
1626465843.672,18.066,-31.250,-25.879,-28.320
1626465843.676,166.016,-30.273,-33.691,-9.277
1626465843.680,-88.867,-39.062,-52.246,-49.316
1626465843.684,-219.727,-32.227,-44.922,-54.688
1626465843.688,-30.273,-28.320,-31.738,-25.391
1626465843.692,166.504,-42.480,-38.574,-12.207
1626465843.695,-32.227,-51.758,-49.805,-56.152
1626465843.699,-226.074,-44.434,-26.367,-70.801
1626465843.703,-123.047,-44.434,-20.020,-53.711
1626465843.707,136.230,-42.969,-19.531,-19.043
1626465843.711,78.613,-36.621,-30.762,-24.902
1626465843.713,-190.430,-42.969,-27.344,-58.594
1626465843.717,-188.477,-43.945,-20.020,-49.316
1626465843.721,78.125,-29.785,-15.137,-8.789
1626465843.725,142.578,-23.926,-29.297,0.488
1626465843.729,-145.020,-28.320,-33.203,-41.992
1626465843.733,-219.238,-38.574,-28.320,-51.758
1626465843.737,6.348,-43.945,-26.855,-21.973
1626465843.740,180.664,-36.133,-25.391,12.207
1626465843.744,-67.383,-41.992,-36.621,-33.203
1626465843.748,-229.980,-49.805,-36.133,-57.129
1626465843.752,-66.406,-41.992,-27.344,-29.785
1626465843.756,169.434,-31.250,-18.066,6.348
1626465843.771,9.277,-38.086,-38.574,-27.832
1626465843.775,-226.562,-43.945,-33.691,-53.223
1626465843.779,-134.766,-30.762,-14.160,-30.762
1626465843.783,144.531,-24.902,-13.184,1.465
1626465843.787,104.004,-27.344,-35.156,-10.742
1626465843.791,-176.758,-35.156,-33.691,-52.246
1626465843.795,-183.594,-41.504,-27.344,-51.270
1626465843.798,78.125,-28.320,-12.207,-11.719
1626465843.802,170.898,-31.738,-20.996,-2.930
1626465843.806,-111.328,-45.410,-30.762,-54.199
1626465843.810,-215.332,-42.969,-18.555,-51.758
1626465843.814,-6.348,-33.691,-15.625,-20.020
1626465843.816,181.641,-29.785,-22.461,0.977
1626465843.820,-49.316,-34.180,-33.203,-38.086
1626465843.824,-229.980,-35.156,-29.297,-57.617
1626465843.828,-86.914,-38.086,-20.996,-40.039
1626465843.832,166.016,-29.297,-16.602,0.488
1626465843.836,36.621,-32.715,-34.668,-25.879
1626465843.840,-212.891,-45.898,-29.297,-62.988
1626465843.843,-157.715,-37.598,-19.043,-48.340
1626465843.847,111.816,-34.668,-19.531,-9.277
1626465843.851,109.863,-36.621,-37.598,-18.066
1626465843.855,-169.922,-32.227,-38.086,-54.199
1626465843.859,-200.195,-37.109,-30.273,-50.293
1626465843.862,42.969,-38.086,-25.391,-20.996
1626465843.866,163.086,-31.738,-30.762,1.953
1626465843.870,-111.328,-35.156,-35.156,-45.898
1626465843.874,-229.004,-33.203,-31.250,-60.059
1626465843.878,-29.785,-33.203,-26.367,-33.691
1626465843.882,186.035,-28.320,-24.902,1.465
1626465843.886,-18.066,-25.391,-44.434,-27.832
1626465843.889,-214.844,-36.621,-42.480,-51.758
1626465843.893,-82.520,-39.551,-35.645,-34.668
1626465843.897,177.734,-27.344,-33.203,0.000
1626465843.901,72.754,-29.785,-47.852,-16.602
1626465843.905,-175.293,-33.203,-41.992,-49.316
1626465843.907,-128.418,-27.344,-32.715,-49.316
1626465843.911,129.395,-29.297,-24.902,-12.207
1626465843.915,151.367,-32.715,-37.598,-7.324
1626465843.919,-137.207,-35.156,-41.992,-50.781
1626465843.923,-199.219,-34.180,-36.133,-45.898
1626465843.927,36.133,-28.809,-22.949,-12.695
1626465843.931,184.082,-27.832,-27.832,2.441
1626465843.934,-74.707,-35.645,-41.016,-41.992
1626465843.938,-219.238,-38.574,-31.250,-50.293
1626465843.942,-38.574,-32.227,-27.832,-21.484
1626465843.946,193.848,-24.414,-25.879,6.836
1626465843.950,10.254,-29.785,-38.574,-28.320
1626465843.951,-209.473,-42.480,-36.621,-53.223
1626465843.955,-104.492,-35.645,-24.902,-30.762
1626465843.959,157.715,-31.738,-17.090,5.859
1626465843.963,82.031,-46.387,-34.668,-7.812
1626465843.967,-182.129,-38.086,-35.156,-48.340
1626465843.971,-167.969,-23.926,-32.715,-44.434
1626465843.975,99.121,-26.367,-31.738,-6.348
1626465843.978,159.180,-35.156,-46.387,-3.418
1626465843.982,-125.000,-36.621,-48.340,-44.434
1626465843.986,-184.570,-31.250,-34.180,-38.086
1626465843.990,38.086,-32.715,-30.762,-11.719
1626465843.994,192.383,-28.320,-36.133,11.230
1626465843.998,-51.758,-33.203,-42.969,-25.879
1626465844.002,-201.660,-37.598,-36.621,-41.016
1626465844.006,-33.203,-33.691,-24.902,-11.719
1626465844.010,192.871,-33.203,-26.367,17.578
1626465844.014,12.695,-41.992,-47.363,-22.949
1626465844.018,-205.566,-40.039,-37.109,-46.387
1626465844.022,-112.793,-34.180,-24.902,-23.926
1626465844.025,157.227,-24.902,-20.508,12.695
1626465844.029,118.652,-28.809,-38.086,-4.883
1626465844.033,-157.227,-37.109,-30.273,-44.434
1626465844.037,-161.133,-37.598,-28.809,-36.133
1626465844.041,97.168,-28.809,-27.344,-3.906
1626465844.041,189.453,-26.367,-34.668,12.207
1626465844.045,-90.332,-36.133,-41.992,-30.762
1626465844.049,-179.199,-30.762,-27.344,-40.527
1626465844.053,33.691,-23.926,-20.508,-6.836
1626465844.057,194.824,-23.438,-22.461,16.113
1626465844.061,-36.621,-30.273,-34.668,-31.250
1626465844.065,-196.777,-41.992,-36.133,-50.293
1626465844.068,-50.293,-38.574,-28.320,-23.926
1626465844.072,181.152,-36.133,-24.414,5.371
1626465844.076,37.598,-37.598,-41.992,-18.555
1626465844.080,-192.383,-29.297,-31.738,-38.574
1626465844.084,-126.465,-32.715,-22.949,-31.738
1626465844.089,134.766,-26.855,-12.207,1.953
1626465844.093,115.723,-22.461,-26.367,-0.977
1626465844.097,-165.527,-35.156,-27.344,-39.551
1626465844.101,-186.035,-38.086,-25.879,-36.621
1626465844.105,50.781,-32.227,-28.809,-16.113
1626465844.109,167.480,-30.273,-37.598,-6.348
1626465844.113,-90.332,-29.297,-52.246,-44.922
1626465844.116,-206.055,-30.273,-47.363,-53.223
1626465844.120,-10.254,-24.414,-34.668,-25.391
1626465844.124,183.105,-23.438,-28.809,3.418
1626465844.128,-32.715,-33.203,-36.133,-32.227
1626465844.132,-211.426,-31.250,-34.668,-49.316
1626465844.146,-84.961,-36.133,-34.668,-32.227
1626465844.150,154.785,-34.180,-31.738,-4.395
1626465844.154,52.246,-34.668,-48.828,-21.973
1626465844.158,-206.543,-41.504,-46.387,-56.152
1626465844.162,-183.105,-41.504,-37.598,-53.711
1626465844.166,82.520,-37.109,-38.086,-17.578
1626465844.170,119.141,-36.621,-55.176,-8.301
1626465844.173,-149.414,-34.180,-49.805,-37.109
1626465844.177,-193.359,-35.645,-35.156,-33.203
1626465844.181,35.156,-35.156,-27.832,-10.742
1626465844.185,160.645,-32.715,-39.062,0.977
1626465844.189,-91.797,-41.016,-49.316,-41.016
1626465844.192,-212.891,-38.086,-36.621,-45.898
1626465844.196,-33.203,-31.738,-34.668,-26.367
1626465844.200,177.246,-25.879,-38.574,-5.859
1626465844.204,-3.906,-26.855,-46.387,-33.203
1626465844.208,-203.125,-31.250,-40.527,-55.664
1626465844.212,-91.309,-28.809,-29.785,-34.668
1626465844.216,156.250,-27.344,-25.879,-4.883
1626465844.219,67.871,-34.668,-42.969,-22.461
1626465844.223,-195.312,-48.828,-36.621,-55.664
1626465844.227,-180.664,-48.828,-35.156,-53.711
1626465844.231,80.566,-30.762,-31.250,-13.184
1626465844.235,145.508,-28.809,-40.039,-6.348
1626465844.236,-127.930,-37.109,-46.387,-50.293
1626465844.240,-204.590,-31.738,-42.969,-50.293
1626465844.244,13.672,-26.367,-32.227,-20.508
1626465844.248,166.016,-30.273,-32.715,-3.906
1626465844.252,-87.402,-39.551,-40.527,-42.969
1626465844.256,-238.770,-44.922,-31.738,-59.082
1626465844.260,-72.266,-38.086,-30.762,-41.016
1626465844.263,149.414,-35.645,-36.133,-11.230
1626465844.267,-27.344,-55.176,-58.594,-48.828
1626465844.271,-244.629,-52.246,-43.457,-71.777
1626465844.275,-148.438,-40.527,-25.879,-51.758
1626465844.279,111.816,-41.504,-25.879,-20.996
1626465844.281,74.219,-42.480,-42.480,-25.391
1626465844.285,-184.082,-41.992,-38.086,-47.363
1626465844.289,-178.223,-40.039,-33.203,-47.852
1626465844.293,78.125,-34.668,-33.203,-19.043
1626465844.297,155.273,-40.039,-37.598,-0.488
1626465844.301,-118.164,-43.945,-38.574,-37.598
1626465844.305,-199.707,-30.762,-34.668,-44.922
1626465844.308,5.371,-31.738,-32.227,-24.902
1626465844.312,165.527,-33.691,-38.574,-12.207
1626465844.316,-66.895,-35.645,-51.270,-57.617
1626465844.320,-225.586,-38.086,-44.434,-72.266
1626465844.324,-75.195,-40.039,-41.992,-48.828
1626465844.327,160.156,-37.109,-43.945,-14.648
1626465844.331,20.996,-38.086,-57.129,-38.574
1626465844.335,-205.078,-42.969,-44.434,-65.918
1626465844.339,-142.578,-43.457,-38.574,-60.547
1626465844.343,110.840,-36.133,-29.297,-20.508
1626465844.347,107.910,-30.762,-35.156,-10.742
1626465844.351,-159.180,-42.969,-38.574,-45.898
1626465844.354,-195.312,-48.828,-36.621,-48.340
1626465844.358,47.852,-37.109,-34.180,-18.066
1626465844.362,159.180,-34.180,-42.480,-6.348
1626465844.366,-108.398,-42.480,-47.363,-50.781
1626465844.370,-212.402,-34.180,-34.180,-45.898
1626465844.375,-11.230,-25.391,-28.809,-18.066
1626465844.379,182.129,-26.367,-38.574,-3.906
1626465844.383,-36.621,-31.738,-49.316,-49.805
1626465844.387,-214.355,-31.250,-41.992,-64.941
1626465844.391,-90.332,-32.227,-44.922,-49.316
1626465844.395,159.180,-25.391,-43.457,-26.367
1626465844.399,50.293,-30.762,-58.105,-43.945
1626465844.402,-202.637,-42.969,-47.852,-67.383
1626465844.406,-150.391,-39.062,-32.227,-54.199
1626465844.410,112.793,-26.855,-25.879,-18.066
1626465844.414,124.023,-28.320,-42.480,-20.996
1626465844.418,-160.156,-33.203,-48.340,-59.082
1626465844.416,-209.473,-34.180,-36.133,-55.176
1626465844.420,20.508,-31.250,-30.273,-33.691
1626465844.424,161.621,-20.508,-41.016,-12.695
1626465844.428,-91.309,-32.227,-51.758,-47.363
1626465844.432,-222.168,-35.645,-36.133,-58.105
1626465844.436,-32.227,-26.367,-20.508,-31.738
1626465844.440,177.734,-35.156,-34.180,-11.230
1626465844.443,-23.926,-37.109,-48.828,-42.480
1626465844.447,-230.957,-42.969,-35.156,-58.594
1626465844.451,-110.840,-38.086,-24.414,-41.504
1626465844.455,148.926,-20.996,-18.066,-1.953
1626465844.459,67.383,-29.785,-35.156,-17.090
1626465844.478,-190.918,-39.551,-31.250,-58.594
1626465844.482,-172.363,-41.016,-29.785,-56.641
1626465844.486,87.891,-33.203,-26.367,-19.531
1626465844.490,130.859,-35.645,-39.551,-11.719
1626465844.494,-144.531,-46.387,-40.527,-53.711
1626465844.498,-203.613,-45.410,-31.250,-53.711
1626465844.502,18.066,-38.086,-29.785,-24.414
1626465844.505,169.434,-34.180,-32.715,-8.789
1626465844.509,-73.730,-41.504,-42.480,-48.828
1626465844.513,-222.656,-48.828,-37.109,-52.734
1626465844.517,-61.035,-42.480,-24.902,-30.762
1626465844.521,173.340,-30.762,-24.414,-3.418
1626465844.521,15.137,-37.109,-36.133,-22.949
1626465844.525,-197.266,-39.062,-26.367,-43.457
1626465844.529,-112.305,-33.691,-16.602,-28.809
1626465844.533,144.531,-28.320,-10.254,2.930
1626465844.537,95.215,-29.785,-30.762,-14.648
1626465844.541,-179.199,-35.156,-30.762,-54.688
1626465844.545,-185.059,-37.109,-27.832,-53.223
1626465844.548,72.266,-32.227,-22.949,-20.020
1626465844.552,157.227,-24.902,-29.297,-5.859
1626465844.556,-124.023,-35.645,-37.109,-47.363
1626465844.560,-217.773,-41.992,-32.715,-55.664
1626465844.564,3.906,-30.762,-20.508,-27.344
1626465844.566,175.781,-28.320,-23.926,-7.324
1626465844.570,-61.035,-34.180,-37.109,-47.363
1626465844.574,-226.074,-36.621,-31.250,-58.594
1626465844.578,-78.125,-38.086,-29.785,-38.574
1626465844.582,168.457,-36.133,-23.926,-7.812
1626465844.586,24.902,-37.109,-33.203,-27.832
1626465844.590,-210.938,-43.945,-27.832,-58.594
1626465844.593,-143.555,-42.480,-25.879,-54.199
1626465844.597,113.770,-39.062,-24.414,-20.020
1626465844.601,94.727,-44.922,-40.527,-30.273
1626465844.605,-182.129,-44.434,-40.039,-71.777
1626465844.609,-203.613,-37.598,-33.203,-69.824
1626465844.613,54.199,-32.227,-30.762,-32.227
1626465844.617,164.551,-29.785,-40.527,-23.438
1626465844.621,-110.840,-33.691,-47.363,-68.359
1626465844.625,-214.844,-41.504,-41.016,-71.289
1626465844.629,-20.508,-45.898,-37.598,-42.969
1626465844.633,185.059,-36.133,-31.250,-5.371
1626465844.637,-26.855,-38.086,-41.992,-39.062
1626465844.640,-219.238,-40.527,-38.086,-61.523
1626465844.644,-87.402,-37.598,-24.902,-45.898
1626465844.648,156.250,-36.621,-28.320,-20.508
1626465844.652,44.922,-38.086,-45.898,-41.504
1626465844.656,-203.613,-41.016,-37.109,-64.453
1626465844.656,-159.668,-40.039,-29.297,-50.781
1626465844.660,104.004,-35.156,-23.438,-18.066
1626465844.664,130.859,-32.715,-34.668,-18.066
1626465844.668,-154.297,-41.504,-34.180,-53.711
1626465844.672,-209.473,-42.969,-26.855,-50.781
1626465844.676,39.062,-31.738,-18.555,-20.020
1626465844.680,165.527,-29.785,-28.809,-6.836
1626465844.683,-105.469,-41.992,-40.039,-52.734
1626465844.687,-230.957,-46.875,-30.762,-60.059
1626465844.691,-42.480,-36.621,-22.949,-30.273
1626465844.695,174.805,-30.762,-23.926,-4.883
1626465844.699,-16.113,-38.086,-30.273,-32.227
1626465844.701,-218.262,-38.574,-19.043,-53.711
1626465844.705,-105.957,-38.086,-18.066,-41.016
1626465844.709,156.250,-31.250,-12.207,-4.883
1626465844.713,67.383,-37.109,-34.180,-24.902
1626465844.717,-198.242,-50.781,-38.574,-63.965
1626465844.721,-166.016,-39.551,-27.344,-54.688
1626465844.725,95.703,-33.691,-19.043,-15.625
1626465844.728,133.301,-48.340,-34.668,-10.742
1626465844.732,-153.320,-50.293,-40.527,-47.363
1626465844.736,-215.820,-39.062,-28.809,-51.270
1626465844.740,4.883,-33.203,-19.043,-20.996
1626465844.744,160.156,-30.762,-24.414,0.000
1626465844.749,-82.031,-35.156,-39.551,-45.898
1626465844.753,-240.234,-44.922,-34.180,-63.965
1626465844.757,-71.777,-47.363,-21.973,-37.109
1626465844.761,168.457,-36.621,-18.555,-2.930
1626465844.765,-4.395,-43.945,-40.527,-33.691
1626465844.769,-228.027,-49.805,-31.250,-62.012
1626465844.773,-131.348,-45.410,-26.855,-43.945
1626465844.776,139.648,-38.574,-31.250,-3.906
1626465844.780,95.703,-41.504,-42.969,-17.090
1626465844.784,-180.664,-47.852,-33.691,-49.316
1626465844.788,-180.664,-42.480,-26.367,-42.480
1626465844.792,82.520,-38.574,-28.809,-14.648
1626465844.792,162.598,-33.691,-38.086,0.488
1626465844.796,-112.305,-33.691,-40.527,-36.621
1626465844.800,-192.383,-31.738,-28.809,-41.016
1626465844.804,29.785,-32.227,-24.902,-11.230
1626465844.808,196.777,-32.227,-28.320,7.812
1626465844.812,-41.504,-32.227,-38.086,-33.203
1626465844.816,-219.727,-46.875,-38.574,-47.852
1626465844.819,-64.941,-46.875,-33.691,-22.949
1626465844.823,166.992,-25.879,-30.273,-3.906
1626465844.827,-3.418,-28.809,-50.293,-48.340
1626465844.831,-241.211,-43.945,-44.434,-80.566
1626465844.835,-169.434,-44.922,-35.645,-78.613
1626465844.839,96.680,-32.715,-33.691,-46.875
1626465844.843,77.637,-36.621,-50.293,-52.246
1626465844.847,-197.266,-42.969,-45.898,-87.402
1626465844.851,-220.703,-36.133,-36.621,-79.590
1626465844.855,30.762,-37.109,-30.762,-37.109
1626465844.859,134.277,-41.504,-45.410,-26.855
1626465844.863,-136.719,-48.828,-57.617,-79.102
1626465844.866,-235.840,-44.922,-43.457,-78.125
1626465844.870,-25.391,-37.598,-33.203,-47.852
1626465844.874,172.852,-36.133,-38.086,-25.879
1626465844.878,-43.945,-39.551,-43.945,-62.500
1626465844.882,-229.492,-41.992,-38.574,-85.449
1626465844.896,-102.539,-40.527,-43.945,-70.801
1626465844.900,137.207,-35.645,-41.504,-42.480
1626465844.904,26.855,-35.156,-51.270,-61.523
1626465844.908,-209.961,-34.180,-40.527,-76.660
1626465844.912,-155.762,-36.621,-28.320,-50.293
1626465844.916,86.914,-41.016,-35.645,-24.902
1626465844.920,85.449,-46.387,-54.688,-31.250
1626465844.923,-171.875,-45.898,-41.504,-57.129
1626465844.927,-206.055,-45.410,-33.203,-53.223
1626465844.931,24.902,-42.480,-32.227,-28.320
1626465844.935,150.391,-39.062,-39.062,-12.695
1626465844.939,-103.516,-46.387,-40.527,-47.852
1626465844.941,-219.727,-49.316,-30.762,-57.129
1626465844.945,-28.320,-40.527,-31.250,-39.062
1626465844.949,173.340,-33.691,-35.645,-13.672
1626465844.953,-24.902,-41.992,-49.805,-39.062
1626465844.957,-210.449,-39.062,-35.156,-55.176
1626465844.961,-93.262,-28.320,-23.438,-36.133
1626465844.965,150.879,-26.367,-23.438,-5.859
1626465844.968,70.312,-35.645,-34.668,-22.949
1626465844.972,-180.176,-47.363,-33.691,-54.688
1626465844.976,-166.992,-50.293,-29.297,-53.223
1626465844.980,88.379,-38.086,-21.484,-22.461
1626465844.984,137.695,-24.414,-31.250,-18.555
1626465844.986,-128.906,-27.344,-24.414,-48.828
1626465844.990,-187.988,-30.762,-20.020,-38.086
1626465844.994,36.621,-21.973,-20.020,-17.090
1626465844.998,183.105,-23.926,-21.973,-7.324
1626465845.002,-67.871,-41.504,-36.621,-46.875
1626465845.006,-207.520,-39.551,-25.391,-53.223
1626465845.010,-31.250,-27.344,-17.578,-24.414
1626465845.013,175.293,-28.320,-25.391,-3.906
1626465845.017,3.906,-33.691,-34.180,-30.273
1626465845.021,-192.383,-38.574,-31.250,-47.363
1626465845.025,-101.562,-38.574,-30.273,-39.062
1626465845.029,151.855,-32.227,-29.785,-6.836
1626465845.034,98.145,-37.109,-42.969,-17.090
1626465845.038,-156.738,-41.992,-38.574,-46.387
1626465845.042,-149.414,-40.527,-34.668,-43.457
1626465845.046,98.145,-39.551,-30.273,-21.973
1626465845.050,151.367,-41.504,-41.016,-18.555
1626465845.054,-119.629,-41.992,-42.969,-53.223
1626465845.058,-192.871,-40.527,-44.434,-58.594
1626465845.061,9.766,-37.598,-45.410,-36.621
1626465845.065,168.945,-30.762,-46.387,-14.648
1626465845.069,-68.848,-40.039,-51.758,-50.293
1626465845.073,-223.633,-46.387,-34.668,-58.594
1626465845.077,-60.059,-36.133,-25.391,-37.109
1626465845.093,171.875,-34.180,-26.855,-12.207
1626465845.097,20.020,-39.551,-41.992,-37.598
1626465845.101,-206.055,-39.551,-32.227,-58.105
1626465845.105,-127.930,-39.551,-28.809,-40.039
1626465845.109,128.418,-32.715,-24.902,-9.277
1626465845.113,106.445,-29.297,-29.785,-19.043
1626465845.117,-163.086,-42.480,-30.273,-59.570
1626465845.120,-187.012,-46.387,-26.855,-56.641
1626465845.124,47.363,-38.574,-27.344,-28.320
1626465845.128,145.996,-33.691,-35.156,-13.184
1626465845.132,-111.816,-41.016,-34.668,-45.898
1626465845.136,-213.379,-39.062,-36.133,-53.223
1626465845.122,-9.277,-29.785,-28.320,-23.926
1626465845.126,184.082,-28.320,-24.414,9.277
1626465845.130,-37.109,-39.551,-39.551,-26.855
1626465845.134,-214.844,-41.016,-32.227,-48.828
1626465845.138,-83.496,-38.086,-24.902,-33.691
1626465845.142,150.879,-37.598,-26.855,-6.836
1626465845.146,29.297,-40.527,-44.922,-26.367
1626465845.149,-207.031,-47.363,-34.668,-48.340
1626465845.153,-155.273,-43.945,-28.809,-41.992
1626465845.157,95.215,-35.645,-26.367,-14.160
1626465845.161,93.262,-43.457,-41.504,-19.531
1626465845.165,-168.457,-46.875,-41.016,-48.828
1626465845.166,-189.941,-34.668,-30.273,-34.180
1626465845.170,34.180,-33.691,-28.320,-9.277
1626465845.174,149.902,-37.598,-34.668,1.953
1626465845.178,-100.586,-43.457,-41.016,-37.598
1626465845.182,-221.680,-41.992,-30.762,-45.898
1626465845.186,-34.180,-30.762,-23.926,-21.484
1626465845.190,162.109,-30.762,-37.109,0.000
1626465845.193,-29.297,-35.645,-50.781,-34.668
1626465845.197,-211.426,-35.156,-35.156,-51.758
1626465845.201,-102.051,-39.551,-33.203,-30.273
1626465845.205,149.414,-35.645,-31.250,0.488
1626465845.209,64.453,-32.715,-39.062,-22.949
1626465845.213,-188.965,-33.691,-34.180,-51.270
1626465845.217,-159.668,-28.320,-30.273,-42.480
1626465845.221,91.797,-22.949,-24.414,-10.254
1626465845.225,122.559,-32.227,-32.715,-7.324
1626465845.229,-155.762,-47.363,-35.645,-51.758
1626465845.233,-209.961,-41.992,-29.297,-52.246
1626465845.237,15.625,-36.621,-23.438,-27.832
1626465845.240,155.762,-33.691,-29.297,-14.160
1626465845.244,-84.961,-36.621,-39.551,-44.922
1626465845.248,-229.004,-42.480,-36.621,-52.734
1626465845.252,-67.383,-39.062,-28.320,-37.598
1626465845.256,150.391,-32.715,-29.785,-10.742
1626465845.271,-26.367,-39.551,-41.992,-33.691
1626465845.275,-230.957,-41.992,-26.855,-51.270
1626465845.279,-122.559,-29.785,-20.020,-37.598
1626465845.283,137.695,-22.461,-22.461,-1.953
1626465845.287,75.684,-33.691,-36.621,-11.230
1626465845.291,-176.758,-44.434,-31.250,-47.363
1626465845.295,-165.527,-40.039,-29.297,-40.527
1626465845.298,82.520,-32.227,-22.461,-11.230
1626465845.302,143.555,-37.109,-24.902,-4.883
1626465845.306,-128.418,-37.109,-29.785,-39.551
1626465845.310,-202.148,-30.762,-31.250,-37.109
1626465845.314,11.719,-37.598,-20.996,-8.789
1626465845.318,171.875,-37.109,-23.926,10.742
1626465845.322,-62.500,-41.992,-36.621,-25.879
1626465845.326,-211.426,-41.016,-20.508,-39.062
1626465845.330,-62.988,-37.598,-16.602,-30.273
1626465845.334,156.250,-36.621,-18.555,-5.859
1626465845.338,14.648,-32.227,-30.273,-22.949
1626465845.342,-208.496,-37.109,-29.297,-50.781
1626465845.345,-134.766,-44.434,-24.414,-42.969
1626465845.349,126.465,-41.016,-24.902,-11.719
1626465845.353,96.680,-33.691,-35.156,-22.461
1626465845.357,-185.547,-39.551,-25.879,-59.082
1626465845.361,-200.684,-40.527,-15.625,-47.363
1626465845.362,41.016,-28.320,-17.090,-20.996
1626465845.366,125.000,-37.109,-31.250,-16.113
1626465845.370,-131.348,-46.387,-36.133,-53.223
1626465845.374,-224.609,-40.039,-26.855,-58.594
1626465845.378,-21.484,-36.133,-18.555,-29.785
1626465845.382,167.969,-30.762,-28.809,0.488
1626465845.386,-47.852,-32.227,-43.457,-36.621
1626465845.389,-221.191,-35.645,-33.691,-54.199
1626465845.393,-84.473,-33.691,-31.738,-34.180
1626465845.397,149.414,-29.785,-35.645,-9.766
1626465845.401,19.531,-30.273,-44.922,-34.668
1626465845.405,-212.402,-34.180,-31.250,-59.082
1626465845.406,-167.969,-39.062,-28.320,-54.199
1626465845.410,87.891,-34.180,-26.855,-18.555
1626465845.414,101.562,-31.738,-37.109,-15.137
1626465845.418,-164.551,-41.016,-32.227,-55.176
1626465845.422,-187.988,-33.691,-19.531,-47.852
1626465845.426,47.852,-24.902,-20.020,-23.926
1626465845.430,162.598,-29.297,-35.645,-19.043
1626465845.433,-96.680,-39.551,-40.527,-58.594
1626465845.437,-220.215,-45.898,-38.574,-67.871
1626465845.441,-37.598,-44.922,-34.668,-44.922
1626465845.445,162.109,-41.016,-30.273,-22.461
1626465845.449,-34.180,-41.016,-38.574,-50.293
1626465845.452,-222.168,-39.062,-24.902,-68.359
1626465845.456,-101.074,-35.645,-12.695,-45.898
1626465845.460,148.926,-33.691,-13.184,-4.395
1626465845.464,64.453,-36.133,-32.715,-14.160
1626465845.468,-184.082,-41.016,-29.297,-41.992
1626465845.472,-159.668,-41.504,-22.461,-35.645
1626465845.476,91.309,-35.645,-21.973,-7.812
1626465845.479,125.000,-35.645,-42.969,-14.648
1626465845.483,-142.578,-37.109,-40.039,-55.664
1626465845.487,-198.242,-37.109,-29.785,-53.223
1626465845.491,33.203,-39.551,-30.762,-26.855
1626465845.495,181.641,-36.133,-33.203,-9.766
1626465845.498,-71.777,-38.086,-39.062,-39.551
1626465845.502,-207.031,-46.387,-27.832,-48.340
1626465845.506,-30.273,-40.039,-20.508,-28.809
1626465845.510,180.176,-27.832,-25.391,-0.977
1626465845.514,-3.418,-40.039,-39.062,-34.180
1626465845.518,-214.844,-48.828,-35.156,-60.059
1626465845.522,-124.023,-43.457,-31.250,-49.805
1626465845.525,128.418,-42.969,-25.391,-18.555
1626465845.529,65.430,-48.340,-43.945,-30.273
1626465845.533,-193.359,-46.875,-39.551,-59.082
1626465845.537,-180.664,-38.574,-30.273,-53.223
1626465845.541,62.012,-38.086,-28.320,-25.879
1626465845.542,125.000,-39.551,-42.969,-18.066
1626465845.546,-143.066,-41.504,-45.410,-56.152
1626465845.550,-211.426,-40.527,-35.645,-61.035
1626465845.554,12.695,-35.156,-31.250,-35.645
1626465845.558,172.852,-35.645,-34.668,-15.137
1626465845.562,-59.570,-45.898,-45.410,-49.316
1626465845.566,-213.379,-49.316,-42.480,-60.547
1626465845.569,-47.363,-40.527,-27.832,-30.273
1626465845.573,192.871,-29.297,-15.137,6.348
1626465845.577,33.203,-32.227,-33.203,-25.391
1626465845.581,-189.941,-43.457,-30.273,-46.387
1626465845.585,-109.375,-40.527,-20.996,-25.879
1626465845.604,149.902,-32.227,-15.625,2.930
1626465845.608,109.863,-37.598,-28.320,-7.812
1626465845.612,-159.668,-41.992,-21.484,-37.109
1626465845.616,-177.246,-38.574,-17.090,-43.457
1626465845.620,70.312,-25.879,-12.207,-12.207
1626465845.624,170.898,-22.461,-23.438,3.418
1626465845.628,-100.098,-36.133,-35.156,-43.945
1626465845.631,-202.637,-36.133,-28.809,-45.410
1626465845.635,-0.488,-25.391,-14.648,-13.672
1626465845.639,190.430,-21.973,-13.184,9.766
1626465845.643,-30.762,-28.320,-33.691,-26.855
1626465845.647,-207.031,-31.738,-27.344,-42.969
1626465845.646,-64.453,-30.273,-17.090,-17.090
1626465845.650,169.434,-31.250,-19.531,10.254
1626465845.654,45.410,-27.344,-27.344,-12.695
1626465845.658,-174.805,-30.762,-21.973,-42.969
1626465845.662,-122.070,-39.551,-22.949,-36.621
1626465845.666,117.676,-35.156,-12.207,-2.441
1626465845.670,105.957,-33.691,-28.809,-13.672
1626465845.673,-163.574,-35.156,-34.180,-54.199
1626465845.677,-195.312,-32.715,-34.668,-55.176
1626465845.681,30.762,-42.480,-37.109,-32.715
1626465845.685,140.137,-37.109,-41.992,-21.484
1626465845.689,-112.793,-34.668,-45.410,-54.688
1626465845.706,-223.633,-47.852,-35.156,-61.035
1626465845.710,-31.250,-41.504,-26.367,-37.109
1626465845.714,168.457,-31.738,-27.344,-6.348
1626465845.718,-46.387,-41.016,-44.922,-47.852
1626465845.722,-232.422,-40.527,-32.227,-70.312
1626465845.726,-94.238,-30.273,-18.555,-43.457
1626465845.730,143.066,-31.250,-25.879,-15.137
1626465845.733,35.156,-37.598,-44.434,-38.574
1626465845.737,-204.102,-41.992,-38.574,-71.777
1626465845.741,-159.180,-35.645,-32.715,-55.664
1626465845.745,96.680,-20.996,-23.438,-15.625
1626465845.749,126.465,-21.973,-30.762,-9.766
1626465845.736,-150.879,-38.086,-37.109,-50.293
1626465845.740,-210.938,-40.527,-40.039,-59.570
1626465845.744,21.484,-28.809,-28.320,-25.391
1626465845.748,159.180,-29.297,-29.297,-0.488
1626465845.752,-91.797,-35.645,-41.992,-39.062
1626465845.756,-219.727,-34.668,-36.133,-57.617
1626465845.760,-39.551,-36.621,-33.691,-38.086
1626465845.763,166.016,-41.504,-36.621,-22.461
1626465845.767,-18.066,-46.387,-48.340,-54.688
1626465845.771,-213.379,-43.457,-40.527,-70.312
1626465845.775,-110.840,-43.945,-32.227,-52.734
1626465845.779,134.277,-34.668,-34.668,-14.160
1626465845.782,62.012,-39.551,-54.199,-29.297
1626465845.786,-174.805,-44.922,-42.480,-57.617
1626465845.790,-164.551,-41.016,-38.086,-56.152
1626465845.794,67.871,-37.109,-37.109,-30.273
1626465845.798,127.441,-35.156,-47.363,-21.484
1626465845.802,-143.066,-39.551,-47.852,-60.059
1626465845.806,-218.262,-44.434,-37.109,-66.406
1626465845.809,1.953,-39.062,-31.250,-41.992
1626465845.813,162.109,-36.133,-33.203,-21.484
1626465845.817,-77.637,-39.062,-41.504,-61.035
1626465845.821,-225.586,-39.062,-37.598,-74.219
1626465845.825,-61.035,-36.621,-23.926,-40.527
1626465845.827,156.250,-34.668,-28.320,-9.766
1626465845.831,-10.254,-43.457,-50.781,-48.828
1626465845.835,-219.727,-43.945,-37.598,-68.359
1626465845.839,-134.277,-40.039,-33.203,-51.270
1626465845.843,112.793,-39.062,-30.762,-23.926
1626465845.847,82.031,-37.109,-39.551,-27.344
1626465845.851,-173.340,-35.156,-38.574,-60.547
1626465845.854,-189.453,-45.410,-40.527,-65.430
1626465845.858,51.270,-40.039,-32.227,-32.715
1626465845.862,147.461,-26.367,-29.785,-6.348
1626465845.866,-113.770,-39.062,-40.527,-42.969
1626465845.870,-203.613,-41.992,-38.086,-47.852
1626465845.873,7.324,-36.621,-34.668,-14.160
1626465845.877,193.848,-31.738,-34.180,18.555
1626465845.881,-16.602,-30.273,-37.598,-15.137
1626465845.885,-186.523,-34.668,-32.715,-35.156
1626465845.889,-46.387,-35.156,-28.809,-13.184
1626465845.893,200.684,-21.484,-27.832,18.066
1626465845.897,60.059,-24.902,-49.805,-12.207
1626465845.900,-186.523,-40.039,-47.852,-52.246
1626465845.904,-113.770,-31.738,-36.621,-38.086
1626465845.908,154.785,-25.391,-25.391,6.836
1626465845.912,129.883,-31.250,-38.574,-7.812
1626465845.916,-159.180,-41.016,-38.086,-52.246
1626465845.916,-190.430,-41.992,-19.531,-50.781
1626465845.920,40.527,-35.645,-20.020,-29.297
1626465845.924,156.250,-25.879,-31.250,-15.137
1626465845.928,-105.469,-34.668,-33.691,-51.270
1626465845.932,-226.074,-49.316,-29.297,-56.641
1626465845.936,-28.809,-44.434,-22.949,-35.645
1626465845.940,180.664,-40.039,-28.809,-1.953
1626465845.943,-41.016,-46.875,-45.898,-34.668
1626465845.947,-228.516,-47.852,-25.391,-61.035
1626465845.951,-97.168,-41.504,-18.555,-44.434
1626465845.955,145.020,-33.691,-24.902,-11.719
1626465845.959,43.457,-41.992,-39.062,-32.715
1626465845.967,-199.707,-47.363,-29.297,-58.105
1626465845.971,-158.691,-37.109,-27.832,-46.387
1626465845.975,108.887,-26.855,-24.902,-16.113
1626465845.979,136.719,-25.879,-31.738,-13.184
1626465845.983,-145.020,-36.621,-33.691,-45.410
1626465845.987,-195.801,-41.504,-33.203,-48.340
1626465845.991,26.855,-38.086,-31.250,-26.367
1626465845.994,162.598,-42.969,-30.762,-0.488
1626465845.998,-90.332,-44.434,-38.086,-40.527
1626465846.002,-229.004,-42.480,-35.156,-58.105
1626465846.006,-38.086,-33.691,-25.391,-20.020
1626465846.010,190.430,-28.809,-25.391,18.066
1626465846.022,-5.859,-37.109,-41.016,-21.484
1626465846.026,-216.309,-32.715,-29.297,-40.527
1626465846.030,-109.863,-31.250,-18.066,-24.414
1626465846.034,149.902,-30.273,-22.949,6.836
1626465846.038,74.219,-38.086,-43.945,-3.418
1626465846.042,-191.406,-52.734,-42.969,-41.504
1626465846.046,-181.152,-51.270,-37.109,-41.504
1626465846.049,77.148,-33.691,-23.926,-2.930
1626465846.053,132.324,-31.250,-40.039,-0.488
1626465846.057,-137.207,-35.645,-44.922,-40.527
1626465846.061,-199.707,-35.645,-32.715,-39.062
1626465846.065,13.672,-36.133,-27.832,-13.672
1626465846.066,170.898,-32.227,-32.715,2.441
1626465846.070,-73.242,-41.016,-40.039,-44.434
1626465846.074,-221.191,-35.156,-30.762,-57.129
1626465846.078,-55.176,-19.043,-25.391,-30.762
1626465846.082,181.641,-20.508,-25.879,0.977
1626465846.086,31.738,-24.414,-38.574,-28.809
1626465846.090,-194.336,-32.227,-29.297,-54.199
1626465846.093,-121.582,-35.645,-31.250,-46.875
1626465846.097,127.930,-36.133,-32.227,-20.020
1626465846.101,80.078,-50.781,-48.340,-32.227
1626465846.105,-187.988,-38.086,-42.969,-59.570
1626465846.109,-185.059,-20.508,-30.273,-47.852
1626465846.111,64.941,-24.414,-24.414,-20.508
1626465846.115,146.484,-26.855,-35.156,-5.371
1626465846.119,-121.094,-41.504,-43.457,-42.480
1626465846.123,-210.449,-46.875,-39.551,-51.758
1626465846.127,-11.719,-38.086,-37.109,-28.320
1626465846.131,161.133,-32.715,-40.527,-9.766
1626465846.135,-61.523,-39.062,-45.898,-46.875
1626465846.138,-218.750,-31.738,-31.250,-53.223
1626465846.142,-73.242,-26.367,-31.738,-34.180
1626465846.146,151.855,-35.645,-41.016,-10.742
1626465846.150,24.414,-41.016,-47.852,-31.738
1626465846.154,-193.359,-36.133,-26.367,-47.363
1626465846.156,-129.395,-34.180,-23.926,-32.227
1626465846.160,115.723,-28.809,-29.785,-3.418
1626465846.164,107.910,-21.484,-37.598,-6.836
1626465846.168,-141.602,-26.367,-35.156,-41.504
1626465846.172,-168.945,-31.738,-32.715,-41.504
1626465846.176,52.734,-26.367,-28.809,-17.578
1626465846.180,154.785,-25.391,-40.039,-10.742
1626465846.183,-107.422,-38.574,-58.105,-50.293
1626465846.187,-215.820,-40.039,-56.641,-57.129
1626465846.191,-20.020,-29.297,-45.410,-33.691
1626465846.195,168.945,-27.344,-42.969,-13.672
1626465846.199,-32.227,-36.133,-54.199,-46.387
1626465846.201,-201.172,-32.715,-39.062,-56.641
1626465846.205,-71.289,-31.250,-33.691,-38.574
1626465846.209,175.293,-30.273,-32.715,-8.789
1626465846.213,67.871,-35.645,-49.316,-32.715
1626465846.217,-176.758,-38.574,-42.969,-56.152
1626465846.221,-135.742,-27.344,-26.855,-39.062
1626465846.225,106.934,-21.484,-24.414,-11.719
1626465846.228,122.070,-25.879,-46.875,-18.555
1626465846.232,-135.742,-30.273,-40.039,-50.781
1626465846.236,-181.641,-31.250,-27.344,-46.387
1626465846.240,35.645,-27.344,-26.855,-17.090
1626465846.244,173.340,-25.879,-31.738,0.977
1626465846.250,-81.543,-35.645,-39.551,-41.992
1626465846.254,-216.797,-36.133,-31.738,-52.734
1626465846.258,-31.738,-35.645,-28.320,-31.250
1626465846.262,173.828,-32.715,-30.762,-4.395
1626465846.266,-17.090,-30.273,-39.551,-38.086
1626465846.270,-215.820,-37.598,-34.668,-59.082
1626465846.274,-116.699,-44.434,-33.691,-42.969
1626465846.277,140.137,-37.598,-22.461,-9.766
1626465846.281,74.219,-36.621,-39.551,-24.902
1626465846.285,-176.270,-41.992,-34.668,-55.176
1626465846.289,-155.273,-45.898,-22.949,-47.363
1626465846.293,93.262,-39.551,-23.438,-14.160
1626465846.292,142.578,-24.902,-34.668,-9.277
1626465846.296,-126.465,-30.273,-33.691,-46.875
1626465846.300,-177.734,-29.297,-24.902,-43.457
1626465846.304,51.270,-23.438,-20.020,-12.207
1626465846.308,201.660,-28.809,-23.926,17.090
1626465846.312,-45.410,-34.668,-35.156,-18.066
1626465846.316,-201.172,-43.945,-33.203,-42.969
1626465846.319,-47.363,-44.434,-29.297,-27.832
1626465846.323,166.016,-29.785,-24.902,3.418
1626465846.327,4.883,-31.250,-34.180,-26.855
1626465846.331,-200.195,-33.691,-24.902,-48.340
1626465846.335,-112.305,-32.715,-18.066,-26.855
1626465846.338,136.719,-30.762,-20.996,0.000
1626465846.342,94.727,-29.297,-35.156,-11.230
1626465846.346,-158.203,-28.320,-33.691,-37.598
1626465846.350,-169.922,-37.109,-31.250,-43.457
1626465846.354,64.941,-39.551,-25.879,-21.484
1626465846.358,144.531,-32.715,-26.855,-11.230
1626465846.362,-120.117,-36.621,-23.926,-48.340
1626465846.365,-207.520,-30.762,-19.531,-50.293
1626465846.369,3.906,-18.066,-17.578,-22.461
1626465846.373,175.781,-21.484,-22.949,0.977
1626465846.377,-59.570,-37.598,-40.527,-32.715
1626465846.381,-218.750,-37.598,-30.762,-50.293
1626465846.397,-72.754,-36.133,-28.320,-40.039
1626465846.401,166.504,-28.809,-31.250,-1.953
1626465846.405,33.203,-25.391,-37.598,-22.949
1626465846.409,-199.219,-25.391,-24.414,-47.363
1626465846.413,-135.254,-25.879,-24.902,-37.109
1626465846.417,118.164,-29.297,-29.297,-19.043
1626465846.421,104.492,-31.738,-44.434,-26.855
1626465846.424,-152.832,-32.715,-38.086,-51.270
1626465846.428,-174.316,-34.668,-30.762,-48.828
1626465846.432,46.387,-28.320,-24.414,-21.973
1626465846.436,142.578,-25.391,-27.832,-5.859
1626465846.440,-114.746,-34.668,-34.668,-41.016
1626465846.441,-217.285,-38.574,-33.203,-49.316
1626465846.445,-20.996,-34.668,-21.973,-31.250
1626465846.449,171.387,-29.785,-19.043,-5.371
1626465846.453,-19.531,-22.461,-26.855,-26.855
1626465846.457,-196.777,-33.203,-23.438,-43.945
1626465846.461,-87.402,-52.734,-28.320,-35.156
1626465846.465,161.621,-36.133,-20.020,2.441
1626465846.468,48.340,-27.832,-35.156,-22.461
1626465846.472,-203.613,-31.250,-39.062,-68.848
1626465846.476,-159.180,-32.227,-37.598,-64.941
1626465846.480,94.727,-29.297,-30.762,-36.621
1626465846.484,117.188,-23.438,-36.133,-39.062
1626465846.488,-155.762,-43.457,-41.016,-79.102
1626465846.492,-199.707,-55.176,-50.781,-75.195
1626465846.496,42.480,-28.320,-35.156,-32.715
1626465846.500,166.504,-15.625,-24.902,-7.812
1626465846.504,-103.516,-45.898,-47.363,-48.828
1626465846.508,-222.656,-50.781,-42.969,-68.848
1626465846.512,-38.574,-32.715,-33.691,-45.898
1626465846.515,170.898,-5.859,-29.297,-2.930
1626465846.519,-26.855,-28.809,-44.922,-36.133
1626465846.523,-222.168,-50.293,-34.180,-53.711
1626465846.527,-104.004,-35.645,-19.531,-34.180
1626465846.531,137.695,-41.992,-16.602,-8.789
1626465846.532,57.617,-49.316,-37.598,-24.414
1626465846.536,-188.477,-30.273,-34.668,-52.734
1626465846.540,-164.551,-33.203,-14.648,-42.969
1626465846.544,72.754,-53.711,1.465,-20.508
1626465846.548,115.234,-42.480,-7.324,-19.043
1626465846.552,-119.629,-21.484,23.438,-39.551
1626465846.556,-174.805,-24.902,55.664,-35.156
1626465846.559,25.879,-41.992,33.203,-18.066
1626465846.563,177.246,-44.922,33.203,-2.441
1626465846.567,-55.664,-51.758,38.086,-32.715
1626465846.571,-210.449,-80.566,23.438,-47.363
1626465846.575,-49.316,-84.473,17.578,-32.227
1626465846.576,174.316,-79.102,34.180,-5.859
1626465846.580,11.230,-86.914,36.133,-27.832
1626465846.584,-205.078,-109.375,31.738,-58.105
1626465846.588,-132.812,-112.305,15.137,-55.664
1626465846.592,114.746,-103.027,8.301,-22.461
1626465846.596,76.172,-114.746,14.160,-26.367
1626465846.600,-184.082,-127.441,23.438,-58.594
1626465846.603,-194.336,-131.836,18.066,-62.012
1626465846.607,63.965,-112.305,36.133,-26.367
1626465846.611,144.043,-114.746,23.926,-14.160
1626465846.615,-137.695,-147.461,10.254,-60.547
1626465846.619,-214.355,-147.949,25.391,-64.453
1626465846.622,0.488,-121.582,36.621,-32.227
1626465846.626,171.875,-109.375,41.016,-2.441
1626465846.630,-49.316,-138.672,30.762,-36.621
1626465846.634,-211.914,-163.574,18.555,-61.035
1626465846.638,-67.871,-171.387,24.414,-43.457
1626465846.642,178.711,-156.738,50.781,-3.418
1626465846.646,36.133,-169.922,30.273,-34.668
1626465846.649,-207.520,-192.383,11.230,-71.289
1626465846.653,-136.230,-189.453,27.832,-57.129
1626465846.657,118.164,-186.035,21.484,-25.879
1626465846.661,93.262,-178.711,-17.090,-36.621
1626465846.665,-172.363,-175.781,-26.367,-73.730
1626465846.668,-199.707,-176.270,-23.926,-72.266
1626465846.672,41.504,-153.809,-12.695,-32.227
1626465846.676,158.203,-162.109,-37.598,-18.066
1626465846.680,-104.980,-180.664,-33.203,-51.758
1626465846.684,-220.703,-176.270,0.488,-57.129
1626465846.688,-29.785,-199.219,-17.578,-47.363
1626465846.692,154.297,-214.355,-33.203,-20.996
1626465846.695,-56.641,-206.543,-37.109,-50.293
1626465846.699,-229.492,-196.289,-35.645,-67.383
1626465846.703,-87.891,-200.195,-24.414,-46.387
1626465846.707,152.832,-210.938,-18.066,-11.719
1626465846.711,30.762,-228.027,-45.898,-35.156
1626465846.713,-216.797,-256.348,-52.734,-77.148
1626465846.717,-175.293,-263.184,-71.289,-69.824
1626465846.721,80.566,-265.625,-72.266,-34.180
1626465846.725,90.820,-267.090,-87.402,-40.039
1626465846.729,-173.340,-235.840,-88.379,-65.430
1626465846.733,-205.566,-213.867,-86.426,-58.105
1626465846.737,36.133,-181.641,-72.754,-24.902
1626465846.740,167.480,-143.555,-61.035,0.488
1626465846.744,-103.027,-171.387,-99.609,-51.270
1626465846.748,-243.652,-200.195,-101.562,-73.242
1626465846.752,-60.059,-185.547,-80.078,-46.387
1626465846.756,162.109,-151.855,-63.477,-5.859
1626465846.771,-16.113,-138.672,-74.219,-33.203
1626465846.775,-212.402,-137.207,-80.078,-58.105
1626465846.779,-90.820,-116.699,-56.641,-28.320
1626465846.783,157.715,-121.094,-50.293,0.977
1626465846.787,57.129,-117.188,-91.309,-35.156
1626465846.791,-184.570,-81.055,-77.148,-65.430
1626465846.795,-149.414,-73.730,-50.781,-55.176
1626465846.798,86.426,-65.918,-54.688,-32.715
1626465846.802,122.559,-27.344,-54.199,-24.902
1626465846.806,-143.555,-20.020,-30.273,-57.129
1626465846.810,-204.590,-26.367,-14.160,-58.105
1626465846.814,23.926,-16.113,2.930,-19.531
1626465846.816,173.340,-4.395,5.859,-0.977
1626465846.820,-89.355,-23.438,-11.230,-49.316
1626465846.824,-230.957,-31.738,2.441,-52.246
1626465846.828,-60.547,-12.207,15.137,-34.180
1626465846.832,160.156,-19.043,28.320,-12.695
1626465846.836,4.395,-18.555,29.785,-35.156
1626465846.840,-218.262,-5.371,28.320,-62.012
1626465846.843,-139.160,-11.230,20.020,-52.734
1626465846.847,123.535,2.930,29.785,-17.090
1626465846.851,65.918,3.906,13.184,-32.227
1626465846.855,-193.359,20.508,22.461,-61.035
1626465846.859,-175.781,46.387,30.273,-48.828
1626465846.862,69.824,71.289,20.508,-16.113
1626465846.866,142.090,103.027,26.855,-2.441
1626465846.870,-114.258,104.980,39.551,-43.945
1626465846.874,-198.730,120.117,25.391,-59.082
1626465846.878,3.418,133.789,8.789,-39.551
1626465846.882,180.176,140.625,9.277,-7.812
1626465846.886,-41.016,178.223,9.766,-34.668
1626465846.889,-211.914,154.297,11.719,-55.664
1626465846.893,-69.824,109.375,25.879,-29.785
1626465846.897,173.340,126.465,32.715,6.836
1626465846.901,10.254,117.676,1.465,-46.387
1626465846.905,-217.285,127.930,22.949,-79.102
1626465846.906,-122.070,126.465,49.316,-57.129
1626465846.910,116.211,93.750,54.688,-36.133
1626465846.914,94.727,100.098,65.430,-32.715
1626465846.918,-177.246,83.008,68.359,-65.918
1626465846.922,-219.238,30.762,53.223,-80.566
1626465846.926,46.875,44.434,70.801,-35.645
1626465846.930,147.949,55.176,73.730,-16.602
1626465846.933,-129.883,2.930,66.406,-62.012
1626465846.937,-217.773,-1.953,71.777,-65.918
1626465846.941,-15.625,14.160,67.383,-41.016
1626465846.945,167.969,-12.695,72.266,-15.137
1626465846.949,-53.223,-29.297,58.105,-50.293
1626465846.951,-233.398,-31.250,66.895,-69.824
1626465846.955,-82.520,-25.391,84.473,-43.945
1626465846.959,178.223,-41.992,81.543,-8.301
1626465846.963,57.617,-67.383,66.895,-31.738
1626465846.967,-194.824,-78.125,76.172,-63.965
1626465846.971,-153.320,-71.777,84.473,-56.641
1626465846.975,106.934,-81.055,92.285,-24.414
1626465846.978,120.605,-92.285,85.938,-18.555
1626465846.982,-155.762,-87.402,70.312,-56.152
1626465846.986,-201.172,-92.773,67.383,-63.477
1626465846.990,34.180,-111.328,73.242,-33.691
1626465846.994,163.574,-110.840,61.523,-17.090
1626465846.997,-95.703,-102.539,62.012,-46.387
1626465847.001,-214.844,-96.680,67.871,-47.363
1626465847.005,-26.855,-87.402,55.176,-31.250
1626465847.009,177.734,-96.680,47.363,-4.883
1626465847.013,-22.461,-95.703,30.762,-35.645
1626465847.017,-220.215,-81.543,27.344,-59.570
1626465847.021,-108.398,-96.680,15.625,-43.945
1626465847.024,137.695,-107.910,0.977,-15.625
1626465847.028,41.504,-104.980,-21.973,-31.250
1626465847.032,-204.590,-84.473,-20.508,-60.547
1626465847.036,-169.922,-58.105,-11.719,-54.199
1626465847.040,75.195,-67.871,-7.812,-25.879
1626465847.041,111.816,-63.477,-40.527,-23.438
1626465847.045,-156.250,-62.500,-48.340,-57.129
1626465847.049,-219.727,-73.242,-41.992,-63.965
1626465847.053,11.230,-50.781,-35.645,-28.809
1626465847.057,159.668,-20.996,-50.293,-6.348
1626465847.061,-88.379,-5.859,-72.266,-48.340
1626465847.065,-232.422,-22.949,-73.242,-65.918
1626465847.068,-62.988,-3.906,-76.172,-39.551
1626465847.072,163.574,23.926,-70.312,-10.254
1626465847.076,-10.742,13.672,-85.938,-44.922
1626465847.080,-212.891,30.273,-78.613,-59.570
1626465847.084,-121.582,37.598,-62.012,-40.527
1626465847.088,117.188,17.090,-62.988,-12.207
1626465847.092,66.406,15.137,-90.332,-24.414
1626465847.096,-185.059,16.602,-92.773,-49.316
1626465847.100,-186.523,-8.301,-107.422,-53.223
1626465847.104,62.988,-11.230,-108.398,-30.762
1626465847.108,124.023,-8.301,-102.051,-17.578
1626465847.112,-132.812,-6.348,-96.191,-46.875
1626465847.115,-202.148,1.465,-83.008,-45.898
1626465847.119,3.906,0.977,-79.590,-24.414
1626465847.123,166.992,-0.977,-88.867,-5.371
1626465847.127,-50.293,9.277,-92.773,-30.762
1626465847.131,-202.637,2.930,-76.660,-37.598
1626465847.146,-75.684,-34.180,-81.543,-32.227
1626465847.150,142.090,-35.645,-105.469,-11.719
1626465847.154,11.719,-23.438,-111.328,-29.785
1626465847.158,-203.613,-20.996,-85.449,-47.852
1626465847.162,-148.926,-27.832,-80.566,-46.875
1626465847.166,117.188,-24.902,-64.453,-10.742
1626465847.170,92.773,-33.203,-82.520,-13.184
1626465847.173,-184.082,-44.434,-91.797,-57.617
1626465847.177,-187.988,-37.109,-81.543,-52.246
1626465847.181,45.410,-31.738,-79.590,-20.508
1626465847.185,128.906,-29.297,-94.727,-14.648
1626465847.189,-126.953,-23.926,-104.004,-57.617
1626465847.191,-205.078,6.348,-86.426,-53.223
1626465847.195,-10.742,-18.555,-89.355,-33.691
1626465847.199,170.410,-28.320,-93.262,-12.695
1626465847.203,-26.855,-11.230,-85.938,-36.133
1626465847.207,-212.891,-31.250,-97.168,-60.547
1626465847.211,-94.727,-29.785,-98.633,-50.781
1626465847.215,146.973,-13.672,-85.449,-21.484
1626465847.218,45.410,-16.113,-73.730,-23.438
1626465847.222,-185.547,-33.203,-62.012,-51.758
1626465847.226,-152.832,-59.082,-73.730,-59.570
1626465847.230,83.984,-54.688,-78.613,-25.879
1626465847.234,87.402,-61.035,-74.219,-20.996
1626465847.236,-166.016,-62.012,-44.434,-46.387
1626465847.240,-199.219,-54.688,-25.879,-43.945
1626465847.244,38.574,-26.855,-19.531,-16.602
1626465847.248,176.270,-16.113,1.465,8.789
1626465847.252,-87.891,-69.336,-9.766,-44.434
1626465847.256,-208.984,-71.289,-18.555,-56.641
1626465847.260,-5.371,-17.090,3.418,-19.531
1626465847.263,178.223,-10.254,-20.508,-10.254
1626465847.267,-43.945,-62.500,-37.598,-53.223
1626465847.271,-231.934,-53.711,-10.254,-68.359
1626465847.275,-97.656,-13.672,11.719,-40.527
1626465847.279,155.762,5.859,21.973,0.000
1626465847.281,52.734,-9.766,14.160,-21.973
1626465847.285,-208.496,-57.129,12.695,-64.941
1626465847.289,-167.480,-31.250,26.367,-46.875
1626465847.293,97.168,-9.277,55.664,-2.930
1626465847.297,121.582,-32.715,47.363,-18.555
1626465847.301,-135.742,-26.855,68.848,-48.828
1626465847.305,-181.152,-16.113,87.402,-33.691
1626465847.308,24.902,-26.367,87.402,-17.578
1626465847.312,173.828,-15.625,104.004,2.930
1626465847.316,-58.105,12.695,106.934,-22.949
1626465847.320,-200.195,-6.836,112.793,-36.133
1626465847.324,-33.691,-33.691,125.000,-21.973
1626465847.327,179.199,-32.227,141.113,-4.395
1626465847.331,11.230,-34.180,145.020,-24.902
1626465847.335,-204.590,-61.523,133.301,-41.992
1626465847.339,-111.328,-46.387,129.883,-27.344
1626465847.343,132.812,-52.734,124.023,-1.465
1626465847.347,79.590,-49.805,97.656,-9.766
1626465847.351,-169.434,-38.574,96.680,-33.691
1626465847.354,-180.664,-69.824,89.355,-36.621
1626465847.358,62.012,-56.152,93.262,-19.531
1626465847.362,133.301,-33.691,94.238,-4.883
1626465847.366,-121.582,-19.043,96.680,-30.273
1626465847.370,-191.895,-23.926,89.844,-43.457
1626465847.374,3.418,-59.570,70.801,-29.785
1626465847.378,148.438,-67.383,49.316,-18.066
1626465847.382,-66.895,-62.988,53.711,-46.875
1626465847.386,-194.336,-2.441,75.195,-43.457
1626465847.390,-62.500,-3.906,68.848,-36.133
1626465847.394,139.648,-63.477,41.992,-24.902
1626465847.398,20.020,-29.785,25.391,-35.645
1626465847.401,-214.844,-73.242,8.789,-66.406
1626465847.405,-155.273,-84.473,-9.766,-58.105
1626465847.409,121.582,-18.555,16.113,-12.207
1626465847.413,82.520,-31.738,14.648,-20.996
1626465847.417,-177.246,-27.832,16.602,-53.711
1626465847.416,-189.941,-21.484,11.719,-57.617
1626465847.420,29.785,-32.227,5.859,-35.156
1626465847.424,131.836,-13.672,-12.207,-16.113
1626465847.428,-130.371,-40.527,-33.203,-65.918
1626465847.432,-221.191,-55.664,-17.090,-71.777
1626465847.436,-9.277,-35.156,-1.465,-36.621
1626465847.440,155.273,-29.785,-11.719,-24.414
1626465847.443,-56.641,-33.203,-13.672,-55.664
1626465847.447,-210.449,-52.734,0.488,-66.406
1626465847.451,-86.914,-76.660,-6.836,-55.176
1626465847.455,148.438,-66.895,-3.906,-17.090
1626465847.459,52.246,-32.715,7.324,-25.391
1626465847.463,-171.875,-66.406,14.648,-51.758
1626465847.467,-143.555,-116.211,-15.137,-60.059
1626465847.471,122.559,-70.312,5.859,-21.484
1626465847.475,125.977,-62.500,6.836,-20.996
1626465847.479,-168.945,-91.309,0.488,-76.660
1626465847.483,-187.988,-62.012,16.113,-66.406
1626465847.487,62.012,-25.391,25.879,-23.438
1626465847.490,159.668,-37.598,26.855,-8.789
1626465847.494,-104.492,-67.383,34.180,-46.387
1626465847.498,-202.637,-41.992,42.969,-46.387
1626465847.502,-22.949,-34.180,32.227,-28.320
1626465847.506,163.086,-31.250,34.180,-9.277
1626465847.521,-29.785,-7.812,30.273,-37.109
1626465847.525,-228.027,-0.488,29.297,-61.035
1626465847.529,-114.746,-1.953,31.250,-51.270
1626465847.533,132.812,-7.324,24.414,-20.020
1626465847.537,41.992,-29.785,12.695,-31.250
1626465847.541,-190.918,-18.555,19.531,-48.828
1626465847.545,-170.898,-16.602,1.465,-46.875
1626465847.548,87.402,-7.324,5.859,-20.020
1626465847.552,139.160,3.418,-10.254,-11.230
1626465847.556,-133.789,-22.461,-37.109,-47.852
1626465847.560,-202.148,-53.711,-55.176,-52.734
1626465847.564,16.602,-62.012,-67.383,-34.668
1626465847.567,157.227,-55.664,-89.355,-12.695
1626465847.571,-96.191,-52.734,-110.352,-53.223
1626465847.575,-215.332,-23.438,-115.723,-60.059
1626465847.579,-29.297,3.906,-108.398,-11.230
1626465847.583,163.574,4.883,-134.277,2.441
1626465847.587,-15.625,-6.836,-184.570,-41.016
1626465847.591,-209.961,-16.602,-179.688,-55.176
1626465847.594,-121.582,-4.883,-179.688,-45.898
1626465847.598,123.535,-0.488,-187.988,-20.996
1626465847.602,61.035,-24.414,-200.195,-34.668
1626465847.606,-187.500,-15.625,-178.223,-59.570
1626465847.610,-178.711,-20.996,-184.570,-57.129
1626465847.611,53.223,-48.340,-203.125,-41.016
1626465847.615,118.164,-39.062,-194.336,-25.391
1626465847.619,-136.719,-34.668,-197.266,-59.082
1626465847.623,-208.008,-31.250,-207.520,-62.988
1626465847.627,7.324,-19.531,-194.824,-26.855
1626465847.631,147.461,-37.109,-217.773,-25.879
1626465847.635,-79.590,-45.410,-227.051,-62.500
1626465847.638,-205.078,-33.691,-199.707,-58.594
1626465847.642,-75.195,-53.223,-214.844,-56.641
1626465847.646,142.578,-55.176,-216.797,-25.391
1626465847.650,6.348,-39.551,-215.820,-41.504
1626465847.654,-199.219,-35.156,-190.430,-63.965
1626465847.656,-131.836,-58.594,-197.754,-57.129
1626465847.660,111.816,-52.246,-211.914,-26.855
1626465847.664,84.473,-19.531,-216.797,-24.414
1626465847.668,-177.246,-34.180,-210.449,-51.758
1626465847.672,-191.895,-74.219,-203.613,-50.293
1626465847.676,58.594,-46.875,-185.059,-16.113
1626465847.680,160.645,-11.719,-175.781,5.859
1626465847.683,-121.094,-61.035,-191.895,-46.387
1626465847.687,-221.191,-71.289,-198.730,-60.547
1626465847.691,-13.184,-58.105,-188.477,-27.344
1626465847.695,153.320,-79.590,-198.730,-5.859
1626465847.699,-58.594,-80.566,-212.402,-39.062
1626465847.702,-218.262,-79.102,-177.246,-48.828
1626465847.706,-82.031,-85.449,-169.922,-37.598
1626465847.710,164.551,-80.078,-188.965,-3.906
1626465847.714,40.527,-94.727,-203.125,-20.020
1626465847.718,-200.195,-120.117,-180.664,-48.828
1626465847.722,-133.789,-123.535,-174.316,-32.715
1626465847.726,128.906,-102.051,-187.500,-2.441
1626465847.729,124.512,-89.844,-200.684,-8.301
1626465847.733,-151.855,-91.309,-187.500,-45.898
1626465847.737,-180.664,-92.285,-164.062,-41.016
1626465847.741,48.828,-110.840,-160.156,-8.301
1626465847.745,157.227,-95.215,-164.551,11.719
1626465847.748,-92.773,-83.984,-172.363,-30.273
1626465847.752,-212.402,-115.723,-176.758,-47.363
1626465847.756,-11.719,-108.398,-158.203,-14.160
1626465847.760,192.871,-90.820,-165.039,10.742
1626465847.764,-9.277,-80.566,-177.734,-23.438
1626465847.768,-194.336,-80.566,-157.227,-35.645
1626465847.772,-82.031,-100.586,-161.133,-21.484
1626465847.775,162.109,-93.750,-163.574,1.953
1626465847.779,62.988,-90.820,-181.641,-19.531
1626465847.783,-194.824,-112.793,-178.711,-49.805
1626465847.787,-161.133,-88.867,-166.016,-42.969
1626465847.791,95.215,-72.266,-164.062,-12.695
1626465847.791,123.047,-84.961,-172.852,-2.930
1626465847.795,-135.254,-77.637,-163.086,-31.738
1626465847.799,-188.477,-71.289,-174.805,-42.480
1626465847.803,41.016,-58.105,-179.199,-12.695
1626465847.807,179.688,-55.176,-171.875,11.719
1626465847.811,-73.242,-52.734,-178.223,-33.691
1626465847.815,-206.543,-63.965,-175.781,-50.781
1626465847.818,-36.133,-83.008,-168.945,-32.715
1626465847.822,176.758,-73.242,-164.062,-5.859
1626465847.826,-0.488,-67.383,-175.293,-29.297
1626465847.830,-193.848,-62.988,-163.574,-41.504
1626465847.834,-99.121,-77.148,-162.109,-28.809
1626465847.840,150.879,-87.891,-166.504,4.883
1626465847.844,83.496,-86.914,-185.059,-5.859
1626465847.848,-176.270,-89.844,-170.410,-41.992
1626465847.852,-162.598,-90.332,-162.109,-36.621
1626465847.856,88.867,-77.637,-163.574,-2.930
1626465847.860,142.090,-97.168,-168.945,-1.953
1626465847.864,-130.371,-125.000,-174.316,-42.480
1626465847.867,-198.730,-122.559,-166.504,-41.992
1626465847.871,25.879,-104.980,-149.414,-13.184
1626465847.875,181.152,-100.098,-159.180,4.395
1626465847.879,-59.570,-111.328,-177.246,-33.203
1626465847.883,-202.637,-104.004,-165.527,-42.480
1626465847.896,-33.691,-110.840,-153.320,-8.789
1626465847.900,189.941,-120.117,-169.434,16.602
1626465847.904,37.109,-91.797,-175.781,-12.207
1626465847.908,-170.898,-81.543,-167.480,-28.809
1626465847.912,-107.422,-127.441,-182.617,-26.367
1626465847.916,151.855,-119.629,-165.527,5.859
1626465847.920,115.234,-95.215,-169.922,-1.465
1626465847.923,-165.527,-94.727,-163.574,-41.992
1626465847.927,-168.945,-77.148,-148.438,-37.598
1626465847.931,85.449,-72.266,-146.973,0.488
1626465847.935,150.879,-106.934,-167.480,-6.348
1626465847.939,-115.723,-115.234,-160.645,-43.457
1626465847.941,-196.777,-105.469,-143.555,-40.039
1626465847.945,11.230,-78.125,-120.117,-16.113
1626465847.949,194.824,-74.219,-113.770,8.789
1626465847.953,-43.945,-114.746,-145.508,-35.645
1626465847.957,-213.867,-118.164,-136.230,-51.758
1626465847.961,-74.219,-103.516,-128.906,-31.250
1626465847.965,165.527,-83.496,-126.953,6.836
1626465847.968,35.156,-84.961,-132.324,-13.184
1626465847.972,-206.543,-104.004,-121.582,-41.504
1626465847.976,-146.484,-93.262,-123.535,-36.621
1626465847.980,127.441,-69.824,-114.258,9.277
1626465847.984,126.953,-82.520,-119.629,8.789
1626465847.986,-164.551,-108.398,-124.023,-52.734
1626465847.990,-203.613,-105.469,-107.422,-56.641
1626465847.994,44.922,-66.406,-98.145,-15.625
1626465847.998,158.203,-63.965,-109.375,-2.441
1626465848.002,-122.559,-97.168,-116.699,-49.805
1626465848.006,-236.816,-106.934,-111.328,-61.523
1626465848.010,-37.109,-99.121,-106.934,-33.691
1626465848.013,162.109,-86.426,-107.910,-4.395
1626465848.017,-46.875,-80.566,-119.629,-46.387
1626465848.021,-235.352,-84.473,-114.746,-67.383
1626465848.025,-104.492,-92.773,-109.863,-48.828
1626465848.029,150.879,-78.125,-99.609,-12.207
1626465848.031,40.039,-86.914,-118.652,-31.738
1626465848.035,-210.938,-91.797,-113.281,-63.477
1626465848.039,-168.945,-77.148,-98.633,-52.734
1626465848.043,86.426,-89.355,-95.703,-18.066
1626465848.047,110.352,-92.285,-121.582,-20.020
1626465848.051,-155.762,-81.055,-119.141,-59.570
1626465848.055,-195.312,-83.496,-109.375,-55.664
1626465848.058,35.156,-87.891,-111.328,-22.461
1626465848.062,158.203,-81.055,-113.281,-9.766
1626465848.066,-90.820,-77.637,-113.281,-45.410
1626465848.070,-227.051,-93.262,-112.305,-59.082
1626465848.074,-52.246,-89.355,-109.863,-40.039
1626465848.077,180.664,-70.312,-106.445,-2.930
1626465848.081,-9.277,-89.355,-125.488,-41.992
1626465848.085,-218.262,-87.402,-111.816,-62.988
1626465848.089,-114.746,-68.848,-103.027,-43.457
1626465848.093,128.418,-84.961,-102.051,-15.137
1626465848.097,59.082,-89.844,-123.535,-37.598
1626465848.101,-197.266,-90.332,-129.395,-68.848
1626465848.104,-190.918,-98.145,-116.699,-62.988
1626465848.108,59.570,-88.867,-107.422,-39.062
1626465848.112,115.234,-77.148,-119.629,-30.762
1626465848.116,-156.250,-92.773,-121.094,-68.848
1626465848.120,-217.285,-98.633,-120.117,-64.453
1626465848.123,8.789,-87.891,-108.887,-29.785
1626465848.127,171.387,-74.219,-105.957,-7.324
1626465848.131,-70.312,-69.336,-112.305,-41.504
1626465848.135,-222.168,-74.707,-96.680,-54.688
1626465848.139,-56.152,-65.430,-87.402,-33.203
1626465848.143,167.969,-67.871,-99.121,-7.812
1626465848.147,0.977,-82.520,-118.652,-40.039
1626465848.150,-227.051,-93.750,-120.117,-69.336
1626465848.154,-144.531,-100.098,-115.723,-59.082
1626465848.158,125.977,-78.125,-94.727,-7.812
1626465848.162,78.125,-75.195,-114.258,-14.160
1626465848.166,-185.059,-82.520,-104.492,-47.852
1626465848.168,-177.734,-78.613,-87.891,-41.504
1626465848.172,68.848,-70.801,-82.520,-15.137
1626465848.176,140.137,-75.195,-108.887,-20.996
1626465848.180,-122.559,-87.891,-115.723,-63.477
1626465848.184,-205.566,-83.496,-106.934,-56.152
1626465848.188,5.859,-69.824,-101.074,-28.809
1626465848.192,191.895,-62.988,-96.680,-6.836
1626465848.195,-35.645,-61.523,-118.164,-40.039
1626465848.199,-208.008,-55.664,-107.422,-52.246
1626465848.203,-70.801,-67.383,-96.680,-39.551
1626465848.207,162.109,-70.801,-108.398,-6.836
1626465848.211,37.109,-59.570,-113.770,-22.949
1626465848.213,-187.500,-49.316,-81.543,-42.480
1626465848.217,-130.859,-54.199,-90.820,-31.250
1626465848.221,120.605,-68.359,-103.516,-6.836
1626465848.225,107.422,-70.801,-123.047,-6.348
1626465848.229,-158.691,-73.242,-117.188,-31.738
1626465848.233,-180.664,-56.152,-100.098,-37.598
1626465848.237,61.035,-30.273,-91.309,-8.789
1626465848.240,162.109,-52.246,-100.586,8.301
1626465848.244,-104.980,-69.336,-110.840,-44.434
1626465848.248,-208.984,-59.570,-96.680,-60.059
1626465848.252,-12.695,-56.152,-90.332,-27.344
1626465848.256,188.477,-39.062,-94.727,8.301
1626465848.271,-7.812,-32.227,-100.586,-18.066
1626465848.275,-195.801,-45.410,-87.402,-33.691
1626465848.279,-78.125,-50.781,-82.520,-21.973
1626465848.283,171.387,-32.715,-90.820,0.488
1626465848.287,57.129,-33.203,-110.840,-23.438
1626465848.291,-183.105,-47.852,-90.820,-43.457
1626465848.295,-137.695,-41.992,-85.938,-37.109
1626465848.298,115.234,-28.320,-80.078,-3.906
1626465848.302,131.836,-42.969,-85.449,-4.395
1626465848.306,-153.320,-51.758,-89.355,-52.734
1626465848.310,-208.496,-46.875,-87.402,-56.641
1626465848.314,26.367,-45.898,-83.008,-28.809
1626465848.316,161.621,-37.598,-89.844,-12.695
1626465848.320,-103.516,-43.945,-97.168,-58.105
1626465848.324,-226.074,-52.246,-81.055,-59.082
1626465848.328,-33.691,-45.898,-74.707,-27.832
1626465848.332,172.852,-33.203,-78.125,-2.441
1626465848.336,-1.465,-34.668,-86.426,-25.879
1626465848.340,-202.637,-56.152,-88.867,-48.340
1626465848.343,-104.980,-54.688,-86.914,-39.551
1626465848.347,150.391,-48.340,-78.125,-7.324
1626465848.351,62.988,-56.641,-95.703,-29.785
1626465848.355,-187.988,-43.457,-81.055,-56.152
1626465848.359,-163.574,-37.598,-66.895,-44.434
1626465848.361,83.496,-48.828,-74.707,-17.578
1626465848.365,132.324,-50.293,-83.984,-11.230
1626465848.369,-139.648,-55.176,-79.590,-45.410
1626465848.373,-202.637,-51.758,-73.242,-47.852
1626465848.377,18.555,-40.039,-67.871,-25.391
1626465848.381,158.691,-47.363,-92.773,-12.207
1626465848.385,-77.148,-48.340,-105.957,-43.457
1626465848.388,-217.285,-47.363,-83.984,-53.711
1626465848.392,-49.805,-41.016,-66.406,-27.832
1626465848.396,178.223,-40.039,-65.430,2.441
1626465848.400,2.930,-46.875,-84.473,-32.227
1626465848.404,-211.426,-54.688,-79.102,-53.711
1626465848.406,-116.211,-54.688,-72.266,-39.551
1626465848.410,140.625,-41.504,-65.918,-7.812
1626465848.414,91.309,-44.434,-73.730,-11.719
1626465848.418,-176.270,-49.805,-67.383,-43.945
1626465848.422,-172.363,-51.758,-66.895,-40.039
1626465848.426,87.891,-44.922,-58.594,-12.207
1626465848.430,162.109,-43.945,-70.801,-2.441
1626465848.433,-108.398,-50.293,-89.844,-37.598
1626465848.437,-214.355,-60.547,-89.355,-58.105
1626465848.441,4.395,-46.387,-78.125,-31.738
1626465848.445,192.871,-47.852,-71.289,0.000
1626465848.449,-41.016,-53.223,-80.078,-33.691
1626465848.452,-212.402,-61.035,-73.730,-60.059
1626465848.456,-67.871,-59.570,-65.430,-39.062
1626465848.460,176.270,-46.875,-66.406,0.000
1626465848.464,37.598,-42.480,-73.242,-28.320
1626465848.468,-204.590,-38.086,-68.848,-63.965
1626465848.472,-144.043,-47.852,-74.707,-56.152
1626465848.476,120.605,-56.152,-65.430,-15.137
1626465848.479,103.027,-50.781,-73.242,-20.996
1626465848.483,-167.480,-45.898,-60.547,-59.082
1626465848.487,-181.641,-39.062,-51.270,-51.270
1626465848.491,55.176,-40.039,-56.641,-18.066
1626465848.495,149.902,-41.504,-71.777,-6.836
1626465848.498,-106.445,-33.203,-75.684,-41.992
1626465848.502,-210.938,-35.156,-69.824,-55.664
1626465848.506,-20.508,-37.598,-66.895,-38.086
1626465848.510,173.828,-40.527,-72.266,-8.789
1626465848.514,-41.992,-54.199,-88.379,-45.898
1626465848.518,-205.078,-42.969,-65.918,-49.316
1626465848.522,-66.895,-26.367,-57.129,-21.973
1626465848.525,172.363,-28.320,-57.129,10.254
1626465848.529,62.500,-30.762,-73.242,-11.230
1626465848.533,-212.402,-56.152,-70.801,-57.617
1626465848.537,-146.973,-59.082,-61.523,-45.410
1626465848.541,122.070,-48.340,-67.871,-14.160
1626465848.542,104.980,-43.945,-84.961,-23.926
1626465848.546,-153.809,-43.457,-74.219,-50.781
1626465848.550,-194.336,-51.270,-65.430,-52.734
1626465848.554,43.945,-50.781,-59.082,-26.855
1626465848.558,167.480,-51.758,-64.453,-13.184
1626465848.562,-90.332,-59.570,-74.219,-49.805
1626465848.566,-213.379,-62.500,-71.777,-56.152
1626465848.569,-32.227,-53.711,-61.523,-28.809
1626465848.573,188.477,-54.199,-61.035,10.742
1626465848.577,-8.789,-66.406,-82.520,-23.926
1626465848.581,-204.102,-52.246,-66.895,-40.527
1626465848.585,-89.844,-43.457,-62.012,-28.320
1626465848.588,147.949,-50.781,-72.754,-10.742
1626465848.592,60.059,-54.688,-87.891,-31.738
1626465848.596,-187.988,-48.828,-75.195,-58.594
1626465848.600,-164.551,-55.176,-75.684,-54.199
1626465848.604,82.520,-57.617,-73.242,-19.531
1626465848.608,130.859,-52.246,-78.125,-2.930
1626465848.612,-137.207,-55.176,-77.637,-44.434
1626465848.615,-192.383,-46.875,-54.688,-38.574
1626465848.619,31.738,-49.316,-48.828,-10.742
1626465848.623,183.594,-57.129,-70.312,0.977
1626465848.627,-62.500,-56.152,-76.172,-36.133
1626465848.631,-223.633,-67.871,-57.617,-56.641
1626465848.646,-52.734,-64.453,-47.852,-27.344
1626465848.650,180.664,-45.898,-36.621,19.043
1626465848.654,16.113,-57.129,-56.152,-10.254
1626465848.658,-196.777,-70.801,-56.641,-45.410
1626465848.662,-105.957,-76.660,-50.781,-29.785
1626465848.666,162.109,-62.988,-47.852,13.672
1626465848.670,101.562,-59.570,-67.871,-5.371
1626465848.673,-167.969,-60.547,-66.895,-43.945
1626465848.677,-169.922,-64.941,-57.129,-48.828
1626465848.681,85.938,-67.871,-49.316,-12.207
1626465848.685,161.133,-59.082,-55.664,9.277
1626465848.689,-120.117,-68.848,-66.406,-42.969
1626465848.692,-191.895,-56.641,-52.246,-40.527
1626465848.696,30.273,-44.922,-39.551,-1.953
1626465848.700,184.570,-60.547,-56.152,11.230
1626465848.704,-42.969,-59.570,-66.406,-24.902
1626465848.708,-200.684,-62.500,-57.129,-35.156
1626465848.712,-50.293,-62.012,-51.270,-19.043
1626465848.716,182.129,-47.363,-44.922,9.277
1626465848.719,22.461,-61.035,-64.453,-17.578
1626465848.723,-210.449,-67.871,-58.594,-47.852
1626465848.727,-150.879,-70.312,-56.152,-41.016
1626465848.731,99.121,-62.988,-55.176,-5.859
1626465848.735,82.520,-56.152,-71.289,-13.672
1626465848.736,-187.500,-67.383,-71.289,-59.570
1626465848.740,-202.148,-63.965,-61.035,-52.734
1626465848.744,61.035,-50.781,-49.805,-13.184
1626465848.748,162.109,-56.152,-64.941,-10.742
1626465848.752,-114.746,-59.570,-73.730,-49.316
1626465848.756,-208.984,-47.852,-63.477,-50.781
1626465848.760,-0.488,-53.223,-53.223,-19.531
1626465848.763,183.105,-61.035,-57.617,7.812
1626465848.767,-43.457,-62.012,-85.938,-40.527
1626465848.771,-224.121,-63.477,-71.289,-64.941
1626465848.775,-78.613,-46.875,-56.152,-40.527
1626465848.779,171.875,-28.320,-59.082,-8.789
1626465848.782,50.293,-46.875,-87.402,-33.203
1626465848.786,-200.195,-64.453,-82.031,-64.453
1626465848.790,-160.645,-52.246,-65.430,-55.176
1626465848.794,105.957,-41.992,-56.641,-17.090
1626465848.798,115.234,-42.969,-68.359,-22.949
1626465848.802,-165.039,-45.898,-68.359,-62.012
1626465848.806,-200.684,-49.805,-68.848,-51.758
1626465848.809,38.086,-45.410,-60.059,-16.602
1626465848.813,158.691,-48.828,-63.965,-6.836
1626465848.817,-98.145,-45.898,-74.219,-49.316
1626465848.821,-220.215,-38.086,-59.570,-53.711
1626465848.825,-50.293,-55.176,-54.688,-33.203
1626465848.827,157.715,-53.711,-53.223,-4.883
1626465848.831,-28.320,-52.734,-66.895,-33.691
1626465848.835,-227.051,-52.734,-59.570,-57.617
1626465848.839,-99.121,-41.992,-44.922,-41.016
1626465848.843,151.855,-40.039,-50.293,-8.301
1626465848.847,63.965,-37.109,-58.105,-21.973
1626465848.851,-197.754,-62.988,-60.059,-59.570
1626465848.854,-180.176,-78.613,-69.336,-59.082
1626465848.858,78.125,-59.570,-66.406,-25.391
1626465848.862,124.023,-47.852,-72.266,-17.578
1626465848.866,-130.859,-53.711,-60.547,-46.875
1626465848.870,-187.500,-52.246,-48.340,-43.945
1626465848.872,34.668,-47.852,-39.062,-14.648
1626465848.876,169.434,-40.527,-56.641,-3.418
1626465848.880,-83.496,-52.734,-72.754,-48.340
1626465848.884,-215.332,-71.777,-59.570,-57.617
1626465848.888,-42.969,-58.105,-55.664,-35.156
1626465848.892,179.688,-32.227,-46.875,0.000
1626465848.896,-3.906,-51.270,-64.941,-29.297
1626465848.899,-225.098,-65.918,-72.754,-51.758
1626465848.903,-131.348,-51.758,-48.828,-30.762
1626465848.907,119.141,-57.617,-47.363,-3.418
1626465848.911,56.152,-71.777,-74.219,-17.578
1626465848.915,-197.266,-58.594,-54.688,-43.945
1626465848.916,-190.430,-58.594,-50.781,-44.922
1626465848.920,50.781,-62.988,-52.246,-18.555
1626465848.924,129.883,-50.781,-56.152,-3.906
1626465848.928,-124.023,-59.082,-65.918,-43.945
1626465848.932,-205.078,-63.477,-65.430,-58.105
1626465848.936,10.254,-53.711,-52.246,-35.156
1626465848.940,174.316,-43.945,-61.035,-9.766
1626465848.943,-68.359,-45.410,-70.312,-41.992
1626465848.947,-222.656,-59.082,-55.176,-53.711
1626465848.951,-76.172,-72.754,-52.734,-38.086
1626465848.955,157.715,-63.477,-49.805,-5.859
1626465848.959,12.207,-60.547,-67.871,-34.668
1626465848.964,-215.332,-63.965,-64.941,-63.965
1626465848.968,-134.277,-50.293,-56.152,-45.410
1626465848.972,134.277,-32.227,-48.340,-2.441
1626465848.976,105.957,-52.246,-70.801,-16.602
1626465848.980,-163.086,-65.918,-67.871,-63.965
1626465848.984,-170.898,-56.152,-54.688,-56.641
1626465848.988,65.918,-52.246,-56.641,-24.902
1626465848.991,155.762,-48.340,-55.664,-13.184
1626465848.995,-114.746,-56.152,-53.223,-56.641
1626465848.999,-216.797,-62.012,-41.992,-54.688
1626465849.003,-16.602,-56.152,-36.621,-21.484
1626465849.007,169.922,-51.270,-61.035,-3.418
1626465849.021,-38.086,-54.199,-74.219,-34.668
1626465849.025,-208.008,-52.246,-59.570,-47.363
1626465849.029,-71.777,-50.293,-51.270,-28.809
1626465849.033,175.781,-46.875,-41.016,5.371
1626465849.037,53.711,-42.480,-61.523,-19.531
1626465849.041,-199.707,-54.199,-61.523,-58.105
1626465849.045,-143.066,-50.781,-42.480,-40.527
1626465849.048,108.398,-42.969,-43.457,-7.324
1626465849.052,110.352,-56.641,-61.523,-2.441
1626465849.056,-135.742,-48.340,-45.410,-27.344
1626465849.060,-171.875,-30.273,-45.410,-35.156
1626465849.064,50.293,-40.527,-52.734,-13.184
1626465849.066,174.805,-46.387,-53.711,8.301
1626465849.070,-78.613,-39.551,-57.129,-26.367
1626465849.074,-202.148,-52.246,-46.387,-36.133
1626465849.078,-20.996,-54.199,-39.062,-5.371
1626465849.082,171.875,-48.340,-56.152,17.090
1626465849.086,-22.461,-49.805,-68.848,-23.438
1626465849.090,-218.262,-61.523,-55.176,-45.898
1626465849.093,-107.910,-55.176,-38.574,-33.691
1626465849.097,149.902,-37.109,-35.645,-2.930
1626465849.101,55.176,-53.223,-69.336,-24.414
1626465849.105,-187.988,-57.617,-62.500,-49.805
1626465849.109,-157.715,-51.270,-52.246,-38.574
1626465849.111,102.539,-47.852,-48.340,-6.836
1626465849.115,141.602,-43.457,-60.547,-1.465
1626465849.119,-122.070,-31.250,-53.223,-37.109
1626465849.123,-166.992,-40.527,-44.922,-35.156
1626465849.127,31.250,-60.059,-50.781,-20.020
1626465849.131,163.086,-58.594,-61.523,-17.090
1626465849.135,-66.895,-53.223,-64.453,-43.945
1626465849.138,-203.613,-56.641,-57.617,-51.270
1626465849.142,-47.852,-65.430,-56.152,-41.992
1626465849.146,166.016,-53.223,-48.340,-11.719
1626465849.150,-4.395,-47.363,-59.570,-30.273
1626465849.154,-210.449,-53.711,-58.594,-56.641
1626465849.156,-119.629,-56.641,-53.711,-45.898
1626465849.160,125.488,-62.988,-50.293,0.488
1626465849.164,65.430,-63.965,-66.406,-21.484
1626465849.168,-193.359,-59.082,-64.453,-71.777
1626465849.172,-182.617,-62.988,-61.523,-63.477
1626465849.176,73.242,-61.035,-53.223,-31.250
1626465849.180,131.836,-59.082,-62.500,-25.391
1626465849.183,-139.648,-61.523,-63.477,-56.641
1626465849.187,-209.961,-70.312,-60.059,-50.293
1626465849.191,11.230,-53.711,-56.641,-22.461
1626465849.195,179.688,-39.551,-52.246,-7.324
1626465849.199,-55.176,-61.523,-63.965,-46.387
1626465849.202,-218.750,-72.266,-61.035,-60.547
1626465849.206,-52.734,-54.199,-44.434,-33.203
1626465849.210,186.523,-46.875,-45.410,0.488
1626465849.214,27.832,-61.035,-69.824,-34.180
1626465849.218,-195.801,-60.059,-58.105,-61.523
1626465849.222,-115.234,-54.688,-42.969,-41.504
1626465849.226,137.695,-52.246,-34.180,-0.488
1626465849.229,89.355,-54.199,-54.199,-19.531
1626465849.233,-179.199,-72.754,-57.617,-57.129
1626465849.237,-182.617,-79.590,-46.387,-47.363
1626465849.241,62.500,-58.105,-39.062,-9.766
1626465849.245,146.973,-53.711,-50.781,-0.488
1626465849.249,-127.441,-63.965,-59.082,-48.828
1626465849.253,-226.074,-61.523,-47.363,-51.270
1626465849.257,-15.625,-45.410,-38.086,-26.367
1626465849.261,171.387,-44.922,-37.109,-0.977
1626465849.265,-51.270,-65.430,-57.129,-40.039
1626465849.269,-224.121,-72.266,-60.547,-64.453
1626465849.273,-77.148,-53.223,-47.852,-37.109
1626465849.276,160.156,-53.711,-53.223,-2.930
1626465849.280,30.273,-53.711,-71.289,-26.855
1626465849.284,-208.984,-57.129,-58.105,-53.711
1626465849.288,-158.691,-64.941,-52.246,-49.316
1626465849.292,117.188,-41.016,-42.969,-7.324
1626465849.291,127.930,-40.039,-56.152,0.000
1626465849.295,-154.297,-61.035,-64.453,-47.363
1626465849.299,-193.848,-58.105,-57.617,-52.246
1626465849.303,47.852,-45.898,-47.363,-20.020
1626465849.307,166.992,-49.805,-50.781,-4.395
1626465849.311,-97.656,-63.965,-63.965,-44.922
1626465849.315,-223.633,-70.801,-71.777,-56.641
1626465849.318,-35.645,-60.547,-62.500,-33.203
1626465849.322,169.922,-46.875,-46.387,-0.977
1626465849.326,-21.484,-47.852,-60.547,-23.926
1626465849.330,-211.914,-54.199,-56.152,-47.852
1626465849.334,-101.074,-64.941,-50.781,-33.203
1626465849.338,170.898,-39.551,-47.363,15.625
1626465849.342,75.684,-41.504,-62.012,-5.859
1626465849.346,-198.242,-76.660,-62.988,-51.270
1626465849.350,-158.203,-67.383,-49.805,-37.598
1626465849.354,109.863,-40.039,-34.180,1.953
1626465849.358,136.719,-44.922,-48.340,-2.930
1626465849.362,-130.859,-50.781,-50.781,-42.969
1626465849.365,-181.641,-49.316,-48.828,-34.668
1626465849.369,44.434,-61.523,-41.504,-2.441
1626465849.373,177.734,-62.012,-43.945,12.695
1626465849.377,-87.402,-64.941,-62.500,-31.250
1626465849.381,-216.309,-56.152,-46.387,-41.016
1626465849.396,-34.180,-45.898,-37.109,-21.484
1626465849.400,178.711,-41.016,-38.574,5.371
1626465849.404,-4.395,-43.945,-36.133,-25.879
1626465849.408,-214.844,-57.129,-38.574,-47.852
1626465849.412,-121.094,-60.059,-46.875,-36.621
1626465849.416,129.883,-57.617,-41.992,-0.977
1626465849.420,65.430,-69.824,-53.711,-18.066
1626465849.423,-204.102,-67.871,-43.945,-65.430
1626465849.427,-198.730,-53.711,-32.715,-60.547
1626465849.431,63.477,-53.223,-43.945,-23.438
1626465849.435,127.441,-52.246,-68.359,-15.137
1626465849.439,-136.230,-56.641,-60.547,-49.805
1626465849.441,-212.891,-58.594,-59.570,-52.734
1626465849.445,7.812,-46.875,-47.852,-25.391
1626465849.449,175.781,-40.039,-32.715,-0.488
1626465849.453,-65.918,-57.617,-56.641,-40.039
1626465849.457,-222.656,-64.941,-64.453,-53.223
1626465849.461,-63.477,-52.246,-53.223,-37.598
1626465849.465,168.945,-48.340,-45.410,-13.672
1626465849.468,3.418,-58.594,-58.594,-39.062
1626465849.472,-217.285,-51.270,-53.711,-61.035
1626465849.476,-133.789,-52.734,-56.641,-51.270
1626465849.480,120.605,-53.711,-68.359,-19.043
1626465849.484,79.102,-60.059,-76.172,-25.879
1626465849.486,-193.848,-74.219,-59.082,-63.477
1626465849.490,-202.637,-63.965,-50.781,-62.012
1626465849.494,47.852,-50.781,-42.969,-36.133
1626465849.498,150.879,-37.598,-54.688,-20.020
1626465849.502,-126.465,-52.734,-74.219,-67.871
1626465849.506,-221.191,-62.988,-58.594,-64.941
1626465849.510,0.977,-44.922,-37.109,-11.719
1626465849.513,161.133,-43.945,-50.293,-2.441
1626465849.517,-67.383,-51.270,-63.965,-44.922
1626465849.521,-224.609,-50.293,-52.734,-54.199
1626465849.525,-86.426,-51.758,-58.594,-45.898
1626465849.529,157.227,-45.898,-59.082,-19.043
1626465849.531,37.598,-34.668,-60.059,-32.227
1626465849.535,-202.637,-42.480,-52.246,-53.711
1626465849.539,-141.602,-42.480,-49.805,-39.551
1626465849.543,125.977,-31.738,-39.062,-4.883
1626465849.547,118.164,-36.133,-48.828,-12.207
1626465849.551,-146.973,-38.086,-53.711,-47.852
1626465849.555,-179.688,-35.645,-52.734,-40.039
1626465849.558,33.203,-49.316,-48.828,-14.160
1626465849.562,148.926,-52.734,-56.641,-5.371
1626465849.566,-108.398,-59.082,-55.664,-47.852
1626465849.570,-211.914,-50.781,-37.109,-48.828
1626465849.574,-18.066,-38.086,-33.203,-18.555
1626465849.576,169.922,-47.363,-41.504,6.348
1626465849.580,-33.691,-57.617,-56.152,-29.297
1626465849.584,-216.797,-61.523,-45.898,-49.805
1626465849.588,-98.633,-59.570,-46.387,-41.504
1626465849.592,137.207,-57.129,-42.480,-19.531
1626465849.596,51.270,-47.363,-55.664,-25.391
1626465849.600,-183.594,-54.688,-54.688,-52.734
1626465849.603,-160.156,-62.988,-50.293,-48.340
1626465849.607,89.844,-49.316,-44.434,-11.719
1626465849.611,118.164,-47.852,-53.223,-12.695
1626465849.615,-143.555,-59.082,-44.434,-42.480
1626465849.619,-184.082,-54.688,-36.133,-34.668
1626465849.623,30.762,-55.664,-44.922,-18.555
1626465849.627,161.133,-55.664,-54.199,-0.977
1626465849.631,-80.566,-56.152,-51.270,-33.691
1626465849.635,-224.609,-61.523,-49.805,-53.711
1626465849.639,-64.453,-59.082,-53.711,-41.016
1626465849.643,164.062,-44.922,-40.039,-3.418
1626465849.647,-12.695,-54.199,-54.688,-34.180
1626465849.650,-220.703,-61.523,-47.852,-60.547
1626465849.654,-123.047,-59.082,-37.109,-47.852
1626465849.658,121.094,-59.082,-45.410,-19.043
1626465849.662,51.270,-62.012,-72.754,-33.691
1626465849.666,-203.125,-66.895,-59.082,-61.523
1626465849.666,-178.223,-49.316,-46.387,-48.828
1626465849.670,80.078,-48.340,-43.457,-15.625
1626465849.674,141.602,-60.059,-49.316,-8.301
1626465849.678,-137.695,-64.941,-54.199,-52.246
1626465849.682,-208.008,-47.852,-41.992,-53.711
1626465849.686,13.184,-34.668,-20.508,-24.414
1626465849.690,163.574,-60.547,-33.691,-8.789
1626465849.693,-91.797,-78.613,-69.336,-53.223
1626465849.697,-234.863,-63.965,-58.594,-62.012
1626465849.701,-60.059,-50.293,-43.945,-36.621
1626465849.705,164.551,-48.340,-45.410,-11.719
1626465849.709,17.578,-42.480,-58.105,-35.645
1626465849.715,-197.266,-53.223,-44.434,-63.965
1626465849.719,-126.953,-70.801,-37.598,-55.664
1626465849.723,131.836,-58.594,-38.086,-17.578
1626465849.727,98.145,-50.781,-51.270,-32.227
1626465849.731,-177.246,-56.641,-43.457,-71.777
1626465849.735,-183.594,-56.641,-36.621,-58.594
1626465849.739,70.312,-43.457,-38.086,-20.996
1626465849.742,153.809,-46.875,-39.062,-10.742
1626465849.746,-115.234,-58.594,-42.969,-50.781
1626465849.750,-208.496,-51.758,-44.434,-51.758
1626465849.754,-3.418,-50.781,-40.039,-20.508
1626465849.758,186.035,-42.480,-41.016,7.812
1626465849.771,-46.875,-51.758,-57.129,-39.551
1626465849.775,-217.285,-64.453,-43.457,-60.547
1626465849.779,-68.848,-53.711,-32.227,-35.156
1626465849.783,176.270,-39.551,-28.320,-0.977
1626465849.787,43.457,-51.270,-52.246,-29.297
1626465849.791,-203.125,-57.617,-57.617,-64.941
1626465849.795,-142.578,-59.082,-48.828,-51.758
1626465849.798,115.234,-52.734,-39.551,-16.113
1626465849.802,102.051,-53.711,-53.711,-17.578
1626465849.806,-168.945,-66.895,-59.082,-53.223
1626465849.810,-187.988,-57.617,-47.852,-50.293
1626465849.814,45.898,-50.293,-43.457,-13.672
1626465849.816,160.156,-49.316,-49.805,7.324
1626465849.820,-98.145,-57.129,-49.316,-33.203
1626465849.824,-208.984,-58.105,-40.527,-44.922
1626465849.828,-10.742,-59.082,-42.969,-21.973
1626465849.832,187.500,-48.828,-43.457,3.418
1626465849.836,-19.531,-45.410,-48.828,-35.156
1626465849.840,-208.984,-64.941,-44.922,-50.781
1626465849.843,-80.078,-62.500,-39.062,-33.691
1626465849.847,166.504,-49.316,-40.039,-8.789
1626465849.851,48.828,-51.758,-67.383,-31.738
1626465849.855,-187.988,-50.293,-58.105,-56.641
1626465849.859,-153.320,-56.152,-45.410,-49.805
1626465849.862,96.191,-57.617,-37.598,-14.648
1626465849.866,121.094,-53.711,-53.223,-7.812
1626465849.870,-142.090,-47.363,-55.176,-41.016
1626465849.874,-190.918,-38.086,-37.598,-37.598
1626465849.878,20.508,-55.176,-39.062,-14.648
1626465849.882,140.625,-62.988,-60.547,-7.812
1626465849.886,-111.816,-57.129,-59.570,-52.734
1626465849.889,-220.215,-47.852,-37.109,-52.246
1626465849.893,-43.945,-44.922,-42.969,-29.785
1626465849.897,159.180,-34.668,-51.270,-12.695
1626465849.901,-21.484,-44.434,-49.805,-40.039
1626465849.905,-228.027,-59.082,-44.434,-62.988
1626465849.906,-117.188,-48.828,-47.852,-41.992
1626465849.910,130.371,-41.504,-47.852,-14.160
1626465849.914,43.457,-55.176,-66.406,-43.457
1626465849.918,-198.730,-51.758,-52.734,-65.430
1626465849.922,-177.734,-34.668,-36.133,-47.363
1626465849.926,73.730,-14.160,-30.273,-17.090
1626465849.930,122.070,-16.602,-40.527,-21.973
1626465849.933,-165.039,-35.645,-49.805,-82.520
1626465849.937,-255.371,-45.898,-58.105,-110.840
1626465849.941,-50.293,-30.762,-50.293,-91.797
1626465849.945,92.285,-15.625,-53.711,-86.914
1626465849.949,-185.547,-26.855,-71.777,-156.250
1626465849.955,-341.797,-29.785,-62.500,-181.641
1626465849.959,-187.500,-20.508,-54.688,-165.039
1626465849.963,21.484,-17.090,-63.965,-151.367
1626465849.967,-149.414,-37.109,-87.402,-185.059
1626465849.971,-386.719,-33.691,-74.219,-215.820
1626465849.975,-314.453,-26.367,-60.547,-225.098
1626465849.979,-62.012,-16.113,-50.781,-188.965
1626465849.982,-122.070,-16.602,-74.219,-208.008
1626465849.986,-390.625,-32.227,-84.961,-250.488
1626465849.990,-384.766,-30.762,-80.566,-232.422
1626465849.994,-138.672,-31.738,-81.543,-210.449
1626465849.998,-44.922,-36.133,-86.426,-193.359
1626465849.998,-294.922,-41.992,-85.449,-217.773
1626465850.002,-360.352,-35.156,-74.219,-202.148
1626465850.006,-130.371,-28.809,-62.012,-150.879
1626465850.010,63.965,-23.438,-67.383,-115.723
1626465850.014,-143.066,-30.273,-84.961,-130.859
1626465850.018,-285.156,-36.621,-71.777,-118.652
1626465850.022,-125.977,-45.898,-62.012,-86.914
1626465850.025,126.953,-42.969,-56.641,-38.086
1626465850.029,13.184,-38.574,-74.219,-46.387
1626465850.033,-216.309,-58.594,-82.031,-79.590
1626465850.037,-144.043,-59.082,-74.219,-59.082
1626465850.041,127.930,-53.711,-56.152,-9.277
1626465850.042,120.605,-49.805,-65.430,-6.836
1626465850.046,-139.160,-46.875,-62.988,-31.738
1626465850.050,-149.414,-49.805,-47.852,-14.648
1626465850.054,86.426,-53.711,-51.758,21.973
1626465850.058,181.152,-66.406,-67.871,24.414
1626465850.062,-63.477,-72.754,-57.617,-11.230
1626465850.066,-167.480,-74.707,-54.688,-12.207
1626465850.069,23.926,-60.059,-56.641,13.672
1626465850.073,225.586,-52.246,-54.199,49.805
1626465850.077,23.926,-66.895,-64.453,15.625
1626465850.081,-151.367,-71.777,-46.875,5.859
1626465850.085,-21.484,-69.824,-40.527,27.832
1626465850.088,222.656,-59.570,-35.156,59.570
1626465850.092,115.234,-55.664,-51.758,44.434
1626465850.096,-143.066,-68.359,-52.246,7.324
1626465850.100,-109.375,-77.637,-47.363,17.578
1626465850.104,161.621,-70.801,-34.668,59.082
1626465850.108,183.594,-71.777,-44.922,58.105
1626465850.112,-81.543,-73.242,-43.945,24.414
1626465850.115,-133.301,-76.660,-41.016,17.578
1626465850.119,90.820,-71.289,-37.109,41.992
1626465850.123,235.352,-62.012,-34.668,67.383
1626465850.127,-24.414,-69.336,-41.992,23.438
1626465850.131,-152.344,-72.754,-32.715,19.043
1626465850.146,30.762,-66.895,-28.320,40.527
1626465850.150,233.887,-55.664,-28.320,66.895
1626465850.154,43.457,-74.707,-49.316,34.668
1626465850.158,-154.297,-83.984,-48.828,6.348
1626465850.162,-46.387,-69.336,-36.133,22.461
1626465850.166,206.055,-58.594,-34.180,52.246
1626465850.170,121.582,-78.125,-65.918,28.809
1626465850.173,-143.555,-90.332,-60.059,-7.812
1626465850.177,-121.582,-72.754,-38.086,1.953
1626465850.181,136.719,-68.848,-28.809,35.645
1626465850.185,165.527,-78.125,-52.734,28.320
1626465850.189,-114.746,-67.383,-61.035,-18.066
1626465850.191,-160.156,-63.477,-46.387,-15.137
1626465850.195,61.523,-62.988,-44.922,7.324
1626465850.199,204.102,-57.617,-45.410,28.320
1626465850.203,-41.016,-76.172,-52.734,-13.672
1626465850.207,-191.406,-83.496,-59.082,-35.645
1626465850.211,-25.879,-69.824,-47.363,-4.883
1626465850.215,209.961,-52.246,-41.504,34.668
1626465850.218,42.969,-47.363,-49.805,3.418
1626465850.222,-186.035,-62.988,-47.852,-29.785
1626465850.226,-104.980,-77.148,-46.387,-17.090
1626465850.230,156.250,-63.965,-28.320,24.414
1626465850.234,116.699,-65.918,-40.039,14.160
1626465850.236,-138.672,-57.129,-38.574,-19.043
1626465850.240,-145.020,-43.945,-41.504,-15.625
1626465850.244,96.191,-49.316,-37.598,9.766
1626465850.248,172.852,-57.617,-43.457,16.113
1626465850.252,-97.168,-65.918,-54.199,-21.973
1626465850.256,-175.293,-57.129,-44.434,-23.438
1626465850.260,30.273,-46.875,-41.992,4.395
1626465850.263,202.148,-45.898,-37.598,36.133
1626465850.267,-36.621,-56.641,-54.199,-12.207
1626465850.271,-197.266,-64.453,-52.734,-34.180
1626465850.275,-41.504,-59.082,-41.504,-4.395
1626465850.279,181.152,-49.805,-37.109,25.879
1626465850.281,33.691,-52.246,-52.734,-2.441
1626465850.285,-194.336,-57.129,-52.246,-36.621
1626465850.289,-118.164,-53.223,-40.039,-26.855
1626465850.293,140.137,-52.246,-40.527,7.812
1626465850.297,116.699,-49.316,-54.199,-0.977
1626465850.301,-145.020,-52.734,-45.410,-41.016
1626465850.305,-168.457,-63.477,-37.109,-48.828
1626465850.308,59.082,-53.223,-34.668,-12.695
1626465850.312,166.992,-36.621,-47.363,11.230
1626465850.316,-92.285,-58.594,-56.152,-32.227
1626465850.320,-194.824,-66.895,-57.617,-40.039
1626465850.324,3.906,-56.152,-50.781,-10.742
1626465850.327,194.336,-47.363,-41.016,19.043
1626465850.331,-15.625,-50.293,-58.105,-22.461
1626465850.335,-194.336,-52.246,-42.480,-43.945
1626465850.339,-70.312,-45.898,-34.180,-27.832
1626465850.343,158.691,-50.293,-41.504,1.465
1626465850.347,47.852,-56.641,-57.617,-21.973
1626465850.351,-178.223,-59.570,-45.898,-39.551
1626465850.354,-134.277,-64.941,-38.086,-26.855
1626465850.358,118.652,-61.035,-41.992,-6.348
1626465850.362,130.371,-41.992,-60.547,-6.348
1626465850.366,-145.020,-38.574,-54.199,-41.016
1626465850.370,-197.266,-52.246,-47.852,-50.781
1626465850.371,31.250,-48.340,-53.223,-29.297
1626465850.375,163.086,-48.340,-56.641,-6.836
1626465850.379,-89.355,-59.082,-53.223,-47.852
1626465850.383,-206.055,-58.105,-43.945,-59.082
1626465850.387,-22.949,-52.734,-47.363,-35.645
1626465850.391,192.383,-48.828,-47.363,-1.465
1626465850.395,-2.441,-57.617,-64.941,-34.668
1626465850.398,-203.613,-64.453,-52.246,-54.688
1626465850.402,-89.355,-50.781,-36.621,-30.762
1626465850.406,152.832,-48.828,-40.039,-6.348
1626465850.410,67.383,-50.781,-57.617,-21.973
1626465850.414,-180.176,-50.781,-56.641,-51.758
1626465850.420,-147.949,-49.805,-51.758,-48.340
1626465850.424,115.723,-38.086,-42.480,-3.418
1626465850.428,149.414,-43.945,-55.664,-5.371
1626465850.432,-127.441,-53.223,-60.059,-50.781
1626465850.436,-185.547,-50.781,-51.758,-43.457
1626465850.440,31.250,-44.922,-46.875,-18.066
1626465850.444,180.664,-47.852,-53.223,0.488
1626465850.447,-69.336,-66.895,-68.359,-45.898
1626465850.451,-214.355,-60.547,-56.152,-60.059
1626465850.455,-48.340,-37.109,-41.992,-31.738
1626465850.459,169.434,-41.016,-37.109,-3.906
1626465850.463,-0.977,-60.547,-62.012,-34.668
1626465850.464,-202.148,-58.105,-53.711,-50.781
1626465850.468,-104.980,-42.969,-45.410,-36.133
1626465850.472,141.602,-38.574,-49.316,-7.324
1626465850.476,84.473,-42.969,-63.477,-23.926
1626465850.480,-175.781,-49.316,-49.805,-51.270
1626465850.484,-178.711,-64.453,-44.922,-46.875
1626465850.488,73.730,-55.176,-53.711,-21.484
1626465850.491,140.137,-45.410,-65.918,-12.695
1626465850.495,-135.254,-47.363,-55.176,-48.340
1626465850.499,-200.684,-48.828,-45.898,-54.688
1626465850.503,26.855,-40.527,-38.574,-21.484
1626465850.507,184.082,-41.016,-50.293,0.488
1626465850.521,-66.406,-55.176,-68.359,-41.992
1626465850.525,-215.820,-50.781,-53.711,-46.875
1626465850.529,-52.246,-47.852,-37.598,-23.438
1626465850.533,189.941,-34.180,-33.691,13.184
1626465850.537,38.574,-41.016,-49.805,-13.184
1626465850.541,-205.078,-69.336,-46.875,-51.758
1626465850.545,-131.836,-58.594,-40.527,-40.527
1626465850.548,126.953,-44.434,-33.691,0.488
1626465850.552,100.586,-52.246,-47.852,-3.906
1626465850.556,-162.598,-63.477,-47.363,-45.410
1626465850.560,-185.059,-61.523,-46.387,-46.387
1626465850.564,69.336,-46.387,-38.086,-7.324
1626465850.566,174.805,-41.504,-46.875,7.812
1626465850.570,-106.445,-54.688,-45.898,-42.969
1626465850.574,-213.867,-54.199,-33.203,-48.828
1626465850.578,-3.906,-44.434,-32.715,-16.113
1626465850.582,190.918,-39.551,-26.367,15.625
1626465850.586,-21.973,-39.062,-42.969,-22.461
1626465850.590,-203.613,-60.547,-51.270,-51.270
1626465850.593,-71.777,-58.105,-38.086,-34.668
1626465850.597,170.898,-47.852,-37.109,-0.488
1626465850.601,51.270,-58.105,-53.711,-24.414
1626465850.605,-184.570,-47.852,-41.992,-44.922
1626465850.609,-136.719,-31.738,-36.621,-35.645
1626465850.611,112.793,-38.574,-39.551,-11.230
1626465850.615,123.047,-46.875,-57.617,-7.324
1626465850.619,-142.090,-60.547,-53.223,-41.992
1626465850.623,-187.500,-69.824,-52.246,-49.316
1626465850.627,49.316,-56.152,-51.758,-19.531
1626465850.631,173.828,-41.016,-50.781,-1.465
1626465850.635,-91.797,-42.969,-54.688,-42.969
1626465850.638,-212.891,-53.711,-45.898,-52.734
1626465850.642,-34.180,-59.082,-43.945,-30.762
1626465850.646,164.062,-44.922,-48.828,-7.324
1626465850.650,-25.391,-52.246,-49.805,-43.457
1626465850.654,-219.727,-63.965,-43.945,-61.523
1626465850.657,-106.934,-56.152,-48.340,-41.992
1626465850.661,148.926,-51.758,-46.875,-9.277
1626465850.665,67.871,-45.410,-57.129,-21.973
1626465850.669,-192.871,-57.129,-50.293,-54.688
1626465850.673,-170.410,-67.871,-46.875,-50.293
1626465850.677,102.051,-53.711,-31.738,-9.277
1626465850.681,142.578,-35.156,-41.504,-3.418
1626465850.684,-131.348,-36.133,-47.852,-41.992
1626465850.688,-196.289,-54.199,-39.551,-44.922
1626465850.692,20.996,-54.199,-41.504,-16.113
1626465850.696,170.898,-53.223,-43.457,2.441
1626465850.700,-74.707,-56.152,-48.828,-42.480
1626465850.702,-205.566,-51.758,-47.852,-49.805
1626465850.706,-33.203,-42.969,-42.969,-24.414
1626465850.710,186.523,-31.738,-39.062,-2.441
1626465850.714,23.438,-41.016,-50.781,-28.809
1626465850.718,-200.684,-56.641,-47.852,-51.758
1626465850.722,-113.770,-55.176,-47.852,-43.945
1626465850.726,140.137,-55.176,-51.758,-11.719
1626465850.729,68.848,-64.453,-67.871,-21.973
1626465850.733,-195.312,-59.570,-55.176,-58.105
1626465850.737,-172.363,-41.016,-40.039,-46.387
1626465850.741,74.707,-52.246,-36.621,-14.160
1626465850.745,136.230,-58.105,-51.270,-8.789
1626465850.747,-122.559,-53.711,-57.617,-42.969
1626465850.751,-203.125,-53.711,-54.199,-48.340
1626465850.755,16.602,-41.504,-47.363,-21.973
1626465850.759,187.500,-44.434,-55.664,1.953
1626465850.763,-61.523,-65.918,-70.312,-41.992
1626465850.767,-221.191,-66.895,-57.617,-56.641
1626465850.771,-56.641,-51.758,-51.758,-26.367
1626465850.774,181.641,-42.969,-60.059,2.441
1626465850.778,29.297,-48.340,-66.406,-21.973
1626465850.782,-190.430,-61.035,-53.223,-43.945
1626465850.786,-115.723,-63.965,-58.594,-34.668
1626465850.790,142.578,-47.363,-35.156,4.395
1626465850.791,109.863,-51.270,-41.992,-1.953
1626465850.795,-174.316,-61.035,-50.781,-44.922
1626465850.799,-192.383,-59.570,-47.363,-43.457
1626465850.803,59.570,-56.152,-48.828,-12.207
1626465850.807,151.855,-54.688,-51.270,-1.953
1626465850.811,-104.004,-48.828,-45.410,-31.738
1626465850.815,-208.008,-61.035,-46.875,-46.387
1626465850.818,-11.230,-62.012,-48.828,-29.297
1626465850.822,188.965,-46.875,-49.805,4.395
1626465850.826,-32.715,-49.805,-54.688,-29.297
1626465850.830,-217.773,-63.477,-43.945,-56.152
1626465850.834,-73.730,-52.734,-33.691,-26.855
1626465850.838,178.711,-39.551,-25.391,6.836
1626465850.842,42.969,-44.434,-55.664,-26.855
1626465850.846,-201.172,-49.805,-52.246,-49.316
1626465850.850,-144.043,-49.316,-37.109,-33.203
1626465850.854,113.770,-47.852,-36.133,-6.348
1626465850.858,110.840,-57.617,-54.688,-15.137
1626465850.862,-152.344,-62.012,-58.594,-50.293
1626465850.865,-182.617,-48.340,-49.316,-48.340
1626465850.869,41.992,-54.199,-46.387,-17.090
1626465850.873,170.410,-55.176,-52.734,3.906
1626465850.877,-86.914,-41.992,-53.711,-33.691
1626465850.881,-211.426,-57.617,-49.316,-49.316
1626465850.896,-20.020,-54.688,-52.246,-35.645
1626465850.900,189.453,-39.551,-60.059,-9.766
1626465850.904,-12.207,-40.527,-62.988,-31.250
1626465850.908,-210.449,-42.969,-46.875,-44.434
1626465850.912,-95.703,-53.223,-32.227,-30.762
1626465850.916,166.504,-45.898,-22.949,4.883
1626465850.920,73.730,-51.270,-54.199,-13.184
1626465850.923,-196.289,-57.129,-63.477,-52.734
1626465850.927,-164.551,-49.316,-51.758,-44.434
1626465850.931,97.656,-50.781,-37.598,-11.230
1626465850.935,120.605,-53.711,-54.688,-8.789
1626465850.939,-154.785,-62.988,-57.617,-44.434
1626465850.941,-203.125,-50.293,-48.340,-50.781
1626465850.945,27.344,-35.645,-42.969,-21.973
1626465850.949,163.086,-46.875,-51.270,-8.789
1626465850.953,-80.566,-55.176,-50.781,-47.852
1626465850.957,-216.797,-60.547,-47.852,-57.617
1626465850.961,-52.734,-60.059,-58.105,-39.551
1626465850.965,169.922,-50.293,-52.734,-3.418
1626465850.968,-5.371,-52.246,-62.500,-34.180
1626465850.972,-217.773,-62.988,-44.434,-59.570
1626465850.976,-123.535,-57.129,-38.086,-48.340
1626465850.980,124.512,-47.852,-42.480,-15.137
1626465850.984,70.801,-43.457,-49.316,-17.090
1626465850.986,-179.688,-39.062,-55.664,-57.129
1626465850.990,-178.223,-41.016,-54.199,-66.406
1626465850.994,74.219,-36.621,-38.086,-34.668
1626465850.998,143.555,-44.434,-50.293,-26.367
1626465851.002,-140.625,-48.828,-56.641,-74.707
1626465851.006,-219.238,-49.805,-49.316,-75.195
1626465851.010,14.160,-40.039,-39.062,-31.738
1626465851.013,172.852,-22.949,-46.387,-13.672
1626465851.017,-79.590,-43.945,-65.918,-53.223
1626465851.021,-232.910,-56.152,-58.105,-66.406
1626465851.025,-81.543,-54.199,-59.570,-54.199
1626465851.029,155.273,-48.340,-55.664,-17.090
1626465851.032,15.137,-46.875,-57.617,-39.551
1626465851.036,-210.449,-53.223,-40.527,-64.941
1626465851.040,-130.859,-42.480,-34.180,-43.945
1626465851.044,130.859,-45.410,-39.551,-9.277
1626465851.048,95.215,-56.152,-53.223,-20.020
1626465851.052,-177.734,-60.059,-49.316,-56.641
1626465851.056,-189.453,-54.688,-44.922,-55.664
1626465851.059,57.617,-41.504,-36.133,-17.578
1626465851.063,148.438,-46.875,-44.434,-8.789
1626465851.067,-120.605,-53.711,-47.363,-49.805
1626465851.071,-206.543,-51.758,-42.969,-51.758
1626465851.075,-4.883,-59.570,-51.270,-29.785
1626465851.076,172.852,-51.270,-54.688,-4.883
1626465851.080,-41.016,-50.781,-56.152,-41.016
1626465851.084,-214.844,-52.734,-45.898,-58.105
1626465851.088,-69.824,-42.480,-41.992,-31.738
1626465851.092,169.434,-53.711,-34.668,-1.465
1626465851.096,45.898,-62.988,-44.922,-17.578
1626465851.100,-185.059,-52.246,-42.969,-38.086
1626465851.103,-145.020,-66.406,-45.898,-39.551
1626465851.107,113.770,-60.059,-36.621,-6.348
1626465851.111,122.559,-54.688,-40.039,-8.789
1626465851.115,-157.227,-63.965,-41.992,-51.758
1626465851.119,-196.777,-62.500,-41.504,-44.434
1626465851.124,56.152,-54.688,-45.410,-9.277
1626465851.128,176.758,-47.363,-46.387,5.371
1626465851.132,-96.191,-50.781,-49.316,-38.086
1626465851.136,-217.285,-56.641,-48.340,-52.246
1626465851.140,-27.344,-57.617,-41.504,-28.809
1626465851.144,187.012,-39.551,-40.527,1.465
1626465851.148,-15.137,-40.039,-57.129,-33.203
1626465851.151,-211.914,-56.641,-50.293,-55.664
1626465851.155,-95.703,-63.965,-32.227,-33.691
1626465851.159,158.691,-41.992,-25.879,1.465
1626465851.163,64.453,-39.551,-47.852,-22.461
1626465851.167,-187.988,-59.570,-45.410,-53.223
1626465851.166,-154.785,-54.688,-39.062,-41.504
1626465851.170,89.355,-57.617,-34.180,-10.742
1626465851.174,116.211,-50.293,-42.480,-5.371
1626465851.178,-162.109,-45.410,-41.504,-46.875
1626465851.182,-206.543,-56.641,-34.180,-49.805
1626465851.186,32.715,-54.688,-35.156,-20.996
1626465851.190,162.598,-59.082,-47.363,-7.812
1626465851.193,-93.750,-71.777,-55.664,-46.387
1626465851.197,-218.750,-61.035,-38.574,-53.223
1626465851.201,-42.480,-51.270,-22.949,-25.879
1626465851.205,172.363,-43.945,-28.320,6.348
1626465851.209,-9.766,-54.688,-45.410,-26.367
1626465851.213,-218.262,-63.477,-36.621,-57.129
1626465851.217,-110.352,-56.152,-36.133,-46.387
1626465851.221,147.949,-42.969,-31.738,-4.883
1626465851.225,79.102,-39.062,-45.410,-13.184
1626465851.229,-177.734,-48.828,-43.945,-39.062
1626465851.233,-160.645,-54.688,-38.574,-26.367
1626465851.237,102.051,-48.340,-37.598,1.465
1626465851.240,157.227,-52.246,-44.434,7.812
1626465851.244,-121.582,-54.688,-34.180,-28.809
1626465851.248,-192.871,-42.480,-28.809,-34.668
1626465851.252,23.926,-42.969,-45.898,-20.020
1626465851.256,198.730,-38.574,-45.898,2.930
1626465851.271,-47.363,-48.340,-47.852,-28.809
1626465851.275,-215.332,-58.594,-47.363,-42.969
1626465851.279,-46.875,-41.992,-36.133,-20.508
1626465851.283,182.129,-35.156,-34.668,5.859
1626465851.287,24.902,-29.785,-61.035,-20.996
1626465851.291,-195.312,-41.504,-57.617,-42.480
1626465851.295,-121.582,-51.270,-47.852,-30.762
1626465851.298,134.766,-35.156,-36.133,3.418
1626465851.302,92.773,-50.293,-52.246,-13.184
1626465851.306,-171.875,-56.152,-52.734,-49.805
1626465851.310,-179.199,-51.270,-44.922,-47.852
1626465851.314,61.035,-52.734,-36.621,-13.672
1626465851.316,146.484,-56.152,-42.480,1.953
1626465851.320,-113.770,-54.199,-39.062,-37.598
1626465851.324,-203.613,-59.082,-32.715,-47.852
1626465851.328,-0.977,-58.594,-47.363,-21.973
1626465851.332,185.059,-49.805,-62.012,-0.977
1626465851.336,-30.273,-43.457,-61.035,-39.062
1626465851.340,-201.660,-40.527,-41.992,-46.875
1626465851.343,-62.012,-39.062,-31.250,-29.785
1626465851.347,179.688,-35.156,-31.738,-1.465
1626465851.351,43.945,-46.387,-53.711,-24.902
1626465851.355,-200.195,-51.270,-50.781,-55.664
1626465851.359,-144.043,-58.594,-46.875,-48.340
1626465851.363,130.371,-47.363,-37.598,-4.883
1626465851.367,128.418,-39.062,-48.340,-2.441
1626465851.371,-155.273,-46.875,-45.410,-41.016
1626465851.375,-180.176,-50.781,-42.969,-40.527
1626465851.379,56.641,-55.176,-49.316,-17.090
1626465851.383,165.527,-50.293,-49.316,-2.441
1626465851.387,-106.934,-55.176,-42.969,-41.992
1626465851.390,-228.027,-65.430,-46.387,-62.012
1626465851.394,-31.250,-63.965,-57.129,-42.480
1626465851.398,183.594,-41.504,-52.734,-5.371
1626465851.402,-19.043,-36.133,-52.246,-34.180
1626465851.406,-221.191,-49.805,-40.039,-55.176
1626465851.406,-104.004,-62.012,-37.598,-45.410
1626465851.410,146.973,-59.570,-32.715,-5.371
1626465851.414,41.504,-56.641,-48.340,-16.113
1626465851.418,-204.590,-58.594,-45.410,-56.641
1626465851.422,-161.621,-47.363,-35.645,-50.293
1626465851.426,92.285,-36.621,-38.086,-13.184
1626465851.430,119.141,-47.852,-51.270,-6.348
1626465851.433,-157.227,-67.383,-50.781,-48.340
1626465851.437,-220.215,-71.777,-52.734,-57.617
1626465851.441,18.066,-57.617,-32.227,-20.996
1626465851.445,160.645,-51.758,-41.016,7.812
1626465851.449,-97.168,-65.430,-58.594,-35.156
1626465851.451,-217.285,-55.176,-39.551,-46.875
1626465851.455,-32.227,-43.457,-32.715,-15.625
1626465851.459,180.176,-43.945,-31.738,13.672
1626465851.463,-4.883,-47.363,-41.016,-18.555
1626465851.467,-210.449,-52.734,-33.203,-42.969
1626465851.471,-103.516,-49.316,-24.902,-30.762
1626465851.475,145.508,-50.293,-29.785,-2.930
1626465851.478,72.266,-59.082,-51.758,-18.555
1626465851.482,-188.477,-62.500,-43.945,-47.852
1626465851.486,-179.199,-55.176,-37.598,-39.551
1626465851.490,83.496,-45.898,-26.855,-0.977
1626465851.494,138.672,-42.480,-39.062,7.812
1626465851.498,-137.695,-53.223,-46.875,-31.738
1626465851.502,-209.961,-61.035,-44.922,-45.410
1626465851.506,15.625,-56.641,-34.668,-21.484
1626465851.510,174.316,-47.852,-31.738,0.000
1626465851.514,-80.078,-47.852,-43.457,-49.316
1626465851.518,-226.562,-43.457,-36.621,-59.570
1626465851.522,-57.129,-34.180,-46.875,-36.621
1626465851.525,164.062,-40.039,-56.152,-9.277
1626465851.529,-1.465,-48.828,-62.012,-39.062
1626465851.533,-217.773,-48.828,-49.805,-62.012
1626465851.537,-134.766,-56.152,-37.109,-55.176
1626465851.541,130.371,-54.199,-27.344,-17.578
1626465851.541,87.402,-52.734,-44.922,-20.508
1626465851.545,-190.918,-58.594,-47.363,-61.035
1626465851.549,-187.012,-39.551,-40.527,-54.199
1626465851.553,74.707,-32.227,-38.086,-22.461
1626465851.557,142.090,-50.781,-55.664,-21.973
1626465851.561,-140.137,-54.688,-62.012,-72.266
1626465851.565,-229.492,-51.270,-58.105,-79.590
1626465851.568,-8.789,-60.059,-47.363,-46.387
1626465851.572,169.434,-45.410,-49.805,-22.949
1626465851.576,-62.500,-48.340,-61.035,-53.223
1626465851.580,-224.609,-66.406,-45.410,-64.453
1626465851.584,-85.449,-55.664,-43.945,-51.758
1626465851.589,157.227,-33.691,-34.668,-13.184
1626465851.593,19.043,-44.922,-52.734,-37.109
1626465851.597,-225.586,-67.383,-65.918,-70.312
1626465851.601,-157.227,-62.012,-52.734,-53.223
1626465851.605,98.145,-57.129,-48.340,-20.508
1626465851.609,89.355,-48.828,-56.641,-24.414
1626465851.613,-169.434,-38.574,-44.434,-55.176
1626465851.616,-204.590,-57.129,-37.598,-60.547
1626465851.620,36.133,-71.289,-35.156,-27.344
1626465851.624,155.762,-60.059,-48.828,-6.836
1626465851.628,-108.887,-63.477,-52.734,-49.805
1626465851.632,-211.914,-57.129,-38.086,-50.781
1626465851.646,-19.043,-41.992,-38.574,-32.227
1626465851.650,171.387,-53.711,-44.922,-14.160
1626465851.654,-34.180,-71.289,-60.547,-46.387
1626465851.658,-216.309,-68.848,-55.176,-64.941
1626465851.662,-84.473,-60.059,-37.598,-40.039
1626465851.666,157.227,-53.711,-33.203,-7.812
1626465851.670,32.715,-66.895,-53.223,-36.133
1626465851.673,-211.914,-61.523,-42.969,-62.500
1626465851.677,-160.645,-45.410,-36.621,-41.992
1626465851.681,96.191,-49.805,-30.762,-2.930
1626465851.685,125.000,-50.781,-48.828,-1.465
1626465851.689,-144.531,-55.176,-52.734,-40.039
1626465851.691,-198.730,-67.871,-46.875,-41.016
1626465851.695,36.621,-58.105,-41.992,-9.277
1626465851.699,166.992,-40.527,-39.551,10.254
1626465851.703,-89.844,-51.758,-44.434,-31.738
1626465851.707,-211.426,-65.430,-36.621,-39.551
1626465851.711,-29.297,-53.223,-36.621,-19.531
1626465851.715,186.035,-44.434,-41.992,5.859
1626465851.718,4.883,-42.969,-51.758,-20.020
1626465851.722,-196.777,-47.363,-42.480,-46.387
1626465851.726,-107.422,-60.059,-41.992,-42.480
1626465851.730,143.066,-52.246,-38.574,-4.395
1626465851.734,71.777,-39.551,-50.293,-9.766
1626465851.736,-190.430,-40.039,-53.223,-43.945
1626465851.740,-174.316,-59.082,-45.898,-45.898
1626465851.744,87.402,-55.176,-37.109,-13.184
1626465851.748,152.832,-44.434,-44.922,-0.977
1626465851.752,-122.070,-55.664,-48.340,-43.945
1626465851.756,-195.312,-60.547,-45.898,-53.223
1626465851.760,29.785,-42.969,-40.039,-27.832
1626465851.763,188.965,-35.156,-41.504,-2.930
1626465851.767,-74.219,-53.711,-60.059,-46.387
1626465851.771,-234.863,-53.223,-51.758,-64.941
1626465851.775,-52.246,-37.109,-34.668,-30.762
1626465851.779,162.109,-49.805,-47.852,-5.371
1626465851.781,-12.207,-61.523,-63.965,-33.203
1626465851.785,-210.449,-49.316,-51.758,-50.781
1626465851.789,-114.258,-42.969,-50.293,-41.016
1626465851.793,139.160,-39.551,-39.062,-3.906
1626465851.797,90.332,-37.109,-48.340,-9.766
1626465851.801,-167.969,-41.504,-41.992,-45.898
1626465851.805,-174.316,-46.387,-46.875,-52.246
1626465851.808,63.477,-42.969,-58.105,-20.996
1626465851.812,139.648,-39.551,-59.570,-6.348
1626465851.816,-128.418,-53.711,-51.270,-45.410
1626465851.820,-206.543,-47.363,-42.480,-41.992
1626465851.824,-3.906,-45.410,-47.363,-18.555
1626465851.828,168.945,-46.875,-46.875,8.789
1626465851.832,-54.199,-48.340,-55.664,-26.855
1626465851.836,-217.285,-56.152,-57.617,-51.270
1626465851.840,-70.801,-61.523,-49.316,-27.832
1626465851.844,156.738,-49.805,-43.457,6.348
1626465851.848,16.602,-48.340,-57.617,-31.250
1626465851.852,-201.172,-52.246,-57.617,-62.988
1626465851.855,-142.090,-59.082,-54.199,-49.316
1626465851.859,115.723,-53.711,-37.109,-8.789
1626465851.863,102.539,-41.504,-44.434,-12.207
1626465851.867,-175.781,-56.152,-40.039,-53.223
1626465851.871,-200.195,-56.152,-22.461,-50.293
1626465851.873,45.898,-35.645,-6.836,-17.578
1626465851.877,154.297,-27.832,-12.695,-3.906
1626465851.881,-118.652,-47.852,-21.973,-54.199
1626465851.885,-218.750,-57.617,-24.902,-62.500
1626465851.889,-10.254,-48.828,-23.438,-33.691
