timestamps,TP9,AF7,AF8,TP10
1626466275.712,-528.320,-513.184,-730.469,-1000.000
1626466275.716,171.875,-468.750,-659.668,-926.758
1626466275.720,543.457,-456.055,-685.547,-792.480
1626466275.724,697.266,-479.980,-750.488,-908.691
1626466275.728,748.047,-494.141,-739.258,-996.094
1626466275.732,840.332,-470.215,-666.992,-791.992
1626466275.736,895.020,-440.918,-659.180,-614.746
1626466275.739,907.715,-444.824,-721.191,-741.211
1626466275.743,944.824,-477.051,-750.977,-904.785
1626466275.747,968.262,-479.004,-677.734,-752.930
1626466275.751,965.332,-446.777,-628.906,-581.055
1626466275.755,966.309,-442.383,-679.199,-653.809
1626466275.755,966.797,-469.238,-732.422,-869.141
1626466275.759,966.797,-465.332,-671.387,-841.797
1626466275.763,965.820,-429.199,-618.652,-640.625
1626466275.767,962.891,-425.781,-642.090,-720.703
1626466275.771,969.727,-444.336,-687.988,-939.941
1626466275.775,894.043,-446.777,-656.250,-1000.000
1626466275.779,748.047,-424.805,-589.355,-994.141
1626466275.782,608.398,-421.387,-600.098,-1000.000
1626466275.786,398.438,-443.359,-662.598,-1000.000
1626466275.790,231.934,-458.008,-659.668,-1000.000
1626466275.794,151.855,-439.941,-594.727,-1000.000
1626466275.798,113.770,-407.227,-574.219,-1000.000
1626466275.800,124.512,-410.645,-617.188,-1000.000
1626466275.804,175.293,-447.754,-654.297,-1000.000
1626466275.808,349.609,-438.477,-590.820,-1000.000
1626466275.812,481.934,-410.645,-550.293,-1000.000
1626466275.816,486.328,-414.062,-599.609,-1000.000
1626466275.820,446.777,-429.199,-650.391,-1000.000
1626466275.824,421.387,-429.199,-595.703,-1000.000
1626466275.827,413.086,-407.715,-547.363,-1000.000
1626466275.831,369.141,-395.996,-585.449,-1000.000
1626466275.835,281.738,-423.340,-646.484,-1000.000
1626466275.839,230.469,-451.660,-613.281,-1000.000
1626466275.843,239.746,-427.246,-541.992,-1000.000
1626466275.845,243.652,-398.438,-545.898,-1000.000
1626466275.849,216.797,-403.809,-600.586,-1000.000
1626466275.853,182.129,-425.293,-614.258,-1000.000
1626466275.857,199.707,-413.086,-556.641,-1000.000
1626466275.861,240.723,-377.441,-523.438,-1000.000
1626466275.865,276.855,-372.070,-551.270,-1000.000
1626466275.869,292.969,-396.973,-588.379,-1000.000
1626466275.872,327.637,-399.902,-533.691,-1000.000
1626466275.876,395.996,-365.234,-494.141,-1000.000
1626466275.880,464.844,-355.469,-533.691,-1000.000
1626466275.884,506.836,-381.836,-574.219,-1000.000
1626466275.888,571.289,-377.441,-521.484,-1000.000
1626466275.891,643.066,-350.098,-466.309,-1000.000
1626466275.895,705.078,-335.938,-481.934,-1000.000
1626466275.899,767.578,-345.215,-535.645,-1000.000
1626466275.903,833.496,-362.305,-528.320,-1000.000
1626466275.907,926.270,-342.773,-463.867,-1000.000
1626466275.911,969.727,-312.500,-445.801,-993.652
1626466275.915,965.332,-326.172,-501.465,-1000.000
1626466275.918,960.938,-358.887,-526.367,-993.652
1626466275.922,967.285,-347.168,-453.613,-726.074
1626466275.926,936.035,-327.637,-440.918,-553.223
1626466275.930,707.031,-332.031,-517.578,-816.895
1626466275.934,363.770,-361.328,-579.102,-1000.000
1626466275.937,-164.551,-375.977,-540.527,-994.629
1626466275.941,-769.043,-360.352,-494.141,-996.582
1626466275.945,-1000.000,-364.258,-543.457,-1000.000
1626466275.949,-989.746,-411.133,-635.742,-1000.000
1626466275.953,-997.559,-427.734,-616.699,-1000.000
1626466275.957,-1000.000,-408.691,-589.355,-1000.000
1626466275.961,-1000.000,-414.551,-642.090,-1000.000
1626466275.964,-1000.000,-455.566,-738.281,-1000.000
1626466275.968,-1000.000,-492.188,-785.156,-1000.000
1626466275.972,-1000.000,-500.000,-761.719,-1000.000
1626466275.976,-1000.000,-511.230,-813.477,-1000.000
1626466275.980,-1000.000,-555.664,-937.988,-1000.000
1626466275.995,-1000.000,-624.512,-1000.000,-1000.000
1626466275.999,-1000.000,-657.227,-997.559,-1000.000
1626466276.003,-1000.000,-676.270,-999.512,-1000.000
1626466276.007,-1000.000,-717.773,-1000.000,-1000.000
1626466276.011,-1000.000,-770.020,-1000.000,-1000.000
1626466276.015,-1000.000,-810.547,-1000.000,-1000.000
1626466276.019,-1000.000,-825.195,-1000.000,-1000.000
1626466276.022,-1000.000,-851.074,-1000.000,-1000.000
1626466276.026,-1000.000,-905.273,-1000.000,-1000.000
1626466276.030,-1000.000,-979.980,-1000.000,-1000.000
1626466276.034,-1000.000,-1000.000,-1000.000,-1000.000
1626466276.038,-1000.000,-981.934,-1000.000,-1000.000
1626466276.040,-999.023,-984.375,-1000.000,-1000.000
1626466276.044,-1000.000,-1000.000,-1000.000,-1000.000
1626466276.048,-978.027,-1000.000,-1000.000,-1000.000
1626466276.052,-924.316,-1000.000,-1000.000,-1000.000
1626466276.056,-860.840,-1000.000,-1000.000,-1000.000
1626466276.060,-809.570,-1000.000,-1000.000,-1000.000
1626466276.064,-773.926,-1000.000,-1000.000,-1000.000
1626466276.067,-699.707,-1000.000,-1000.000,-1000.000
1626466276.071,-601.074,-1000.000,-1000.000,-1000.000
1626466276.075,-511.230,-1000.000,-1000.000,-1000.000
1626466276.079,-475.586,-1000.000,-1000.000,-1000.000
1626466276.083,-514.160,-1000.000,-1000.000,-1000.000
1626466276.085,-614.746,-1000.000,-1000.000,-1000.000
1626466276.089,-790.527,-1000.000,-1000.000,-1000.000
1626466276.093,-955.566,-1000.000,-1000.000,-1000.000
1626466276.097,-1000.000,-1000.000,-1000.000,-1000.000
1626466276.101,-996.582,-1000.000,-1000.000,-1000.000
1626466276.105,-1000.000,-1000.000,-1000.000,-1000.000
1626466276.109,-1000.000,-1000.000,-1000.000,-1000.000
1626466276.112,-993.164,-1000.000,-1000.000,-1000.000
1626466276.116,-1000.000,-1000.000,-1000.000,-1000.000
1626466276.120,-929.688,-1000.000,-1000.000,-1000.000
1626466276.124,-787.598,-1000.000,-1000.000,-1000.000
1626466276.128,-883.301,-1000.000,-1000.000,-1000.000
1626466276.130,-997.559,-1000.000,-1000.000,-1000.000
1626466276.134,-998.535,-1000.000,-1000.000,-1000.000
1626466276.138,-998.047,-1000.000,-1000.000,-1000.000
1626466276.142,-1000.000,-1000.000,-1000.000,-1000.000
1626466276.146,-1000.000,-1000.000,-1000.000,-1000.000
1626466276.150,-1000.000,-1000.000,-1000.000,-1000.000
1626466276.154,-1000.000,-1000.000,-1000.000,-1000.000
1626466276.157,-1000.000,-1000.000,-1000.000,-1000.000
1626466276.161,-1000.000,-1000.000,-1000.000,-1000.000
1626466276.165,-1000.000,-1000.000,-1000.000,-1000.000
1626466276.169,-1000.000,-1000.000,-1000.000,-1000.000
1626466276.173,-1000.000,-1000.000,-1000.000,-1000.000
1626466276.176,-1000.000,-1000.000,-1000.000,-1000.000
1626466276.180,-1000.000,-1000.000,-1000.000,-1000.000
1626466276.184,-1000.000,-1000.000,-1000.000,-1000.000
1626466276.188,-1000.000,-1000.000,-1000.000,-1000.000
1626466276.192,-1000.000,-1000.000,-1000.000,-1000.000
1626466276.196,-1000.000,-1000.000,-1000.000,-1000.000
1626466276.200,-1000.000,-1000.000,-1000.000,-1000.000
1626466276.203,-1000.000,-1000.000,-1000.000,-1000.000
1626466276.207,-1000.000,-1000.000,-1000.000,-1000.000
1626466276.211,-1000.000,-1000.000,-1000.000,-1000.000
1626466276.215,-1000.000,-1000.000,-1000.000,-1000.000
1626466276.219,-1000.000,-998.535,-1000.000,-1000.000
1626466276.220,-1000.000,-1000.000,-1000.000,-1000.000
1626466276.224,-1000.000,-981.445,-1000.000,-1000.000
1626466276.228,-1000.000,-943.359,-999.023,-1000.000
1626466276.232,-1000.000,-943.848,-998.047,-1000.000
1626466276.236,-1000.000,-953.613,-1000.000,-1000.000
1626466276.240,-1000.000,-918.457,-957.520,-1000.000
1626466276.244,-1000.000,-881.348,-902.832,-990.723
1626466276.247,-1000.000,-902.344,-936.523,-1000.000
1626466276.251,-1000.000,-917.480,-962.891,-916.016
1626466276.255,-1000.000,-894.531,-880.859,-661.133
1626466276.259,-1000.000,-855.957,-803.223,-453.125
1626466276.263,-1000.000,-841.309,-820.801,-475.586
1626466276.265,-1000.000,-852.539,-866.211,-365.234
1626466276.269,-1000.000,-846.680,-821.777,-315.430
1626466276.273,-1000.000,-828.125,-745.117,-612.793
1626466276.277,-1000.000,-794.922,-729.004,-201.660
1626466276.281,-1000.000,-790.039,-770.996,312.012
1626466276.285,-1000.000,-782.715,-760.254,515.625
1626466276.289,-1000.000,-805.176,-670.898,562.012
1626466276.292,-1000.000,-792.969,-621.582,411.621
1626466276.296,-1000.000,-729.492,-632.812,410.156
1626466276.300,-1000.000,-751.953,-631.836,329.102
1626466276.304,-1000.000,-757.812,-543.457,-102.051
1626466276.308,-1000.000,-729.980,-498.047,-799.805
1626466276.310,-1000.000,-702.637,-517.578,-1000.000
1626466276.314,-1000.000,-703.613,-539.551,-978.027
1626466276.318,-1000.000,-700.684,-492.676,-1000.000
1626466276.322,-1000.000,-662.598,-442.383,-1000.000
1626466276.326,-1000.000,-634.766,-450.195,-1000.000
1626466276.330,-996.094,-643.555,-490.234,-1000.000
1626466276.334,-1000.000,-647.949,-470.703,-1000.000
1626466276.337,-976.074,-615.723,-414.062,-1000.000
1626466276.341,-831.055,-583.984,-410.156,-995.605
1626466276.345,-568.359,-594.727,-457.031,-1000.000
1626466276.349,-257.324,-606.934,-461.914,-1000.000
1626466276.353,222.656,-570.312,-401.855,-785.156
1626466276.370,578.613,-534.668,-384.277,-834.961
1626466276.374,802.734,-540.527,-423.340,-993.164
1626466276.378,859.375,-565.430,-455.566,-652.832
1626466276.382,742.676,-544.922,-411.621,-345.703
1626466276.386,880.859,-505.859,-374.023,-473.145
1626466276.390,927.246,-503.906,-410.156,-844.238
1626466276.394,952.637,-524.414,-474.609,-712.891
1626466276.397,862.305,-534.668,-450.684,-617.188
1626466276.401,286.621,-512.207,-401.367,-812.500
1626466276.405,-339.844,-507.324,-427.246,-808.105
1626466276.409,-348.633,-516.602,-498.535,-636.719
1626466276.413,-587.891,-523.438,-493.164,-453.613
1626466276.416,-1000.000,-509.766,-439.941,-265.137
1626466276.420,-963.867,-474.609,-448.730,-142.090
1626466276.424,-1000.000,-479.980,-505.859,-16.113
1626466276.428,-811.523,-517.090,-531.250,79.102
1626466276.432,252.930,-493.164,-480.469,115.234
1626466276.436,973.633,-437.012,-467.285,20.020
1626466276.440,947.266,-435.547,-525.879,-22.949
1626466276.443,953.613,-472.656,-574.707,-23.438
1626466276.447,970.215,-479.492,-538.574,-17.578
1626466276.451,966.309,-459.473,-509.277,143.555
1626466276.455,966.309,-442.871,-542.480,486.328
1626466276.459,966.309,-451.660,-601.074,828.125
1626466276.461,966.309,-461.426,-583.496,972.656
1626466276.465,966.309,-443.848,-534.668,959.473
1626466276.469,966.309,-428.223,-543.457,965.820
1626466276.473,966.309,-445.801,-604.492,967.773
1626466276.477,966.309,-466.309,-619.141,969.238
1626466276.481,966.309,-449.219,-557.129,954.102
1626466276.485,966.309,-437.988,-543.945,981.445
1626466276.488,966.309,-451.660,-603.516,910.156
1626466276.492,966.309,-488.281,-632.324,588.379
1626466276.496,966.309,-500.488,-573.242,462.402
1626466276.500,966.309,-472.168,-543.457,543.945
1626466276.504,966.309,-470.703,-586.426,547.363
1626466276.505,966.309,-494.629,-641.113,612.793
1626466276.509,966.309,-498.535,-607.910,709.961
1626466276.513,966.309,-479.980,-573.242,637.207
1626466276.517,966.309,-477.051,-611.816,663.086
1626466276.521,966.309,-497.559,-668.945,890.137
1626466276.525,966.309,-505.371,-656.738,974.121
1626466276.529,966.309,-502.930,-604.492,960.938
1626466276.532,966.309,-499.023,-612.305,966.309
1626466276.536,966.309,-507.324,-680.664,967.285
1626466276.540,966.309,-537.109,-689.453,966.797
1626466276.544,966.309,-529.785,-625.977,966.797
1626466276.548,966.309,-499.023,-608.398,967.773
1626466276.551,966.309,-501.465,-665.527,963.379
1626466276.555,966.309,-524.902,-699.707,963.867
1626466276.559,966.309,-520.020,-636.230,983.398
1626466276.563,966.309,-494.141,-599.121,791.504
1626466276.567,966.309,-483.398,-639.648,752.930
1626466276.571,966.309,-493.652,-685.547,929.688
1626466276.575,966.309,-494.141,-635.742,944.824
1626466276.578,966.309,-481.445,-585.449,964.355
1626466276.582,966.309,-472.656,-599.609,967.773
1626466276.586,966.309,-483.887,-642.578,966.309
1626466276.590,966.309,-496.094,-618.652,967.285
1626466276.594,966.309,-464.355,-540.039,961.914
1626466276.595,966.309,-439.453,-538.574,975.586
1626466276.599,966.309,-452.637,-586.914,903.320
1626466276.603,966.309,-466.797,-586.426,720.215
1626466276.607,966.309,-448.242,-510.742,616.699
1626466276.611,966.309,-419.434,-464.844,270.996
1626466276.615,966.309,-416.504,-501.953,-464.844
1626466276.619,966.309,-440.918,-541.992,-909.180
1626466276.622,966.309,-435.059,-478.516,-967.285
1626466276.626,966.309,-380.859,-420.410,-972.656
1626466276.630,966.309,-354.980,-437.500,-1000.000
1626466276.634,966.309,-367.188,-479.980,-808.105
1626466276.638,966.309,-362.793,-435.547,-14.160
1626466276.640,966.309,-313.477,-360.352,620.605
1626466276.644,966.309,-279.297,-363.281,952.148
1626466276.648,966.309,-300.293,-424.316,342.285
1626466276.652,966.309,-321.777,-409.180,-868.164
1626466276.656,966.309,-279.297,-324.707,-435.059
1626466276.660,966.309,-222.168,-303.223,620.605
1626466276.664,966.309,-233.887,-366.211,956.055
1626466276.667,966.309,-264.160,-391.113,842.773
1626466276.671,966.309,-241.699,-306.641,662.109
1626466276.675,966.309,-231.445,-277.344,46.387
1626466276.679,966.309,-245.117,-325.195,-870.117
1626466276.683,966.309,-255.859,-369.141,-259.766
1626466276.685,966.309,-237.793,-320.801,795.410
1626466276.689,966.309,-200.684,-258.301,-995.605
1626466276.693,965.820,-190.918,-281.738,803.223
1626466276.697,965.820,-223.145,-346.191,600.586
1626466276.701,966.309,-229.492,-309.570,894.531
1626466276.705,966.309,-200.684,-244.141,724.121
1626466276.709,967.285,-190.430,-263.184,570.312
1626466276.712,967.285,-217.773,-327.148,818.359
1626466276.716,910.645,-254.883,-331.055,754.883
1626466276.720,-925.293,-240.723,-263.672,822.266
1626466276.724,316.406,-226.562,-243.652,937.012
1626466276.728,-941.406,-248.047,-297.363,958.008
1626466276.745,-1000.000,-272.461,-325.684,967.285
1626466276.749,-966.309,-266.113,-256.836,965.820
1626466276.753,-1000.000,-243.164,-234.375,967.285
1626466276.757,-1000.000,-244.141,-283.691,966.797
1626466276.761,-991.211,-267.090,-318.848,967.285
1626466276.765,-1000.000,-266.602,-275.879,966.797
1626466276.769,-913.574,-251.953,-237.793,966.797
1626466276.772,-603.516,-247.559,-251.953,966.797
1626466276.776,-321.289,-255.859,-301.270,967.285
1626466276.780,308.594,-315.430,-296.387,966.797
1626466276.784,923.828,-310.547,-230.957,966.797
1626466276.788,965.820,-255.859,-224.121,966.797
1626466276.790,951.660,-273.438,-287.598,966.797
1626466276.794,969.238,-291.992,-291.992,966.797
1626466276.798,966.309,-280.762,-226.562,966.797
1626466276.802,965.820,-263.184,-221.191,966.797
1626466276.806,966.309,-265.137,-277.344,967.285
1626466276.810,966.309,-286.133,-304.199,966.797
1626466276.814,966.309,-292.969,-246.094,966.797
1626466276.817,966.309,-274.902,-209.473,966.797
1626466276.821,966.309,-275.391,-249.023,966.797
1626466276.825,965.820,-310.059,-306.152,966.797
1626466276.829,966.309,-314.453,-264.160,966.797
1626466276.833,966.309,-283.203,-204.590,966.797
1626466276.835,966.309,-279.785,-227.539,966.797
1626466276.839,966.309,-307.617,-286.621,966.797
1626466276.843,966.309,-318.848,-273.926,966.797
1626466276.847,966.309,-296.387,-206.055,966.797
1626466276.851,966.309,-276.367,-204.102,966.797
1626466276.855,966.309,-284.180,-267.090,966.797
1626466276.859,966.309,-312.012,-292.480,966.797
1626466276.862,966.309,-309.082,-230.469,966.797
1626466276.866,966.309,-284.180,-205.566,966.797
1626466276.870,966.309,-295.898,-253.906,966.797
1626466276.874,966.309,-320.801,-293.945,966.797
1626466276.878,966.309,-314.941,-250.000,966.797
1626466276.881,966.309,-286.621,-208.496,966.797
1626466276.885,966.309,-278.320,-232.422,966.797
1626466276.889,966.309,-290.039,-285.156,966.797
1626466276.893,966.309,-296.387,-262.207,966.797
1626466276.897,966.309,-283.203,-204.590,966.797
1626466276.901,966.309,-256.836,-208.496,966.797
1626466276.905,966.309,-263.672,-260.254,966.797
1626466276.908,966.309,-300.781,-267.578,966.797
1626466276.912,966.309,-289.551,-214.355,966.797
1626466276.916,966.309,-260.742,-201.660,966.797
1626466276.920,966.309,-270.508,-244.141,966.797
1626466276.924,966.309,-297.852,-263.672,966.797
1626466276.926,966.309,-285.156,-211.914,966.797
1626466276.930,966.309,-266.602,-190.918,966.797
1626466276.934,966.309,-266.602,-231.934,966.797
1626466276.938,966.309,-294.434,-260.742,966.797
1626466276.942,966.309,-296.875,-214.355,966.797
1626466276.946,965.820,-256.348,-179.199,966.797
1626466276.950,966.309,-235.352,-193.848,966.797
1626466276.953,966.309,-263.672,-240.234,966.797
1626466276.957,966.309,-296.387,-229.980,966.797
1626466276.961,966.309,-270.508,-165.527,966.797
1626466276.965,966.309,-240.234,-165.039,966.797
1626466276.969,966.309,-256.836,-227.539,966.797
1626466276.971,966.309,-281.250,-242.188,966.797
1626466276.975,966.309,-273.438,-181.152,966.797
1626466276.979,965.820,-252.930,-156.250,966.797
1626466276.983,966.309,-248.047,-203.125,966.797
1626466276.987,966.309,-267.090,-223.633,966.797
1626466276.991,965.820,-254.395,-171.875,966.797
1626466276.995,966.309,-229.980,-157.227,966.797
1626466276.998,966.309,-243.164,-194.824,966.797
1626466277.002,966.309,-258.301,-223.633,966.797
1626466277.006,965.820,-254.395,-189.941,967.285
1626466277.010,966.309,-234.863,-149.902,966.797
1626466277.014,966.309,-224.121,-169.922,966.797
1626466277.015,966.309,-244.141,-220.215,966.797
1626466277.019,966.309,-256.348,-200.684,967.285
1626466277.023,966.309,-233.887,-145.996,966.797
1626466277.027,966.309,-216.309,-145.508,966.797
1626466277.031,966.309,-224.609,-189.453,966.797
1626466277.035,966.309,-235.352,-198.730,966.797
1626466277.039,966.309,-236.816,-152.344,966.797
1626466277.042,966.309,-231.934,-136.719,966.797
1626466277.046,965.820,-224.609,-175.293,966.797
1626466277.050,966.309,-239.746,-203.125,966.797
1626466277.054,966.309,-239.746,-161.621,966.797
1626466277.058,966.309,-212.402,-133.301,966.797
1626466277.062,966.309,-204.102,-160.156,966.797
1626466277.066,966.309,-234.375,-202.637,966.797
1626466277.070,966.309,-254.395,-181.152,966.797
1626466277.074,966.309,-236.816,-144.531,966.797
1626466277.078,966.309,-217.773,-155.762,965.332
1626466277.082,966.309,-219.238,-197.266,970.703
1626466277.086,966.309,-239.258,-201.660,948.242
1626466277.089,966.309,-240.234,-140.625,918.945
1626466277.093,966.309,-214.844,-122.559,916.992
1626466277.097,966.309,-213.867,-174.805,880.859
1626466277.101,966.309,-243.164,-193.848,824.219
1626466277.105,966.309,-234.375,-135.254,808.105
1626466277.121,966.309,-204.590,-107.910,822.754
1626466277.125,966.309,-207.520,-153.809,799.316
1626466277.129,966.309,-234.375,-202.148,744.629
1626466277.133,964.355,-240.723,-161.133,698.730
1626466277.137,968.262,-212.891,-110.840,694.336
1626466277.141,955.566,-198.242,-145.996,697.266
1626466277.145,901.855,-223.145,-207.520,636.230
1626466277.148,862.305,-235.352,-168.457,596.680
1626466277.152,840.820,-215.332,-116.699,606.445
1626466277.156,804.199,-198.730,-138.672,598.145
1626466277.160,778.320,-210.938,-192.871,555.664
1626466277.164,757.812,-248.535,-197.754,513.184
1626466277.165,737.793,-233.887,-138.184,510.254
1626466277.169,727.051,-193.359,-121.094,523.438
1626466277.173,697.754,-199.219,-168.457,492.188
1626466277.177,672.363,-230.469,-194.336,445.801
1626466277.181,639.160,-219.238,-142.090,434.570
1626466277.185,617.188,-194.824,-121.094,456.055
1626466277.189,600.586,-201.172,-172.852,432.129
1626466277.192,577.148,-229.004,-213.867,386.719
1626466277.196,568.848,-231.934,-162.598,379.883
1626466277.200,534.180,-216.309,-116.699,389.160
1626466277.204,527.832,-200.195,-144.043,389.648
1626466277.208,537.109,-201.172,-194.336,348.633
1626466277.210,513.184,-219.238,-171.875,316.406
1626466277.214,494.141,-202.637,-117.188,328.125
1626466277.218,493.652,-183.105,-119.141,333.984
1626466277.222,488.770,-203.125,-172.363,301.758
1626466277.226,462.891,-222.168,-183.594,269.531
1626466277.230,458.984,-197.754,-124.512,282.715
1626466277.234,459.473,-179.688,-103.516,308.594
1626466277.237,440.430,-183.594,-147.949,293.457
1626466277.241,445.312,-204.102,-194.824,242.676
1626466277.245,434.082,-209.961,-151.367,230.469
1626466277.249,378.906,-187.500,-104.492,259.766
1626466277.253,486.328,-179.688,-140.137,247.070
1626466277.255,-142.578,-212.402,-195.801,197.266
1626466277.259,-1000.000,-229.980,-152.832,185.547
1626466277.263,-996.582,-201.172,-105.469,210.449
1626466277.267,-979.004,-189.453,-139.648,209.961
1626466277.271,-1000.000,-212.891,-187.012,176.270
1626466277.275,-1000.000,-212.402,-166.992,157.715
1626466277.279,-1000.000,-184.570,-112.305,185.059
1626466277.282,-1000.000,-184.082,-112.305,202.148
1626466277.286,-1000.000,-205.566,-163.086,168.457
1626466277.290,-1000.000,-223.633,-171.387,125.488
1626466277.294,-1000.000,-207.031,-110.352,131.836
1626466277.298,-1000.000,-182.129,-86.914,166.016
1626466277.300,-1000.000,-185.547,-135.254,119.629
1626466277.304,-1000.000,-212.891,-177.246,132.812
1626466277.308,-1000.000,-213.867,-126.465,21.973
1626466277.312,-1000.000,-193.848,-77.637,-728.516
1626466277.316,-1000.000,-187.012,-112.793,-1000.000
1626466277.320,-1000.000,-201.660,-171.387,-966.797
1626466277.324,-1000.000,-215.332,-141.602,-1000.000
1626466277.327,-1000.000,-205.078,-94.727,-1000.000
1626466277.331,-1000.000,-194.336,-106.934,-1000.000
1626466277.335,-1000.000,-200.684,-160.156,-1000.000
1626466277.339,-1000.000,-222.168,-162.598,-1000.000
1626466277.343,-1000.000,-205.566,-101.074,-1000.000
1626466277.345,-1000.000,-169.434,-84.961,-1000.000
1626466277.349,-1000.000,-171.875,-134.766,-1000.000
1626466277.353,-1000.000,-195.801,-152.832,-1000.000
1626466277.357,-1000.000,-186.035,-86.914,-1000.000
1626466277.361,-1000.000,-159.668,-64.941,-1000.000
1626466277.365,-1000.000,-152.832,-109.863,-1000.000
1626466277.369,-1000.000,-183.594,-144.531,-1000.000
1626466277.372,-1000.000,-200.684,-104.004,-1000.000
1626466277.376,-1000.000,-170.898,-70.801,-1000.000
1626466277.380,-1000.000,-154.297,-93.262,-1000.000
1626466277.384,-1000.000,-176.758,-133.301,-1000.000
1626466277.388,-1000.000,-190.918,-116.211,-1000.000
1626466277.390,-1000.000,-169.434,-64.453,-1000.000
1626466277.394,-1000.000,-153.320,-70.312,-1000.000
1626466277.398,-1000.000,-168.945,-126.465,-1000.000
1626466277.402,-1000.000,-192.383,-128.418,-1000.000
1626466277.406,-1000.000,-175.293,-75.684,-1000.000
1626466277.410,-1000.000,-142.090,-58.594,-1000.000
1626466277.414,-1000.000,-142.090,-106.934,-1000.000
1626466277.417,-1000.000,-174.316,-141.113,-1000.000
1626466277.421,-1000.000,-173.828,-79.590,-1000.000
1626466277.425,-1000.000,-158.203,-48.340,-1000.000
1626466277.429,-1000.000,-165.527,-96.191,-1000.000
1626466277.433,-1000.000,-186.523,-137.695,-1000.000
1626466277.435,-1000.000,-182.129,-89.844,-1000.000
1626466277.439,-1000.000,-148.438,-50.293,-1000.000
1626466277.443,-1000.000,-142.578,-81.055,-1000.000
1626466277.447,-1000.000,-169.434,-133.789,-1000.000
1626466277.451,-1000.000,-180.664,-122.559,-1000.000
1626466277.455,-1000.000,-156.738,-66.895,-1000.000
1626466277.459,-1000.000,-146.973,-76.660,-1000.000
1626466277.462,-1000.000,-168.945,-131.836,-1000.000
1626466277.466,-988.281,-181.152,-129.395,-1000.000
1626466277.470,-973.145,-178.223,-69.336,-1000.000
1626466277.474,-1000.000,-169.922,-65.430,-1000.000
1626466277.478,-102.539,-166.992,-121.582,-1000.000
1626466277.495,969.238,-183.105,-154.785,-1000.000
1626466277.499,958.008,-182.617,-104.004,-1000.000
1626466277.503,942.383,-162.598,-63.965,-1000.000
1626466277.507,972.656,-153.809,-94.727,-1000.000
1626466277.511,966.309,-175.293,-148.926,-1000.000
1626466277.515,966.309,-185.547,-122.070,-1000.000
1626466277.519,966.309,-167.969,-69.336,-1000.000
1626466277.522,966.309,-148.926,-88.379,-1000.000
1626466277.526,966.309,-163.574,-144.531,-1000.000
1626466277.530,966.309,-203.125,-144.043,-1000.000
1626466277.534,966.309,-193.359,-91.797,-1000.000
1626466277.538,966.309,-167.480,-82.520,-1000.000
1626466277.540,966.309,-169.922,-139.648,-1000.000
1626466277.544,966.309,-193.848,-147.949,-1000.000
1626466277.548,966.309,-187.988,-84.961,-1000.000
1626466277.552,966.309,-162.598,-69.824,-1000.000
1626466277.556,966.309,-153.809,-111.816,-1000.000
1626466277.560,966.309,-167.480,-153.809,-1000.000
1626466277.564,966.309,-181.641,-117.188,-1000.000
1626466277.567,966.309,-164.551,-75.195,-1000.000
1626466277.571,966.309,-147.949,-102.051,-1000.000
1626466277.575,973.633,-173.340,-156.738,-1000.000
1626466277.579,934.570,-194.336,-128.418,-1000.000
1626466277.583,969.238,-172.363,-67.383,-1000.000
1626466277.585,953.613,-142.578,-75.684,-1000.000
1626466277.589,-281.250,-165.527,-133.301,-1000.000
1626466277.593,-1000.000,-186.035,-128.906,-1000.000
1626466277.597,-947.754,-173.828,-74.707,-1000.000
1626466277.601,-999.023,-166.016,-70.801,-1000.000
1626466277.605,-1000.000,-166.992,-123.535,-1000.000
1626466277.609,-1000.000,-187.500,-139.160,-1000.000
1626466277.612,-1000.000,-182.129,-78.125,-1000.000
1626466277.616,-1000.000,-159.180,-56.641,-1000.000
1626466277.620,-1000.000,-168.945,-98.633,-992.676
1626466277.624,-1000.000,-189.941,-137.207,-1000.000
1626466277.628,-1000.000,-180.664,-85.449,-876.953
1626466277.630,-1000.000,-143.066,-32.227,-726.074
1626466277.634,-1000.000,-139.160,-74.219,-821.777
1626466277.638,-1000.000,-164.551,-125.977,-599.609
1626466277.642,-1000.000,-173.340,-95.703,-157.715
1626466277.646,-1000.000,-156.250,-37.109,65.918
1626466277.650,-1000.000,-128.418,-35.645,145.996
1626466277.654,-1000.000,-129.883,-89.355,439.941
1626466277.657,-1000.000,-165.527,-102.539,775.391
1626466277.661,-1000.000,-166.016,-48.828,875.000
1626466277.665,-1000.000,-136.230,-21.973,849.609
1626466277.669,-1000.000,-142.090,-62.500,688.965
1626466277.673,-1000.000,-180.176,-94.238,802.734
1626466277.675,-1000.000,-174.805,-36.133,978.027
1626466277.679,-1000.000,-139.160,3.418,964.355
1626466277.683,-1000.000,-133.789,-43.945,963.379
1626466277.687,-1000.000,-166.016,-95.215,968.262
1626466277.691,-1000.000,-168.457,-32.715,967.285
1626466277.695,-1000.000,-132.324,28.320,966.797
1626466277.699,-1000.000,-126.953,8.301,966.797
1626466277.702,-1000.000,-158.203,-43.457,966.797
1626466277.706,-1000.000,-173.828,-29.785,966.797
1626466277.710,-1000.000,-152.344,39.062,966.797
1626466277.714,-1000.000,-123.535,63.477,966.797
1626466277.718,-1000.000,-126.953,25.391,966.797
1626466277.720,-1000.000,-145.020,23.926,966.797
1626466277.724,-1000.000,-125.488,91.309,966.797
1626466277.728,-1000.000,-100.098,115.234,966.797
1626466277.732,-1000.000,-110.840,72.754,966.797
1626466277.736,-1000.000,-134.277,47.852,966.797
1626466277.740,-995.117,-113.281,117.676,966.797
1626466277.744,-999.023,-89.355,167.480,966.797
1626466277.747,-987.305,-101.562,142.090,966.797
1626466277.751,-753.418,-111.328,114.258,966.797
1626466277.755,-405.762,-104.004,159.180,967.285
1626466277.759,-65.430,-75.195,221.680,966.797
1626466277.763,119.629,-47.852,224.121,966.797
1626466277.767,240.234,-52.246,191.406,967.285
1626466277.771,577.637,-72.266,222.168,966.797
1626466277.775,829.102,-58.105,294.434,966.797
1626466277.779,838.379,-25.391,322.266,966.797
1626466277.783,877.441,-22.461,304.199,966.797
1626466277.787,963.867,-33.203,319.336,966.797
1626466277.791,967.773,-29.297,395.020,966.797
1626466277.794,963.379,-4.395,436.523,967.285
1626466277.798,966.797,25.879,424.316,966.797
1626466277.802,966.309,15.625,407.227,966.797
1626466277.806,966.309,37.109,472.168,966.797
1626466277.810,966.309,95.215,549.316,966.797
1626466277.810,966.309,130.859,561.523,966.797
1626466277.814,966.309,139.160,547.363,966.797
1626466277.818,965.820,165.039,595.703,966.797
1626466277.822,966.309,214.844,658.203,966.797
1626466277.826,966.309,245.605,649.414,966.797
1626466277.830,965.820,252.930,608.887,966.797
1626466277.834,966.309,243.164,611.816,966.797
1626466277.837,966.309,260.254,666.016,966.797
1626466277.841,966.309,294.434,676.758,966.797
1626466277.845,966.309,291.016,624.512,966.797
1626466277.849,966.309,262.207,594.727,966.797
1626466277.853,966.309,269.531,638.672,966.797
1626466277.870,966.309,296.875,652.832,966.797
1626466277.874,966.309,295.898,601.562,966.797
1626466277.878,966.309,263.184,554.688,966.797
1626466277.882,966.309,246.582,577.637,966.797
1626466277.886,966.309,261.230,597.168,967.285
1626466277.890,966.309,271.484,563.965,967.285
1626466277.894,966.309,253.906,503.906,966.797
1626466277.897,966.309,227.539,499.023,966.797
1626466277.901,966.309,225.098,529.297,966.797
1626466277.905,966.309,216.309,492.676,966.797
1626466277.909,966.309,186.523,414.062,966.797
1626466277.913,966.309,163.574,394.043,966.797
1626466277.915,966.309,174.316,434.570,966.797
1626466277.919,966.309,175.293,432.129,966.797
1626466277.923,966.309,147.949,368.164,966.797
1626466277.927,966.309,116.699,319.336,967.285
1626466277.931,966.309,110.840,327.637,966.797
1626466277.935,965.820,126.465,332.520,966.797
1626466277.939,966.309,112.793,286.621,966.797
1626466277.942,966.309,63.965,223.145,966.797
1626466277.946,966.309,38.574,238.770,967.285
1626466277.950,966.309,39.551,262.207,967.285
1626466277.954,966.309,39.062,223.633,966.797
1626466277.958,966.309,10.254,149.902,966.797
1626466277.961,966.309,-18.555,141.113,966.797
1626466277.965,966.309,-11.719,161.133,966.797
1626466277.969,966.309,-8.301,123.535,966.797
1626466277.973,966.309,-46.387,50.781,966.797
1626466277.977,966.309,-94.238,12.695,966.797
1626466277.981,966.309,-94.238,28.809,966.797
1626466277.985,966.309,-108.887,-11.230,966.797
1626466277.988,966.309,-154.785,-111.816,966.797
1626466277.992,966.309,-206.543,-191.895,966.797
1626466277.996,966.309,-228.027,-193.359,966.797
1626466278.000,966.309,-219.727,-198.242,966.797
1626466278.004,966.309,-235.352,-265.137,966.797
1626466278.005,966.309,-276.855,-352.539,966.797
1626466278.009,966.309,-309.570,-363.281,967.285
1626466278.013,966.309,-305.664,-339.844,967.285
1626466278.017,966.309,-307.617,-373.047,966.797
1626466278.021,966.309,-336.426,-441.406,966.797
1626466278.025,965.820,-362.305,-458.984,967.285
1626466278.029,966.309,-356.445,-426.270,966.797
1626466278.032,966.309,-356.445,-427.734,966.797
1626466278.036,966.309,-367.676,-479.492,966.797
1626466278.040,966.309,-391.113,-509.277,966.797
1626466278.044,966.309,-390.625,-466.797,966.797
1626466278.048,966.309,-367.676,-445.312,966.797
1626466278.050,966.309,-370.605,-489.746,967.285
1626466278.054,966.309,-399.414,-522.949,966.797
1626466278.058,966.309,-401.855,-479.492,966.797
1626466278.062,966.309,-378.418,-453.125,966.797
1626466278.066,966.309,-377.930,-480.469,966.797
1626466278.070,966.309,-396.484,-516.602,966.797
1626466278.074,966.309,-398.438,-491.699,966.797
1626466278.077,966.309,-378.906,-441.406,966.797
1626466278.081,966.309,-356.445,-440.918,966.797
1626466278.085,966.309,-378.418,-479.980,967.285
1626466278.089,966.309,-408.203,-472.656,966.797
1626466278.093,966.309,-386.230,-414.062,966.797
1626466278.095,966.309,-357.910,-400.391,966.797
1626466278.099,966.309,-368.652,-443.359,966.797
1626466278.103,966.309,-389.160,-469.727,966.797
1626466278.107,966.309,-379.395,-421.387,966.797
1626466278.111,966.309,-351.074,-378.906,966.797
1626466278.115,966.309,-336.914,-408.691,966.797
1626466278.119,966.309,-354.004,-448.242,966.797
1626466278.122,966.309,-365.723,-403.320,967.285
1626466278.126,966.309,-348.145,-344.727,966.797
1626466278.130,966.309,-327.148,-355.957,966.797
1626466278.134,966.309,-336.914,-407.715,966.797
1626466278.138,966.309,-345.703,-394.531,966.797
1626466278.140,966.309,-326.172,-343.750,967.285
1626466278.144,966.309,-310.059,-337.891,966.797
1626466278.148,965.820,-317.383,-372.070,966.797
1626466278.152,966.309,-331.543,-371.582,966.797
1626466278.156,966.309,-318.848,-325.684,967.285
1626466278.160,966.309,-286.621,-311.035,966.797
1626466278.164,965.820,-283.203,-341.797,966.797
1626466278.167,965.820,-309.082,-357.422,966.797
1626466278.171,977.539,-301.270,-301.270,973.145
1626466278.175,896.484,-283.203,-272.949,898.926
1626466278.179,-914.062,-278.320,-305.664,-897.461
1626466278.183,471.191,-302.734,-335.938,305.664
1626466278.185,-918.457,-337.891,-296.387,-1000.000
1626466278.189,-1000.000,-315.430,-253.906,-1000.000
1626466278.193,-951.660,-284.180,-270.508,-963.867
1626466278.197,-1000.000,-295.898,-311.523,-1000.000
1626466278.201,-1000.000,-305.176,-290.527,-1000.000
1626466278.205,-1000.000,-274.902,-229.492,-1000.000
1626466278.209,-1000.000,-253.906,-229.980,-1000.000
1626466278.212,-1000.000,-260.742,-281.738,-1000.000
1626466278.216,-1000.000,-270.996,-295.898,-1000.000
1626466278.220,-1000.000,-262.695,-239.258,-1000.000
1626466278.224,-1000.000,-243.164,-209.961,-1000.000
1626466278.228,-1000.000,-237.305,-243.164,-1000.000
1626466278.232,-1000.000,-259.766,-273.438,-1000.000
1626466278.236,-1000.000,-270.508,-243.164,-1000.000
1626466278.240,-1000.000,-240.723,-196.289,-1000.000
1626466278.244,-1000.000,-220.703,-203.613,-1000.000
1626466278.248,-1000.000,-235.840,-256.348,-1000.000
1626466278.252,-1000.000,-246.582,-240.234,-1000.000
1626466278.256,-1000.000,-224.121,-191.406,-1000.000
1626466278.259,-1000.000,-202.148,-189.941,-1000.000
1626466278.263,-1000.000,-219.238,-238.281,-1000.000
1626466278.267,-1000.000,-255.371,-239.746,-1000.000
1626466278.271,-1000.000,-238.770,-179.199,-1000.000
1626466278.275,-1000.000,-214.844,-171.387,-1000.000
1626466278.290,-1000.000,-224.609,-215.820,-1000.000
1626466278.294,-1000.000,-239.258,-227.051,-1000.000
1626466278.298,-1000.000,-226.074,-171.875,-1000.000
1626466278.302,-1000.000,-202.637,-146.973,-1000.000
1626466278.306,-1000.000,-205.566,-187.012,-1000.000
1626466278.310,-1000.000,-225.098,-227.539,-1000.000
1626466278.314,-1000.000,-238.770,-189.453,-1000.000
1626466278.317,-1000.000,-224.121,-146.973,-1000.000
1626466278.321,-1000.000,-202.148,-173.340,-1000.000
1626466278.325,-1000.000,-220.703,-228.027,-1000.000
1626466278.329,-1000.000,-230.957,-205.566,-1000.000
1626466278.333,-1000.000,-209.473,-153.320,-1000.000
1626466278.335,-1000.000,-199.707,-164.551,-1000.000
1626466278.339,-1000.000,-209.961,-212.402,-1000.000
1626466278.343,-1000.000,-233.398,-210.938,-1000.000
1626466278.347,-1000.000,-221.680,-158.691,-1000.000
1626466278.351,-1000.000,-189.453,-146.973,-1000.000
1626466278.355,-1000.000,-193.848,-194.336,-1000.000
1626466278.359,-1000.000,-220.215,-227.539,-1000.000
1626466278.362,-1000.000,-216.309,-181.641,-1000.000
1626466278.366,-1000.000,-200.684,-145.020,-992.676
1626466278.370,-1000.000,-211.914,-182.617,-976.074
1626466278.374,-1000.000,-244.141,-221.191,-1000.000
1626466278.378,-1000.000,-245.605,-182.129,-354.492
1626466278.380,-982.910,-203.125,-136.719,739.258
1626466278.384,-1000.000,-188.477,-150.879,994.629
1626466278.388,-911.133,-224.121,-197.266,935.547
1626466278.392,-107.422,-244.629,-181.641,970.703
1626466278.396,800.781,-214.355,-131.836,967.285
1626466278.400,973.633,-186.035,-132.324,966.797
1626466278.404,944.336,-207.031,-178.223,966.797
1626466278.407,968.262,-246.094,-189.941,966.797
1626466278.411,966.797,-229.980,-136.719,966.797
1626466278.415,966.309,-196.289,-111.816,966.797
1626466278.419,966.309,-208.984,-157.227,966.797
1626466278.423,966.309,-235.352,-188.965,966.797
1626466278.426,966.309,-228.027,-143.555,966.797
1626466278.430,966.309,-204.102,-114.746,966.797
1626466278.434,966.309,-187.988,-146.484,966.797
1626466278.438,966.309,-208.008,-177.246,966.797
1626466278.442,966.309,-215.332,-139.160,967.285
1626466278.446,966.309,-182.129,-95.703,966.797
1626466278.450,966.309,-166.504,-109.375,966.797
1626466278.453,965.820,-198.730,-169.922,966.797
1626466278.457,966.309,-222.656,-165.527,966.797
1626466278.461,966.309,-205.078,-99.609,966.797
1626466278.465,966.309,-186.523,-94.727,966.797
1626466278.469,965.820,-187.012,-143.555,966.797
1626466278.471,966.309,-202.148,-158.691,966.797
1626466278.475,966.309,-193.848,-113.770,966.797
1626466278.479,966.309,-174.316,-95.215,966.797
1626466278.483,965.820,-185.547,-133.789,966.797
1626466278.487,966.309,-208.496,-158.691,966.797
1626466278.491,966.309,-184.082,-104.980,966.797
1626466278.495,966.309,-159.668,-75.684,967.285
1626466278.498,966.309,-179.199,-108.398,967.285
1626466278.502,966.309,-200.684,-143.555,966.797
1626466278.506,966.309,-200.684,-118.164,966.797
1626466278.510,966.309,-173.340,-79.102,966.797
1626466278.514,966.309,-160.156,-91.309,966.797
1626466278.516,966.309,-172.363,-138.184,966.797
1626466278.520,966.309,-192.871,-133.301,966.797
1626466278.524,965.820,-171.875,-81.543,966.797
1626466278.528,966.309,-153.320,-77.148,966.797
1626466278.532,966.309,-174.805,-126.465,966.797
1626466278.536,966.309,-190.918,-144.531,966.797
1626466278.540,965.820,-181.641,-94.727,966.797
1626466278.543,966.309,-159.180,-73.242,966.797
1626466278.547,966.309,-153.809,-112.793,966.797
1626466278.551,966.309,-189.453,-149.414,966.797
1626466278.555,966.309,-191.895,-109.375,966.797
1626466278.559,966.309,-156.738,-70.312,966.797
1626466278.561,966.309,-151.367,-93.750,966.797
1626466278.565,966.309,-176.270,-139.648,966.797
1626466278.569,966.309,-187.988,-123.535,966.797
1626466278.573,966.309,-161.621,-73.730,966.797
1626466278.577,966.309,-142.090,-70.801,966.797
1626466278.581,966.309,-151.367,-118.164,966.797
1626466278.585,966.309,-171.875,-129.883,966.797
1626466278.588,966.309,-167.969,-74.707,966.797
1626466278.592,966.309,-147.461,-62.500,966.797
1626466278.596,965.820,-156.250,-108.398,966.797
1626466278.600,965.820,-184.570,-125.488,966.797
1626466278.604,965.820,-178.711,-85.938,966.797
1626466278.621,966.309,-154.785,-67.383,966.797
1626466278.625,966.309,-150.879,-96.191,966.797
1626466278.629,966.309,-169.922,-138.672,967.285
1626466278.633,966.309,-176.270,-109.863,966.797
1626466278.637,966.309,-145.020,-62.988,966.797
1626466278.641,966.309,-124.023,-70.801,966.797
1626466278.645,966.309,-156.250,-117.676,966.797
1626466278.648,966.309,-174.805,-106.445,966.797
1626466278.652,966.309,-144.043,-58.594,966.797
1626466278.656,966.309,-143.555,-61.523,966.797
1626466278.660,966.309,-165.527,-103.516,967.285
1626466278.664,966.309,-184.082,-110.840,966.797
1626466278.665,966.309,-172.363,-65.430,966.797
1626466278.669,966.309,-142.578,-49.805,966.797
1626466278.673,966.309,-148.438,-85.449,966.797
1626466278.677,966.309,-180.664,-113.281,966.797
1626466278.681,966.309,-177.246,-75.684,966.797
1626466278.685,966.309,-140.137,-38.574,966.797
1626466278.689,966.309,-136.719,-65.430,966.797
1626466278.692,966.309,-172.852,-109.863,966.797
1626466278.696,965.820,-180.176,-86.426,966.797
1626466278.700,966.309,-154.785,-51.270,966.797
1626466278.704,966.309,-133.301,-60.059,966.797
1626466278.708,965.820,-150.391,-99.609,966.797
1626466278.710,965.820,-165.527,-90.820,966.797
1626466278.714,966.309,-154.297,-62.500,966.797
1626466278.718,966.309,-140.137,-70.312,966.797
1626466278.722,966.309,-148.926,-100.098,966.797
1626466278.726,966.309,-167.480,-106.445,966.797
1626466278.730,966.309,-149.902,-61.523,966.797
1626466278.734,966.309,-130.859,-48.340,966.797
1626466278.737,966.309,-140.137,-81.055,966.797
1626466278.741,966.309,-164.551,-107.910,966.797
1626466278.745,966.309,-167.969,-81.055,966.797
1626466278.749,966.309,-147.949,-49.316,966.797
1626466278.753,966.309,-139.160,-62.988,966.797
1626466278.755,966.309,-147.461,-96.680,966.797
1626466278.759,966.309,-160.645,-82.520,966.797
1626466278.763,966.309,-145.508,-36.133,966.797
1626466278.767,966.309,-130.859,-42.969,966.797
1626466278.771,965.820,-153.809,-92.773,966.797
1626466278.775,966.309,-160.645,-90.332,966.797
1626466278.779,966.309,-141.113,-47.363,966.797
1626466278.782,966.309,-134.277,-43.945,966.797
1626466278.786,966.309,-139.648,-82.031,966.797
1626466278.790,966.309,-153.320,-98.633,966.797
1626466278.794,966.309,-145.996,-61.035,966.797
1626466278.798,966.309,-129.395,-34.668,966.797
1626466278.800,966.309,-132.812,-66.895,966.797
1626466278.804,966.309,-153.320,-104.004,966.797
1626466278.808,966.309,-151.855,-73.730,966.797
1626466278.812,966.309,-133.301,-44.922,966.797
1626466278.816,966.309,-125.488,-58.105,966.797
1626466278.820,966.309,-134.766,-95.215,966.797
1626466278.824,966.309,-145.508,-83.496,966.797
1626466278.827,966.309,-136.719,-45.898,966.797
1626466278.831,965.820,-131.348,-56.641,966.797
1626466278.835,966.309,-145.020,-85.938,967.285
1626466278.839,966.309,-165.527,-87.402,966.797
1626466278.843,966.309,-161.621,-47.363,966.797
1626466278.845,966.309,-136.230,-28.320,966.797
1626466278.849,966.309,-133.301,-60.547,966.797
1626466278.853,964.844,-150.391,-78.613,966.797
1626466278.857,965.820,-150.391,-46.875,966.797
1626466278.861,964.844,-134.277,-29.297,966.797
1626466278.865,923.828,-117.188,-49.805,966.797
1626466278.869,884.766,-136.719,-84.961,966.797
1626466278.872,874.023,-164.551,-69.824,966.797
1626466278.876,869.141,-142.090,-34.668,966.797
1626466278.880,857.910,-123.535,-46.387,966.797
1626466278.884,842.773,-148.926,-84.961,966.797
1626466278.888,815.430,-165.527,-78.613,966.797
1626466278.890,790.527,-145.020,-36.621,967.285
1626466278.894,789.062,-122.559,-29.297,965.820
1626466278.898,777.344,-123.047,-72.266,968.750
1626466278.902,732.422,-145.996,-90.820,961.426
1626466278.906,701.172,-145.996,-46.875,942.383
1626466278.910,720.703,-113.281,-29.297,954.102
1626466278.914,728.516,-119.141,-70.312,958.496
1626466278.917,707.031,-145.996,-91.797,930.664
1626466278.921,666.992,-140.137,-55.176,900.879
1626466278.925,660.645,-131.836,-21.973,886.719
1626466278.929,671.387,-127.930,-47.852,831.055
1626466278.933,653.320,-136.230,-88.379,794.434
1626466278.937,619.629,-137.695,-67.871,778.809
1626466278.941,595.215,-128.418,-25.879,779.785
1626466278.945,591.309,-124.023,-27.832,815.918
1626466278.949,586.426,-133.301,-64.941,789.551
1626466278.953,543.457,-143.066,-73.730,749.023
1626466278.957,520.508,-125.000,-35.156,759.277
1626466278.961,520.508,-115.723,-26.855,768.555
1626466278.964,519.043,-133.301,-69.824,746.094
1626466278.968,523.926,-142.578,-79.590,722.168
1626466278.972,489.258,-141.113,-43.457,698.242
1626466278.976,464.844,-132.812,-27.832,701.172
1626466278.980,478.027,-132.812,-54.688,688.965
1626466278.995,475.098,-149.902,-87.402,654.297
1626466278.999,447.266,-147.949,-67.383,626.953
1626466279.003,431.641,-126.953,-38.574,639.648
1626466279.007,454.590,-120.605,-51.758,647.461
1626466279.011,456.543,-143.066,-85.938,635.742
1626466279.015,428.711,-154.297,-75.684,604.980
1626466279.019,409.180,-146.973,-39.551,598.633
1626466279.022,409.180,-133.789,-32.227,623.047
1626466279.026,430.664,-131.836,-64.453,629.883
1626466279.030,410.645,-158.203,-71.777,592.285
1626466279.034,373.535,-155.273,-27.344,534.668
1626466279.038,373.047,-136.719,-13.184,548.340
1626466279.040,385.742,-138.672,-48.828,568.848
1626466279.044,366.699,-159.180,-67.383,543.457
1626466279.048,333.496,-171.875,-38.574,519.531
1626466279.052,340.332,-160.156,-19.531,541.016
1626466279.056,355.469,-150.879,-45.898,545.410
1626466279.060,353.027,-154.785,-69.824,535.645
1626466279.064,334.961,-154.297,-48.828,513.184
1626466279.067,322.266,-152.344,-25.879,516.602
1626466279.071,317.383,-156.250,-44.922,520.996
1626466279.075,313.965,-166.016,-78.125,507.812
1626466279.079,295.898,-170.410,-68.359,469.238
1626466279.083,275.391,-161.621,-35.156,447.754
1626466279.085,278.320,-142.578,-36.621,467.285
1626466279.089,300.293,-136.719,-62.500,481.445
1626466279.093,304.199,-159.180,-69.336,455.566
1626466279.097,293.945,-165.527,-47.363,419.922
1626466279.101,295.898,-140.625,-36.133,446.777
1626466279.105,327.148,-125.488,-53.223,469.727
1626466279.109,334.473,-144.531,-67.871,433.105
1626466279.112,306.152,-152.344,-47.363,380.371
1626466279.116,306.152,-142.578,-33.203,400.879
1626466279.120,316.895,-138.672,-51.758,420.898
1626466279.124,315.430,-148.438,-71.289,418.457
1626466279.128,295.898,-162.598,-58.594,386.719
1626466279.130,282.715,-149.902,-27.832,389.648
1626466279.134,288.086,-141.113,-37.109,401.367
1626466279.138,294.922,-147.461,-63.965,393.066
1626466279.142,275.391,-163.086,-64.941,384.766
1626466279.146,241.211,-160.645,-39.551,358.398
1626466279.150,245.605,-135.254,-23.926,375.000
1626466279.154,241.699,-140.625,-50.781,395.508
1626466279.157,224.609,-162.109,-68.848,360.840
1626466279.161,208.008,-162.598,-54.688,311.523
1626466279.165,205.566,-154.785,-46.875,323.242
1626466279.169,229.004,-158.691,-58.594,337.402
1626466279.173,227.539,-168.945,-70.312,338.867
1626466279.176,191.406,-168.457,-59.082,298.340
1626466279.180,186.523,-152.832,-33.691,312.012
1626466279.184,227.051,-135.254,-38.086,335.449
1626466279.188,230.957,-146.973,-66.406,324.219
1626466279.192,195.312,-170.410,-67.383,281.738
1626466279.196,201.172,-152.344,-40.039,266.113
1626466279.200,209.961,-137.207,-41.992,283.203
1626466279.203,208.496,-144.043,-64.453,301.758
1626466279.207,207.520,-152.832,-67.383,297.852
1626466279.211,164.551,-163.086,-41.992,252.930
1626466279.215,152.832,-160.156,-34.180,257.324
1626466279.219,199.219,-159.180,-54.199,288.086
1626466279.220,196.289,-165.527,-62.012,296.875
1626466279.224,142.090,-166.016,-45.410,259.766
1626466279.228,151.855,-152.344,-32.715,248.047
1626466279.232,182.617,-148.926,-53.711,259.766
1626466279.236,170.898,-172.363,-71.289,278.809
1626466279.240,131.836,-175.781,-62.988,222.168
1626466279.244,121.582,-162.109,-48.828,196.289
1626466279.247,130.371,-164.062,-57.129,224.609
1626466279.251,138.672,-167.969,-68.359,264.648
1626466279.255,124.512,-185.547,-69.824,243.164
1626466279.259,99.609,-179.199,-54.199,201.172
1626466279.263,114.746,-159.668,-48.828,213.867
1626466279.265,142.090,-154.785,-62.500,246.582
1626466279.269,125.000,-164.062,-70.801,238.281
1626466279.273,83.496,-169.434,-56.641,175.781
1626466279.277,102.539,-155.762,-46.875,182.617
1626466279.281,142.578,-149.902,-56.641,225.098
1626466279.285,136.719,-152.832,-61.523,241.699
1626466279.289,90.820,-154.785,-57.129,180.664
1626466279.292,76.172,-157.227,-52.734,152.832
1626466279.296,108.398,-152.344,-57.617,187.988
1626466279.300,116.699,-154.785,-59.082,229.492
1626466279.304,76.660,-176.270,-49.805,182.617
1626466279.308,43.945,-173.828,-35.645,152.344
1626466279.310,83.008,-154.297,-45.898,180.664
1626466279.314,129.883,-150.879,-64.941,225.586
1626466279.318,97.656,-161.133,-74.707,204.102
1626466279.322,57.129,-167.480,-52.246,139.160
1626466279.326,70.801,-160.156,-34.180,142.090
1626466279.330,83.496,-151.367,-43.945,195.312
1626466279.334,62.988,-162.109,-58.594,197.754
1626466279.337,32.715,-176.270,-48.828,136.719
1626466279.341,28.809,-164.551,-32.227,151.367
1626466279.345,52.734,-148.926,-55.176,187.012
1626466279.349,64.453,-159.668,-78.125,205.566
1626466279.353,38.574,-181.641,-71.777,141.602
1626466279.370,42.480,-165.527,-46.387,111.816
1626466279.374,57.617,-150.391,-43.457,139.648
1626466279.378,54.199,-164.062,-59.082,165.527
1626466279.382,46.875,-168.945,-62.988,129.883
1626466279.386,33.203,-167.480,-43.457,94.238
1626466279.390,52.734,-161.133,-37.109,110.840
1626466279.394,81.543,-159.668,-60.547,152.344
1626466279.397,66.406,-161.133,-62.012,141.113
1626466279.401,38.086,-165.039,-42.480,98.633
1626466279.405,32.715,-168.457,-48.828,103.516
1626466279.409,73.242,-160.645,-63.965,134.277
1626466279.413,83.008,-164.062,-72.754,140.625
1626466279.415,42.480,-164.062,-58.105,85.449
1626466279.419,40.527,-156.250,-43.945,83.008
1626466279.423,68.848,-155.273,-70.801,113.281
1626466279.427,80.566,-161.133,-86.914,153.320
1626466279.431,55.176,-169.434,-66.406,118.652
1626466279.435,46.387,-160.645,-36.133,90.820
1626466279.439,73.730,-149.902,-46.387,105.957
1626466279.442,104.980,-155.762,-76.660,131.348
1626466279.446,83.008,-163.086,-80.078,98.145
1626466279.450,34.668,-166.992,-52.246,67.383
1626466279.454,38.574,-157.227,-38.574,93.262
1626466279.458,86.426,-156.738,-59.082,133.789
1626466279.461,90.332,-166.992,-64.453,127.930
1626466279.465,41.504,-165.527,-43.457,84.961
1626466279.469,28.320,-156.250,-32.227,91.797
1626466279.473,68.359,-145.020,-46.387,121.582
1626466279.477,67.383,-155.762,-63.477,130.859
1626466279.481,18.555,-166.504,-57.129,72.266
1626466279.485,10.254,-160.645,-47.363,58.105
1626466279.488,44.922,-145.508,-49.805,108.887
1626466279.492,67.871,-144.043,-57.617,145.020
1626466279.496,23.926,-163.086,-61.035,74.219
1626466279.500,4.395,-163.086,-37.109,47.852
1626466279.504,49.316,-155.762,-41.992,72.266
1626466279.505,71.777,-156.738,-59.082,104.004
1626466279.509,36.621,-171.387,-62.500,77.148
1626466279.513,-2.930,-173.828,-49.316,31.738
1626466279.517,19.531,-158.691,-51.758,62.500
1626466279.521,58.105,-156.250,-67.383,102.051
1626466279.525,44.922,-156.738,-69.824,94.238
1626466279.529,0.488,-147.461,-50.293,44.922
1626466279.532,-6.836,-144.531,-33.203,49.316
1626466279.536,13.672,-156.250,-46.387,75.195
1626466279.540,23.926,-166.504,-63.477,83.008
1626466279.544,-5.371,-172.852,-61.523,36.133
1626466279.548,-14.160,-163.574,-38.086,34.668
1626466279.550,15.137,-146.973,-41.992,70.312
1626466279.554,33.691,-152.344,-57.129,123.047
1626466279.558,8.789,-165.527,-57.129,59.082
1626466279.562,-9.766,-163.574,-43.945,-3.418
1626466279.566,-0.977,-153.320,-40.039,42.480
1626466279.570,15.137,-143.555,-55.664,103.516
1626466279.574,2.441,-152.344,-63.965,92.285
1626466279.577,-35.156,-160.156,-45.898,37.109
1626466279.581,-25.391,-144.531,-49.316,39.062
1626466279.585,1.953,-142.578,-62.012,72.754
1626466279.589,-0.488,-155.273,-58.594,64.453
1626466279.593,-27.344,-163.086,-44.922,10.742
1626466279.595,-50.781,-150.879,-35.645,15.137
1626466279.599,-7.324,-142.578,-48.828,52.246
1626466279.603,34.180,-155.273,-59.082,84.473
1626466279.607,1.953,-168.945,-55.176,28.320
1626466279.611,-4.395,-155.273,-36.133,12.207
1626466279.615,18.555,-132.324,-37.598,46.875
1626466279.619,44.434,-134.277,-56.152,93.262
1626466279.622,21.484,-150.391,-65.430,59.082
1626466279.626,0.488,-147.461,-42.480,11.230
1626466279.630,28.320,-135.254,-46.875,24.902
1626466279.634,44.922,-135.254,-58.105,74.707
1626466279.638,40.527,-146.973,-44.922,82.520
1626466279.641,19.531,-144.531,-27.344,22.461
1626466279.645,6.836,-135.254,-26.367,12.695
1626466279.649,33.203,-133.301,-40.039,52.246
1626466279.653,53.711,-135.742,-54.199,68.359
1626466279.657,21.973,-140.137,-43.457,9.277
1626466279.661,20.508,-125.977,-20.996,8.789
1626466279.665,37.109,-116.211,-40.527,44.434
1626466279.668,39.062,-124.512,-60.547,77.637
1626466279.672,23.926,-135.742,-47.363,32.227
1626466279.676,15.137,-138.672,-31.738,12.207
1626466279.680,39.062,-134.766,-43.945,32.227
1626466279.684,54.688,-135.742,-53.711,50.293
1626466279.685,42.480,-139.160,-52.246,14.648
1626466279.689,32.227,-135.742,-31.250,-13.184
1626466279.693,37.109,-126.465,-36.133,14.160
1626466279.697,69.824,-122.559,-53.711,57.617
1626466279.701,75.195,-124.512,-58.105,43.457
1626466279.705,28.809,-125.977,-48.340,-19.531
1626466279.709,12.207,-120.605,-52.246,-20.508
1626466279.712,22.949,-125.977,-64.941,32.715
1626466279.716,43.945,-126.953,-58.105,63.965
1626466279.720,23.438,-134.277,-49.316,-11.719
1626466279.724,5.859,-139.648,-37.109,-22.949
1626466279.728,25.391,-124.023,-46.387,25.879
1626466279.745,42.969,-117.676,-52.246,65.918
1626466279.749,16.113,-137.695,-46.387,9.277
1626466279.753,0.000,-132.812,-26.855,-20.508
1626466279.757,19.531,-116.211,-27.832,10.254
1626466279.761,51.270,-118.164,-53.711,55.176
1626466279.765,31.738,-118.164,-56.641,46.875
1626466279.769,-6.348,-112.793,-28.809,1.465
1626466279.772,-5.859,-105.469,-31.250,16.602
1626466279.776,22.949,-118.652,-45.410,57.617
1626466279.780,16.602,-150.879,-51.758,43.457
1626466279.784,-37.109,-153.809,-55.664,-27.344
1626466279.788,-35.156,-129.395,-34.180,-17.090
1626466279.790,4.883,-116.699,-32.715,18.066
1626466279.794,20.020,-114.258,-46.875,41.992
1626466279.798,-15.625,-126.465,-43.457,-18.555
1626466279.802,-31.250,-131.836,-41.992,-44.434
1626466279.806,-8.789,-123.047,-54.199,-2.441
1626466279.810,10.254,-110.840,-61.523,35.156
1626466279.814,-14.160,-121.582,-62.988,-6.836
1626466279.817,-36.133,-133.789,-35.645,-46.387
1626466279.821,-18.555,-116.211,-26.855,-20.996
1626466279.825,6.836,-107.422,-45.410,31.738
1626466279.829,-1.953,-128.418,-58.594,-2.441
1626466279.833,-32.227,-130.859,-34.668,-61.035
1626466279.835,-21.973,-106.934,-20.508,-25.879
1626466279.839,8.301,-112.793,-40.527,26.367
1626466279.843,17.578,-124.023,-46.387,37.109
1626466279.847,-19.043,-127.441,-29.297,-26.367
1626466279.851,-25.879,-123.047,-22.461,-22.461
1626466279.855,14.648,-104.004,-24.902,25.391
1626466279.859,35.645,-112.793,-37.109,53.711
1626466279.862,-16.602,-129.395,-41.504,2.930
1626466279.866,-35.645,-120.605,-22.949,-33.203
1626466279.870,-4.883,-120.117,-29.297,-12.207
1626466279.874,22.461,-116.699,-46.387,35.156
1626466279.878,7.812,-116.211,-52.734,-2.930
1626466279.881,-23.438,-116.211,-29.297,-36.621
1626466279.885,0.977,-118.652,-25.391,-5.859
1626466279.889,41.992,-122.070,-54.199,19.531
1626466279.893,25.391,-125.488,-67.871,-10.742
1626466279.897,-32.227,-131.348,-46.875,-64.941
1626466279.901,-31.738,-103.027,-23.926,-41.504
1626466279.905,10.254,-82.031,-32.227,8.301
1626466279.908,20.020,-109.863,-51.270,32.227
1626466279.912,-8.789,-125.488,-40.039,-42.480
1626466279.916,-13.672,-114.746,-21.484,-60.547
1626466279.920,17.090,-109.863,-27.832,-11.230
1626466279.924,32.715,-111.816,-34.180,21.973
1626466279.926,-10.742,-119.629,-25.879,-24.902
1626466279.930,-38.574,-121.094,-5.371,-55.176
1626466279.934,-20.508,-117.188,-4.395,-19.043
1626466279.938,6.836,-111.816,-12.207,27.344
1626466279.942,-34.180,-128.906,-25.391,0.977
1626466279.946,-70.801,-126.465,-17.578,-63.477
1626466279.950,-36.133,-112.793,-3.418,-57.129
1626466279.953,-9.766,-120.117,-11.230,3.418
1626466279.957,-13.672,-125.488,-19.531,0.000
1626466279.961,-40.039,-131.348,-3.906,-60.547
1626466279.965,-30.273,-124.023,9.277,-37.109
1626466279.969,-2.441,-111.816,-1.465,1.953
1626466279.970,2.930,-115.723,-11.230,6.836
1626466279.974,-24.902,-121.582,-5.371,-45.410
1626466279.978,-26.855,-111.328,4.883,-53.223
1626466279.982,6.348,-114.258,-9.766,-4.883
1626466279.986,15.625,-118.164,-25.391,20.996
1626466279.990,-23.926,-119.141,-16.113,-38.086
1626466279.994,-50.781,-113.281,8.301,-63.477
1626466279.997,-31.738,-105.469,7.324,-32.227
1626466280.001,-15.625,-110.840,-9.277,18.555
1626466280.005,-45.898,-123.535,-23.926,-14.160
1626466280.009,-81.543,-125.977,-11.719,-77.637
1626466280.013,-75.195,-116.699,2.441,-53.711
1626466280.015,-40.527,-111.328,-5.859,-6.836
1626466280.019,-30.273,-116.699,-8.301,-3.418
1626466280.023,-53.711,-121.582,6.348,-51.270
1626466280.027,-49.316,-111.328,13.184,-52.246
1626466280.031,-7.324,-99.609,0.977,2.930
1626466280.035,6.836,-97.168,-10.742,27.832
1626466280.039,-47.852,-117.188,-18.066,-49.316
1626466280.042,-58.105,-117.676,-5.859,-69.824
1626466280.046,-20.508,-97.656,-10.742,-41.504
1626466280.050,7.324,-95.703,-14.648,2.930
1626466280.054,-26.855,-114.746,-15.625,-37.598
1626466280.058,-56.152,-119.141,-0.488,-69.824
1626466280.061,-18.555,-90.820,10.742,-32.715
1626466280.065,19.043,-79.590,2.930,17.090
1626466280.069,1.465,-94.238,-11.230,1.953
1626466280.073,-36.133,-104.004,-15.137,-64.453
1626466280.077,-26.367,-101.074,-6.836,-50.781
1626466280.081,10.742,-92.773,-17.090,-1.465
1626466280.085,5.371,-103.027,-32.227,11.719
1626466280.088,-25.879,-125.000,-21.973,-52.246
1626466280.092,-28.320,-114.258,-15.625,-53.223
1626466280.096,0.000,-106.445,-16.113,-7.324
1626466280.100,27.344,-108.887,-9.766,23.438
1626466280.104,-14.160,-103.027,-20.020,-40.527
1626466280.106,-33.203,-92.285,-15.137,-66.895
1626466280.110,-2.441,-94.238,-12.695,-28.320
1626466280.114,26.855,-92.773,-16.113,23.438
1626466280.118,-1.465,-107.910,-20.020,-11.719
1626466280.122,-35.645,-110.352,-13.672,-63.477
1626466280.126,-17.090,-91.309,-17.090,-44.434
1626466280.130,12.695,-95.703,-28.809,4.883
1626466280.133,-2.930,-99.609,-39.062,-8.301
1626466280.137,-41.504,-96.680,-35.645,-67.383
1626466280.141,-54.688,-111.328,-29.785,-62.012
1626466280.145,-32.715,-115.723,-30.762,-24.902
1626466280.149,-21.973,-104.492,-34.668,-10.254
1626466280.166,-56.152,-111.328,-32.227,-72.754
1626466280.170,-58.594,-106.445,-15.625,-71.289
1626466280.174,-25.391,-96.680,-26.855,-14.160
1626466280.178,-6.836,-100.098,-40.527,21.484
1626466280.182,-40.527,-106.445,-38.086,-27.832
1626466280.186,-52.246,-101.074,-23.438,-51.270
1626466280.190,-24.414,-92.285,-29.297,-27.344
1626466280.193,-4.883,-103.516,-43.457,10.742
1626466280.197,-26.855,-117.676,-47.852,-34.668
1626466280.201,-40.527,-115.723,-40.039,-88.379
1626466280.205,-23.438,-102.051,-35.645,-47.363
1626466280.209,-1.465,-96.680,-41.016,2.441
1626466280.210,-12.695,-100.098,-43.457,-6.836
1626466280.214,-51.270,-112.305,-29.785,-71.777
1626466280.218,-45.898,-106.934,-14.648,-65.918
1626466280.222,-14.160,-96.680,-24.902,-9.277
1626466280.226,-11.230,-95.703,-35.156,13.672
1626466280.230,-60.547,-95.703,-39.062,-65.918
1626466280.234,-65.918,-83.496,-42.969,-76.172
1626466280.237,-35.156,-74.219,-41.016,-19.531
1626466280.241,-19.531,-98.633,-47.852,5.859
1626466280.245,-52.246,-126.953,-55.176,-61.035
1626466280.249,-74.707,-125.488,-30.273,-85.938
1626466280.253,-43.945,-110.352,-28.320,-46.875
1626466280.255,-21.484,-101.562,-41.992,2.930
1626466280.259,-41.504,-104.980,-47.363,-14.160
1626466280.263,-67.383,-103.027,-34.668,-69.824
1626466280.267,-60.547,-101.074,-27.344,-62.500
1626466280.271,-24.902,-107.910,-36.133,-3.418
1626466280.275,-8.789,-102.539,-46.387,24.414
1626466280.279,-59.082,-101.074,-46.875,-67.871
1626466280.282,-85.938,-110.352,-41.992,-92.285
1626466280.286,-53.711,-102.051,-56.641,-46.387
1626466280.290,-31.738,-98.633,-60.547,-17.578
1626466280.294,-81.055,-119.629,-63.965,-99.609
1626466280.298,-115.234,-122.559,-59.082,-134.766
1626466280.300,-70.801,-106.445,-65.918,-84.961
1626466280.304,-38.574,-103.027,-77.637,-43.457
1626466280.308,-67.383,-117.676,-69.824,-83.984
1626466280.312,-89.355,-122.559,-50.293,-121.582
1626466280.316,-73.242,-112.305,-50.781,-103.516
1626466280.320,-38.086,-100.586,-50.781,-42.480
1626466280.324,-58.105,-111.328,-63.477,-62.988
1626466280.327,-101.562,-120.605,-51.270,-118.164
1626466280.331,-94.238,-107.910,-37.598,-83.496
1626466280.335,-41.992,-114.746,-55.176,-42.480
1626466280.339,-21.973,-120.605,-68.848,-37.598
1626466280.343,-59.570,-117.188,-61.523,-101.562
1626466280.347,-62.500,-103.516,-41.016,-106.934
1626466280.351,-27.832,-99.121,-44.434,-61.035
1626466280.355,-15.137,-112.793,-62.012,-35.645
1626466280.359,-64.941,-123.535,-65.430,-102.539
1626466280.363,-84.473,-111.816,-38.086,-116.699
1626466280.367,-51.270,-92.285,-38.574,-68.848
1626466280.371,-23.926,-77.148,-57.129,-21.484
1626466280.374,-47.852,-93.750,-66.895,-55.176
1626466280.378,-72.266,-116.699,-44.922,-89.355
1626466280.382,-48.828,-109.863,-36.621,-62.988
1626466280.386,-10.742,-91.309,-54.688,-10.742
1626466280.390,-10.742,-99.609,-58.594,-9.277
1626466280.390,-30.273,-116.211,-47.363,-80.078
1626466280.394,-34.180,-101.562,-47.852,-75.684
1626466280.398,-14.160,-100.586,-58.105,-26.367
1626466280.402,10.254,-107.910,-56.641,1.953
1626466280.406,-30.273,-112.305,-55.176,-61.035
1626466280.410,-48.340,-98.633,-45.410,-79.102
1626466280.414,-28.809,-88.867,-55.176,-36.133
1626466280.417,-12.207,-104.980,-62.988,-3.418
1626466280.421,-35.645,-113.281,-50.293,-49.805
1626466280.425,-70.801,-115.723,-32.227,-82.520
1626466280.429,-54.199,-105.957,-40.039,-65.918
1626466280.433,9.766,-98.633,-52.246,-20.508
1626466280.435,-16.113,-109.863,-55.664,-48.828
1626466280.439,-72.754,-113.281,-47.363,-98.633
1626466280.443,-52.246,-93.750,-41.016,-73.242
1626466280.447,-24.414,-94.727,-52.246,-32.715
1626466280.451,-32.227,-110.840,-57.617,-39.551
1626466280.455,-67.871,-102.539,-34.668,-101.562
1626466280.459,-68.848,-92.773,-23.926,-92.773
1626466280.462,-23.438,-94.727,-35.156,-53.711
1626466280.466,-23.926,-94.238,-44.922,-30.273
1626466280.470,-74.707,-107.422,-42.969,-88.867
1626466280.474,-69.336,-106.934,-20.996,-105.469
1626466280.478,-26.367,-87.891,-25.879,-52.734
1626466280.495,-14.648,-82.031,-41.504,-11.719
1626466280.499,-46.387,-98.145,-46.387,-64.941
1626466280.503,-51.270,-114.258,-33.691,-103.027
1626466280.507,-31.738,-114.258,-39.551,-70.801
1626466280.511,-3.418,-98.633,-54.688,-19.531
1626466280.515,-20.508,-91.309,-46.387,-43.457
1626466280.519,-58.105,-108.398,-30.762,-94.238
1626466280.522,-33.203,-104.980,-28.809,-52.734
1626466280.526,0.000,-89.844,-22.949,-1.465
1626466280.530,-26.855,-103.516,-38.086,-35.645
1626466280.534,-82.031,-116.211,-32.227,-111.816
1626466280.538,-83.984,-119.141,-12.207,-99.121
1626466280.541,-37.598,-102.051,-21.484,-56.152
1626466280.545,-18.066,-100.098,-34.180,-41.016
1626466280.549,-52.246,-122.559,-36.621,-101.562
1626466280.553,-65.430,-116.699,-20.020,-109.863
1626466280.557,-40.527,-97.168,-19.531,-80.566
1626466280.561,-18.555,-88.379,-34.668,-33.691
1626466280.565,-51.758,-100.098,-46.387,-59.570
1626466280.568,-90.332,-119.629,-37.109,-103.027
1626466280.572,-78.613,-112.793,-27.344,-73.242
1626466280.576,-41.016,-109.375,-35.156,-32.715
1626466280.580,-61.035,-121.094,-37.598,-57.617
1626466280.584,-103.027,-115.234,-19.043,-105.469
1626466280.585,-73.242,-94.727,-4.883,-86.914
1626466280.589,-48.828,-93.262,-21.973,-48.340
1626466280.593,-52.734,-104.980,-37.109,-35.156
1626466280.597,-67.383,-117.676,-23.438,-88.379
1626466280.601,-54.688,-112.305,-19.043,-75.195
1626466280.605,6.348,-84.473,-19.531,-21.484
1626466280.609,42.480,-84.961,-27.344,11.719
1626466280.612,-14.160,-102.539,-29.785,-57.617
1626466280.616,-42.480,-105.957,-8.789,-84.473
1626466280.620,-11.719,-109.375,-25.391,-57.617
1626466280.624,1.953,-102.539,-38.086,-24.902
1626466280.628,-43.457,-111.328,-36.621,-48.340
1626466280.630,-70.312,-112.305,-22.949,-86.914
1626466280.634,-48.340,-93.262,-18.066,-67.383
1626466280.638,-8.789,-85.449,-25.391,6.836
1626466280.642,-3.906,-87.402,-35.156,1.465
1626466280.646,-58.594,-83.008,-25.879,-75.684
1626466280.650,-75.684,-76.172,-18.555,-70.801
1626466280.654,-28.809,-78.613,-30.762,-27.832
1626466280.657,-10.742,-89.844,-43.945,-7.324
1626466280.661,-52.246,-105.469,-41.504,-81.055
1626466280.665,-52.734,-95.215,-9.277,-100.586
1626466280.669,-20.996,-87.891,-10.254,-61.035
1626466280.673,-12.207,-84.961,-29.785,-17.578
1626466280.675,-36.133,-89.844,-32.227,-61.035
1626466280.679,-54.688,-100.098,-19.043,-111.328
1626466280.683,-52.734,-90.332,-28.809,-85.938
1626466280.687,-11.719,-77.637,-34.668,-32.227
1626466280.691,-22.949,-86.426,-26.855,-58.105
1626466280.695,-62.012,-90.332,-13.672,-106.445
1626466280.699,-29.297,-80.078,-13.672,-81.055
1626466280.702,1.465,-81.543,-26.367,-33.691
1626466280.706,-28.320,-107.910,-36.133,-36.621
1626466280.710,-97.168,-124.512,-24.902,-103.516
1626466280.714,-103.516,-105.469,-17.578,-97.656
1626466280.718,-54.199,-90.332,-23.438,-80.566
1626466280.720,-45.410,-90.332,-29.785,-59.082
1626466280.724,-83.496,-104.492,-20.508,-88.867
1626466280.728,-93.262,-99.609,-5.371,-101.074
1626466280.732,-69.336,-90.820,-18.555,-68.359
1626466280.736,-38.086,-89.355,-25.879,-22.949
1626466280.740,-52.734,-88.379,-22.461,-59.082
1626466280.744,-83.496,-95.703,-11.719,-93.750
1626466280.747,-67.383,-102.051,-15.625,-76.660
1626466280.751,-26.855,-94.727,-24.902,-34.668
1626466280.755,-38.574,-89.844,-26.367,-45.410
1626466280.759,-78.125,-101.074,-18.555,-90.820
1626466280.763,-84.961,-104.004,-18.555,-81.543
1626466280.765,-49.316,-90.820,-23.926,-36.621
1626466280.769,-34.180,-93.262,-43.457,-29.785
1626466280.773,-70.312,-98.633,-37.598,-90.332
1626466280.777,-82.031,-88.867,-10.742,-86.914
1626466280.781,-52.246,-95.215,-22.949,-58.105
1626466280.785,-14.160,-87.402,-36.133,-41.016
1626466280.789,-57.129,-100.098,-33.203,-91.309
1626466280.792,-74.707,-112.793,-14.160,-106.445
1626466280.796,-42.969,-86.914,-19.531,-76.172
1626466280.800,-28.320,-85.938,-37.598,-29.785
1626466280.804,-56.641,-105.469,-37.598,-66.895
1626466280.808,-79.590,-112.305,-17.090,-108.398
1626466280.811,-61.035,-93.262,-3.906,-69.824
1626466280.815,-30.762,-83.496,-21.484,-19.043
1626466280.819,-51.270,-104.980,-34.180,-41.504
1626466280.823,-98.145,-111.816,-15.625,-94.727
1626466280.827,-83.496,-100.586,-2.930,-78.125
1626466280.831,-38.086,-85.938,-8.301,-28.320
1626466280.835,-46.875,-83.984,-19.531,-16.113
1626466280.838,-82.520,-108.887,-28.320,-78.613
1626466280.842,-65.918,-96.191,-13.184,-91.309
1626466280.846,-29.785,-77.637,-5.371,-54.688
1626466280.850,-4.883,-78.613,-12.207,-14.648
1626466280.854,-43.457,-100.098,-29.785,-76.660
1626466280.871,-71.289,-108.887,-17.578,-105.469
1626466280.875,-46.875,-91.309,-7.812,-80.078
1626466280.879,-23.926,-86.426,-30.762,-36.133
1626466280.883,-51.270,-100.098,-47.363,-63.965
1626466280.887,-78.613,-99.121,-23.438,-106.445
1626466280.891,-62.988,-92.285,-13.672,-80.078
1626466280.895,-30.762,-85.938,-30.762,-41.504
1626466280.898,-33.691,-84.473,-29.785,-45.898
1626466280.902,-83.008,-99.121,-13.672,-93.262
1626466280.906,-63.477,-105.957,-20.508,-83.008
1626466280.910,-8.789,-96.191,-33.691,-25.391
1626466280.914,-16.602,-97.168,-35.645,-8.789
1626466280.916,-56.152,-97.656,-18.555,-79.102
1626466280.920,-43.945,-85.938,-4.883,-71.289
1626466280.924,-4.883,-86.914,-16.113,-17.578
1626466280.928,21.973,-83.984,-22.461,20.508
1626466280.932,2.930,-93.750,-24.902,-21.973
1626466280.936,-16.602,-96.680,-7.812,-50.293
1626466280.940,-15.625,-83.984,-10.254,-25.879
1626466280.943,8.301,-88.379,-22.949,2.930
1626466280.947,-5.371,-104.492,-31.738,-20.020
1626466280.951,-43.945,-107.422,-21.484,-69.824
1626466280.955,-27.832,-92.773,-16.113,-62.988
1626466280.959,9.766,-84.961,-23.926,-17.578
1626466280.961,4.883,-94.238,-28.809,-12.695
1626466280.965,-31.250,-107.910,-22.949,-76.172
1626466280.969,-25.391,-87.402,-19.531,-70.801
1626466280.973,9.277,-64.941,-27.832,-32.715
1626466280.977,31.738,-73.730,-28.809,-25.391
1626466280.981,-19.043,-87.402,-22.461,-77.148
1626466280.985,-46.387,-78.613,-6.348,-72.754
1626466280.988,-16.113,-65.430,-9.277,-47.852
1626466280.992,15.625,-64.453,-32.227,-13.672
1626466280.996,-2.441,-76.660,-39.062,-40.039
1626466281.000,-32.715,-86.426,-21.973,-83.008
1626466281.004,-13.184,-82.520,-20.020,-53.223
1626466281.006,15.137,-71.777,-26.367,3.906
1626466281.010,-3.418,-79.590,-28.320,-16.113
1626466281.014,-30.762,-90.820,-16.113,-77.637
1626466281.018,-28.320,-90.332,-11.719,-74.219
1626466281.022,-10.254,-86.426,-20.508,-31.250
1626466281.026,-1.465,-72.266,-25.391,-15.625
1626466281.030,-51.270,-83.984,-22.949,-65.430
1626466281.033,-54.199,-91.797,-22.461,-68.359
1626466281.037,-11.719,-82.520,-37.109,-48.828
1626466281.041,9.766,-87.402,-42.969,-9.766
1626466281.045,-14.648,-97.168,-39.551,-56.152
1626466281.049,-34.180,-91.797,-21.973,-85.938
1626466281.051,-7.812,-81.055,-13.184,-49.805
1626466281.055,27.344,-81.055,-31.738,-17.090
1626466281.059,4.395,-92.773,-41.504,-66.406
1626466281.063,-41.992,-100.098,-17.578,-99.609
1626466281.067,-24.902,-89.355,-5.859,-62.012
1626466281.071,7.812,-70.312,-14.160,-20.020
1626466281.075,-8.789,-83.984,-37.598,-40.527
1626466281.078,-44.922,-99.121,-29.785,-94.727
1626466281.082,-39.062,-83.984,-12.695,-53.711
1626466281.086,9.277,-78.125,-26.855,-17.090
1626466281.090,-1.465,-80.078,-48.828,-45.898
1626466281.094,-70.312,-90.820,-42.969,-117.188
1626466281.095,-94.727,-90.820,-20.020,-128.906
1626466281.099,-65.918,-83.008,-34.180,-105.957
1626466281.103,-54.199,-82.031,-58.594,-79.102
1626466281.107,-106.445,-84.473,-60.547,-133.789
1626466281.111,-139.648,-76.172,-44.922,-164.062
1626466281.115,-116.211,-55.176,-40.039,-149.902
1626466281.119,-84.961,-50.781,-56.152,-103.516
1626466281.122,-115.234,-76.660,-83.496,-128.418
1626466281.126,-130.371,-80.078,-56.641,-174.805
1626466281.130,-104.004,-61.035,-36.621,-134.766
1626466281.134,-74.707,-59.082,-54.199,-84.473
1626466281.138,-81.543,-70.312,-63.965,-83.984
1626466281.140,-123.535,-70.312,-47.852,-139.648
1626466281.144,-122.559,-56.641,-40.039,-137.695
1626466281.148,-73.730,-52.734,-45.410,-94.238
1626466281.152,-60.059,-68.848,-54.688,-74.707
1626466281.156,-101.074,-89.355,-60.059,-121.094
1626466281.160,-97.168,-80.078,-36.133,-117.188
1626466281.164,-54.199,-68.359,-37.109,-88.867
1626466281.167,-32.227,-77.637,-56.152,-56.152
1626466281.171,-60.059,-91.797,-52.246,-89.355
1626466281.175,-67.871,-96.680,-31.738,-125.488
1626466281.179,-44.434,-89.844,-28.809,-85.938
1626466281.183,0.488,-72.754,-41.016,-33.203
1626466281.185,-9.277,-78.125,-44.922,-66.406
1626466281.189,-44.434,-86.914,-21.973,-109.375
1626466281.193,-31.250,-80.566,-18.066,-88.379
1626466281.197,5.371,-75.684,-33.203,-41.992
1626466281.201,12.207,-76.660,-45.410,-37.598
1626466281.205,-45.410,-80.566,-31.250,-102.539
1626466281.209,-54.688,-78.125,-13.184,-94.238
1626466281.212,7.324,-71.777,-17.090,-45.410
1626466281.216,14.648,-70.801,-30.762,-24.414
1626466281.220,-45.410,-88.379,-40.039,-79.590
1626466281.224,-71.777,-98.145,-28.809,-85.938
1626466281.228,-37.598,-96.191,-29.785,-60.547
1626466281.245,5.371,-79.102,-33.691,-33.691
1626466281.249,-20.508,-88.867,-34.180,-81.055
1626466281.253,-52.734,-98.145,-25.879,-123.047
1626466281.257,-33.203,-84.473,-27.344,-89.355
1626466281.261,4.395,-71.777,-39.551,-43.457
1626466281.265,-11.719,-73.730,-37.598,-64.941
1626466281.269,-53.223,-88.867,-25.879,-118.164
1626466281.272,-60.547,-91.797,-29.297,-101.562
1626466281.276,-23.438,-86.426,-41.992,-52.246
1626466281.280,-9.277,-97.168,-50.293,-41.016
1626466281.284,-56.641,-105.469,-37.598,-103.516
1626466281.288,-56.152,-90.332,-13.184,-102.051
1626466281.290,-10.254,-69.824,-18.555,-51.758
1626466281.294,22.461,-63.965,-33.203,-19.043
1626466281.298,-31.738,-91.797,-30.273,-79.102
1626466281.302,-82.031,-115.234,-8.789,-102.539
1626466281.306,-44.922,-97.656,-18.066,-61.035
1626466281.310,19.043,-74.219,-32.227,-28.809
1626466281.314,3.906,-87.891,-41.504,-68.359
1626466281.317,-41.504,-102.539,-27.832,-97.656
1626466281.321,-24.902,-94.238,-20.996,-81.055
1626466281.325,8.789,-87.891,-42.969,-51.758
1626466281.329,6.348,-91.797,-53.711,-64.453
1626466281.333,-40.527,-107.910,-33.203,-107.422
1626466281.335,-43.945,-94.238,-15.625,-81.055
1626466281.339,9.766,-89.355,-26.855,-37.109
1626466281.343,3.906,-94.727,-51.270,-44.434
1626466281.347,-62.012,-90.332,-50.781,-105.469
1626466281.351,-60.547,-95.215,-18.066,-107.422
1626466281.355,-20.020,-77.637,-26.367,-69.824
1626466281.359,-0.488,-73.242,-43.457,-39.062
1626466281.362,-50.781,-96.680,-35.645,-87.891
1626466281.366,-86.426,-90.820,-16.602,-100.098
1626466281.370,-50.293,-88.867,-7.324,-71.289
1626466281.374,-10.254,-86.426,-16.602,-47.852
1626466281.378,-40.039,-89.844,-32.715,-75.195
1626466281.380,-80.566,-94.727,-22.461,-112.793
1626466281.384,-63.477,-91.797,-19.043,-92.773
1626466281.388,-34.180,-89.844,-25.879,-42.969
1626466281.392,-38.086,-87.891,-36.133,-51.758
1626466281.396,-97.656,-98.145,-32.715,-98.145
1626466281.400,-93.262,-88.379,-22.949,-80.566
1626466281.404,-33.203,-79.102,-28.320,-57.129
1626466281.407,-24.414,-89.355,-37.109,-52.734
1626466281.411,-74.707,-102.051,-43.457,-102.051
1626466281.415,-88.867,-96.680,-30.762,-93.262
1626466281.419,-60.547,-84.961,-30.762,-59.570
1626466281.423,-28.809,-83.496,-28.809,-37.598
1626466281.427,-43.457,-96.680,-22.949,-84.961
1626466281.431,-75.195,-103.516,-18.555,-104.980
1626466281.435,-62.012,-91.797,-27.344,-77.148
1626466281.439,-7.324,-79.102,-27.832,-40.039
1626466281.443,-8.301,-87.402,-25.879,-58.594
1626466281.447,-62.500,-98.145,-16.113,-96.191
1626466281.451,-59.570,-86.914,-8.789,-70.801
1626466281.454,-16.113,-80.078,-19.043,-35.156
1626466281.458,-14.648,-91.797,-27.344,-45.898
1626466281.462,-70.312,-97.656,-14.160,-86.914
1626466281.466,-76.172,-91.309,-8.789,-69.824
1626466281.470,-34.180,-86.426,-21.973,-46.387
1626466281.470,-8.789,-86.914,-21.973,-42.969
1626466281.474,-58.594,-100.098,-13.184,-91.309
1626466281.478,-87.402,-95.703,0.488,-83.984
1626466281.482,-52.246,-85.938,-7.324,-56.641
1626466281.486,-16.602,-78.125,-26.367,-35.645
1626466281.490,-32.715,-83.008,-30.762,-62.988
1626466281.494,-73.242,-99.121,-9.766,-93.750
1626466281.497,-80.566,-95.215,-6.836,-82.520
1626466281.501,-45.410,-84.961,-23.926,-41.504
1626466281.505,-47.363,-99.609,-33.203,-60.059
1626466281.509,-85.938,-110.352,-17.578,-102.539
1626466281.513,-86.914,-108.398,-9.766,-75.684
1626466281.516,-37.109,-93.262,-22.461,-35.156
1626466281.520,-14.648,-93.750,-29.297,-30.273
1626466281.524,-61.035,-112.305,-15.625,-76.660
1626466281.528,-70.312,-104.492,-5.859,-66.895
1626466281.532,-41.016,-89.355,-15.137,-22.461
1626466281.536,-10.742,-84.473,-22.461,-5.859
1626466281.540,-46.875,-96.680,-22.949,-65.918
1626466281.543,-79.590,-103.027,-3.418,-71.289
1626466281.547,-50.781,-95.215,-10.254,-31.250
1626466281.551,-7.324,-86.914,-20.020,-3.418
1626466281.555,-37.598,-100.586,-22.461,-36.621
1626466281.559,-90.820,-105.469,-14.648,-61.035
1626466281.561,-84.473,-87.891,-3.418,-49.316
1626466281.565,-48.340,-84.473,-24.902,-29.297
1626466281.569,-44.434,-96.680,-45.898,-37.598
1626466281.573,-91.797,-108.887,-17.578,-79.102
1626466281.577,-92.285,-90.332,3.418,-70.312
1626466281.581,-53.711,-71.289,-13.184,-34.180
1626466281.585,-42.480,-80.078,-30.762,-26.855
1626466281.588,-89.844,-99.121,-22.949,-70.312
1626466281.592,-109.863,-91.309,0.488,-70.312
1626466281.596,-61.523,-84.473,-13.184,-46.875
1626466281.600,-30.762,-83.496,-29.785,-20.508
1626466281.604,-62.012,-91.309,-20.996,-45.410
1626466281.650,-87.891,-95.215,-7.812,-64.941
1626466281.654,-65.430,-81.055,-11.719,-45.898
1626466281.658,-10.254,-72.266,-23.438,-12.695
1626466281.662,-33.203,-89.355,-31.250,-62.012
1626466281.666,-67.383,-99.609,-16.113,-105.957
1626466281.670,-48.828,-82.520,-12.207,-83.496
1626466281.674,-13.672,-79.590,-25.879,-48.340
1626466281.677,-12.207,-84.961,-32.715,-40.039
1626466281.681,-80.566,-90.332,-28.809,-87.891
1626466281.685,-91.797,-93.262,-29.785,-83.496
1626466281.689,-54.688,-91.309,-36.133,-56.152
1626466281.693,-48.340,-92.285,-36.621,-59.570
1626466281.654,-92.285,-103.516,-30.273,-100.098
1626466281.658,-120.117,-95.215,-15.625,-91.797
1626466281.662,-90.820,-80.566,-24.902,-59.570
1626466281.666,-58.105,-85.938,-37.109,-39.551
1626466281.670,-87.402,-96.191,-41.016,-76.660
1626466281.674,-123.535,-88.867,-13.672,-93.750
1626466281.678,-106.445,-86.914,1.465,-65.430
1626466281.681,-57.617,-88.867,-22.949,-34.180
1626466281.685,-74.707,-94.238,-35.156,-63.477
1626466281.689,-125.488,-97.656,-6.836,-98.633
1626466281.693,-113.281,-86.426,2.441,-82.031
1626466281.697,-66.895,-77.637,-14.648,-55.176
1626466281.710,-80.078,-82.031,-25.879,-64.941
1626466281.714,-128.906,-92.773,-17.578,-117.676
1626466281.718,-111.328,-96.191,-11.230,-98.145
1626466281.722,-78.125,-88.867,-22.461,-71.777
1626466281.726,-71.777,-91.797,-26.855,-62.988
1626466281.730,-92.773,-97.656,-22.461,-90.820
1626466281.734,-111.328,-98.145,-12.207,-99.121
1626466281.737,-94.727,-96.680,-14.648,-83.984
1626466281.741,-48.340,-88.379,-28.809,-54.688
1626466281.745,-73.730,-108.398,-29.297,-83.008
1626466281.749,-91.797,-108.887,-7.812,-94.727
1626466281.753,-57.129,-91.797,-14.160,-75.195
1626466281.756,-23.438,-85.449,-36.621,-58.594
1626466281.760,-40.039,-88.379,-38.086,-74.707
1626466281.764,-97.168,-100.098,-17.578,-112.305
1626466281.768,-96.680,-101.074,-18.066,-98.633
1626466281.772,-54.199,-89.844,-32.227,-75.195
1626466281.776,-54.688,-89.355,-24.414,-64.453
1626466281.780,-111.328,-102.051,-19.531,-101.074
1626466281.783,-134.766,-105.957,-14.160,-106.445
1626466281.787,-104.492,-90.820,-15.625,-73.730
1626466281.791,-89.844,-85.938,-28.320,-51.758
1626466281.795,-123.535,-110.840,-20.020,-99.609
1626466281.799,-128.418,-105.957,-2.930,-109.375
1626466281.800,-95.703,-88.867,-10.742,-85.938
1626466281.804,-59.570,-91.309,-28.809,-57.617
1626466281.808,-72.266,-97.168,-30.762,-78.125
1626466281.812,-98.145,-96.680,-6.348,-100.586
1626466281.816,-77.148,-83.984,-7.324,-66.406
1626466281.820,-41.016,-69.336,-20.996,-44.434
1626466281.824,-60.547,-75.195,-35.156,-70.801
1626466281.827,-104.492,-93.750,-28.320,-107.910
1626466281.831,-92.773,-104.004,-13.184,-98.145
1626466281.835,-50.781,-91.309,-26.855,-49.316
1626466281.839,-39.551,-84.473,-29.785,-34.668
1626466281.843,-75.195,-101.074,-12.207,-84.473
1626466281.845,-86.914,-102.539,1.953,-83.496
1626466281.849,-47.852,-91.309,1.465,-56.641
1626466281.853,-9.277,-93.750,-21.973,-42.969
1626466281.857,-58.594,-104.492,-27.344,-81.543
1626466281.861,-88.379,-101.074,0.488,-89.844
1626466281.865,-55.176,-82.031,-1.465,-60.547
1626466281.869,-27.344,-72.754,-20.020,-46.387
1626466281.872,-59.570,-89.844,-29.785,-83.496
1626466281.876,-93.750,-93.262,-18.066,-109.375
1626466281.880,-51.758,-85.449,-14.648,-67.871
1626466281.884,-17.090,-75.195,-26.367,-43.457
1626466281.888,-40.527,-72.266,-23.926,-88.379
1626466281.890,-85.938,-79.102,-8.301,-140.137
1626466281.894,-84.961,-74.219,-7.324,-122.559
1626466281.898,-44.922,-58.105,-29.297,-103.027
1626466281.902,-23.438,-56.152,-41.504,-101.562
1626466281.906,-74.219,-72.266,-31.738,-143.555
1626466281.910,-92.773,-56.641,-15.137,-144.043
1626466281.914,-65.430,-46.387,-34.180,-115.723
1626466281.917,-24.414,-57.617,-52.246,-92.773
1626466281.921,-48.828,-68.848,-52.246,-112.793
1626466281.925,-85.449,-67.871,-37.598,-127.441
1626466281.929,-56.641,-58.105,-35.156,-103.027
1626466281.933,-24.414,-68.359,-45.410,-77.637
1626466281.935,-20.020,-78.125,-35.156,-95.703
1626466281.939,-53.711,-87.402,-15.625,-116.699
1626466281.943,-49.805,-73.242,-14.648,-103.027
1626466281.947,-12.695,-63.477,-34.180,-87.891
1626466281.951,-8.789,-73.730,-34.180,-87.891
1626466281.955,-53.223,-69.824,-10.254,-114.258
1626466281.959,-62.500,-73.730,-21.973,-101.074
1626466281.962,-28.809,-83.008,-44.434,-86.426
1626466281.966,-12.207,-78.613,-41.016,-80.078
1626466281.970,-48.828,-79.590,-33.203,-116.699
1626466281.974,-75.195,-72.266,-20.020,-114.258
1626466281.978,-41.504,-78.125,-26.855,-91.309
1626466281.982,-7.324,-81.055,-41.504,-77.148
1626466281.986,-49.316,-79.590,-35.645,-107.422
1626466281.990,-90.820,-95.215,-21.484,-130.859
1626466281.994,-72.266,-96.680,-26.855,-104.004
1626466281.998,-37.598,-67.871,-37.598,-72.266
1626466282.002,-48.828,-56.641,-33.691,-79.102
1626466282.006,-104.492,-77.148,-14.648,-111.328
1626466282.009,-105.957,-81.055,-8.301,-94.727
1626466282.013,-62.012,-67.383,-21.973,-65.430
1626466282.017,-72.266,-87.402,-40.527,-73.730
1626466282.021,-125.977,-102.051,-31.738,-113.281
1626466282.025,-126.953,-90.820,-5.371,-98.633
1626466282.040,-85.938,-86.426,-15.625,-70.801
1626466282.044,-30.762,-80.566,-31.250,-62.012
1626466282.048,-64.453,-97.656,-24.414,-94.238
1626466282.052,-97.168,-95.215,-13.672,-93.262
1626466282.056,-60.547,-63.477,-13.184,-55.664
1626466282.060,-21.973,-59.082,-24.902,-44.434
1626466282.064,-47.363,-92.285,-32.227,-87.891
1626466282.067,-87.891,-102.051,-17.090,-104.004
1626466282.071,-82.520,-89.844,-35.156,-90.820
1626466282.075,-49.805,-95.703,-56.152,-58.105
1626466282.079,-48.340,-99.609,-40.527,-57.617
1626466282.083,-83.008,-106.445,-14.160,-100.586
1626466282.085,-84.473,-91.309,6.836,-78.125
1626466282.089,-50.781,-78.125,-11.719,-53.223
1626466282.093,-33.203,-82.520,-27.344,-50.781
1626466282.097,-73.242,-92.773,-5.859,-82.031
1626466282.101,-81.543,-97.168,7.812,-73.242
1626466282.105,-46.875,-80.566,-12.695,-40.039
1626466282.109,-43.945,-74.707,-34.180,-46.387
1626466282.112,-99.121,-84.961,-25.391,-100.098
1626466282.116,-113.770,-80.078,-6.348,-97.168
1626466282.120,-87.891,-89.355,-19.043,-87.402
1626466282.124,-45.898,-94.238,-26.855,-77.637
1626466282.128,-59.082,-95.703,-20.020,-91.309
1626466282.130,-99.609,-106.445,-7.324,-112.793
1626466282.134,-100.586,-98.145,-12.207,-94.238
1626466282.138,-62.012,-92.773,-28.809,-71.289
1626466282.142,-56.152,-106.934,-40.039,-77.148
1626466282.146,-102.051,-105.957,-22.461,-111.328
1626466282.150,-90.820,-84.961,-5.371,-106.934
1626466282.154,-39.062,-76.660,-24.902,-64.453
1626466282.157,-23.926,-86.426,-29.785,-48.828
1626466282.161,-78.125,-100.098,-13.672,-101.074
1626466282.165,-92.773,-98.145,5.859,-86.426
1626466282.169,-59.082,-82.031,-0.488,-56.152
1626466282.173,-26.367,-73.730,-26.367,-47.363
1626466282.175,-61.035,-92.773,-28.809,-79.590
1626466282.179,-89.844,-95.215,-3.418,-79.590
1626466282.183,-69.336,-87.891,-4.395,-56.641
1626466282.187,-42.969,-88.379,-19.043,-44.922
1626466282.191,-47.852,-87.891,-23.926,-60.059
1626466282.195,-68.359,-82.520,-1.465,-75.195
1626466282.199,-76.660,-68.848,9.277,-62.988
1626466282.202,-55.664,-79.102,-18.555,-53.711
1626466282.206,-41.504,-95.215,-37.598,-59.082
1626466282.210,-80.566,-91.797,-20.508,-87.402
1626466282.214,-92.285,-84.473,-7.324,-73.242
1626466282.218,-53.223,-78.125,-19.531,-58.105
1626466282.221,-23.926,-74.707,-29.297,-51.270
1626466282.225,-61.035,-82.031,-15.625,-86.914
1626466282.229,-85.938,-89.355,1.465,-97.656
1626466282.233,-59.082,-84.961,-19.043,-86.914
1626466282.237,-29.297,-68.848,-31.738,-75.684
1626466282.241,-55.176,-71.289,-17.090,-112.793
1626466282.245,-95.703,-80.566,6.836,-131.348
1626466282.248,-96.680,-86.426,-3.418,-109.375
1626466282.252,-58.105,-79.590,-27.832,-79.102
1626466282.256,-53.223,-84.473,-28.320,-77.148
1626466282.260,-97.168,-97.656,-24.414,-115.234
1626466282.264,-100.586,-91.797,-19.043,-98.145
1626466282.266,-47.363,-90.332,-22.461,-75.684
1626466282.270,-48.828,-93.750,-33.203,-82.031
1626466282.274,-97.168,-87.891,-27.832,-102.051
1626466282.278,-90.820,-85.449,-10.254,-86.914
1626466282.282,-51.270,-72.266,-8.789,-70.801
1626466282.286,-18.555,-62.012,-30.762,-59.570
1626466282.290,-48.340,-84.473,-35.645,-93.750
1626466282.293,-72.754,-95.703,-5.371,-95.703
1626466282.297,-40.039,-84.473,-3.906,-71.289
1626466282.301,-1.953,-83.008,-21.484,-57.617
1626466282.305,-40.039,-95.215,-28.320,-78.125
1626466282.309,-83.008,-100.098,-15.625,-93.750
1626466282.310,-69.336,-83.008,-10.742,-74.219
1626466282.314,-36.133,-72.266,-23.926,-52.246
1626466282.318,-38.086,-85.938,-33.691,-75.684
1626466282.322,-95.703,-90.332,-7.812,-113.770
1626466282.326,-114.746,-79.590,4.395,-93.262
1626466282.330,-76.660,-75.684,-24.902,-82.031
1626466282.334,-42.969,-79.590,-34.180,-76.660
1626466282.337,-87.402,-96.680,-17.090,-98.145
1626466282.341,-103.516,-89.844,-7.324,-91.797
1626466282.345,-69.824,-74.219,-15.625,-65.918
1626466282.349,-39.551,-76.660,-22.949,-64.453
1626466282.353,-86.914,-102.539,-27.344,-108.398
1626466282.370,-123.047,-99.121,-6.348,-107.910
1626466282.374,-93.262,-78.613,2.930,-77.637
1626466282.378,-41.016,-74.219,-14.648,-58.105
1626466282.382,-56.152,-88.379,-22.949,-77.637
1626466282.386,-105.469,-98.633,-9.277,-83.008
1626466282.390,-72.754,-78.125,-3.906,-64.453
1626466282.394,-18.555,-77.637,-25.879,-47.852
1626466282.397,-14.648,-99.121,-35.156,-52.734
1626466282.401,-56.152,-92.773,-8.301,-85.938
1626466282.405,-69.336,-82.031,1.465,-72.754
1626466282.409,-39.062,-78.613,-24.902,-55.664
1626466282.413,-20.996,-81.543,-39.062,-55.664
1626466282.415,-68.848,-97.656,-14.160,-99.121
1626466282.419,-81.543,-96.191,18.066,-93.262
1626466282.423,-38.086,-82.520,8.789,-63.477
1626466282.427,-1.465,-77.637,-21.484,-51.758
1626466282.431,-38.086,-85.938,-32.715,-102.539
1626466282.435,-78.613,-82.031,-18.066,-115.234
1626466282.439,-55.664,-72.266,-13.184,-79.590
1626466282.442,-13.672,-78.613,-24.902,-60.059
1626466282.446,-29.297,-86.426,-29.297,-81.055
1626466282.450,-77.637,-91.797,-16.113,-111.328
1626466282.454,-71.777,-86.914,-4.395,-97.656
1626466282.458,-32.715,-78.613,-20.508,-78.613
1626466282.462,-26.367,-71.777,-33.691,-83.008
1626466282.466,-82.520,-82.520,-13.184,-123.047
1626466282.470,-100.098,-90.820,3.906,-118.652
1626466282.474,-63.965,-80.078,-17.578,-93.262
1626466282.478,-25.879,-69.336,-37.109,-78.613
1626466282.482,-62.500,-73.242,-26.367,-103.516
1626466282.486,-100.586,-79.102,-3.418,-94.727
1626466282.489,-75.684,-72.754,-9.277,-79.590
1626466282.493,-39.551,-69.824,-29.297,-69.824
1626466282.497,-77.637,-90.332,-21.484,-103.027
1626466282.501,-105.469,-101.562,1.465,-118.652
1626466282.505,-80.078,-86.914,-16.602,-79.102
1626466282.505,-31.738,-68.848,-38.086,-57.129
1626466282.509,-23.438,-75.684,-34.668,-67.871
1626466282.513,-78.613,-91.797,-14.648,-94.238
1626466282.517,-81.055,-86.426,-3.418,-81.055
1626466282.521,-36.621,-67.383,-12.207,-42.969
1626466282.525,-22.949,-66.895,-22.949,-47.852
1626466282.529,-66.406,-84.961,-10.742,-86.914
1626466282.532,-76.660,-87.891,7.812,-56.152
1626466282.536,-42.480,-70.312,-9.766,-31.250
1626466282.540,-28.809,-66.895,-27.832,-51.758
1626466282.544,-66.895,-84.961,-21.973,-98.145
1626466282.548,-91.309,-86.914,-4.883,-100.586
1626466282.550,-67.871,-73.242,-9.277,-80.078
1626466282.554,-27.344,-62.988,-23.438,-63.477
1626466282.558,-43.457,-81.543,-23.926,-88.379
1626466282.562,-97.168,-93.262,-7.812,-113.281
1626466282.566,-83.496,-80.078,-3.418,-89.844
1626466282.570,-25.391,-63.477,-19.531,-56.641
1626466282.574,-21.484,-68.848,-28.809,-65.430
1626466282.577,-88.379,-88.867,-17.090,-104.492
1626466282.581,-104.004,-87.891,-18.066,-99.121
1626466282.585,-50.781,-74.707,-30.762,-74.707
1626466282.589,-24.414,-75.684,-34.180,-76.172
1626466282.593,-70.801,-100.586,-25.391,-114.746
1626466282.595,-78.613,-98.145,-10.742,-94.238
1626466282.599,-57.617,-78.613,-19.043,-71.289
1626466282.603,-23.926,-68.848,-31.250,-62.500
1626466282.607,-35.645,-75.195,-34.668,-98.145
1626466282.611,-66.895,-83.984,-16.602,-80.566
1626466282.615,-47.852,-68.359,-10.254,-31.738
1626466282.619,1.953,-53.711,-28.320,-20.020
1626466282.622,-3.418,-75.684,-32.227,-35.645
1626466282.626,-51.270,-87.891,-7.812,-46.875
1626466282.630,-29.297,-76.660,-4.395,-22.949
1626466282.634,23.438,-52.734,-20.996,5.859
1626466282.638,37.109,-56.152,-29.785,13.672
1626466282.640,1.953,-82.031,-13.184,-5.859
1626466282.644,-3.418,-73.730,1.465,21.973
1626466282.648,46.387,-62.988,-10.742,46.387
1626466282.652,72.266,-70.801,-20.020,41.016
1626466282.656,37.598,-83.496,-2.930,29.297
1626466282.660,23.926,-71.289,19.531,42.969
1626466282.664,50.781,-63.477,7.324,56.641
1626466282.667,78.125,-71.777,-11.230,54.688
1626466282.671,46.875,-74.707,-9.277,22.461
1626466282.675,6.836,-81.543,7.812,0.000
1626466282.679,28.320,-76.172,6.348,19.531
1626466282.683,71.777,-67.383,-21.484,36.621
1626466282.686,50.781,-78.613,-30.273,-4.395
1626466282.690,-10.742,-83.008,-3.418,-39.062
1626466282.694,-14.648,-78.125,-4.395,-15.137
1626466282.698,30.273,-66.406,-28.320,-0.977
1626466282.702,36.621,-62.500,-38.574,-20.020
1626466282.706,-21.484,-75.195,-28.809,-49.316
1626466282.710,-27.832,-73.730,-16.113,-31.250
1626466282.713,26.855,-65.430,-29.297,-12.207
1626466282.717,40.527,-64.453,-44.434,-20.996
1626466282.721,-22.949,-73.730,-34.668,-42.969
1626466282.725,-53.223,-77.148,-11.230,-28.809
1626466282.729,-24.902,-73.242,-19.531,-17.578
1626466282.745,10.742,-69.824,-44.434,-13.672
1626466282.749,-20.020,-80.566,-38.574,-37.598
1626466282.753,-61.035,-89.355,-15.137,-40.039
1626466282.757,-41.504,-75.195,-17.578,-19.531
1626466282.761,-3.418,-51.270,-34.180,-18.555
1626466282.765,2.441,-51.270,-39.551,-42.969
1626466282.769,-45.410,-79.102,-24.902,-68.848
1626466282.772,-46.387,-73.730,-18.555,-50.293
1626466282.776,-7.324,-61.523,-40.039,-41.504
1626466282.780,-3.418,-70.312,-55.664,-56.152
1626466282.784,-37.598,-72.266,-33.203,-88.379
1626466282.788,-57.129,-67.383,-9.766,-76.172
1626466282.790,-36.133,-63.477,-20.508,-56.152
1626466282.794,-23.926,-61.523,-40.527,-65.430
1626466282.798,-65.918,-73.242,-38.574,-107.910
1626466282.802,-99.121,-75.684,-18.555,-88.379
1626466282.806,-78.613,-62.988,-24.414,-69.824
1626466282.810,-47.363,-63.965,-43.945,-76.172
1626466282.814,-75.195,-80.078,-41.992,-83.496
1626466282.817,-108.887,-83.008,-13.184,-69.336
1626466282.821,-97.656,-66.895,-15.137,-59.570
1626466282.825,-71.289,-71.289,-56.152,-79.102
1626466282.829,-69.336,-81.055,-63.965,-102.051
1626466282.833,-106.934,-79.102,-28.320,-105.957
1626466282.836,-118.652,-72.754,-18.555,-87.891
1626466282.840,-70.801,-70.312,-43.457,-88.379
1626466282.844,-47.852,-72.266,-51.758,-85.938
1626466282.848,-91.309,-82.031,-32.715,-108.887
1626466282.852,-96.680,-87.402,-17.578,-92.285
1626466282.856,-55.664,-71.777,-24.902,-72.754
1626466282.860,-29.785,-68.359,-47.363,-63.477
1626466282.863,-64.453,-86.426,-42.480,-85.449
1626466282.867,-95.215,-88.379,-32.227,-90.820
1626466282.871,-85.449,-84.473,-42.969,-61.035
1626466282.875,-53.223,-70.801,-45.898,-45.898
1626466282.879,-62.988,-73.730,-46.387,-83.984
1626466282.880,-113.770,-93.750,-22.461,-105.469
1626466282.884,-99.609,-88.379,-15.137,-84.473
1626466282.888,-55.176,-71.289,-36.621,-69.336
1626466282.892,-49.805,-72.754,-42.969,-81.055
1626466282.896,-97.656,-91.309,-29.785,-106.445
1626466282.900,-105.469,-77.637,-20.996,-85.449
1626466282.904,-62.988,-61.523,-38.086,-59.570
1626466282.907,-48.340,-80.078,-48.828,-64.941
1626466282.911,-85.938,-83.984,-35.156,-104.980
1626466282.915,-100.586,-78.125,-24.902,-94.238
1626466282.919,-72.266,-77.148,-42.480,-82.031
1626466282.923,-24.414,-70.801,-53.223,-74.707
1626466282.927,-41.504,-80.078,-45.898,-93.262
1626466282.931,-87.402,-86.914,-24.414,-104.004
1626466282.935,-61.523,-76.660,-22.461,-80.566
1626466282.939,-28.809,-81.543,-47.852,-57.129
1626466282.943,-41.504,-93.262,-49.316,-79.590
1626466282.947,-76.660,-81.543,-25.879,-98.145
1626466282.951,-70.312,-62.500,-20.020,-70.801
1626466282.954,-31.738,-65.918,-37.598,-60.059
1626466282.958,-28.809,-81.543,-48.340,-77.637
1626466282.962,-83.008,-90.332,-31.738,-89.844
1626466282.966,-99.609,-83.496,-21.973,-62.988
1626466282.970,-57.129,-75.195,-40.039,-61.523
1626466282.985,-21.484,-64.941,-54.688,-61.523
1626466282.989,-67.871,-79.590,-45.410,-95.703
1626466282.993,-96.191,-88.379,-27.832,-102.539
1626466282.997,-65.918,-79.590,-36.621,-77.637
1626466283.001,-22.949,-66.406,-51.270,-57.129
1626466283.005,-49.805,-62.500,-50.293,-100.586
1626466283.009,-109.375,-81.055,-36.621,-121.094
1626466283.012,-103.027,-84.961,-50.293,-101.562
1626466283.016,-69.336,-71.777,-59.082,-77.148
1626466283.020,-76.172,-81.543,-55.176,-94.727
1626466283.024,-106.445,-91.309,-34.668,-129.883
1626466283.028,-101.562,-74.707,-31.250,-102.051
1626466283.015,-56.152,-61.523,-53.223,-83.984
1626466283.019,-47.363,-66.406,-47.852,-77.148
1626466283.023,-108.887,-86.426,-31.250,-113.770
1626466283.027,-114.746,-84.961,-19.531,-115.723
1626466283.031,-74.707,-80.078,-24.902,-83.496
1626466283.035,-52.246,-77.148,-35.645,-69.336
1626466283.039,-98.145,-86.426,-38.574,-112.305
1626466283.042,-121.582,-101.562,-19.531,-108.398
1626466283.046,-81.055,-82.520,-19.043,-67.871
1626466283.050,-29.785,-71.289,-42.969,-48.340
1626466283.054,-52.734,-88.867,-49.805,-81.543
1626466283.058,-100.586,-98.145,-29.785,-92.285
1626466283.061,-76.660,-87.891,-23.438,-65.430
1626466283.065,-26.367,-64.453,-36.621,-45.898
1626466283.069,-30.273,-63.477,-42.969,-58.594
1626466283.073,-87.891,-84.961,-33.203,-93.262
1626466283.077,-93.262,-84.961,-28.320,-78.613
1626466283.081,-44.434,-67.383,-32.715,-50.781
1626466283.085,-20.996,-57.129,-44.434,-42.969
1626466283.088,-86.426,-81.055,-45.898,-97.656
1626466283.092,-119.141,-84.473,-20.020,-99.121
1626466283.096,-89.844,-77.148,-20.996,-75.684
1626466283.100,-58.594,-68.848,-35.156,-59.082
1626466283.104,-89.844,-75.684,-38.086,-98.145
1626466283.106,-119.629,-91.797,-24.414,-108.398
1626466283.110,-89.844,-84.473,-21.484,-82.031
1626466283.114,-35.156,-77.148,-33.691,-58.105
1626466283.118,-41.992,-77.637,-41.504,-82.031
1626466283.122,-89.355,-77.148,-25.391,-107.422
1626466283.126,-66.895,-62.012,-20.508,-78.125
1626466283.130,-11.719,-50.781,-37.109,-49.316
1626466283.133,0.488,-60.059,-42.480,-50.293
1626466283.137,-43.457,-75.195,-35.156,-94.727
1626466283.141,-59.570,-76.660,-28.320,-84.961
1626466283.145,-29.297,-65.918,-28.320,-53.711
1626466283.149,-12.207,-59.570,-36.133,-47.363
1626466283.167,-70.312,-77.637,-39.062,-90.332
1626466283.171,-88.867,-75.195,-28.320,-87.891
1626466283.175,-41.992,-57.617,-33.203,-57.617
1626466283.179,-3.906,-60.059,-35.156,-26.367
1626466283.183,-39.551,-77.637,-39.551,-62.988
1626466283.187,-90.820,-81.055,-39.062,-98.633
1626466283.191,-56.641,-69.336,-35.156,-87.402
1626466283.194,-14.160,-72.754,-36.621,-59.082
1626466283.198,-34.180,-83.496,-37.109,-75.195
1626466283.202,-86.426,-88.379,-18.066,-116.211
1626466283.206,-90.820,-85.449,-19.531,-95.703
1626466283.210,-34.180,-75.684,-43.945,-55.176
1626466283.210,-11.230,-71.289,-46.875,-49.316
1626466283.214,-63.477,-84.961,-38.574,-102.539
1626466283.218,-61.035,-79.102,-10.254,-108.398
1626466283.222,-8.301,-65.430,-13.672,-72.266
1626466283.226,14.160,-51.270,-38.574,-42.969
1626466283.230,-29.785,-60.547,-33.203,-85.449
1626466283.234,-80.078,-78.125,-13.672,-94.727
1626466283.237,-59.082,-70.312,-17.578,-66.895
1626466283.241,-4.883,-60.547,-30.762,-25.879
1626466283.245,-34.180,-71.289,-41.016,-58.594
1626466283.249,-89.355,-75.195,-36.621,-90.332
1626466283.253,-64.941,-65.918,-19.531,-39.062
1626466283.255,-30.273,-57.129,-19.043,-25.391
1626466283.259,-79.102,-70.801,-42.969,-78.613
1626466283.263,-147.949,-98.633,-34.180,-138.184
1626466283.267,-155.762,-98.633,-10.742,-144.531
1626466283.271,-125.488,-90.820,-13.672,-130.859
1626466283.275,-130.371,-93.750,-34.180,-139.160
1626466283.279,-198.730,-111.328,-41.992,-184.082
1626466283.282,-220.703,-120.117,-20.020,-187.012
1626466283.286,-214.844,-115.234,-29.297,-185.547
1626466283.290,-190.918,-113.281,-43.945,-187.012
1626466283.294,-226.562,-130.859,-36.133,-235.352
1626466283.298,-256.836,-137.207,-25.879,-243.164
1626466283.300,-222.168,-119.629,-24.902,-206.055
1626466283.304,-159.180,-104.980,-34.180,-169.922
1626466283.308,-146.973,-113.281,-33.203,-174.805
1626466283.312,-175.781,-125.000,-5.859,-187.012
1626466283.316,-165.527,-109.863,-1.953,-156.250
1626466283.320,-113.770,-89.844,-23.438,-111.328
1626466283.324,-94.727,-91.309,-33.203,-100.098
1626466283.327,-137.207,-109.375,-22.949,-131.348
1626466283.331,-140.625,-109.375,-0.977,-114.258
1626466283.335,-90.332,-98.633,-5.859,-82.031
1626466283.339,-48.828,-89.355,-22.461,-65.918
1626466283.343,-91.309,-103.516,-4.883,-103.516
1626466283.345,-108.398,-103.516,15.625,-100.586
1626466283.349,-62.500,-88.867,-7.324,-71.777
1626466283.353,-31.738,-84.473,-20.996,-61.035
1626466283.357,-67.383,-90.820,-7.812,-99.609
1626466283.361,-112.305,-93.750,7.812,-105.957
1626466283.365,-89.844,-74.219,-0.488,-68.848
1626466283.369,-33.203,-65.430,-12.695,-44.922
1626466283.372,-64.941,-88.379,-16.602,-74.219
1626466283.376,-108.887,-101.074,-7.324,-107.422
1626466283.380,-89.355,-97.656,1.953,-83.008
1626466283.384,-50.293,-85.449,-12.695,-56.641
1626466283.388,-37.109,-78.613,-22.461,-69.824
1626466283.392,-75.195,-91.309,-3.418,-97.656
1626466283.396,-84.961,-88.379,5.371,-82.520
1626466283.400,-49.805,-76.172,-14.648,-65.430
1626466283.404,-30.273,-79.590,-35.156,-50.781
1626466283.408,-62.500,-86.914,-20.508,-73.730
1626466283.412,-81.543,-74.219,19.043,-63.477
1626466283.416,-46.875,-71.289,11.719,-49.805
1626466283.419,-8.301,-69.824,-12.695,-56.641
1626466283.423,-46.875,-73.730,-12.695,-80.078
1626466283.427,-75.684,-84.961,13.184,-73.242
1626466283.431,-62.500,-78.125,14.160,-51.270
1626466283.435,-31.250,-66.895,-17.090,-52.246
1626466283.435,-29.297,-73.730,-20.996,-69.824
1626466283.439,-64.941,-82.520,-5.371,-82.520
1626466283.443,-63.477,-71.777,-3.418,-57.129
1626466283.447,-15.625,-74.219,-24.902,-47.363
1626466283.451,-2.441,-74.219,-36.133,-63.965
1626466283.455,-45.410,-73.242,-6.836,-92.285
1626466283.459,-64.941,-73.730,9.766,-81.055
1626466283.462,-42.969,-72.266,-15.625,-72.266
1626466283.466,-29.297,-70.312,-32.227,-76.660
1626466283.470,-50.293,-77.637,-14.648,-105.469
1626466283.474,-79.102,-80.078,0.977,-94.238
1626466283.478,-65.430,-75.684,-4.395,-80.566
1626466283.495,-13.184,-75.195,-13.672,-76.660
1626466283.499,-22.949,-79.590,-11.719,-96.191
1626466283.503,-63.965,-80.566,3.418,-107.422
1626466283.507,-56.641,-75.684,1.465,-87.402
1626466283.511,-15.137,-78.125,-37.109,-79.590
1626466283.515,-22.949,-79.590,-40.527,-89.355
1626466283.519,-65.430,-74.219,-4.883,-96.191
1626466283.522,-60.059,-68.848,8.301,-76.172
1626466283.526,-19.043,-52.734,-0.977,-69.336
1626466283.530,-6.348,-71.289,-21.973,-70.801
1626466283.534,-72.754,-107.422,-11.230,-82.520
1626466283.538,-94.238,-103.516,6.836,-69.824
1626466283.540,-37.109,-83.496,-8.789,-54.688
1626466283.544,-10.254,-86.426,-26.855,-50.781
1626466283.548,-47.852,-100.098,-12.695,-78.125
1626466283.552,-78.125,-99.121,9.277,-88.379
1626466283.556,-39.062,-80.078,1.953,-54.688
1626466283.560,17.090,-60.547,-23.926,-35.156
1626466283.564,-6.836,-72.266,-22.949,-78.613
1626466283.567,-49.805,-86.426,10.742,-89.844
1626466283.571,-44.922,-82.031,6.836,-56.152
1626466283.575,-20.508,-75.684,-24.414,-44.922
1626466283.579,-19.531,-71.777,-35.645,-62.012
1626466283.583,-67.383,-82.031,-19.043,-89.844
1626466283.585,-69.336,-79.102,-4.395,-76.660
1626466283.589,-25.879,-65.430,-16.602,-58.594
1626466283.593,-15.625,-74.219,-24.902,-61.523
1626466283.597,-63.965,-92.285,-7.324,-99.609
1626466283.601,-91.797,-83.496,14.648,-95.703
1626466283.605,-58.105,-64.941,0.977,-77.637
1626466283.609,-11.230,-64.453,-16.602,-66.895
1626466283.612,-48.340,-72.754,-14.160,-99.121
1626466283.616,-88.379,-88.867,-5.371,-95.215
1626466283.620,-75.195,-94.727,-10.742,-76.660
1626466283.624,-42.480,-77.637,-26.855,-77.148
1626466283.628,-35.645,-80.566,-27.832,-95.215
1626466283.632,-49.316,-83.008,-2.930,-94.727
1626466283.636,-47.363,-66.895,-2.441,-61.035
1626466283.640,-13.184,-53.223,-25.879,-42.480
1626466283.644,15.625,-62.500,-31.738,-41.016
1626466283.648,-33.691,-77.148,-14.160,-62.988
1626466283.652,-34.668,-55.176,7.812,-32.715
1626466283.656,35.156,-38.574,-7.812,9.277
1626466283.659,82.031,-52.734,-24.414,27.344
1626466283.663,30.762,-64.453,-10.254,-21.484
1626466283.667,1.465,-62.988,6.836,-24.414
1626466283.671,59.570,-57.617,2.441,17.090
1626466283.675,96.191,-52.246,-9.277,38.574
1626466283.675,57.129,-55.176,-9.277,15.625
1626466283.679,22.949,-60.547,13.184,20.508
1626466283.683,41.016,-54.688,14.160,35.645
1626466283.687,66.895,-51.270,-6.348,42.969
1626466283.691,42.480,-53.711,-10.742,32.227
1626466283.695,-0.977,-52.734,15.137,7.324
1626466283.699,8.301,-49.805,19.043,27.344
1626466283.702,38.574,-45.898,-6.348,41.992
1626466283.706,33.203,-54.199,-20.020,27.832
1626466283.710,-12.207,-72.754,-7.324,-20.996
1626466283.714,-19.043,-62.012,9.277,5.371
1626466283.718,20.996,-46.875,-7.812,32.227
1626466283.720,41.504,-52.734,-35.156,25.879
1626466283.724,-7.812,-69.336,-24.414,-7.812
1626466283.728,-30.273,-70.801,2.930,-3.906
1626466283.732,-19.043,-67.383,-8.301,5.859
1626466283.736,15.625,-65.918,-27.832,6.836
1626466283.740,-7.812,-62.500,-13.184,-13.184
1626466283.744,-56.641,-70.312,1.465,-43.457
1626466283.747,-42.480,-68.848,-7.812,-36.133
1626466283.751,-13.184,-61.523,-24.414,-20.508
1626466283.755,-35.156,-71.777,-34.180,-29.297
1626466283.759,-69.336,-77.148,-15.137,-53.711
1626466283.763,-50.293,-60.547,-2.930,-43.457
1626466283.766,-37.598,-45.410,-22.461,-23.438
1626466283.770,-24.902,-53.223,-37.109,-18.066
1626466283.774,-49.805,-70.801,-25.391,-62.500
1626466283.778,-83.984,-68.848,-8.301,-58.594
1626466283.782,-68.848,-62.012,-21.973,-40.527
1626466283.786,-17.090,-53.711,-43.457,-38.086
1626466283.790,-48.828,-66.406,-43.945,-64.453
1626466283.793,-98.633,-77.637,-23.926,-65.430
1626466283.797,-72.754,-57.129,-20.020,-45.898
1626466283.801,-29.785,-64.941,-44.434,-39.551
1626466283.805,-66.895,-80.566,-52.734,-70.801
1626466283.809,-106.934,-78.613,-28.320,-85.449
1626466283.811,-83.984,-66.895,-16.113,-48.828
1626466283.815,-60.059,-61.035,-37.109,-40.039
1626466283.819,-63.965,-75.195,-49.805,-62.988
1626466283.823,-89.844,-87.402,-26.367,-91.797
1626466283.827,-94.238,-76.660,-13.184,-79.102
1626466283.831,-68.848,-56.152,-28.320,-58.594
1626466283.835,-45.410,-63.477,-45.410,-44.434
1626466283.838,-73.242,-82.520,-43.945,-83.984
1626466283.842,-106.445,-81.055,-32.227,-90.332
1626466283.846,-85.938,-76.172,-37.109,-69.824
1626466283.850,-39.551,-74.707,-47.363,-53.223
1626466283.854,-62.500,-85.449,-41.992,-89.844
1626466283.871,-106.445,-84.473,-20.996,-106.445
1626466283.875,-106.934,-67.383,-25.879,-80.078
1626466283.879,-53.223,-62.500,-41.504,-75.684
1626466283.883,-57.129,-82.031,-38.086,-105.469
1626466283.887,-117.676,-87.402,-14.160,-115.723
1626466283.891,-114.258,-64.941,-12.207,-84.473
1626466283.895,-64.941,-61.523,-38.086,-67.383
1626466283.898,-60.547,-76.172,-41.504,-72.266
1626466283.902,-99.121,-77.637,-22.949,-102.539
1626466283.906,-93.750,-77.637,-15.625,-87.402
1626466283.910,-75.195,-80.078,-28.320,-70.801
1626466283.914,-48.340,-83.008,-43.945,-70.312
1626466283.915,-81.543,-91.797,-44.434,-107.422
1626466283.919,-122.070,-89.355,-27.344,-90.820
1626466283.923,-71.777,-82.031,-29.297,-59.082
1626466283.927,-25.879,-79.102,-47.363,-59.082
1626466283.931,-73.242,-82.520,-46.875,-79.102
1626466283.935,-107.422,-80.078,-28.320,-99.121
1626466283.939,-85.449,-72.754,-20.996,-84.961
1626466283.942,-39.551,-73.242,-37.598,-72.266
1626466283.946,-39.062,-81.543,-44.922,-96.680
1626466283.950,-92.773,-94.727,-28.809,-115.234
1626466283.954,-93.750,-84.473,-24.414,-79.102
1626466283.958,-55.176,-73.242,-38.574,-44.434
1626466283.961,-41.992,-79.102,-46.875,-63.477
1626466283.965,-84.473,-86.426,-27.832,-106.934
1626466283.969,-109.375,-84.961,-13.672,-87.891
1626466283.973,-77.637,-76.660,-30.273,-68.359
1626466283.977,-44.434,-70.801,-45.410,-58.105
1626466283.981,-75.195,-73.730,-38.086,-91.309
1626466283.985,-112.305,-83.496,-22.461,-94.238
1626466283.988,-79.590,-72.266,-26.855,-63.477
1626466283.992,-29.785,-66.406,-47.363,-56.152
1626466283.996,-64.453,-94.238,-52.246,-84.473
1626466284.000,-101.074,-98.633,-17.090,-89.355
1626466284.004,-90.332,-85.449,-17.090,-76.660
1626466284.005,-47.852,-78.613,-51.758,-71.777
1626466284.009,-32.715,-81.055,-55.664,-75.195
1626466284.013,-81.055,-84.961,-26.855,-88.379
1626466284.017,-93.750,-82.520,-18.555,-81.543
1626466284.021,-58.105,-76.660,-41.016,-69.336
1626466284.025,-44.922,-79.102,-47.363,-73.242
1626466284.029,-88.379,-85.449,-28.809,-115.234
1626466284.032,-107.422,-87.891,-18.066,-104.004
1626466284.036,-73.242,-81.055,-35.645,-81.543
1626466284.040,-48.828,-77.637,-54.199,-80.078
1626466284.044,-79.590,-87.891,-41.992,-118.164
1626466284.048,-107.422,-84.473,-19.531,-116.211
1626466284.050,-91.309,-73.730,-31.250,-82.031
1626466284.054,-30.762,-68.848,-56.152,-59.570
1626466284.058,-36.133,-81.055,-62.988,-88.867
1626466284.062,-84.473,-89.355,-37.598,-111.328
1626466284.066,-77.148,-77.637,-12.695,-86.426
1626466284.070,-35.156,-63.477,-24.902,-58.105
1626466284.074,-41.016,-75.195,-42.969,-66.895
1626466284.077,-89.844,-83.984,-23.438,-94.727
1626466284.081,-92.773,-79.590,-19.531,-78.125
1626466284.085,-62.500,-88.379,-44.434,-62.500
1626466284.089,-29.297,-86.426,-42.969,-62.012
1626466284.093,-51.270,-89.844,-23.926,-105.469
1626466284.097,-78.613,-87.402,-9.766,-96.191
1626466284.101,-62.012,-78.613,-32.227,-63.477
1626466284.105,-25.879,-75.684,-53.711,-47.363
1626466284.109,-61.523,-87.402,-47.363,-87.402
1626466284.113,-95.215,-93.262,-28.809,-94.238
1626466284.117,-59.570,-73.242,-25.879,-72.754
1626466284.121,-14.648,-70.801,-40.039,-57.617
1626466284.124,-21.973,-93.262,-51.758,-71.289
1626466284.128,-67.383,-102.539,-31.250,-106.934
1626466284.132,-55.176,-88.867,-13.672,-84.961
1626466284.136,2.930,-72.266,-35.156,-50.293
1626466284.140,-8.789,-76.660,-44.434,-54.688
1626466284.140,-57.129,-80.566,-20.020,-83.496
1626466284.144,-59.570,-77.637,-4.395,-69.824
1626466284.148,-33.203,-74.219,-38.086,-51.270
1626466284.152,15.625,-70.312,-61.035,-25.391
1626466284.156,-21.973,-82.520,-21.484,-51.758
1626466284.160,-83.008,-82.031,4.395,-98.633
1626466284.164,-99.121,-83.008,-30.273,-104.492
1626466284.167,-85.449,-91.797,-49.805,-95.703
1626466284.171,-113.281,-108.887,-34.180,-146.973
1626466284.175,-174.316,-123.047,-17.578,-194.824
1626466284.179,-182.129,-112.305,-20.020,-183.594
1626466284.183,-183.594,-104.980,-38.086,-179.199
1626466284.186,-211.914,-111.816,-48.340,-224.609
1626466284.190,-279.297,-136.230,-33.691,-278.809
1626466284.194,-262.207,-130.859,-14.648,-255.371
1626466284.198,-208.496,-122.070,-28.320,-220.215
1626466284.202,-207.520,-123.047,-41.504,-220.703
1626466284.206,-246.094,-123.535,-21.484,-248.047
1626466284.210,-256.836,-125.488,-14.160,-231.445
1626466284.213,-198.242,-114.746,-7.812,-187.012
1626466284.217,-140.625,-104.492,-14.648,-149.414
1626466284.221,-155.273,-113.770,-25.391,-171.875
1626466284.225,-176.758,-114.746,-2.441,-169.922
1626466284.229,-144.531,-106.445,3.906,-142.578
1626466284.245,-102.051,-91.797,-13.672,-113.281
1626466284.249,-124.023,-97.656,-27.832,-124.023
1626466284.253,-165.039,-112.305,-9.766,-136.230
1626466284.257,-143.555,-93.750,15.625,-106.934
1626466284.261,-94.727,-74.707,9.277,-70.312
1626466284.265,-99.121,-74.707,-19.531,-74.219
1626466284.269,-144.531,-91.309,-9.766,-118.164
1626466284.272,-139.648,-93.750,15.137,-87.891
1626466284.276,-77.148,-76.660,5.371,-50.781
1626466284.280,-67.383,-88.867,-21.973,-48.340
1626466284.284,-118.652,-104.004,-12.207,-99.609
1626466284.288,-112.793,-87.891,17.090,-97.656
1626466284.290,-74.219,-81.055,7.324,-55.664
1626466284.294,-48.340,-85.449,-9.277,-29.297
1626466284.298,-83.984,-85.938,-6.836,-78.125
1626466284.302,-118.652,-83.496,8.301,-98.145
1626466284.306,-100.586,-80.078,7.324,-74.219
1626466284.310,-40.527,-72.266,-6.348,-49.805
1626466284.314,-46.387,-80.566,-13.672,-69.824
1626466284.317,-107.910,-91.309,4.883,-107.910
1626466284.321,-103.516,-78.613,-2.441,-87.402
1626466284.325,-56.641,-73.242,-20.996,-48.828
1626466284.329,-43.945,-76.172,-13.672,-60.059
1626466284.333,-85.938,-84.961,-2.930,-100.586
1626466284.337,-76.660,-80.566,9.277,-78.613
1626466284.341,-21.484,-67.871,0.000,-48.340
1626466284.345,-6.836,-65.918,-23.926,-50.293
1626466284.349,-57.129,-82.520,-24.414,-93.750
1626466284.353,-79.102,-83.984,3.906,-82.031
1626466284.357,-50.781,-67.383,1.953,-48.340
1626466284.361,-24.414,-54.688,-20.996,-20.508
1626466284.364,-59.570,-68.359,-19.531,-66.895
1626466284.368,-99.609,-86.426,-1.953,-83.008
1626466284.372,-72.266,-87.402,-7.324,-56.152
1626466284.376,-36.621,-74.219,-13.184,-28.320
1626466284.380,-53.711,-78.613,-18.066,-37.109
1626466284.380,-94.727,-83.984,-5.371,-80.566
1626466284.384,-104.492,-73.730,1.953,-66.895
1626466284.388,-62.988,-65.918,-10.742,-42.480
1626466284.392,-50.293,-66.895,-15.625,-42.480
1626466284.396,-102.539,-78.125,0.488,-88.379
1626466284.400,-92.285,-65.918,13.672,-82.031
1626466284.404,-62.012,-51.270,-8.789,-55.176
1626466284.407,-40.039,-62.988,-24.414,-37.109
1626466284.411,-69.336,-81.543,-7.324,-90.332
1626466284.415,-77.148,-77.637,17.090,-103.027
1626466284.419,-37.109,-60.547,9.277,-59.082
1626466284.423,5.371,-55.664,-10.742,-41.016
1626466284.426,-10.742,-63.965,-16.602,-77.148
1626466284.430,-48.340,-63.477,2.441,-93.262
1626466284.434,-30.273,-58.105,7.812,-61.035
1626466284.438,6.348,-53.223,-3.418,-35.156
1626466284.442,-1.953,-53.711,-7.812,-47.363
1626466284.446,-44.434,-58.594,6.836,-83.008
1626466284.450,-27.832,-58.105,12.695,-68.848
1626466284.453,2.441,-57.617,-0.977,-47.363
1626466284.457,0.488,-54.688,-8.789,-41.504
1626466284.461,-34.180,-61.523,-2.930,-81.055
1626466284.465,-48.828,-62.988,0.977,-83.008
1626466284.469,-12.207,-62.012,-7.324,-47.363
1626466284.470,9.766,-61.035,-14.160,-24.414
1626466284.474,-56.152,-69.336,-13.672,-72.754
1626466284.478,-97.168,-74.219,-7.324,-100.586
1626466284.482,-58.105,-62.500,-13.672,-73.730
1626466284.486,-26.855,-54.199,-23.926,-33.203
1626466284.490,-53.711,-59.082,-23.926,-58.105
1626466284.494,-90.332,-69.824,-4.883,-98.633
1626466284.497,-95.703,-74.219,-0.977,-89.844
1626466284.501,-43.457,-66.895,-15.137,-52.734
1626466284.505,-17.090,-73.242,-24.414,-56.152
1626466284.509,-54.199,-76.172,-4.883,-108.887
1626466284.513,-61.035,-65.918,-0.977,-104.492
1626466284.516,-37.598,-59.082,-11.230,-51.270
1626466284.520,-3.418,-62.500,-10.742,-31.250
1626466284.524,-39.062,-81.055,-12.207,-91.309
1626466284.528,-47.852,-75.195,-2.930,-89.844
1626466284.532,-18.555,-65.918,-8.301,-66.895
1626466284.536,0.000,-56.641,-19.043,-42.480
1626466284.540,-25.879,-76.660,-23.438,-84.961
1626466284.543,-63.477,-89.355,-10.742,-116.211
1626466284.547,-41.016,-66.406,-7.324,-78.125
1626466284.551,3.418,-63.477,-17.578,-42.480
1626466284.555,-26.367,-73.730,-21.484,-60.059
1626466284.559,-75.195,-83.008,-17.578,-91.797
1626466284.575,-60.547,-71.289,-13.184,-75.195
1626466284.579,-17.090,-62.988,-7.324,-42.480
1626466284.583,-9.766,-63.965,-17.090,-46.387
1626466284.587,-61.035,-79.590,-18.066,-101.074
1626466284.591,-70.801,-80.566,-2.930,-96.191
1626466284.595,-32.715,-57.129,-7.324,-43.457
1626466284.599,-12.207,-58.105,-32.227,-19.531
1626466284.602,-59.570,-79.102,-39.551,-79.590
1626466284.606,-81.055,-75.684,-13.184,-91.797
1626466284.610,-39.551,-70.312,-5.859,-49.805
1626466284.614,-24.414,-61.035,-13.672,-9.766
1626466284.618,-65.430,-63.477,-20.508,-54.688
1626466284.620,-98.145,-76.172,-6.836,-95.215
1626466284.624,-89.355,-70.801,1.953,-70.312
1626466284.628,-46.387,-52.734,-5.859,-19.531
1626466284.632,-55.664,-64.453,-28.320,-44.922
1626466284.636,-104.980,-83.496,-12.695,-95.703
1626466284.640,-108.887,-67.871,5.371,-75.195
1626466284.644,-41.016,-45.898,-12.695,-39.551
1626466284.647,-14.160,-50.293,-23.438,-31.250
1626466284.651,-73.242,-74.219,-14.648,-91.797
1626466284.655,-93.750,-81.543,-7.812,-101.074
1626466284.659,-54.688,-73.730,-16.602,-50.781
1626466284.663,-13.184,-63.965,-20.020,-19.043
1626466284.665,-42.969,-69.824,-24.414,-75.684
1626466284.669,-85.449,-77.637,-19.043,-84.961
1626466284.673,-52.734,-65.430,-19.043,-55.176
1626466284.677,-1.465,-59.082,-23.438,-19.043
1626466284.681,-34.180,-70.801,-31.738,-48.340
1626466284.685,-72.266,-73.242,-11.719,-96.191
1626466284.689,-52.734,-63.965,-6.348,-74.707
1626466284.692,-10.254,-63.477,-13.672,-30.762
1626466284.696,-20.996,-72.754,-14.160,-37.598
1626466284.700,-70.801,-83.984,-11.719,-108.398
1626466284.704,-65.918,-73.242,-3.418,-99.609
1626466284.708,-29.297,-64.941,-3.906,-45.898
1626466284.710,-22.461,-68.359,-15.625,-39.551
1626466284.714,-74.219,-79.590,-28.809,-106.934
1626466284.718,-100.098,-74.219,-18.555,-101.074
1626466284.722,-59.570,-63.477,-10.742,-57.617
1626466284.726,-13.184,-60.547,-14.160,-23.926
1626466284.730,-48.340,-63.477,-23.926,-70.312
1626466284.734,-84.961,-71.777,-16.113,-102.539
1626466284.737,-55.664,-67.383,-9.277,-72.754
1626466284.741,-17.578,-68.359,-17.578,-41.992
1626466284.745,-41.992,-85.449,-33.203,-71.289
1626466284.749,-73.730,-83.984,-15.625,-103.027
1626466284.753,-55.664,-69.336,-5.859,-89.844
1626466284.755,-0.977,-54.199,-18.066,-55.176
1626466284.759,1.465,-62.500,-29.785,-41.016
1626466284.763,-55.664,-73.242,-19.531,-76.660
1626466284.767,-81.543,-71.777,-14.160,-103.516
1626466284.771,-63.965,-69.336,-20.508,-84.473
1626466284.775,-42.480,-62.988,-24.902,-50.781
1626466284.779,-92.773,-76.660,-31.738,-102.539
1626466284.782,-120.605,-81.055,-21.973,-124.023
1626466284.786,-84.961,-66.895,-21.973,-86.426
1626466284.790,-52.734,-60.547,-28.320,-47.852
1626466284.794,-84.961,-74.707,-32.715,-86.426
1626466284.798,-109.863,-78.613,-12.695,-111.816
1626466284.800,-82.031,-68.848,-8.301,-96.680
1626466284.804,-30.273,-59.570,-20.020,-37.109
1626466284.808,-37.109,-61.523,-25.391,-48.828
1626466284.812,-100.098,-73.730,-20.020,-105.469
1626466284.816,-97.656,-77.148,-15.625,-101.074
1626466284.820,-57.617,-61.035,-18.555,-64.453
1626466284.824,-38.086,-57.129,-27.344,-56.641
1626466284.827,-67.871,-71.289,-30.762,-110.352
1626466284.831,-81.543,-70.801,-23.926,-115.723
1626466284.835,-44.434,-62.988,-20.996,-69.824
1626466284.839,-17.090,-58.105,-22.949,-36.621
1626466284.843,-73.242,-77.148,-27.832,-98.145
1626466284.846,-99.609,-81.543,-15.625,-116.699
1626466284.850,-72.754,-68.848,-8.301,-84.961
1626466284.854,-40.039,-61.035,-16.113,-37.598
1626466284.858,-55.176,-69.824,-24.902,-74.707
1626466284.862,-104.004,-77.637,-8.789,-115.723
1626466284.866,-95.215,-58.594,-12.207,-93.262
1626466284.870,-41.992,-41.504,-24.902,-42.969
1626466284.873,-50.293,-71.289,-39.551,-62.012
1626466284.877,-101.562,-94.238,-34.668,-126.953
1626466284.881,-87.891,-83.008,-22.461,-112.305
1626466284.885,-38.086,-61.523,-17.578,-55.664
1626466284.889,-18.066,-56.152,-22.949,-38.086
1626466284.890,-63.477,-77.637,-29.785,-100.098
1626466284.894,-83.496,-72.266,-16.113,-95.215
1626466284.898,-47.852,-58.594,-15.625,-50.293
1626466284.902,-26.367,-55.664,-21.973,-22.461
1626466284.906,-58.105,-71.777,-24.414,-72.754
1626466284.910,-85.449,-71.777,-10.742,-92.285
1626466284.914,-72.266,-62.500,-20.020,-65.918
1626466284.917,-33.203,-55.664,-28.320,-23.438
1626466284.921,-59.570,-55.176,-31.250,-47.852
1626466284.925,-107.910,-78.125,-22.461,-90.820
1626466284.929,-98.633,-81.543,-23.438,-93.750
1626466284.933,-53.711,-65.918,-34.668,-52.246
1626466284.935,-62.500,-61.035,-37.598,-46.875
1626466284.939,-119.629,-72.266,-28.809,-115.234
1626466284.943,-119.629,-74.707,-26.367,-109.375
1626466284.947,-86.914,-73.242,-27.832,-64.453
1626466284.951,-65.918,-62.988,-28.320,-49.805
1626466284.955,-106.445,-68.848,-27.344,-104.980
1626466284.959,-118.652,-76.172,-14.648,-107.422
1626466284.962,-81.055,-68.359,-20.996,-71.289
1626466284.966,-57.129,-56.641,-28.809,-50.781
1626466284.970,-91.309,-68.848,-37.109,-89.355
1626466284.974,-112.793,-83.008,-27.344,-100.098
1626466284.978,-88.379,-70.312,-18.555,-78.125
1626466284.982,-58.594,-57.617,-20.996,-56.641
1626466284.986,-83.984,-80.078,-38.574,-101.562
1626466284.990,-128.906,-92.773,-24.902,-127.930
1626466284.994,-108.398,-81.543,-11.719,-96.680
1626466284.998,-69.336,-74.219,-24.902,-62.988
1626466285.002,-82.031,-63.477,-26.855,-58.105
1626466285.006,-123.535,-70.312,-23.926,-116.699
1626466285.009,-126.953,-78.613,-26.367,-109.863
1626466285.013,-82.031,-66.406,-27.832,-67.871
1626466285.017,-48.340,-66.895,-36.133,-59.082
1626466285.021,-83.008,-84.961,-37.598,-104.492
1626466285.025,-93.262,-77.637,-16.602,-113.770
1626466285.040,-61.523,-59.570,-17.578,-71.289
1626466285.044,-32.715,-59.570,-39.062,-19.531
1626466285.048,-65.918,-73.730,-38.574,-67.871
1626466285.052,-96.680,-80.078,-9.766,-104.004
1626466285.056,-77.148,-71.777,-14.648,-76.660
1626466285.060,-40.527,-58.105,-33.691,-47.852
1626466285.064,-47.363,-70.801,-41.992,-62.500
1626466285.067,-93.750,-91.797,-30.762,-98.633
1626466285.071,-97.168,-80.566,-28.809,-88.867
1626466285.075,-58.594,-65.918,-34.668,-48.828
1626466285.079,-35.156,-63.477,-36.133,-51.270
1626466285.083,-74.707,-76.172,-30.762,-103.027
1626466285.086,-89.844,-74.707,-16.113,-102.051
1626466285.090,-47.852,-54.688,-21.484,-62.500
1626466285.094,-21.484,-52.734,-39.062,-42.480
1626466285.098,-63.477,-75.684,-39.062,-88.867
1626466285.102,-87.891,-76.172,-19.531,-83.984
1626466285.106,-37.109,-59.082,-21.484,-50.781
1626466285.110,2.441,-58.105,-31.738,-34.180
1626466285.113,-38.574,-64.941,-32.227,-80.566
1626466285.117,-72.754,-80.078,-18.555,-109.863
1626466285.121,-75.195,-86.914,-20.020,-92.773
1626466285.125,-34.180,-69.336,-33.691,-48.828
1626466285.129,-32.227,-71.777,-43.457,-48.340
1626466285.130,-68.359,-79.590,-24.414,-71.289
1626466285.134,-53.711,-74.707,-0.977,-69.824
1626466285.138,-38.086,-70.801,-10.254,-61.523
1626466285.142,-40.039,-71.289,-31.738,-52.246
1626466285.146,-74.707,-82.520,-26.367,-86.914
1626466285.150,-84.473,-75.684,-8.301,-86.914
1626466285.154,-49.316,-75.684,-13.184,-68.359
1626466285.157,-21.484,-87.891,-22.949,-37.109
1626466285.161,-64.941,-94.727,-28.809,-90.332
1626466285.165,-87.891,-95.215,-7.812,-108.398
1626466285.169,-62.988,-83.496,-7.812,-66.895
1626466285.173,-37.598,-75.195,-25.879,-29.785
1626466285.175,-56.641,-80.566,-27.344,-65.918
1626466285.179,-102.051,-83.984,-7.324,-93.750
1626466285.183,-77.148,-74.219,-8.301,-61.523
1626466285.187,-35.156,-68.848,-22.949,-25.879
1626466285.191,-42.480,-75.684,-28.320,-32.227
1626466285.195,-78.125,-74.707,-10.254,-77.637
1626466285.199,-74.707,-67.383,0.488,-66.895
1626466285.202,-38.086,-65.918,-11.719,-38.574
1626466285.206,-16.602,-60.547,-29.297,-30.273
1626466285.210,-59.082,-80.078,-33.203,-81.055
1626466285.214,-82.520,-84.961,-13.672,-100.586
1626466285.218,-47.363,-68.848,-12.695,-62.012
1626466285.220,-10.742,-65.918,-24.414,-14.160
1626466285.224,-63.477,-75.684,-27.344,-58.105
1626466285.228,-91.309,-78.613,-7.324,-79.590
1626466285.232,-47.852,-70.801,-6.348,-58.594
1626466285.236,0.977,-58.105,-17.090,-21.973
1626466285.240,-11.230,-55.664,-31.250,-45.410
1626466285.244,-57.129,-60.547,-24.902,-94.238
1626466285.247,-59.570,-69.824,-19.531,-95.215
1626466285.251,-24.902,-67.871,-17.578,-48.828
1626466285.255,-15.625,-68.359,-20.996,-43.457
1626466285.259,-66.895,-84.473,-26.367,-108.887
1626466285.263,-88.867,-78.125,-22.949,-104.004
1626466285.266,-50.781,-55.176,-18.066,-62.988
1626466285.270,-25.879,-50.293,-18.066,-42.480
1626466285.274,-79.590,-68.848,-28.809,-92.773
1626466285.278,-103.027,-73.242,-19.043,-100.098
1626466285.282,-80.566,-60.059,-15.625,-63.965
1626466285.286,-40.039,-39.062,-16.113,-17.090
1626466285.290,-71.289,-54.199,-30.762,-71.777
1626466285.293,-103.516,-70.801,-27.344,-123.535
1626466285.297,-71.289,-51.270,-10.742,-83.496
1626466285.301,-29.785,-46.875,-14.160,-35.156
1626466285.305,-35.645,-64.941,-30.762,-64.941
1626466285.309,-68.848,-77.148,-21.973,-106.934
1626466285.310,-58.105,-59.082,-17.090,-95.703
1626466285.314,-13.184,-41.504,-29.297,-49.316
1626466285.318,0.488,-50.293,-35.156,-47.852
1626466285.322,-61.523,-73.242,-32.227,-120.117
1626466285.326,-75.684,-68.848,-23.438,-112.793
1626466285.330,-30.762,-43.945,-32.715,-69.336
1626466285.334,-10.254,-41.504,-44.434,-46.875
1626466285.337,-71.289,-71.777,-38.574,-88.867
1626466285.341,-102.539,-75.195,-25.391,-99.609
1626466285.345,-77.148,-66.406,-28.320,-84.961
1626466285.349,-37.598,-59.082,-30.273,-58.105
1626466285.353,-70.801,-66.895,-37.109,-91.309
1626466285.355,-122.070,-82.031,-20.508,-126.953
1626466285.359,-111.328,-73.730,-11.230,-101.074
1626466285.363,-66.406,-63.477,-24.902,-49.316
1626466285.367,-63.965,-72.266,-37.109,-58.594
1626466285.371,-112.793,-81.055,-28.320,-111.328
1626466285.375,-113.770,-64.941,-13.184,-90.332
1626466285.379,-65.430,-59.082,-14.648,-44.922
1626466285.382,-46.875,-64.453,-24.902,-34.180
1626466285.386,-96.191,-64.453,-31.250,-98.145
1626466285.390,-101.074,-77.637,-29.297,-102.051
1626466285.394,-57.617,-75.195,-33.691,-56.152
1626466285.398,-28.320,-61.035,-38.574,-28.320
1626466285.416,-69.336,-74.707,-47.363,-76.172
1626466285.420,-100.586,-80.566,-33.203,-97.656
1626466285.424,-66.895,-71.777,-16.113,-67.383
1626466285.428,-26.855,-58.594,-17.578,-32.227
1626466285.432,-44.922,-54.688,-35.645,-73.730
1626466285.436,-81.543,-52.734,-22.461,-102.051
1626466285.440,-64.941,-48.340,-1.953,-74.707
1626466285.443,-3.418,-55.176,-15.137,-43.945
1626466285.447,-5.859,-69.336,-40.527,-46.875
1626466285.451,-58.105,-78.613,-33.691,-100.098
1626466285.455,-57.617,-62.500,-15.137,-89.355
1626466285.459,-16.602,-42.480,-20.020,-45.898
1626466285.461,-15.137,-53.711,-40.039,-31.250
1626466285.465,-58.105,-78.125,-38.086,-84.473
1626466285.469,-83.984,-78.613,-22.461,-93.262
