timestamps,TP9,AF7,AF8,TP10
1628114803.123,-96.191,-57.617,-6.836,-82.520
1628114803.127,-62.500,-62.988,-21.973,-43.457
1628114803.131,82.031,-50.293,-23.438,40.527
1628114803.135,83.496,-30.273,-32.227,27.344
1628114803.139,-65.918,-59.570,-34.180,-63.477
1628114803.143,-98.145,-55.176,-40.039,-79.102
1628114803.147,42.480,-56.152,-35.156,6.348
1628114803.150,84.473,-53.711,-27.832,35.156
1628114803.154,-60.059,-32.715,-31.738,-55.176
1628114803.158,-124.023,-38.086,-19.531,-80.078
1628114803.162,-12.207,-61.035,-21.484,-5.371
1628114803.166,78.125,-70.801,-21.973,43.945
1628114803.172,-17.090,-32.227,-21.973,-17.578
1628114803.176,-143.066,-8.789,-39.062,-92.773
1628114803.180,-67.383,-34.180,-31.738,-43.945
1628114803.184,86.426,-70.801,-11.230,46.875
1628114803.188,60.059,-62.988,-2.441,33.203
1628114803.192,-82.031,-14.648,-13.184,-48.340
1628114803.196,-90.820,-20.020,-41.016,-50.293
1628114803.199,56.641,-29.785,-50.781,29.297
1628114803.203,81.055,-41.992,-37.109,29.785
1628114803.207,-74.219,-64.453,-25.391,-65.918
1628114803.211,-107.422,-37.598,-32.715,-78.613
1628114803.215,34.668,-41.504,-42.480,8.301
1628114803.229,107.422,-49.316,-31.250,48.828
1628114803.233,-26.855,-58.594,-35.156,-37.598
1628114803.237,-126.465,-35.645,-45.410,-92.773
1628114803.241,-9.766,-16.113,-26.855,-13.184
1628114803.245,95.215,-51.758,-28.809,42.480
1628114803.249,0.488,-47.363,-49.316,-17.578
1628114803.253,-117.676,-37.598,-30.273,-81.543
1628114803.256,-66.895,-6.836,-24.414,-44.922
1628114803.260,67.383,17.090,-20.020,40.527
1628114803.264,57.129,-45.410,-17.090,31.250
1628114803.268,-102.051,-74.219,-38.574,-67.871
1628114803.272,-110.840,-55.664,-30.762,-74.707
1628114803.266,55.176,-52.734,-12.695,28.809
1628114803.270,82.031,-47.363,-26.367,37.109
1628114803.274,-63.477,-31.250,-41.504,-58.105
1628114803.278,-119.629,-45.898,-49.805,-83.008
1628114803.282,20.020,-65.430,-40.527,16.113
1628114803.286,123.047,-4.883,-23.438,72.754
1628114803.290,-22.461,-16.113,-14.160,-32.715
1628114803.293,-137.207,-54.688,-15.625,-89.844
1628114803.297,-23.926,-28.320,-29.785,-5.371
1628114803.301,78.125,-30.273,-33.203,45.898
1628114803.305,-10.254,-5.859,-39.062,-19.043
1628114803.309,-158.691,-27.832,-43.457,-105.469
1628114803.323,-110.840,-54.199,-27.344,-61.035
1628114803.327,61.523,-58.594,-10.254,42.969
1628114803.331,54.688,-51.758,-12.207,22.949
1628114803.335,-106.445,-64.453,-28.809,-77.148
1628114803.339,-118.164,-75.684,-28.809,-69.336
1628114803.343,18.066,-29.785,-24.902,7.812
1628114803.347,61.523,-21.973,-28.809,16.602
1628114803.350,-63.965,2.441,-44.922,-62.988
1628114803.354,-123.047,1.953,-45.898,-91.797
1628114803.358,5.371,-50.781,-30.273,-6.836
1628114803.362,105.469,-38.086,-24.414,46.875
1628114803.366,-6.836,-26.855,-43.945,-26.855
1628114803.360,-119.141,-31.250,-39.551,-80.078
1628114803.364,-15.625,-33.691,-4.395,2.441
1628114803.368,110.840,-48.828,-17.090,79.590
1628114803.372,36.133,-51.758,-32.227,29.297
1628114803.376,-113.281,-35.156,-25.391,-62.988
1628114803.380,-82.520,20.020,-35.156,-34.180
1628114803.384,50.293,-11.230,-38.574,45.898
1628114803.387,37.109,-60.547,-31.738,27.344
1628114803.391,-101.562,-32.227,-22.949,-52.734
1628114803.395,-138.672,-23.438,-20.020,-68.848
1628114803.399,-9.766,6.836,-19.043,7.812
1628114803.403,47.852,-22.949,-23.926,31.250
1628114803.400,-72.266,-47.852,-29.297,-46.875
1628114803.404,-138.184,-41.504,-26.855,-81.055
1628114803.408,-25.391,-39.551,-39.551,-5.859
1628114803.412,81.055,-35.156,-47.852,47.852
1628114803.416,-3.906,-61.035,-36.621,-15.137
1628114803.420,-129.395,-64.453,-46.387,-79.102
1628114803.424,-46.875,-42.480,-54.688,-16.113
1628114803.427,87.891,-10.742,-36.133,62.012
1628114803.431,9.766,-6.836,-31.250,4.395
1628114803.435,-152.344,-21.973,-34.180,-90.820
1628114803.439,-125.000,-20.996,-40.039,-57.617
1628114803.443,35.645,-27.832,-44.922,45.898
1628114803.454,47.852,-5.859,-39.551,40.039
1628114803.458,-105.469,-34.668,-54.688,-60.547
1628114803.462,-125.488,-67.383,-50.293,-62.012
1628114803.466,6.348,-51.270,-26.855,18.066
1628114803.470,44.922,-49.316,-25.391,24.902
1628114803.474,-96.191,-19.043,-39.062,-70.312
1628114803.478,-184.082,-1.465,-47.852,-114.258
1628114803.481,-60.547,-33.691,-40.527,-31.738
1628114803.485,64.941,-35.645,-49.316,34.180
1628114803.489,-25.391,-32.715,-68.848,-29.785
1628114803.493,-146.973,-38.086,-59.082,-101.562
1628114803.497,-65.918,-36.133,-32.227,-42.969
1628114803.513,95.215,-18.066,-20.508,57.129
1628114803.517,56.641,-32.715,-36.133,19.531
1628114803.521,-114.746,-19.043,-40.527,-92.773
1628114803.525,-130.859,21.973,-33.691,-98.145
1628114803.529,23.926,-22.461,-24.414,-3.906
1628114803.533,66.406,-47.852,-30.762,6.348
1628114803.537,-98.633,-60.059,-49.805,-102.539
1628114803.540,-155.762,22.461,-57.617,-124.023
1628114803.544,-4.395,46.387,-41.992,-22.461
1628114803.548,68.848,-67.383,-21.484,15.625
1628114803.552,-50.293,-47.363,-21.973,-57.129
1628114803.556,-139.160,-19.043,-27.344,-91.797
1628114803.548,-54.199,-3.906,-46.875,-39.551
1628114803.552,56.641,-0.977,-49.316,12.695
1628114803.556,-18.555,-33.203,-35.645,-39.062
1628114803.560,-169.922,-50.781,-23.926,-125.000
1628114803.564,-124.512,-51.270,-24.902,-89.355
1628114803.568,34.180,-41.504,-30.273,5.371
1628114803.572,36.133,-50.293,-20.508,1.465
1628114803.575,-114.258,-53.223,-26.367,-80.078
1628114803.579,-152.832,-44.922,-32.715,-89.844
1628114803.583,6.348,-21.484,-20.508,4.883
1628114803.587,81.055,21.973,-31.250,48.340
1628114803.591,-96.191,-19.531,-60.547,-71.777
1628114803.587,-180.176,-47.363,-40.527,-116.211
1628114803.591,-20.996,-28.809,-13.184,-1.953
1628114803.595,79.102,-18.066,-20.508,48.828
1628114803.599,-39.551,12.695,-25.391,-28.320
1628114803.603,-158.203,-27.832,-18.555,-93.750
1628114803.607,-67.871,-41.504,-12.695,-37.109
1628114803.611,57.129,-52.734,-13.672,26.367
1628114803.614,-15.137,-2.441,-42.969,-36.133
1628114803.618,-157.715,40.527,-52.734,-111.328
1628114803.622,-121.582,-48.828,-27.832,-71.777
1628114803.626,26.367,-67.383,-18.555,13.184
1628114803.630,30.762,-42.969,-17.090,3.418
1628114803.660,-123.047,-57.129,-25.879,-90.820
1628114803.664,-164.551,-79.590,-21.973,-100.586
1628114803.668,-1.465,-49.805,-18.555,6.348
1628114803.672,72.266,-14.160,-20.020,44.922
1628114803.676,-78.613,-46.387,-11.719,-56.152
1628114803.680,-160.156,0.977,-12.207,-101.562
1628114803.684,-23.926,-1.465,-27.344,-11.719
1628114803.687,86.914,-76.660,-29.785,61.035
1628114803.691,-26.367,-58.594,-17.090,-12.695
1628114803.695,-180.664,-60.547,-38.086,-112.793
1628114803.699,-106.934,-30.762,-42.480,-64.453
1628114803.703,50.781,-36.133,-13.672,33.203
1628114803.698,4.883,-65.918,-12.207,-2.930
1628114803.702,-154.785,-50.293,-26.855,-102.539
1628114803.706,-128.418,-17.090,-24.902,-79.102
1628114803.710,48.340,-4.395,-19.043,25.391
1628114803.714,57.617,-37.109,-27.344,20.996
1628114803.718,-94.727,-41.016,-22.949,-75.195
1628114803.722,-139.648,-38.086,-19.531,-94.727
1628114803.725,-24.902,-55.176,-25.391,-20.508
1628114803.729,52.246,-59.570,-27.344,19.531
1628114803.733,-61.035,-62.500,-28.809,-55.664
1628114803.737,-159.668,-41.016,-29.297,-108.398
1628114803.741,-44.922,-22.461,-34.180,-35.645
1628114803.734,83.496,10.254,-38.574,28.320
1628114803.738,-11.719,14.648,-57.617,-35.156
1628114803.742,-153.809,-45.410,-45.898,-114.258
1628114803.746,-85.449,-35.645,-14.160,-66.406
1628114803.750,64.453,-42.480,-22.949,22.949
1628114803.754,38.574,40.527,-31.738,-5.371
1628114803.758,-114.746,36.621,-25.391,-103.027
1628114803.761,-104.492,-51.270,-18.066,-70.801
1628114803.765,43.945,-56.641,-31.738,17.578
1628114803.769,65.918,-70.801,-33.691,11.719
1628114803.773,-73.242,7.324,-11.230,-68.848
1628114803.777,-129.395,-4.883,-19.043,-87.891
1628114803.791,1.953,-49.805,-48.340,-9.277
1628114803.795,85.449,-64.453,-52.246,31.250
1628114803.799,-39.551,-31.738,-40.527,-47.852
1628114803.803,-160.645,35.645,-37.598,-127.441
1628114803.807,-70.312,-23.438,-43.945,-70.801
1628114803.811,64.453,-57.129,-38.086,18.555
1628114803.815,10.254,-75.684,-16.602,-20.996
1628114803.818,-128.906,-18.555,-17.090,-108.887
1628114803.822,-76.172,25.879,-20.996,-64.941
1628114803.826,93.262,-54.199,-20.996,48.340
1628114803.830,67.871,-55.664,-33.203,24.902
1628114803.834,-117.676,-53.223,-30.762,-93.262
1628114803.830,-139.160,-41.016,-26.367,-95.703
1628114803.834,14.648,-36.133,-31.738,2.441
1628114803.838,89.355,-44.434,-22.949,42.480
1628114803.842,-35.645,-46.875,-16.113,-32.715
1628114803.846,-120.605,-72.266,-3.906,-85.938
1628114803.850,0.977,-12.695,-11.230,-17.578
1628114803.854,100.586,4.395,-17.578,43.945
1628114803.857,-31.738,-50.293,-13.184,-40.527
1628114803.861,-158.203,-42.480,-41.504,-109.863
1628114803.865,-64.941,-31.250,-69.824,-37.109
1628114803.869,72.266,58.594,-52.734,33.691
1628114803.873,22.461,16.602,-20.996,-7.812
1628114803.869,-119.629,-55.664,-5.859,-83.984
1628114803.873,-104.004,-70.801,-25.391,-65.430
1628114803.877,49.805,-62.012,-24.414,23.926
1628114803.881,59.570,-23.926,-17.578,7.324
1628114803.885,-110.352,-45.410,-29.297,-96.191
1628114803.889,-141.113,-39.062,-24.902,-99.121
1628114803.893,9.277,-70.801,-28.809,-6.836
1628114803.896,68.848,-15.625,-40.039,18.066
1628114803.900,-78.613,30.273,-48.828,-77.148
1628114803.904,-159.668,-45.410,-41.992,-116.211
1628114803.908,-27.832,-39.062,-40.527,-23.438
1628114803.912,87.891,-56.152,-41.016,46.387
1628114803.923,14.648,-9.766,-9.277,-3.906
1628114803.927,-120.117,7.324,-7.324,-83.984
1628114803.931,-76.172,-59.570,-19.531,-49.805
1628114803.935,75.195,-84.961,-4.395,35.645
1628114803.939,26.855,-95.215,-9.766,-5.371
1628114803.943,-130.371,2.441,-45.898,-90.332
1628114803.947,-112.793,-17.578,-74.219,-66.895
1628114803.950,40.527,-96.191,-48.340,23.438
1628114803.954,78.613,-44.434,-8.789,35.156
1628114803.958,-76.660,-14.160,7.812,-64.453
1628114803.962,-136.719,53.223,1.953,-91.797
1628114803.966,6.348,18.066,-19.043,-4.883
1628114803.962,87.891,-67.871,-30.273,34.180
1628114803.966,-38.086,-97.656,-24.902,-48.340
1628114803.970,-154.297,-57.129,-34.180,-108.398
1628114803.974,-49.316,-6.836,-43.457,-38.086
1628114803.978,92.773,-25.879,-30.273,43.457
1628114803.982,15.625,-37.598,-49.805,-9.277
1628114803.986,-133.301,-103.516,-64.453,-95.215
1628114803.989,-63.477,-10.742,-22.461,-39.062
1628114803.993,105.957,111.328,1.953,62.012
1628114803.997,47.363,-9.766,-27.344,3.906
1628114804.001,-133.301,-60.059,-36.621,-105.469
1628114804.005,-133.301,-65.430,-19.531,-87.402
1628114804.035,28.320,-41.016,-27.832,8.301
1628114804.039,59.570,-30.762,-65.430,12.695
1628114804.043,-88.379,-47.363,-66.895,-73.242
1628114804.047,-133.789,-24.414,-23.926,-83.008
1628114804.051,0.977,-56.641,-21.973,0.000
1628114804.055,90.332,-30.762,-35.645,46.387
1628114804.059,-14.648,-37.109,-26.855,-24.902
1628114804.062,-137.695,-97.656,-32.715,-94.238
1628114804.066,-48.340,-55.664,-41.992,-29.297
1628114804.070,81.055,-25.879,-27.344,33.203
1628114804.074,1.465,1.465,-25.879,-24.902
1628114804.078,-145.020,-18.066,-29.785,-104.980
1628114804.073,-110.352,-52.246,-25.391,-73.730
1628114804.077,53.223,-65.430,-31.250,27.344
1628114804.081,54.199,-33.691,-50.781,16.113
1628114804.085,-119.629,0.977,-64.941,-96.680
1628114804.089,-145.020,-45.898,-49.316,-98.633
1628114804.093,24.902,-55.664,-24.414,8.301
1628114804.097,91.797,-73.242,-17.090,40.527
1628114804.100,-63.477,-53.711,-30.762,-59.570
1628114804.104,-159.180,-32.227,-49.805,-111.328
1628114804.108,-13.672,-30.762,-33.203,-10.742
1628114804.112,103.027,-26.855,-10.742,54.688
1628114804.116,-26.855,-82.520,-18.555,-30.273
1628114804.110,-163.574,7.324,-29.785,-112.305
1628114804.114,-78.125,67.871,-43.457,-54.688
1628114804.118,74.219,-35.645,-56.152,27.832
1628114804.122,33.203,-64.941,-48.828,-17.090
1628114804.126,-112.305,-97.656,-40.527,-91.309
1628114804.130,-91.309,-15.137,-48.828,-60.059
1628114804.134,63.477,35.645,-38.574,28.320
1628114804.137,68.848,-22.949,-22.949,20.508
1628114804.141,-103.516,-43.457,-27.832,-85.449
1628114804.145,-142.090,-39.551,-17.578,-95.215
1628114804.149,3.906,17.578,-22.461,-7.324
1628114804.153,60.059,-15.625,-45.410,16.602
1628114804.153,-62.500,-54.199,-43.945,-56.641
1628114804.157,-142.090,-66.895,-36.621,-94.727
1628114804.161,-41.992,-69.824,-36.133,-26.855
1628114804.165,62.012,-37.598,-38.574,25.391
1628114804.169,-19.043,-41.992,-29.297,-34.180
1628114804.173,-144.043,-34.668,-20.508,-104.980
1628114804.177,-78.125,-38.574,-22.461,-58.594
1628114804.180,71.777,3.418,-34.668,26.367
1628114804.184,23.438,17.090,-38.086,-18.066
1628114804.188,-133.301,-61.523,-28.809,-105.469
1628114804.192,-107.910,-73.242,-17.578,-66.895
1628114804.196,62.012,-46.387,-7.812,36.133
1628114804.204,80.566,-21.973,-30.273,34.180
1628114804.208,-94.727,-48.340,-59.082,-69.336
1628114804.212,-148.926,-67.871,-50.293,-97.168
1628114804.216,3.418,-49.805,-27.344,-5.371
1628114804.220,83.984,-56.641,-9.277,35.645
1628114804.224,-49.805,-7.324,-14.648,-54.688
1628114804.228,-149.414,7.324,-22.461,-107.422
1628114804.231,-35.645,-29.297,-21.484,-29.297
1628114804.235,76.172,-45.898,-35.156,31.738
1628114804.239,-9.277,-50.293,-38.086,-20.996
1628114804.243,-141.113,25.391,-38.574,-87.891
1628114804.247,-87.402,-2.441,-28.320,-43.457
1628114804.267,67.383,-44.922,-19.043,46.387
1628114804.271,47.852,-51.758,-18.555,15.625
1628114804.275,-123.535,-61.035,-37.598,-91.309
1628114804.279,-130.859,-22.949,-47.363,-81.055
1628114804.283,40.039,-19.531,-28.320,25.879
1628114804.287,83.008,-53.711,-36.133,31.738
1628114804.291,-73.730,-69.336,-48.828,-72.754
1628114804.294,-150.391,-27.344,-36.133,-105.469
1628114804.298,-4.883,-19.531,-15.625,-10.742
1628114804.302,112.305,-48.828,-7.812,51.758
1628114804.306,-22.461,-38.574,-40.039,-31.250
1628114804.310,-161.133,-45.410,-65.918,-111.328
1628114804.301,-67.871,-22.949,-41.992,-54.688
1628114804.305,84.961,0.000,-6.348,46.875
1628114804.309,22.461,-30.273,-3.906,2.930
1628114804.313,-142.090,-34.668,-15.625,-99.121
1628114804.317,-102.539,-51.758,-37.598,-61.523
1628114804.321,69.336,9.766,-35.645,45.410
1628114804.325,69.336,34.180,-25.391,28.320
1628114804.328,-124.023,-29.297,-44.922,-102.051
1628114804.332,-160.156,-45.410,-35.156,-108.398
1628114804.336,13.184,-58.105,-25.391,-0.488
1628114804.340,82.520,-24.902,-14.160,36.133
1628114804.344,-51.270,-16.602,-6.836,-47.852
1628114804.341,-145.508,-38.574,-23.926,-99.609
1628114804.345,-32.715,-28.320,-43.457,-20.996
1628114804.349,68.848,-40.039,-67.383,25.391
1628114804.353,-31.738,-48.340,-56.152,-40.039
1628114804.357,-151.855,-33.203,-29.297,-96.191
1628114804.361,-73.730,-51.758,-28.320,-45.410
1628114804.365,82.031,-83.496,-29.297,32.715
1628114804.368,24.414,-56.152,-19.043,-12.207
1628114804.372,-147.949,-24.414,-14.648,-110.840
1628114804.376,-133.789,-27.832,-44.434,-89.844
1628114804.380,32.227,-22.949,-48.828,10.742
1628114804.384,74.219,-8.301,-25.879,22.949
1628114804.392,-95.215,-17.578,-24.902,-84.961
1628114804.396,-159.668,-29.297,-26.855,-109.375
1628114804.400,-6.836,-28.809,-29.785,-11.230
1628114804.404,56.641,-36.133,-34.668,9.277
1628114804.408,-58.105,-42.969,-32.227,-58.105
1628114804.412,-148.438,-64.941,-36.621,-89.355
1628114804.416,-45.410,-70.312,-32.227,-26.855
1628114804.419,79.102,-49.316,-20.996,35.156
1628114804.423,-21.484,-39.062,-32.227,-37.598
1628114804.427,-172.363,-31.738,-39.062,-121.094
1628114804.431,-104.492,-34.668,-32.227,-63.965
1628114804.435,67.383,-46.387,-18.555,37.109
1628114804.447,41.504,-51.758,-23.438,11.230
1628114804.451,-107.910,-48.828,-19.043,-76.172
1628114804.455,-105.957,-45.898,-27.344,-63.477
1628114804.459,41.016,-39.551,-47.852,22.461
1628114804.463,81.543,-11.719,-34.180,39.551
1628114804.467,-71.289,-10.742,-20.996,-52.734
1628114804.471,-133.301,-23.438,-19.531,-80.566
1628114804.474,-1.953,-68.848,-29.785,-0.977
1628114804.478,77.148,-84.961,-42.969,35.156
1628114804.482,-42.480,-42.969,-33.691,-40.527
1628114804.486,-140.625,-32.715,-14.160,-93.750
1628114804.490,-32.715,-42.480,-21.484,-24.902
1628114804.485,90.332,-58.594,-33.691,38.574
1628114804.489,17.090,-30.273,-31.738,-12.695
1628114804.493,-125.000,1.953,-26.367,-87.402
1628114804.497,-92.773,-6.836,-13.184,-56.641
1628114804.501,47.363,-28.809,-12.695,24.414
1628114804.505,33.691,-54.199,-41.504,1.953
1628114804.509,-118.652,-88.379,-55.664,-88.867
1628114804.512,-125.488,-76.172,-23.926,-70.801
1628114804.516,41.504,-7.324,-7.812,30.762
1628114804.520,73.242,14.648,-25.391,28.809
1628114804.524,-99.609,-18.066,-35.156,-84.961
1628114804.528,-148.438,-40.527,-30.762,-101.074
1628114804.541,-4.395,-37.109,-18.555,1.465
1628114804.545,83.008,-28.809,-36.133,41.016
1628114804.549,-18.555,-33.691,-37.109,-25.879
1628114804.553,-134.277,-56.152,-18.555,-84.961
1628114804.557,-60.547,-35.645,-18.066,-37.598
1628114804.561,83.496,-0.977,-2.930,41.504
1628114804.565,25.879,-24.414,-18.066,-10.254
1628114804.568,-150.879,-22.949,-60.547,-116.699
1628114804.572,-122.559,-19.531,-45.898,-86.914
1628114804.576,51.758,-36.133,-21.484,21.484
1628114804.580,80.566,-64.941,-34.180,38.086
1628114804.584,-74.707,-95.703,-30.762,-59.082
1628114804.578,-127.441,-0.488,-9.766,-91.309
1628114804.582,2.441,44.434,-15.137,-12.207
1628114804.586,52.734,-14.160,-35.156,17.578
1628114804.590,-67.871,-10.254,-28.320,-55.664
1628114804.594,-155.762,-15.625,-26.367,-104.004
1628114804.598,-53.711,5.859,-36.621,-38.086
1628114804.602,72.754,5.371,-35.645,33.203
1628114804.605,-18.066,-59.082,-38.574,-35.156
1628114804.609,-161.621,-90.332,-37.598,-121.582
1628114804.613,-86.426,-93.262,-30.273,-60.059
1628114804.617,62.500,-47.363,-16.602,29.785
1628114804.621,25.879,-3.906,-15.625,-3.906
1628114804.619,-130.859,14.160,-31.738,-100.586
1628114804.623,-135.254,8.789,-41.016,-98.633
1628114804.627,18.555,-0.488,-35.156,-9.277
1628114804.631,46.387,-3.418,-19.531,3.906
1628114804.635,-101.074,-23.438,-14.160,-84.961
1628114804.639,-162.598,-30.273,-20.020,-125.977
1628114804.643,-26.855,-32.715,-23.926,-41.992
1628114804.646,43.457,-28.320,-35.156,-7.324
1628114804.650,-103.027,-14.160,-30.762,-106.445
1628114804.654,-213.379,-23.926,-18.066,-166.504
1628114804.658,-119.629,-18.555,-24.414,-107.910
1628114804.662,-22.461,-20.020,-23.926,-56.641
1628114804.672,-134.766,-13.184,-31.250,-141.602
1628114804.676,-285.645,-0.977,-29.785,-236.816
1628114804.680,-246.582,-22.461,-15.625,-216.309
1628114804.684,-122.559,-33.203,-20.996,-161.621
1628114804.688,-160.156,-42.480,-25.879,-200.195
1628114804.692,-317.871,-35.645,-19.531,-294.922
1628114804.696,-328.125,-31.250,-11.719,-285.645
1628114804.699,-150.391,-31.250,14.160,-162.598
1628114804.703,-112.305,-38.574,-4.883,-149.902
1628114804.707,-281.738,-64.941,-41.992,-261.719
1628114804.711,-332.520,-23.926,-37.598,-281.250
1628114804.715,-180.664,-28.809,-50.781,-178.223
1628114804.712,-99.609,-49.805,-18.555,-144.531
1628114804.716,-224.121,-49.805,18.066,-232.422
1628114804.720,-317.871,-51.758,-4.395,-280.762
1628114804.724,-207.031,-20.508,-10.742,-203.125
1628114804.728,-72.266,-24.414,11.230,-122.559
1628114804.732,-128.906,-26.855,-12.207,-159.180
1628114804.736,-267.090,-50.293,-45.410,-238.281
1628114804.739,-242.188,-13.672,-22.461,-212.402
1628114804.743,-88.867,36.621,-23.438,-115.234
1628114804.747,-75.195,-16.602,-48.828,-119.629
1628114804.751,-222.168,-38.574,-42.480,-206.055
1628114804.755,-210.449,-38.086,-29.297,-176.270
1628114804.775,-20.020,-16.602,-10.742,-51.270
1628114804.779,65.430,-10.254,-2.930,-1.465
1628114804.783,-57.617,-55.664,-30.762,-69.824
1628114804.787,-137.695,-57.129,-32.715,-106.445
1628114804.791,0.488,-37.598,-8.301,-17.090
1628114804.795,115.234,-34.180,-9.277,44.922
1628114804.799,9.766,-30.762,-32.227,-20.996
1628114804.802,-117.676,-40.527,-48.828,-90.820
1628114804.806,-15.625,-57.129,-32.227,-15.137
1628114804.810,150.879,-60.059,-33.203,89.355
1628114804.814,88.379,-43.457,-49.805,48.340
1628114804.818,-64.453,-34.668,-44.922,-37.598
1628114804.822,-19.531,-32.227,-35.156,-0.977
1628114804.826,157.715,-46.387,-19.531,105.957
1628114804.830,154.297,-34.668,-42.480,92.773
1628114804.834,-14.648,-16.602,-54.199,-3.418
1628114804.838,-41.992,-38.086,-26.855,-9.766
1628114804.842,114.258,-36.133,-8.789,84.473
1628114804.846,195.312,-51.758,-20.996,137.207
1628114804.849,45.410,-39.062,-58.105,46.875
1628114804.853,-64.453,-3.906,-61.523,-21.973
1628114804.857,81.055,-15.625,-27.832,77.148
1628114804.861,214.844,-23.438,-14.648,153.320
1628114804.865,86.426,-51.270,-32.227,61.035
1628114804.861,-72.266,-65.430,-37.109,-33.691
1628114804.865,0.977,-46.387,-29.785,18.555
1628114804.869,158.203,-33.691,-23.926,113.770
1628114804.873,134.766,-46.875,-33.691,93.750
1628114804.877,-20.508,-81.543,-57.617,3.906
1628114804.881,-14.160,-46.875,-55.176,19.043
1628114804.885,145.020,-20.996,-41.992,106.445
1628114804.888,172.363,-20.996,-43.457,113.770
1628114804.892,25.391,-11.719,-24.414,38.086
1628114804.896,-41.016,-47.852,-20.020,0.488
1628114804.900,68.359,-26.367,-40.039,55.176
1628114804.904,148.926,-4.883,-33.691,93.262
1628114804.899,24.902,-22.949,-31.738,13.672
1628114804.903,-95.703,-50.781,-38.574,-54.688
1628114804.907,13.672,-44.434,-36.621,19.531
1628114804.911,151.367,-16.602,-37.109,96.191
1628114804.915,83.984,-41.992,-30.273,47.852
1628114804.919,-41.016,-41.992,-27.832,-15.625
1628114804.923,16.602,-32.227,-42.969,37.598
1628114804.926,147.949,-13.184,-43.457,108.887
1628114804.930,102.051,1.953,-27.344,65.430
1628114804.934,-63.965,-49.805,-28.320,-31.738
1628114804.938,-58.105,-56.641,-36.621,-19.531
1628114804.942,110.840,-43.457,-30.273,85.938
1628114804.954,143.066,-35.645,-34.668,97.168
1628114804.958,-25.391,-26.855,-41.016,-8.301
1628114804.962,-95.703,-29.297,-29.785,-35.645
1628114804.966,58.594,-27.344,-19.531,64.453
1628114804.970,149.414,-41.016,-21.484,108.398
1628114804.974,13.672,2.930,-31.738,18.066
1628114804.978,-101.562,14.160,-33.691,-49.316
1628114804.981,-10.742,-44.434,-29.785,16.113
1628114804.985,138.184,-41.504,-27.832,108.398
1628114804.989,69.336,-36.133,-40.039,55.664
1628114804.993,-93.750,-46.387,-42.969,-40.039
1628114804.997,-59.082,-48.828,-15.625,-17.090
1628114805.010,73.242,-37.598,-10.742,46.875
1628114805.014,58.594,-26.367,-21.973,28.320
1628114805.018,-104.004,-44.922,-38.086,-74.707
1628114805.022,-116.699,-44.434,-38.574,-76.172
1628114805.026,63.477,-27.344,-14.160,42.969
1628114805.030,119.141,-30.762,-18.555,63.477
1628114805.034,-26.367,-40.039,-29.785,-35.645
1628114805.037,-81.543,-67.383,-17.578,-54.688
1628114805.041,57.129,-92.285,-9.766,44.434
1628114805.045,133.789,-67.383,-22.949,78.613
1628114805.049,2.441,-29.785,-39.551,-17.578
1628114805.053,-127.930,-9.277,-41.504,-90.332
1628114805.049,-58.105,-25.879,-42.969,-38.086
1628114805.053,83.008,-32.715,-41.992,41.992
1628114805.057,29.785,-27.344,-53.223,4.395
1628114805.061,-120.605,-45.410,-51.758,-80.078
1628114805.065,-87.402,-42.969,-31.738,-47.852
1628114805.069,61.035,-45.410,-25.879,39.062
1628114805.073,62.012,-62.012,-34.180,22.949
1628114805.076,-90.332,-55.664,-39.062,-69.336
1628114805.080,-122.559,-45.410,-49.316,-76.660
1628114805.084,13.184,-55.664,-45.410,3.906
1628114805.088,72.266,-52.246,-29.297,28.809
1628114805.092,-60.059,-26.367,-18.555,-51.270
1628114805.088,-142.578,-25.391,-18.555,-87.402
1628114805.092,-23.438,-30.762,-25.879,-7.324
1628114805.096,78.613,-14.648,-35.156,40.527
1628114805.100,-12.207,-13.672,-42.969,-21.973
1628114805.104,-132.812,-36.621,-44.922,-85.449
1628114805.108,-51.758,-19.043,-34.180,-27.344
1628114805.112,103.516,-16.602,-23.438,62.012
1628114805.115,57.617,-27.832,-38.086,27.832
1628114805.119,-104.980,-23.438,-45.898,-58.594
1628114805.123,-104.492,-27.344,-30.762,-46.387
1628114805.127,54.199,-16.113,-26.367,43.457
1628114805.131,72.266,-32.715,-55.664,46.387
1628114805.141,-92.285,-50.293,-60.059,-58.105
1628114805.145,-131.836,-45.898,-30.762,-79.590
1628114805.149,17.578,-33.203,-13.672,8.301
1628114805.153,107.910,-6.836,-4.395,53.223
1628114805.157,-26.855,-18.555,-22.461,-33.203
1628114805.161,-150.879,-1.465,-45.410,-100.586
1628114805.165,-38.574,1.465,-42.969,-21.484
1628114805.168,102.539,-46.875,-20.996,56.152
1628114805.172,22.461,-65.430,-27.832,-6.836
1628114805.176,-140.625,-51.270,-48.340,-95.703
1628114805.180,-84.961,26.855,-46.875,-45.898
1628114805.184,85.938,34.668,-41.504,52.246
1628114805.181,68.359,-36.621,-31.738,35.645
1628114805.185,-82.520,-63.477,-28.809,-52.246
1628114805.189,-83.496,-28.809,-36.133,-46.387
1628114805.193,56.641,-14.648,-29.785,29.297
1628114805.197,76.660,-30.273,-34.668,17.578
1628114805.201,-65.430,-15.137,-32.227,-71.289
1628114805.205,-128.418,-22.461,-23.438,-91.309
1628114805.208,1.953,-5.371,-35.645,-3.906
1628114805.212,105.957,11.230,-41.992,43.945
1628114805.216,-12.207,-28.809,-50.293,-31.250
1628114805.220,-131.836,-52.246,-42.480,-91.309
1628114805.224,-30.273,-64.453,-15.625,-21.973
1628114805.234,108.887,-43.945,-14.160,66.895
1628114805.238,42.480,-28.320,-31.738,18.066
1628114805.242,-113.281,-32.227,-39.062,-73.730
1628114805.246,-82.520,-26.855,-35.156,-49.805
1628114805.250,71.289,-16.602,-20.508,32.227
1628114805.254,73.730,5.371,-20.996,23.438
1628114805.258,-84.961,-18.066,-34.668,-75.684
1628114805.261,-126.953,-59.082,-37.109,-99.121
1628114805.265,28.320,-42.480,-34.668,-3.418
1628114805.269,97.168,-38.086,-31.738,30.273
1628114805.273,-36.133,-10.254,-35.156,-40.527
1628114805.277,-125.000,-29.785,-48.828,-78.613
1628114805.291,4.395,-62.988,-32.715,6.836
1628114805.295,124.023,-27.832,-20.020,73.242
1628114805.299,0.977,-15.625,-42.969,-14.160
1628114805.303,-141.602,-24.902,-34.180,-97.168
1628114805.307,-60.059,-24.414,-31.250,-43.457
1628114805.311,94.727,-15.137,-33.203,41.992
1628114805.315,42.480,-37.109,-28.809,-1.465
1628114805.318,-106.934,-19.531,-25.879,-84.473
1628114805.322,-83.008,-0.977,-18.555,-51.758
1628114805.326,70.801,-28.320,-21.484,36.133
1628114805.330,84.961,-31.250,-38.574,34.180
1628114805.334,-76.172,-38.086,-50.293,-57.129
1628114805.329,-126.465,-51.758,-38.574,-78.613
1628114805.333,20.996,-49.316,-26.367,8.789
1628114805.337,89.844,-57.617,-27.832,34.668
1628114805.341,-49.805,-44.922,-32.227,-53.223
1628114805.345,-148.926,-32.227,-39.062,-100.586
1628114805.349,-35.645,0.488,-31.250,-27.832
1628114805.353,79.590,-1.953,-22.461,28.320
1628114805.356,-7.812,-39.551,-14.160,-26.367
1628114805.360,-125.977,-31.738,-17.090,-81.055
1628114805.364,-75.684,-34.180,-41.016,-45.898
1628114805.368,66.895,11.230,-37.598,33.691
1628114805.372,64.453,6.836,-10.742,23.926
1628114805.368,-99.121,-33.691,-9.766,-76.172
1628114805.372,-119.629,-41.016,-30.762,-81.055
1628114805.376,34.180,-47.852,-37.598,13.672
1628114805.380,70.801,-37.598,-41.504,31.738
1628114805.384,-71.289,-48.340,-50.781,-52.734
1628114805.388,-143.555,-53.223,-36.133,-90.820
1628114805.392,-11.719,-40.039,-9.766,-10.254
1628114805.395,90.820,-8.301,4.395,39.062
1628114805.399,-36.133,9.277,-1.953,-42.969
1628114805.403,-159.668,-17.578,-25.391,-113.281
1628114805.407,-51.758,-30.273,-21.484,-39.551
1628114805.411,86.426,-40.527,-14.648,37.109
1628114805.441,-1.953,-50.293,-39.551,-35.645
1628114805.445,-150.879,-67.871,-53.711,-121.582
1628114805.449,-87.402,-68.848,-33.203,-63.477
1628114805.453,76.172,-32.227,-19.531,31.738
1628114805.457,53.223,-19.043,-28.809,1.465
1628114805.461,-119.629,18.066,-28.320,-97.656
1628114805.465,-128.418,9.766,-18.555,-90.332
1628114805.468,30.762,-46.387,-20.508,3.418
1628114805.472,77.637,-35.156,-37.109,24.902
1628114805.476,-59.082,-30.273,-35.156,-55.664
1628114805.480,-148.926,-41.016,-20.020,-99.609
1628114805.484,-26.855,-36.133,-34.180,-23.926
1628114805.479,77.148,-28.320,-41.504,28.809
1628114805.483,-31.250,-45.410,-25.879,-40.039
1628114805.487,-151.367,-63.477,-30.273,-105.469
1628114805.491,-66.406,-45.410,-23.926,-47.852
1628114805.495,84.473,-29.297,-10.254,41.016
1628114805.499,30.762,-32.715,-21.973,0.488
1628114805.503,-119.141,-35.645,-22.949,-89.844
1628114805.506,-111.816,-30.762,-25.879,-70.801
1628114805.510,35.156,-26.855,-34.180,16.113
1628114805.514,52.246,-18.066,-41.016,7.812
1628114805.518,-101.562,-20.020,-47.363,-81.055
1628114805.522,-124.023,-30.762,-31.738,-79.102
1628114805.535,24.414,2.930,-49.316,9.277
1628114805.539,85.449,3.418,-49.316,39.062
1628114805.543,-52.246,-55.664,-19.043,-46.875
1628114805.547,-154.785,-54.688,-30.273,-102.051
1628114805.551,-35.645,-55.176,-21.484,-22.461
1628114805.555,107.422,6.348,-2.930,52.734
1628114805.559,20.508,28.809,-8.789,-10.254
1628114805.562,-137.207,-44.434,-23.438,-104.980
1628114805.566,-77.148,-70.312,-41.992,-63.965
1628114805.570,61.523,-54.199,-51.270,15.625
1628114805.574,18.555,11.719,-30.762,-20.508
1628114805.578,-150.391,-3.906,-29.785,-117.188
1628114805.556,-139.160,-41.016,-43.457,-91.797
1628114805.560,44.434,-54.199,-40.039,26.855
1628114805.564,84.473,-39.062,-42.969,42.480
1628114805.568,-71.289,10.742,-22.949,-55.176
1628114805.572,-116.699,-10.742,1.465,-75.195
1628114805.576,27.344,-30.762,-4.395,13.672
1628114805.580,102.539,-31.250,-25.879,55.664
1628114805.583,-39.551,-30.273,-42.480,-36.621
1628114805.587,-160.645,-35.156,-37.109,-111.328
1628114805.591,-58.105,-36.133,-29.297,-41.016
1628114805.595,66.406,-25.391,-34.668,31.250
1628114805.599,-25.391,-50.781,-46.387,-29.297
1628114805.613,-170.898,-59.082,-51.270,-105.957
1628114805.617,-91.797,-44.434,-31.738,-45.410
1628114805.621,71.777,-48.828,-15.625,44.434
1628114805.625,37.598,-37.598,-11.719,12.207
1628114805.629,-125.977,-57.129,-13.184,-90.820
1628114805.633,-125.488,0.977,-24.902,-78.125
1628114805.637,37.598,30.762,-37.598,18.555
1628114805.640,79.102,-36.133,-46.387,19.531
1628114805.644,-70.312,-39.062,-41.992,-74.219
1628114805.648,-145.020,-43.457,-34.668,-111.816
1628114805.652,-20.508,-11.230,-27.344,-29.297
1628114805.656,68.848,-26.855,-23.926,17.578
1628114805.667,-62.500,-62.988,-59.082,-67.871
1628114805.671,-172.363,-39.062,-59.082,-127.930
1628114805.675,-52.246,-14.160,-29.785,-43.457
1628114805.679,94.727,-20.020,-19.531,45.410
1628114805.683,32.227,-38.086,-7.812,-2.930
1628114805.687,-117.676,-17.090,-15.137,-87.891
1628114805.691,-88.379,-37.109,-27.344,-57.617
1628114805.694,62.012,-32.227,-28.809,34.180
1628114805.698,54.199,-0.488,-36.133,17.090
1628114805.702,-101.562,-36.621,-41.016,-73.242
1628114805.706,-113.770,-61.035,-29.785,-73.242
1628114805.710,34.668,-61.035,-24.902,12.207
1628114805.705,83.496,-46.875,-32.227,31.738
1628114805.709,-61.523,-45.410,-29.297,-58.594
1628114805.713,-139.648,-39.062,-50.293,-101.562
1628114805.717,-6.348,-20.996,-65.430,-13.672
1628114805.721,104.980,-38.086,-23.438,58.594
1628114805.725,-1.465,21.484,-6.836,-17.578
1628114805.729,-146.484,32.227,-20.508,-102.051
1628114805.732,-79.590,-40.527,-27.344,-47.363
1628114805.736,76.660,-46.875,-27.832,46.387
1628114805.740,18.555,-55.664,-19.531,-7.812
1628114805.744,-144.531,9.277,-33.203,-115.234
1628114805.748,-111.328,6.836,-36.621,-77.148
1628114805.761,41.016,-48.828,-20.508,20.020
1628114805.765,44.434,-56.152,-24.414,0.977
1628114805.769,-127.441,-73.242,-44.434,-112.305
1628114805.773,-158.203,-64.941,-61.523,-109.375
1628114805.777,19.043,-43.945,-43.457,9.766
1628114805.781,86.426,-48.340,-17.090,38.086
1628114805.785,-72.754,-89.355,-13.184,-70.801
1628114805.788,-176.758,-58.105,-29.785,-127.441
1628114805.792,-48.828,-3.906,-41.992,-34.180
1628114805.796,86.914,-42.480,-29.297,41.992
1628114805.800,-11.230,-54.688,-22.949,-29.297
1628114805.804,-140.137,-27.832,-23.438,-99.609
1628114805.817,-62.500,19.531,-29.297,-37.109
1628114805.821,89.355,2.930,-21.484,53.223
1628114805.825,40.039,-51.758,-20.020,10.742
1628114805.829,-145.996,-50.781,-25.391,-105.469
1628114805.833,-142.090,-55.176,-15.625,-95.703
1628114805.837,19.531,-22.949,-19.531,8.301
1628114805.841,38.574,-59.570,-45.898,11.230
1628114805.844,-110.840,-92.773,-46.387,-85.938
1628114805.848,-168.457,-37.109,-53.223,-110.840
1628114805.852,-31.738,-17.578,-72.266,-19.531
1628114805.856,75.684,57.617,-55.664,39.551
1628114805.860,-40.039,38.574,-10.254,-40.527
1628114805.854,-151.855,-40.039,5.371,-97.656
1628114805.858,-42.969,-40.039,-18.555,-25.391
1628114805.862,74.219,-38.574,-33.691,37.109
1628114805.866,-20.020,-50.293,-33.203,-32.715
1628114805.870,-164.551,-68.848,-40.527,-121.094
1628114805.874,-102.051,-66.406,-43.945,-72.754
1628114805.878,63.965,-57.129,-36.621,28.320
1628114805.881,35.156,-58.594,-43.945,-0.977
1628114805.885,-137.207,-53.223,-42.969,-104.980
1628114805.889,-136.719,-24.414,-28.320,-86.426
1628114805.893,30.273,-16.602,-19.531,20.020
1628114805.897,76.660,-32.227,-26.367,31.250
1628114805.891,-74.219,5.859,-38.574,-73.730
1628114805.895,-155.273,-4.395,-36.133,-115.723
1628114805.899,-30.273,-53.711,-32.227,-33.691
1628114805.903,64.453,-43.457,-41.504,9.277
1628114805.907,-33.203,-58.105,-28.320,-60.059
1628114805.911,-146.484,-23.926,-39.062,-113.281
1628114805.915,-53.711,-20.996,-67.871,-42.480
1628114805.918,98.145,-69.336,-41.992,50.293
1628114805.922,36.133,-43.457,-8.789,5.371
1628114805.926,-122.559,-22.949,-4.395,-91.309
1628114805.930,-97.656,6.348,-18.555,-72.266
1628114805.934,57.617,8.789,-16.113,19.531
1628114805.933,61.035,-13.184,-14.160,20.996
1628114805.937,-100.586,-34.668,-28.320,-70.801
1628114805.941,-132.812,-26.367,-37.598,-80.078
1628114805.945,11.719,5.859,-41.016,-3.906
1628114805.949,80.078,-36.133,-31.250,20.508
1628114805.953,-43.457,-38.574,-22.461,-48.340
1628114805.957,-136.719,-53.223,-21.484,-89.355
1628114805.960,-32.227,-35.645,-42.969,-16.602
1628114805.964,72.754,2.930,-68.359,36.133
1628114805.968,-17.578,-48.340,-43.945,-28.320
1628114805.972,-126.465,-55.176,-0.977,-81.543
1628114805.976,-48.828,-38.574,7.324,-20.508
1628114805.984,80.078,-2.930,0.488,52.734
1628114805.988,14.160,-3.418,-15.137,-2.930
1628114805.992,-147.949,-40.039,-39.551,-99.609
1628114805.996,-112.793,-22.949,-43.945,-67.871
1628114806.000,49.805,-33.203,-34.180,28.809
1628114806.004,50.293,-33.203,-21.973,22.949
1628114806.008,-102.051,-20.020,-24.414,-72.754
1628114806.011,-133.301,-33.203,-30.273,-82.520
1628114806.015,18.066,-38.086,-14.648,17.090
1628114806.019,94.238,-46.875,-7.324,50.781
1628114806.023,-60.547,-37.109,-31.738,-58.594
1628114806.027,-155.762,-32.227,-37.109,-111.328
1628114806.041,-21.973,-15.625,-10.742,-12.207
1628114806.045,86.426,-27.832,1.953,51.270
1628114806.049,-26.367,-33.203,-15.137,-28.809
1628114806.053,-174.805,-17.090,-24.902,-114.746
1628114806.057,-94.727,-50.781,-32.227,-57.617
1628114806.061,68.359,-56.152,-44.922,37.598
1628114806.065,34.668,-62.500,-41.992,9.277
1628114806.068,-120.605,-3.418,-41.992,-85.449
1628114806.072,-107.910,61.035,-16.602,-72.266
1628114806.076,63.965,-8.301,-2.441,31.738
1628114806.080,94.238,-54.688,-20.508,39.551
1628114806.084,-68.359,-48.828,-19.043,-62.988
1628114806.079,-123.535,-22.949,-2.441,-77.637
1628114806.083,5.859,-21.484,-11.230,7.324
1628114806.087,81.055,-35.156,-34.180,35.645
1628114806.091,-41.992,-38.086,-36.621,-40.527
1628114806.095,-138.184,-52.246,-19.531,-87.402
1628114806.099,-37.598,-17.090,-31.738,-20.020
1628114806.103,91.797,-18.555,-51.758,46.875
1628114806.106,27.344,-50.293,-34.180,-2.441
1628114806.110,-108.398,-18.555,-3.418,-73.730
1628114806.114,-77.148,-33.203,-10.742,-43.457
1628114806.118,61.035,-32.715,-46.387,34.180
1628114806.122,62.012,-22.949,-36.133,24.902
1628114806.119,-95.703,-32.227,-16.113,-73.242
1628114806.123,-124.512,-35.645,-21.973,-81.543
1628114806.127,34.180,-41.992,-30.273,17.578
1628114806.131,84.961,-53.223,-30.273,38.086
1628114806.135,-73.730,-47.852,-27.344,-63.965
1628114806.139,-150.879,-36.621,-21.973,-98.145
1628114806.143,-1.953,-54.688,-15.137,3.906
1628114806.146,104.004,-30.273,-21.973,60.059
1628114806.150,-33.203,5.371,-51.758,-37.598
1628114806.154,-160.156,-20.996,-50.293,-106.934
1628114806.158,-54.199,-24.902,-31.250,-35.645
1628114806.162,102.051,-31.738,-17.090,51.270
1628114806.172,26.855,-35.156,-27.832,-0.488
1628114806.176,-132.812,-26.367,-34.180,-89.355
1628114806.180,-100.586,-30.273,-18.555,-56.152
1628114806.184,55.176,-30.273,-23.438,34.668
1628114806.188,69.824,-47.852,-26.367,27.832
1628114806.192,-98.633,6.836,-28.320,-78.125
1628114806.196,-136.230,24.414,-36.621,-87.891
1628114806.199,14.648,-41.016,-46.875,7.324
1628114806.203,66.895,-48.828,-49.805,27.832
1628114806.207,-64.941,-40.039,-40.039,-57.129
1628114806.211,-155.273,-35.156,-40.039,-105.957
1628114806.215,-29.297,-42.969,-26.855,-31.250
1628114806.213,97.168,-39.551,-22.461,36.621
1628114806.217,-16.113,-40.039,-39.551,-42.480
1628114806.221,-149.414,-42.480,-34.180,-122.559
1628114806.225,-67.871,-32.715,-27.344,-57.129
1628114806.229,83.496,-34.668,-15.625,32.715
1628114806.233,35.156,-38.086,-26.855,-9.766
1628114806.237,-133.301,-48.828,-51.758,-111.328
1628114806.240,-115.723,-30.273,-40.039,-86.914
1628114806.244,43.945,-7.812,-30.273,18.555
1628114806.248,50.781,-38.086,-23.926,13.184
1628114806.252,-103.516,-43.457,-34.180,-85.938
1628114806.256,-150.391,-54.199,-54.199,-101.562
1628114806.269,-0.977,-46.387,-42.969,1.953
1628114806.273,99.609,-25.391,-4.883,51.758
1628114806.277,-33.691,-45.898,-4.395,-44.434
1628114806.281,-162.598,-65.430,-30.762,-114.746
1628114806.285,-37.109,-57.617,-20.020,-26.367
1628114806.289,95.703,-22.461,-31.250,48.340
1628114806.293,8.301,-6.348,-43.945,-14.648
1628114806.296,-114.746,-29.297,-26.855,-84.961
1628114806.300,-74.219,-46.387,-25.879,-53.223
1628114806.304,58.594,-37.109,-20.508,21.484
1628114806.308,27.832,-22.461,-36.621,-9.277
1628114806.312,-125.488,-46.387,-68.848,-102.051
1628114806.325,-119.629,-47.852,-56.152,-89.355
1628114806.329,30.762,-42.480,-23.438,2.441
1628114806.333,87.891,-48.340,-3.906,32.227
1628114806.337,-60.059,-39.551,-16.113,-64.941
1628114806.341,-151.855,-44.922,-27.344,-110.352
1628114806.345,-4.395,-40.039,-27.832,-8.789
1628114806.349,84.961,-43.457,-24.902,37.109
1628114806.352,-50.293,-28.809,-20.508,-49.316
1628114806.356,-151.367,-0.488,-20.508,-96.191
1628114806.360,-40.527,-15.137,-19.531,-16.602
1628114806.364,89.844,-25.391,-41.504,56.641
1628114806.368,7.812,-28.320,-53.711,-13.672
1628114806.378,-145.020,-48.340,-38.086,-108.398
1628114806.382,-92.285,-65.430,-19.531,-56.641
1628114806.386,79.102,-56.641,-3.906,46.875
1628114806.390,63.965,-44.922,-20.020,24.414
1628114806.394,-109.375,-43.945,-45.898,-77.148
1628114806.398,-120.117,-23.926,-36.133,-69.336
1628114806.402,39.551,-14.648,-17.090,28.320
1628114806.405,86.426,-26.367,-23.438,40.039
1628114806.409,-50.293,-19.531,-25.879,-45.410
1628114806.413,-147.949,-28.320,-26.855,-97.656
1628114806.417,-25.879,-62.500,-41.992,-23.438
1628114806.421,103.516,-59.082,-28.809,55.176
1628114806.416,-13.672,-45.898,-26.367,-26.855
1628114806.420,-166.016,-50.781,-33.691,-114.258
1628114806.424,-72.754,-39.551,-25.391,-40.527
1628114806.428,75.684,-30.762,-24.902,39.062
1628114806.432,11.719,-26.367,-36.133,-16.113
1628114806.436,-124.512,-22.461,-41.504,-87.402
1628114806.440,-81.543,-18.555,-28.320,-38.574
1628114806.443,61.523,-15.137,-25.391,48.340
1628114806.447,57.617,-24.902,-40.527,22.949
1628114806.451,-111.816,-40.039,-37.598,-88.379
1628114806.455,-151.367,-39.551,-31.738,-104.492
1628114806.459,6.348,-32.227,-29.785,0.488
1628114806.453,82.031,-41.992,-22.949,41.992
1628114806.457,-45.410,-50.781,-26.855,-41.504
1628114806.461,-137.695,-28.320,-31.250,-90.332
1628114806.465,-17.090,-7.324,-32.715,-17.578
1628114806.469,108.398,-17.578,-16.113,52.734
1628114806.473,-7.812,-39.062,-38.086,-21.973
1628114806.477,-155.762,-30.762,-56.641,-110.352
1628114806.480,-68.848,-22.461,-29.297,-41.992
1628114806.484,70.801,-29.785,-31.738,36.621
1628114806.488,26.855,-21.973,-30.762,-4.395
1628114806.492,-115.234,-17.578,-37.109,-79.102
1628114806.496,-116.211,-26.855,-57.617,-74.707
1628114806.510,40.039,-24.902,-56.152,12.695
1628114806.514,88.379,-3.906,-38.086,33.203
1628114806.518,-74.219,-14.648,-24.414,-63.965
1628114806.522,-145.508,-36.621,-18.066,-101.562
1628114806.526,14.160,-18.066,-10.254,-1.953
1628114806.530,92.285,-31.738,-20.996,36.133
1628114806.534,-53.223,-48.340,-21.973,-57.129
1628114806.537,-151.367,-37.109,-19.043,-103.516
1628114806.541,-33.203,-21.973,-22.949,-22.461
1628114806.545,97.168,-4.883,-30.273,47.363
1628114806.549,5.371,-15.137,-40.527,-15.137
1628114806.553,-144.531,-30.762,-25.391,-101.074
1628114806.567,-82.031,-21.973,-21.973,-56.641
1628114806.571,79.102,-16.113,-26.367,40.039
1628114806.575,57.129,-19.531,-28.809,18.066
1628114806.579,-100.098,-33.691,-31.738,-77.148
1628114806.583,-117.188,-57.129,-35.645,-81.543
1628114806.587,28.809,-11.719,-43.945,2.930
1628114806.591,68.359,12.207,-40.527,20.508
1628114806.594,-86.426,-33.691,-40.039,-71.289
1628114806.598,-142.090,-24.414,-30.273,-89.844
1628114806.602,-1.953,-6.836,-20.508,0.000
1628114806.606,77.148,3.906,-34.668,30.273
1628114806.610,-36.133,4.395,-20.996,-42.969
1628114806.604,-139.160,-17.578,-6.348,-91.797
1628114806.608,-52.246,-41.504,-21.484,-29.785
1628114806.612,81.055,-20.508,-27.832,40.527
1628114806.616,-1.465,-19.531,-39.062,-28.320
1628114806.620,-161.133,-51.270,-46.387,-117.676
1628114806.624,-108.398,-48.828,-53.711,-73.242
1628114806.628,69.336,-33.691,-38.574,33.203
1628114806.631,75.195,-16.113,-14.160,28.320
1628114806.635,-92.773,-36.133,-28.320,-76.660
1628114806.639,-120.605,-35.156,-38.086,-90.820
1628114806.643,25.879,-18.555,-25.879,-4.883
1628114806.647,68.848,-52.734,-37.109,11.230
1628114806.641,-70.801,3.418,-44.434,-72.754
1628114806.645,-164.551,36.133,-40.039,-119.629
1628114806.649,-34.180,-26.367,-34.180,-31.738
1628114806.653,93.750,-23.926,-32.227,41.992
1628114806.657,-25.391,-50.781,-39.551,-34.668
1628114806.661,-147.461,-9.766,-29.297,-101.074
1628114806.665,-50.293,8.789,-19.043,-33.203
1628114806.668,88.867,-44.922,-15.625,52.734
1628114806.672,39.551,-33.203,-16.113,14.160
1628114806.676,-121.582,-40.527,-30.273,-83.984
1628114806.680,-115.234,-54.688,-62.500,-70.312
1628114806.684,57.617,-48.340,-42.969,37.598
1628114806.682,86.914,-41.504,-14.648,49.805
1628114806.686,-99.609,-57.129,-40.039,-74.219
1628114806.690,-151.367,-71.777,-50.293,-101.074
1628114806.694,18.555,-47.363,-42.480,10.742
1628114806.698,96.680,-12.695,-35.645,50.293
1628114806.702,-28.320,-11.719,-16.113,-22.461
1628114806.706,-120.605,-22.949,-15.137,-67.383
1628114806.709,-23.926,-25.391,-45.898,-13.672
1628114806.713,88.867,-34.668,-55.664,42.969
1628114806.717,6.836,-40.527,-19.531,-8.301
1628114806.721,-128.906,-31.738,-10.742,-89.355
1628114806.725,-59.570,-22.949,-22.461,-44.922
1628114806.734,86.914,-47.363,-21.973,47.363
1628114806.738,26.855,-71.777,-34.180,3.418
1628114806.742,-131.348,-25.879,-40.527,-86.426
1628114806.746,-111.328,4.883,-36.621,-62.988
1628114806.750,34.668,-24.414,-34.180,18.555
1628114806.754,51.270,-25.391,-37.109,13.672
1628114806.758,-97.656,-21.973,-48.340,-79.590
1628114806.761,-127.930,-35.645,-33.203,-78.125
1628114806.765,27.344,-27.344,-12.695,27.832
1628114806.769,96.191,-20.996,-12.207,56.152
1628114806.773,-35.156,-40.527,-14.648,-40.527
1628114806.777,-151.367,-41.992,-34.180,-105.469
1628114806.791,-46.875,-21.973,-34.180,-20.508
1628114806.795,90.820,-20.020,-22.949,57.617
1628114806.799,1.953,-42.969,-27.832,-12.695
1628114806.803,-145.020,-51.270,-46.387,-101.562
1628114806.807,-83.008,-35.156,-49.805,-49.316
1628114806.811,70.801,-37.109,-38.574,42.969
1628114806.815,49.805,-31.738,-32.227,15.625
1628114806.818,-109.375,-19.531,-29.785,-75.684
1628114806.822,-127.930,-16.602,-39.062,-77.148
1628114806.826,34.180,-29.297,-36.621,18.555
1628114806.830,81.055,-33.203,-23.926,34.668
1628114806.834,-73.242,-18.555,-14.160,-61.523
1628114806.828,-124.512,-8.301,-2.930,-71.289
1628114806.832,9.277,-23.438,-12.695,13.184
1628114806.836,77.637,-29.785,-32.227,39.551
1628114806.840,-50.293,-28.809,-35.645,-51.270
1628114806.844,-159.180,-38.574,-23.438,-115.723
1628114806.848,-48.340,-41.016,-23.438,-34.668
1628114806.852,77.148,-43.945,-38.574,38.574
1628114806.855,7.324,-43.457,-42.969,-2.441
1628114806.859,-139.160,-38.574,-27.832,-82.031
1628114806.863,-115.723,-38.086,-30.762,-62.988
1628114806.867,34.180,-38.574,-35.645,16.113
1628114806.871,38.574,-52.734,-15.137,5.371
1628114806.869,-113.770,-54.688,-18.555,-82.031
1628114806.873,-141.113,-28.809,-30.762,-92.285
1628114806.877,20.508,-14.160,-14.160,5.859
1628114806.881,76.172,-32.227,-18.066,23.438
1628114806.885,-76.172,-36.133,-46.875,-81.543
1628114806.889,-149.414,-4.883,-33.203,-108.398
1628114806.893,-5.371,-7.324,2.441,-4.883
1628114806.896,80.566,-21.973,-9.766,37.109
1628114806.900,-56.152,-13.672,-46.875,-62.500
1628114806.904,-182.129,-34.668,-40.527,-133.301
1628114806.908,-83.008,-41.504,-8.789,-63.477
1628114806.912,70.312,-33.691,-15.137,27.344
1628114806.923,21.973,-21.973,-35.645,-5.859
1628114806.927,-127.441,-41.504,-29.785,-101.562
1628114806.931,-105.957,-65.430,-27.344,-82.031
1628114806.935,51.270,-22.949,-37.109,17.090
1628114806.939,61.035,-2.930,-36.621,4.883
1628114806.943,-97.168,-4.883,-32.227,-90.820
1628114806.947,-135.254,-12.695,-28.320,-101.562
1628114806.950,19.043,-28.320,-19.531,-5.371
1628114806.954,102.539,-23.438,-16.113,51.758
1628114806.958,-43.457,-34.668,-18.555,-45.898
1628114806.962,-158.691,-46.387,-43.945,-120.117
1628114806.966,-42.969,-42.480,-39.551,-36.621
1628114806.979,87.402,-23.438,-13.184,41.016
1628114806.983,-2.441,-17.090,-18.555,-18.066
1628114806.987,-140.137,-48.340,-18.555,-97.656
1628114806.991,-86.426,-64.941,-20.996,-58.105
1628114806.995,53.711,-51.270,-35.156,23.438
1628114806.999,24.414,-53.711,-39.062,-12.207
1628114807.003,-137.207,-57.129,-34.668,-110.352
1628114807.006,-136.719,-30.762,-34.668,-93.750
1628114807.010,43.945,-11.719,-15.137,19.531
1628114807.014,81.055,-25.391,-21.484,30.273
1628114807.018,-75.684,-38.574,-35.156,-71.777
1628114807.022,-130.371,-39.062,-38.086,-92.285
1628114807.035,24.414,-40.039,-29.297,13.184
1628114807.039,119.629,-38.086,-13.184,69.336
1628114807.043,-32.715,-32.715,-17.578,-39.062
1628114807.047,-162.109,-34.180,-29.785,-122.070
1628114807.051,-55.664,-29.297,-39.062,-46.875
1628114807.055,76.660,2.930,-35.645,29.785
1628114807.059,9.277,-3.418,-18.555,-14.648
1628114807.062,-117.676,-37.598,-9.766,-79.590
1628114807.066,-83.496,-41.504,-27.344,-51.758
1628114807.070,60.547,-35.645,-42.969,27.832
1628114807.074,48.828,6.836,-48.340,8.301
1628114807.078,-110.840,-1.465,-42.969,-87.402
1628114807.091,-119.141,-31.250,-21.484,-78.125
1628114807.095,30.762,-39.551,-13.672,11.719
1628114807.099,79.102,-55.176,-18.555,31.738
1628114807.103,-53.223,-40.527,-20.508,-51.758
1628114807.107,-139.648,-32.715,-30.762,-101.074
1628114807.111,-7.812,-15.625,-32.227,-10.254
1628114807.115,98.145,-30.273,-36.621,48.340
1628114807.118,-45.898,-47.363,-60.059,-56.152
1628114807.122,-174.316,-32.715,-57.617,-127.441
1628114807.126,-64.453,-33.691,-37.598,-51.270
1628114807.130,90.820,-29.297,-27.832,44.434
1628114807.134,34.668,-57.129,-24.414,-0.488
1628114807.128,-117.676,-39.551,-31.250,-92.285
1628114807.132,-86.426,3.906,-27.832,-62.500
1628114807.136,66.895,-14.160,-17.578,30.762
1628114807.140,57.617,-19.043,-22.949,14.648
1628114807.144,-116.211,-23.926,-41.992,-93.262
1628114807.148,-149.902,-27.832,-45.410,-102.051
1628114807.152,10.254,-34.668,-44.434,-2.930
1628114807.155,86.914,-41.992,-33.203,39.062
1628114807.159,-59.570,-57.129,-27.832,-49.316
1628114807.163,-154.297,-52.246,-33.691,-98.145
1628114807.167,-35.645,-53.223,-35.156,-16.602
1628114807.171,83.008,-51.758,-48.828,49.805
1628114807.167,-5.859,-23.438,-46.387,-10.742
1628114807.171,-154.297,-34.180,-35.645,-100.586
1628114807.175,-84.473,-30.273,-35.156,-62.988
1628114807.179,63.477,11.230,-27.832,17.578
1628114807.183,29.785,-17.578,-19.043,-12.207
1628114807.187,-109.863,-49.316,-29.785,-81.543
1628114807.191,-100.098,-51.270,-45.410,-50.293
1628114807.194,37.598,-9.766,-38.086,21.973
1628114807.198,71.777,48.340,-21.484,28.320
1628114807.202,-89.355,-22.949,-37.598,-66.406
1628114807.206,-161.133,-56.152,-56.152,-103.027
1628114807.210,-14.648,-54.199,-46.387,-7.812
1628114807.203,72.266,21.484,-25.879,39.551
1628114807.207,-56.641,69.336,-34.180,-41.992
1628114807.211,-161.133,-15.137,-41.504,-96.680
1628114807.215,-36.621,-56.152,-30.273,-19.531
1628114807.219,103.516,-83.984,-27.344,61.523
1628114807.223,14.160,23.926,-46.875,-0.977
1628114807.227,-124.512,58.594,-35.156,-80.566
1628114807.230,-80.078,-39.551,-5.859,-40.527
1628114807.234,52.734,-51.758,-25.879,35.645
1628114807.238,22.461,-59.082,-43.457,-1.953
1628114807.242,-118.164,19.043,-29.297,-88.867
1628114807.246,-110.352,7.324,-21.973,-65.918
1628114807.278,38.574,-58.105,-17.578,24.414
1628114807.282,76.660,-53.711,-21.973,36.621
1628114807.286,-70.801,-28.320,-36.621,-50.293
1628114807.290,-129.883,1.465,-36.621,-79.102
1628114807.294,12.695,-40.527,-20.996,10.254
1628114807.298,96.191,-63.477,-22.949,55.664
1628114807.302,-34.180,-74.707,-32.227,-36.133
1628114807.305,-127.930,-34.180,-33.203,-84.961
1628114807.309,-19.043,22.949,-43.457,-9.277
1628114807.313,101.074,-14.648,-41.016,55.664
1628114807.317,10.742,-37.598,-21.973,-4.883
1628114807.321,-148.926,-47.852,-12.207,-101.074
1628114807.297,-93.750,-45.410,-17.578,-57.617
1628114807.301,69.336,-36.621,-13.184,43.945
1628114807.305,63.477,-42.969,-8.301,36.133
1628114807.309,-109.863,-49.316,-21.484,-67.871
1628114807.313,-157.227,-45.898,-30.762,-94.238
1628114807.317,0.000,22.949,-34.180,3.418
1628114807.321,76.660,22.949,-22.949,40.527
1628114807.324,-73.730,-56.641,-17.090,-60.059
1628114807.328,-142.090,-39.062,-13.672,-86.426
1628114807.332,-5.371,-12.695,-7.324,5.859
1628114807.336,91.797,-28.320,-19.531,47.363
1628114807.340,-18.066,-77.637,-32.715,-40.039
1628114807.338,-149.902,-73.242,-40.527,-110.840
1628114807.342,-57.617,-35.645,-29.785,-39.551
1628114807.346,80.078,-9.277,-18.066,35.645
1628114807.350,11.719,43.945,-33.203,-22.461
1628114807.354,-155.273,3.418,-47.852,-123.047
1628114807.358,-126.953,-39.062,-44.922,-89.355
1628114807.362,47.363,-56.641,-32.715,13.672
1628114807.365,66.895,-24.902,-25.879,15.625
1628114807.369,-85.449,28.320,-26.855,-72.754
1628114807.373,-130.859,-33.203,-24.902,-89.844
1628114807.377,11.719,-42.480,-34.180,0.977
1628114807.381,83.496,-46.875,-36.133,34.668
1628114807.391,-43.945,-29.785,-40.039,-48.828
1628114807.395,-130.371,-12.207,-38.086,-92.773
1628114807.399,-21.973,-45.898,-30.762,-19.043
1628114807.403,78.613,-54.199,-34.668,31.738
1628114807.407,-27.832,-77.637,-28.809,-40.039
1628114807.411,-157.227,7.812,-29.785,-119.141
1628114807.415,-70.312,43.945,-28.809,-50.781
1628114807.418,73.242,-40.039,-33.691,41.016
1628114807.422,20.996,-33.691,-35.645,-9.277
1628114807.426,-120.117,-29.297,-15.625,-95.215
1628114807.430,-103.027,5.371,-16.113,-66.895
1628114807.434,58.105,-8.301,-19.043,34.180
1628114807.433,85.938,-37.109,-25.879,37.598
1628114807.437,-83.496,-41.016,-42.969,-70.312
1628114807.441,-137.207,-38.086,-46.387,-86.914
1628114807.445,13.184,-16.602,-36.621,15.137
1628114807.449,83.496,-45.898,-23.438,43.945
1628114807.453,-50.781,-47.852,-19.043,-46.387
1628114807.457,-150.391,-63.965,-17.090,-98.633
1628114807.460,-46.875,-30.762,-32.715,-21.973
1628114807.464,82.031,24.902,-51.270,49.805
1628114807.468,7.324,-20.508,-40.527,-12.207
1628114807.472,-132.324,-29.297,-18.066,-88.867
1628114807.476,-69.824,-28.320,-1.465,-31.738
1628114807.485,92.285,-4.395,-13.184,62.500
1628114807.489,68.359,-16.113,-25.391,35.645
1628114807.493,-109.863,-65.430,-18.066,-75.684
1628114807.497,-151.855,-64.453,-36.133,-98.633
1628114807.501,5.371,-62.988,-23.438,-1.953
1628114807.505,73.730,3.906,-15.137,25.879
1628114807.509,-88.867,-0.488,-46.875,-87.402
1628114807.512,-176.758,-71.777,-49.316,-125.000
1628114807.516,-20.508,-51.270,-28.320,-16.113
1628114807.520,88.867,-50.293,-21.973,40.039
1628114807.524,-31.250,-14.160,-38.574,-36.621
1628114807.528,-126.465,-0.977,-29.297,-74.219
1628114807.541,-32.715,-24.902,-26.367,-6.348
1628114807.545,83.496,-34.668,-25.879,47.363
1628114807.549,11.719,-20.996,-14.160,-9.277
1628114807.553,-162.109,-11.230,-35.156,-116.699
1628114807.557,-132.324,-52.246,-42.969,-89.844
1628114807.561,41.504,-60.059,-39.062,16.602
1628114807.565,42.480,-80.078,-52.246,6.348
1628114807.568,-116.699,-61.035,-52.246,-94.727
1628114807.572,-137.695,2.930,-42.480,-101.074
1628114807.576,20.020,-9.277,-35.156,7.324
1628114807.580,84.961,-27.344,-19.043,41.504
1628114807.584,-63.477,-56.641,-9.766,-57.617
1628114807.579,-146.484,-38.574,-22.461,-97.656
1628114807.583,-20.508,-5.859,-22.461,-21.484
1628114807.587,83.496,-29.785,-19.531,24.414
1628114807.591,-14.160,-45.410,-37.109,-39.062
1628114807.595,-136.719,-56.152,-43.945,-101.562
1628114807.599,-56.641,13.672,-46.387,-43.457
1628114807.603,77.148,35.645,-46.387,32.227
1628114807.606,29.297,-52.246,-43.457,-2.930
1628114807.610,-130.371,-78.125,-48.828,-101.562
1628114807.614,-96.191,-55.664,-23.926,-70.312
1628114807.618,67.871,10.254,-11.719,32.715
1628114807.622,60.059,-0.977,-30.762,16.602
1628114807.619,-101.562,-47.363,-44.922,-82.520
1628114807.623,-136.719,-57.129,-41.992,-87.891
1628114807.627,29.297,-21.973,-19.531,17.578
1628114807.631,92.285,3.906,-23.438,41.992
1628114807.635,-63.477,-28.809,-36.133,-58.594
1628114807.639,-155.762,-57.617,-26.367,-104.004
1628114807.643,-30.762,-75.195,-24.902,-17.090
1628114807.646,92.285,7.324,-28.320,52.734
1628114807.650,-17.090,61.035,-32.715,-25.391
1628114807.654,-152.832,-19.531,-24.902,-104.004
1628114807.658,-86.426,-56.152,-26.855,-56.641
1628114807.662,55.664,-79.102,-34.180,24.902
1628114807.673,38.086,-11.230,-43.457,1.465
1628114807.677,-120.117,18.555,-50.781,-89.355
1628114807.681,-120.605,-58.594,-31.250,-73.730
1628114807.685,63.965,-28.320,-5.859,39.551
1628114807.689,99.121,-49.316,-9.766,56.152
1628114807.693,-83.008,34.668,-31.250,-68.848
1628114807.697,-137.695,66.895,-35.645,-97.656
1628114807.700,11.719,-58.105,-25.391,3.418
1628114807.704,83.008,-48.828,-29.785,35.156
1628114807.708,-53.711,-69.336,-55.664,-50.781
1628114807.712,-147.461,-81.543,-49.805,-93.262
1628114807.716,-47.852,-56.641,-28.809,-31.250
1628114807.729,71.777,-33.691,-23.926,29.785
1628114807.733,-1.465,-43.457,-27.832,-28.320
1628114807.737,-138.184,-32.715,-30.762,-104.492
1628114807.741,-87.891,30.273,-23.926,-59.570
1628114807.745,62.500,-8.789,-20.020,30.762
1628114807.749,56.152,-53.223,-22.949,21.484
1628114807.753,-107.422,-88.867,-31.250,-82.520
1628114807.756,-127.930,-41.992,-31.250,-89.844
1628114807.760,26.855,43.457,-31.250,9.766
1628114807.764,62.500,-38.086,-47.363,17.578
1628114807.768,-67.383,-53.711,-39.551,-65.430
1628114807.772,-142.090,-27.344,-29.297,-99.121
1628114807.785,-24.414,-25.391,-36.133,-22.461
1628114807.789,77.148,-35.156,-27.832,28.809
1628114807.793,-32.227,-39.062,-29.297,-50.781
1628114807.797,-135.742,-29.297,-40.527,-105.469
1628114807.801,-32.227,-40.527,-38.574,-23.926
1628114807.805,100.098,11.719,-37.109,50.293
1628114807.809,12.207,-4.395,-35.645,-21.973
1628114807.812,-139.160,-67.383,-22.461,-109.375
1628114807.816,-85.938,-52.734,-11.719,-63.965
1628114807.820,73.730,-48.340,-11.230,39.551
1628114807.824,68.848,36.133,-43.457,27.344
1628114807.828,-101.562,17.090,-55.176,-84.473
1628114807.822,-125.488,-46.875,-40.039,-86.426
1628114807.826,44.434,-30.762,-36.133,22.461
1628114807.830,123.047,-50.781,-12.695,64.941
1628114807.834,-12.695,-45.410,12.207,-19.531
1628114807.838,-137.207,-42.969,-24.414,-89.355
1628114807.842,-30.762,-46.875,-33.691,-22.949
1628114807.846,78.125,-54.199,-25.879,30.273
1628114807.849,-33.691,-31.250,-39.062,-45.898
1628114807.853,-146.484,-10.254,-32.715,-105.469
1628114807.857,-66.895,-34.668,-28.320,-40.039
1628114807.861,69.824,-39.551,-24.902,34.180
1628114807.865,21.484,-65.918,-32.715,-8.301
1628114807.860,-145.996,-13.672,-57.129,-106.445
1628114807.864,-115.234,16.602,-40.527,-73.242
1628114807.868,46.875,-69.336,-22.461,29.297
1628114807.872,60.547,-58.105,-33.691,23.438
1628114807.876,-84.961,-51.758,-27.832,-70.801
1628114807.880,-138.184,13.672,-30.273,-98.145
1628114807.884,12.207,28.809,-17.578,0.488
1628114807.887,92.285,-41.992,2.930,41.992
1628114807.891,-50.293,-38.574,-19.531,-46.875
1628114807.895,-159.668,-52.734,-41.016,-107.910
1628114807.899,-45.410,8.789,-44.922,-32.715
1628114807.903,81.055,5.371,-40.527,45.410
1628114807.901,-18.555,-62.988,-29.785,-29.785
1628114807.905,-154.785,-83.496,-20.020,-113.281
1628114807.909,-87.402,-56.152,-20.508,-59.570
1628114807.913,70.801,2.441,-24.902,30.273
1628114807.917,50.293,-34.668,-15.137,9.277
1628114807.921,-121.094,-62.012,-29.785,-90.820
1628114807.925,-142.090,-96.680,-41.992,-96.680
1628114807.928,18.555,-30.762,-28.809,-0.977
1628114807.932,63.477,64.941,-27.344,13.672
1628114807.936,-92.285,-4.883,-29.785,-84.473
1628114807.940,-149.414,-52.246,-30.273,-100.098
1628114807.944,-15.137,-84.961,-38.086,-11.230
1628114807.954,80.566,-46.875,-38.086,36.621
1628114807.958,-20.508,-11.719,-19.043,-28.809
1628114807.962,-146.973,-41.992,-13.184,-99.121
1628114807.966,-78.613,-35.156,-22.949,-48.828
1628114807.970,51.758,-60.547,-19.043,26.855
1628114807.974,-17.578,-1.465,-27.344,-26.367
1628114807.978,-160.645,9.766,-35.645,-110.840
1628114807.981,-106.445,-65.430,-34.180,-64.941
1628114807.985,61.523,-56.152,-41.016,41.016
1628114807.989,50.293,-64.453,-49.316,25.391
1628114807.993,-118.652,-4.883,-48.828,-91.797
1628114807.997,-126.465,9.277,-19.043,-95.215
1628114808.011,43.945,-29.785,-2.930,12.207
1628114808.015,81.543,-47.852,-26.367,19.531
1628114808.019,-85.938,-33.691,-43.457,-95.703
1628114808.023,-158.691,10.742,-27.832,-129.883
1628114808.027,-19.531,-32.227,-9.277,-28.809
1628114808.031,111.328,-50.781,0.977,52.246
1628114808.035,-7.324,-82.031,-20.020,-28.320
1628114808.038,-159.668,-24.902,-43.945,-114.258
1628114808.042,-70.312,62.500,-46.387,-46.387
1628114808.046,78.613,-31.738,-35.645,36.133
1628114808.050,20.508,-58.594,-33.203,-19.531
1628114808.054,-126.465,-41.992,-42.480,-104.492
1628114808.047,-99.121,-36.133,-43.457,-64.941
1628114808.051,51.270,-28.809,-44.434,24.902
1628114808.055,69.824,-33.203,-20.508,26.855
1628114808.059,-84.961,-43.457,-6.348,-55.176
1628114808.063,-127.441,-76.172,-18.066,-68.359
1628114808.067,16.602,26.855,-26.367,17.090
1628114808.071,87.891,57.617,-22.949,54.688
1628114808.074,-73.242,-64.453,-35.645,-53.711
1628114808.078,-178.223,-62.500,-55.664,-114.258
1628114808.082,-35.156,-49.805,-42.969,-16.602
1628114808.086,92.285,44.434,-40.527,46.387
1628114808.090,-12.207,31.250,-38.574,-27.344
1628114808.088,-131.348,-56.152,-23.438,-77.637
1628114808.092,-46.387,-70.801,-19.043,-10.742
1628114808.096,89.355,-44.434,-17.090,63.477
1628114808.100,28.320,-9.766,-27.832,4.883
1628114808.104,-131.836,-63.477,-33.203,-97.656
1628114808.108,-90.332,-62.500,-12.207,-59.082
1628114808.112,64.453,-49.805,-11.719,33.691
1628114808.115,66.895,4.883,-28.809,24.414
1628114808.119,-93.262,61.035,-50.781,-75.195
1628114808.123,-141.602,-27.344,-54.199,-89.844
1628114808.127,13.184,-59.082,-32.227,7.812
1628114808.131,108.887,-69.336,-5.371,55.176
1628114808.141,-18.555,-19.043,-13.184,-27.344
1628114808.145,-144.043,-6.836,-43.457,-98.145
1628114808.149,-43.457,-63.965,-55.176,-27.344
1628114808.153,85.938,-38.086,-46.387,41.504
1628114808.157,-12.695,-57.129,-27.832,-28.320
1628114808.161,-150.391,58.594,-24.414,-100.586
1628114808.165,-76.660,85.449,-23.926,-41.016
1628114808.168,72.266,-51.270,-25.391,43.457
1628114808.172,43.457,-44.434,-28.320,6.348
1628114808.176,-100.098,-43.945,-12.695,-83.008
1628114808.180,-96.191,37.109,-13.672,-74.219
1628114808.184,45.898,18.066,-22.949,15.137
1628114808.188,-124.023,-67.383,-4.395,-71.777
1628114808.192,-5.859,-58.594,-19.043,-2.930
1628114808.196,87.891,-50.293,-29.297,40.039
1628114808.200,-26.855,-44.434,-55.176,-31.250
1628114808.204,-127.930,-69.336,-48.828,-80.566
1628114808.207,-23.438,4.395,-21.973,-8.301
1628114808.211,103.516,80.078,-20.996,58.594
1628114808.215,25.879,-32.227,-16.602,-3.906
1628114808.219,-133.301,-59.082,-20.508,-101.562
1628114808.223,-97.168,-38.574,-23.926,-61.523
1628114808.238,66.406,0.000,-21.484,41.504
1628114808.242,80.078,-1.465,-12.207,40.527
1628114808.246,-93.262,-58.105,-25.879,-67.871
1628114808.250,-141.602,-54.688,-35.645,-92.285
1628114808.254,7.324,-70.801,-43.457,-1.953
1628114808.258,70.312,16.602,-49.805,26.855
1628114808.262,-65.430,30.273,-32.227,-56.641
1628114808.265,-138.184,-74.707,-14.648,-79.102
1628114808.269,3.418,-77.637,-2.930,14.648
1628114808.273,106.934,-61.035,-11.719,60.547
1628114808.277,-26.367,11.230,-46.387,-31.250
1628114808.281,-147.949,-5.371,-42.969,-97.656
1628114808.274,-43.457,-53.223,-28.320,-21.973
1628114808.278,91.309,-36.621,-28.320,49.805
1628114808.282,9.766,-34.180,-35.156,-15.137
1628114808.286,-154.785,-21.973,-57.129,-115.723
1628114808.290,-112.793,-37.109,-34.668,-77.148
1628114808.294,62.012,-44.922,-4.395,35.645
1628114808.298,64.941,-64.453,-9.766,24.414
1628114808.301,-104.004,-43.457,-26.367,-84.961
1628114808.305,-123.047,-2.930,-36.621,-85.449
1628114808.309,39.551,-43.457,-28.320,25.391
1628114808.313,99.609,-62.988,-25.879,59.570
1628114808.317,-48.828,-62.500,-24.902,-43.945
1628114808.328,-158.203,-44.434,-23.438,-106.934
1628114808.332,-55.176,-26.855,-22.949,-35.645
1628114808.336,71.289,-27.832,-15.137,28.809
1628114808.340,-2.930,-31.250,-24.414,-26.367
1628114808.344,-135.254,-40.039,-37.598,-97.656
1628114808.348,-80.566,-3.906,-40.039,-58.594
1628114808.352,69.336,-5.371,-36.621,28.809
1628114808.355,50.293,-57.617,-29.785,5.371
1628114808.359,-115.234,-62.988,-39.551,-86.914
1628114808.363,-119.629,-58.594,-38.086,-79.102
1628114808.367,47.852,1.953,-31.250,18.066
1628114808.371,72.754,-14.160,-31.250,25.879
1628114808.369,-95.215,-45.898,-26.855,-79.590
1628114808.373,-142.090,-19.531,-20.020,-98.145
1628114808.377,-0.488,-29.785,-22.461,-10.254
1628114808.381,83.008,-19.531,-29.297,29.297
1628114808.385,-35.645,-22.949,-28.809,-42.969
1628114808.389,-147.461,-27.344,-39.062,-104.004
1628114808.393,-48.340,-51.758,-42.480,-35.645
1628114808.396,75.684,-35.156,-33.691,34.180
1628114808.400,11.230,10.742,-30.273,-19.043
1628114808.404,-110.352,-38.574,-33.691,-84.473
1628114808.408,-64.453,-63.477,-35.645,-39.551
1628114808.412,61.035,-53.711,-33.691,30.762
1628114808.422,36.133,-4.883,-35.645,2.441
1628114808.426,-117.188,-3.906,-28.320,-90.332
1628114808.430,-129.883,-50.293,-17.090,-84.473
1628114808.434,24.414,-49.316,-26.367,8.789
1628114808.438,78.613,-63.477,-34.668,34.668
1628114808.442,-59.082,-26.855,-32.715,-46.875
1628114808.446,-137.207,1.953,-31.738,-85.449
1628114808.449,-4.883,-31.738,-29.297,3.418
1628114808.453,86.426,-39.551,-26.855,42.969
1628114808.457,-41.992,-48.828,-27.344,-54.199
1628114808.461,-155.273,-17.578,-30.273,-114.746
1628114808.465,-53.711,-14.160,-28.320,-39.551
1628114808.497,88.867,-40.039,-37.598,42.969
1628114808.501,23.926,-58.594,-53.223,-3.906
1628114808.505,-133.789,-44.922,-43.945,-95.215
1628114808.509,-99.121,-6.348,-19.531,-66.895
1628114808.513,62.988,-20.508,-16.113,28.809
1628114808.517,69.336,-30.273,-26.855,17.090
1628114808.521,-87.891,-58.105,-24.902,-78.125
1628114808.524,-135.742,-23.926,-34.668,-87.402
1628114808.528,0.977,37.598,-40.039,-2.441
1628114808.532,65.430,-27.344,-20.508,27.832
1628114808.536,-72.754,-62.012,-25.391,-56.641
1628114808.540,-150.391,-58.105,-37.598,-96.191
1628114808.517,-10.254,-34.180,-25.879,-1.953
1628114808.521,101.074,-20.996,-18.066,58.594
1628114808.525,-19.531,-32.715,-17.578,-32.227
1628114808.529,-157.227,-40.039,-22.461,-112.305
1628114808.533,-73.730,-50.781,-36.621,-49.805
1628114808.537,91.309,9.277,-35.156,46.387
1628114808.541,46.387,24.902,-27.832,9.277
1628114808.544,-138.184,-64.941,-32.715,-100.586
1628114808.548,-122.559,-63.477,-26.367,-77.148
1628114808.552,48.828,-38.574,-14.160,33.203
1628114808.556,53.711,-40.527,-28.320,25.391
1628114808.560,-116.699,-40.039,-47.852,-83.496
1628114808.559,-141.113,-34.668,-48.340,-88.379
1628114808.563,14.648,-34.668,-37.598,9.766
1628114808.567,82.520,-13.184,-22.949,35.645
1628114808.571,-34.180,31.738,-14.160,-45.898
1628114808.575,-125.488,-17.090,-23.926,-84.961
1628114808.579,-27.344,-59.082,-44.922,-10.254
1628114808.583,76.660,-70.801,-56.152,34.668
1628114808.586,-14.648,-36.133,-46.387,-38.574
1628114808.590,-152.832,26.367,-40.527,-114.746
1628114808.594,-97.168,-20.020,-45.898,-66.895
1628114808.598,56.152,-48.828,-45.898,22.949
1628114808.602,30.273,-41.016,-40.527,-2.441
1628114808.611,-115.723,-7.324,-40.527,-90.820
1628114808.615,-108.887,-3.906,-35.156,-74.707
1628114808.619,32.227,-46.387,-18.066,18.555
1628114808.623,64.941,-54.199,-24.902,28.320
1628114808.627,-84.961,-64.941,-47.363,-67.871
1628114808.631,-142.090,28.320,-43.945,-95.215
1628114808.635,2.930,38.574,-31.738,-3.418
1628114808.638,79.590,-50.781,-31.250,31.738
1628114808.642,-59.082,-61.523,-44.434,-64.941
1628114808.646,-168.945,-68.848,-45.898,-125.488
1628114808.650,-46.875,-21.484,-42.480,-41.504
1628114808.654,107.422,-19.531,-27.344,53.223
1628114808.650,20.996,-34.668,-27.344,-9.766
1628114808.654,-142.578,-36.133,-36.133,-110.352
1628114808.658,-97.168,-40.527,-26.855,-71.777
1628114808.662,52.734,-20.508,-30.273,12.207
1628114808.666,52.246,-33.203,-31.250,7.324
1628114808.670,-97.168,-59.082,-28.320,-73.730
1628114808.674,-110.840,-74.219,-20.508,-67.383
1628114808.677,44.434,-24.902,-23.438,27.832
1628114808.681,77.148,26.367,-42.969,31.250
1628114808.685,-67.871,-28.320,-39.551,-59.570
1628114808.689,-128.906,-57.617,-30.762,-88.867
1628114808.693,-6.348,-60.547,-34.668,-17.090
1628114808.704,70.312,-24.414,-44.922,17.090
1628114808.708,-38.574,-18.555,-31.738,-50.293
1628114808.712,-142.578,-48.828,-16.113,-100.586
1628114808.716,-74.707,-52.246,-33.691,-57.129
1628114808.720,55.664,-78.613,-40.039,10.742
1628114808.724,19.043,-1.465,-25.879,-17.578
1628114808.728,-129.883,29.297,-29.297,-101.074
1628114808.731,-117.188,-47.363,-34.180,-87.402
1628114808.735,43.457,-46.875,-24.414,12.695
1628114808.739,50.293,-51.270,-29.297,3.906
1628114808.743,-104.980,-4.883,-46.387,-88.379
1628114808.747,-132.812,-2.930,-42.480,-86.426
1628114808.761,5.859,-44.922,-42.969,0.488
1628114808.765,58.105,-52.734,-51.270,25.391
1628114808.769,-86.426,-48.828,-45.410,-67.383
1628114808.773,-155.273,-37.109,-43.457,-103.027
1628114808.777,-15.137,-52.734,-45.410,-7.812
1628114808.781,95.703,-34.668,-40.039,57.129
1628114808.785,-3.418,-49.805,-21.973,-13.672
1628114808.788,-156.738,-28.320,-18.555,-113.770
1628114808.792,-91.797,29.297,-37.598,-64.453
1628114808.796,67.871,-23.438,-40.039,35.645
1628114808.800,37.598,-53.711,-25.879,3.906
1628114808.804,-111.328,-52.734,-23.438,-86.426
1628114808.797,-91.797,-26.367,-20.996,-62.500
1628114808.801,85.449,-3.418,-20.508,51.270
1628114808.805,111.328,-10.254,-39.062,58.105
1628114808.809,-67.383,-15.625,-33.691,-63.965
1628114808.813,-132.324,-50.293,-28.809,-94.727
1628114808.817,10.742,7.324,-53.711,-0.977
1628114808.821,92.773,42.969,-37.598,32.715
1628114808.824,-50.293,-44.434,-16.113,-61.035
1628114808.828,-169.434,-68.848,-23.926,-119.629
1628114808.832,-38.574,-53.711,-12.695,-23.926
1628114808.836,83.008,40.527,-8.789,42.969
1628114808.840,-20.508,24.902,-26.855,-31.250
1628114808.837,-129.883,-44.434,-37.109,-90.332
1628114808.841,-55.176,-28.320,-40.527,-34.668
1628114808.845,75.195,-20.996,-29.785,34.668
1628114808.849,47.363,-20.020,-15.625,1.953
1628114808.853,-104.492,-57.129,-15.625,-86.914
1628114808.857,-115.234,-68.848,-31.250,-79.102
1628114808.861,26.855,-63.965,-39.551,9.277
1628114808.864,47.363,-22.461,-34.180,11.230
1628114808.868,-108.398,30.762,-34.668,-82.520
1628114808.872,-151.855,-11.230,-27.344,-90.332
1628114808.876,22.949,-23.438,-10.254,27.344
1628114808.880,115.234,-42.480,-14.160,70.801
1628114808.891,-37.109,-16.602,-38.086,-40.039
1628114808.895,-171.875,-3.418,-43.945,-117.676
1628114808.899,-68.359,-47.852,-41.504,-44.922
1628114808.903,82.031,-41.504,-38.574,38.086
1628114808.907,21.484,-63.477,-22.461,-10.742
1628114808.911,-125.488,-0.488,-22.461,-98.145
1628114808.915,-85.449,28.320,-21.973,-51.758
1628114808.918,64.453,-42.480,-20.996,34.668
1628114808.922,50.781,-29.297,-27.832,3.418
1628114808.926,-101.074,-33.203,-28.320,-84.473
1628114808.930,-118.164,-8.301,-42.480,-79.102
1628114808.934,26.855,-38.086,-49.316,12.207
1628114808.933,76.660,-89.844,-31.250,33.203
1628114808.937,-70.312,-70.801,-37.109,-64.453
1628114808.941,-157.715,-32.715,-46.875,-114.746
1628114808.945,-17.090,-2.441,-36.621,-19.043
1628114808.949,107.422,-14.648,-16.602,53.223
1628114808.953,-5.859,-20.020,-13.184,-26.855
1628114808.957,-148.438,-62.988,-19.531,-110.352
1628114808.960,-72.266,-31.250,-11.230,-53.711
1628114808.964,80.078,53.223,-12.207,45.410
1628114808.968,31.250,-7.324,-20.508,8.301
1628114808.972,-135.742,-59.082,-34.668,-93.750
1628114808.976,-119.141,-77.637,-41.016,-65.918
1628114808.985,52.734,-41.016,-37.109,29.785
1628114808.989,81.543,-4.883,-20.508,33.203
1628114808.993,-77.148,-33.203,-6.348,-56.152
1628114808.997,-128.906,-58.594,-28.320,-82.031
1628114809.001,3.418,-77.637,-42.969,1.953
1628114809.005,76.660,-0.488,-26.855,39.062
1628114809.009,-54.688,5.859,-36.621,-51.758
1628114809.012,-158.691,-75.684,-48.828,-104.492
1628114809.016,-40.039,-58.105,-33.691,-28.809
1628114809.020,81.055,-49.316,-21.484,32.227
1628114809.024,-20.020,-38.086,-32.227,-39.551
1628114809.028,-145.996,-23.926,-31.738,-107.422
1628114809.044,-52.734,-20.508,-19.531,-37.109
1628114809.048,87.402,-35.156,-25.391,41.504
1628114809.052,40.527,-42.480,-41.016,-3.418
1628114809.056,-96.680,-18.555,-37.598,-75.684
1628114809.060,-90.820,-34.180,-27.832,-55.664
1628114809.064,49.805,-46.875,-35.645,16.602
1628114809.068,62.012,-56.152,-41.016,10.254
1628114809.071,-97.656,-25.391,-45.410,-82.520
1628114809.075,-146.973,6.348,-46.387,-100.586
1628114809.079,-1.953,-47.852,-34.180,-10.742
1628114809.083,86.426,-65.430,-31.738,33.203
1628114809.087,-26.367,-34.180,-23.926,-37.598
1628114809.099,-117.188,18.555,-23.438,-83.984
1628114809.103,-6.348,8.301,-26.367,-7.812
1628114809.107,113.770,-36.133,-23.926,59.570
1628114809.111,19.531,-48.828,-24.902,-11.230
1628114809.115,-128.906,-62.500,-20.996,-104.980
1628114809.119,-97.656,-44.434,-37.109,-79.590
1628114809.123,45.410,-23.438,-38.574,11.230
1628114809.126,50.293,-20.996,-14.648,7.324
1628114809.130,-111.328,-59.570,-25.879,-91.309
1628114809.134,-125.488,-68.359,-38.574,-82.520
1628114809.138,50.293,-9.277,-45.410,26.855
1628114809.142,83.008,-18.555,-62.500,29.297
1628114809.135,-69.336,-38.086,-47.363,-62.012
1628114809.139,-129.395,-24.414,-12.207,-85.449
1628114809.143,-9.766,-14.160,-12.695,-15.137
1628114809.147,72.754,13.184,-31.250,29.297
1628114809.151,-35.645,-14.648,-35.645,-35.645
1628114809.155,-142.090,-30.762,-27.344,-96.680
1628114809.159,-54.688,-34.668,-20.996,-35.156
1628114809.162,86.426,-33.691,-14.648,51.270
1628114809.166,24.414,-23.926,-18.066,2.441
1628114809.170,-130.371,-44.922,-24.902,-92.773
1628114809.174,-93.750,-58.105,-27.832,-58.594
1628114809.178,61.035,-67.871,-25.879,37.109
1628114809.172,67.871,1.953,-18.555,24.902
1628114809.176,-100.098,55.664,-53.223,-79.102
1628114809.180,-136.719,-19.043,-71.289,-88.867
1628114809.184,30.273,-56.152,-35.645,15.137
1628114809.188,93.750,-57.617,-9.277,49.316
1628114809.192,-40.527,22.461,-5.859,-32.715
1628114809.196,-139.648,24.902,-36.621,-88.867
1628114809.199,-22.461,-50.781,-43.457,-16.113
1628114809.203,95.215,-46.875,-22.949,47.852
1628114809.207,-17.090,-66.406,-28.809,-25.879
1628114809.211,-151.855,-6.348,-53.223,-101.562
1628114809.215,-67.871,13.672,-50.293,-35.156
1628114809.228,92.285,-23.926,-37.109,62.500
1628114809.232,40.039,-32.715,-51.758,11.230
1628114809.236,-112.793,-51.758,-36.621,-85.938
1628114809.240,-67.871,-1.465,-20.508,-41.992
1628114809.244,63.477,-13.672,-35.645,38.574
1628114809.248,46.387,-41.016,-28.809,8.301
1628114809.252,-101.562,-48.828,-22.949,-82.520
1628114809.255,-127.930,-18.555,-21.484,-77.148
1628114809.259,16.602,22.949,-16.602,18.066
1628114809.263,74.219,-34.180,-24.414,36.133
1628114809.267,-54.688,-47.852,-31.738,-52.246
1628114809.271,-149.902,-50.781,-37.109,-96.680
1628114809.283,-28.320,-41.992,-30.762,-13.672
1628114809.287,99.609,-43.457,-30.273,49.805
1628114809.291,0.977,-71.289,-51.270,-28.809
1628114809.295,-120.605,-63.965,-49.805,-91.309
1628114809.299,-32.715,-57.129,-13.184,-21.973
1628114809.303,98.145,-3.906,5.859,54.688
1628114809.307,34.668,-9.277,-22.949,7.812
1628114809.310,-131.836,-64.941,-66.406,-91.797
1628114809.314,-114.258,-39.551,-59.570,-72.266
1628114809.318,47.363,-29.297,-32.227,20.996
1628114809.322,65.430,0.488,-27.832,21.484
1628114809.326,-85.449,-11.719,-20.020,-66.895
1628114809.331,-135.742,-41.504,-4.395,-87.402
1628114809.335,18.555,-58.105,-0.488,7.812
1628114809.339,112.793,-66.406,-15.137,58.594
1628114809.343,-24.902,-30.273,-25.879,-33.203
1628114809.347,-158.691,-41.504,-16.602,-111.328
1628114809.351,-64.941,-47.852,-37.598,-46.875
1628114809.355,68.359,-43.457,-45.898,28.809
1628114809.358,-6.348,-24.902,-26.367,-29.297
1628114809.362,-149.414,5.859,-27.832,-111.328
1628114809.366,-101.562,-24.414,-12.695,-66.406
1628114809.370,50.293,-52.246,-11.230,24.414
1628114809.374,57.129,-44.922,-7.812,33.203
1628114809.359,-91.797,-16.113,-13.672,-57.129
1628114809.363,-140.137,-48.340,-32.715,-88.379
1628114809.367,16.602,-60.547,-31.738,14.160
1628114809.371,77.148,-15.625,-47.852,42.480
1628114809.375,-78.125,-34.668,-49.316,-69.336
1628114809.379,-147.461,16.113,-30.273,-100.098
1628114809.383,-6.836,31.250,-20.020,3.418
1628114809.386,109.863,-39.062,-6.348,67.871
1628114809.390,0.000,-32.715,-16.113,-13.672
1628114809.394,-137.695,-36.133,-23.926,-94.727
1628114809.398,-49.805,6.348,-10.254,-27.344
1628114809.402,69.824,-18.066,-20.020,31.250
1628114809.435,-1.465,-60.547,-31.738,-30.762
1628114809.439,-133.789,-30.273,-28.320,-106.934
1628114809.443,-103.516,-15.625,-41.504,-75.684
1628114809.447,50.781,-10.254,-36.133,23.926
1628114809.451,60.547,-34.180,-12.695,25.391
1628114809.455,-114.746,-38.574,-22.949,-89.844
1628114809.459,-151.367,-54.199,-27.344,-102.539
1628114809.462,6.348,-7.324,-15.137,2.441
1628114809.466,81.055,69.336,-5.859,34.668
1628114809.470,-57.617,-17.578,-7.324,-52.246
1628114809.474,-144.531,-70.801,-19.043,-92.285
1628114809.478,-0.488,-54.199,-27.344,6.348
1628114809.456,98.633,-54.199,-27.832,52.246
1628114809.460,-28.320,-55.176,-42.969,-50.781
1628114809.464,-159.180,-52.246,-53.223,-128.418
1628114809.468,-69.336,-41.504,-31.738,-57.129
1628114809.472,79.590,-33.691,-27.832,36.621
1628114809.476,28.320,-23.926,-37.598,-1.465
1628114809.480,-129.883,-36.621,-21.484,-99.609
1628114809.483,-116.211,-58.594,-31.250,-77.148
1628114809.487,42.480,-57.617,-57.617,26.855
1628114809.491,69.336,-54.199,-31.250,37.598
1628114809.495,-82.031,-10.254,-20.508,-56.152
1628114809.499,-132.324,-24.414,-26.855,-81.055
1628114809.511,-14.160,-44.922,-23.926,-8.301
1628114809.515,52.246,-23.926,-24.902,22.461
1628114809.519,-59.082,-34.180,-22.949,-50.293
1628114809.523,-140.625,15.137,-27.832,-85.449
1628114809.527,-26.855,-3.906,-20.508,-4.883
1628114809.531,85.938,-51.758,-6.348,52.734
1628114809.535,-10.254,-70.312,-7.324,-11.719
1628114809.538,-160.156,-35.156,-32.227,-102.051
1628114809.542,-91.309,30.273,-39.062,-56.641
1628114809.546,69.824,-11.230,-29.785,36.133
1628114809.550,38.086,-35.645,-31.738,-6.348
1628114809.554,-119.141,-51.270,-31.250,-103.516
1628114809.547,-128.906,-30.762,-34.180,-93.750
1628114809.551,37.598,-4.395,-27.832,11.719
1628114809.555,93.750,-27.344,-14.648,37.109
1628114809.559,-75.684,-47.852,-20.508,-71.777
1628114809.563,-155.762,-75.195,-28.809,-108.398
1628114809.567,-1.465,7.812,-27.832,-10.742
1628114809.571,93.262,24.902,-37.109,41.504
1628114809.574,-44.434,-67.383,-44.922,-49.805
1628114809.578,-163.086,-74.219,-54.688,-119.629
1628114809.582,-47.363,-49.316,-29.297,-25.391
1628114809.586,98.633,27.832,-4.883,68.848
1628114809.590,-9.766,-4.395,-31.738,-11.719
1628114809.587,-169.922,-62.988,-42.969,-111.816
1628114809.591,-101.074,-53.223,-12.695,-63.965
1628114809.595,63.965,-40.039,-1.465,34.668
1628114809.599,54.688,-22.949,-11.230,20.020
1628114809.603,-100.586,-45.410,-16.602,-67.383
1628114809.607,-132.324,-51.270,-41.504,-69.824
1628114809.611,17.578,-68.848,-34.180,24.414
1628114809.614,54.199,-74.219,-27.344,33.691
1628114809.618,-97.656,-28.320,-37.598,-72.266
1628114809.622,-144.531,-12.695,-9.277,-90.332
1628114809.626,-11.719,-24.902,-18.555,0.000
1628114809.630,81.543,-47.852,-54.688,45.410
1628114809.641,-14.160,-30.762,-28.320,-18.066
1628114809.645,-131.348,-14.648,2.930,-86.426
1628114809.649,-62.012,-25.391,-17.090,-35.645
1628114809.653,67.871,-31.738,-42.969,42.969
1628114809.657,11.719,-65.430,-42.969,-12.207
1628114809.661,-122.070,-7.324,-16.602,-89.844
1628114809.665,-86.914,11.230,-16.113,-50.293
1628114809.668,57.129,-51.758,-29.297,35.645
1628114809.672,73.242,-39.551,-11.230,42.969
1628114809.676,-85.938,-48.828,-16.602,-58.105
1628114809.680,-139.160,-41.504,-50.781,-85.449
1628114809.684,-2.930,-29.297,-56.641,-1.953
1628114809.698,64.453,-30.273,-41.504,29.785
1628114809.702,-65.918,-54.688,-33.691,-58.105
1628114809.706,-149.902,-57.129,-25.879,-103.027
1628114809.710,-16.602,-5.859,-13.184,-10.742
1628114809.714,102.539,-27.344,-8.301,59.082
1628114809.718,5.371,-59.082,-13.184,-9.277
1628114809.722,-127.441,-54.199,-17.578,-85.449
1628114809.725,-67.383,-16.602,-23.438,-35.156
1628114809.729,57.129,30.273,-45.410,30.762
1628114809.733,14.648,-20.508,-41.992,-8.789
1628114809.737,-121.582,-49.316,-20.020,-89.355
1628114809.741,-106.445,-39.062,-23.438,-74.707
1628114809.736,39.551,-9.766,-26.855,17.578
1628114809.740,52.246,-23.438,-30.762,18.555
1628114809.744,-96.191,-54.688,-21.484,-76.660
1628114809.748,-132.812,-48.828,-8.301,-84.961
1628114809.752,22.461,-62.012,-8.301,16.602
1628114809.756,98.145,2.930,-21.973,50.293
1628114809.760,-34.180,23.438,-22.461,-35.645
1628114809.763,-129.883,-48.828,-13.184,-80.078
1628114809.767,-33.203,-54.688,-26.855,-12.695
1628114809.771,80.566,-54.199,-43.945,41.504
1628114809.775,-6.836,25.879,-44.434,-21.484
1628114809.779,-141.602,16.113,-37.109,-99.121
1628114809.775,-84.473,-58.105,-30.762,-51.270
1628114809.779,56.641,-55.664,-22.461,30.762
1628114809.783,30.762,-51.758,-17.090,1.953
1628114809.787,-125.977,-46.387,-18.555,-90.332
1628114809.791,-123.047,-53.223,-11.719,-84.961
1628114809.795,35.156,-48.828,-14.648,14.160
1628114809.799,60.547,-66.406,-21.484,21.484
1628114809.802,-87.891,-21.484,-24.414,-78.613
1628114809.806,-127.441,49.316,-19.531,-84.473
1628114809.810,15.625,-21.973,-25.391,12.695
1628114809.814,81.055,-63.477,-42.480,35.156
1628114809.818,-51.758,-62.500,-37.109,-53.711
1628114809.828,-150.391,-3.418,-32.715,-104.004
1628114809.832,-41.016,12.695,-24.902,-20.020
1628114809.836,77.148,-47.852,-31.250,44.434
1628114809.840,-1.465,-45.898,-40.039,-18.555
1628114809.844,-129.395,-45.410,-16.113,-82.520
1628114809.848,-87.891,2.930,-15.625,-45.898
1628114809.852,67.383,3.418,-24.414,43.945
1628114809.855,49.805,-64.941,-31.738,23.926
1628114809.859,-122.070,-54.688,-30.273,-82.031
1628114809.863,-122.559,-43.945,-19.531,-70.801
1628114809.867,36.621,11.719,-29.785,24.414
1628114809.871,84.961,2.930,-43.457,37.598
1628114809.868,-62.012,-55.664,-35.645,-57.617
1628114809.872,-144.043,-58.594,-23.926,-92.285
1628114809.876,-19.043,-36.621,-14.648,-7.324
1628114809.880,78.125,-17.578,-20.508,38.574
1628114809.884,-42.480,-60.547,-32.227,-46.875
1628114809.888,-155.273,-57.129,-27.344,-106.934
1628114809.892,-62.500,-80.078,-19.531,-32.227
1628114809.895,80.566,-43.457,-17.090,56.152
1628114809.899,37.598,41.504,-31.738,7.324
1628114809.903,-131.348,-25.879,-42.969,-104.980
1628114809.907,-112.305,-53.223,-60.547,-79.590
1628114809.911,62.500,-39.062,-59.570,32.227
1628114809.922,64.941,-20.508,-38.086,21.973
1628114809.926,-111.328,-24.902,-34.668,-90.820
1628114809.930,-160.156,-51.758,-35.156,-108.887
1628114809.934,0.977,-37.109,-28.809,-4.395
1628114809.938,90.820,-68.359,-23.926,43.945
1628114809.942,-51.270,-5.371,-32.715,-44.434
1628114809.946,-148.926,19.043,-26.855,-95.215
1628114809.949,-31.738,-76.172,-22.949,-16.602
1628114809.953,81.543,-65.918,-38.574,37.598
1628114809.957,-2.441,-39.062,-30.762,-18.555
1628114809.961,-138.184,-47.852,-30.273,-87.402
1628114809.965,-73.730,-60.547,-27.344,-38.086
1628114810.035,85.938,-53.711,-18.555,53.711
1628114810.039,43.945,-54.688,-27.832,10.254
1628114810.043,-124.023,-38.086,-44.922,-93.262
1628114810.047,-133.301,15.137,-59.082,-89.844
1628114810.051,24.902,-11.719,-23.438,8.301
1628114810.055,71.777,-35.645,0.488,29.785
1628114810.059,-80.078,-59.570,-28.809,-63.477
1628114810.062,-131.836,-20.508,-17.090,-80.566
1628114810.066,5.371,68.848,-11.719,1.465
1628114810.070,94.727,-8.301,-10.742,45.410
1628114810.074,-31.250,-60.547,-7.812,-34.180
1628114810.078,-146.484,-52.734,-20.508,-94.727
1628114810.054,-39.062,-15.137,-30.273,-20.508
1628114810.058,90.820,-11.719,-42.969,46.875
1628114810.062,11.230,-57.129,-51.758,-10.254
1628114810.066,-127.441,-69.336,-34.668,-87.891
1628114810.070,-79.102,-64.941,-14.160,-53.711
1628114810.074,80.078,-50.781,-10.742,39.551
1628114810.078,60.059,-38.574,-31.250,21.973
1628114810.081,-111.816,-46.387,-49.316,-83.496
1628114810.085,-103.516,-24.414,-16.113,-75.195
1628114810.089,64.453,-18.066,11.719,30.273
1628114810.093,87.402,-5.859,-11.230,37.598
1628114810.097,-64.453,-7.812,-44.434,-56.152
1628114810.092,-121.582,-30.762,-46.875,-69.336
1628114810.096,9.277,-46.387,-36.621,16.602
1628114810.100,91.797,-61.523,-37.109,49.805
1628114810.104,-48.828,-52.734,-43.457,-49.316
1628114810.108,-173.340,-49.316,-41.504,-124.512
1628114810.112,-65.918,-49.805,-34.180,-51.758
1628114810.116,96.191,-48.340,-17.578,42.969
1628114810.119,36.133,-18.555,-2.930,2.441
1628114810.123,-131.348,-23.926,-20.508,-91.797
1628114810.127,-100.586,-53.223,-48.828,-61.523
1628114810.131,45.410,-38.574,-44.434,26.855
1628114810.135,40.527,-51.270,-16.113,10.254
1628114810.128,-109.863,13.184,-21.973,-81.543
1628114810.132,-133.301,58.105,-34.668,-80.078
1628114810.136,17.578,-28.320,-21.973,16.113
1628114810.140,80.566,-36.621,-27.832,43.945
1628114810.144,-57.129,-50.293,-35.156,-42.969
1628114810.148,-131.836,8.301,-17.090,-79.102
1628114810.152,-11.719,17.090,-6.836,1.953
1628114810.155,79.102,-65.430,-19.043,51.270
1628114810.159,-34.180,-67.383,-35.645,-33.203
1628114810.163,-155.273,-57.617,-29.297,-105.957
1628114810.167,-75.684,13.672,-33.691,-51.270
1628114810.171,72.266,1.465,-36.133,35.156
1628114810.167,30.762,-55.176,-41.016,3.418
1628114810.171,-124.512,-51.758,-53.223,-94.727
1628114810.175,-104.004,-45.410,-28.809,-73.730
1628114810.179,67.871,0.000,-0.977,40.527
1628114810.183,76.172,-26.855,-12.207,32.227
1628114810.187,-113.281,-62.012,-35.156,-87.891
1628114810.191,-151.367,-55.176,-27.344,-93.750
1628114810.194,6.348,-24.902,-20.508,4.395
1628114810.198,84.961,22.949,-19.043,46.875
1628114810.202,-45.410,-20.020,-29.785,-35.156
1628114810.206,-159.668,-65.918,-52.734,-100.586
1628114810.210,-43.945,-62.012,-47.363,-26.855
1628114810.203,82.520,-19.531,-38.574,38.086
1628114810.207,-8.301,-0.488,-22.461,-29.297
1628114810.211,-139.648,-48.340,-13.184,-97.656
1628114810.215,-74.219,-56.641,-18.066,-45.898
1628114810.219,83.008,-54.688,-5.859,50.781
1628114810.223,65.918,-1.465,-9.277,41.016
1628114810.227,-102.539,-3.906,-39.551,-62.012
1628114810.230,-130.859,-73.730,-65.430,-79.102
1628114810.234,21.484,-55.176,-49.805,4.395
1628114810.238,64.453,-41.992,-25.391,23.926
1628114810.242,-84.961,19.531,-37.109,-62.500
1628114810.246,-153.809,19.043,-32.715,-89.844
1628114810.278,-20.020,-48.828,-28.809,-7.812
1628114810.282,79.102,-49.316,-31.250,35.645
1628114810.286,-24.414,-42.969,-24.902,-32.715
1628114810.290,-136.230,-23.926,-29.297,-97.656
1628114810.294,-45.410,-36.621,-24.414,-30.762
1628114810.298,80.566,-45.410,-24.902,41.504
1628114810.302,1.953,-66.406,-30.762,-18.066
1628114810.305,-131.836,-33.691,-17.090,-84.473
1628114810.309,-72.754,29.785,-22.461,-40.039
1628114810.313,57.617,-32.715,-47.363,31.250
1628114810.317,27.832,-63.477,-48.340,2.441
1628114810.321,-121.582,-48.340,-39.551,-94.727
1628114810.302,-143.066,-55.176,-37.109,-102.051
1628114810.306,18.555,-63.477,-27.344,4.395
1628114810.310,89.844,-66.895,-18.066,46.387
1628114810.314,-59.570,-64.941,-30.273,-49.805
1628114810.318,-140.137,-54.199,-41.992,-93.262
1628114810.322,-8.301,-27.344,-38.574,-3.418
1628114810.326,81.055,-34.668,-25.391,51.758
1628114810.329,-34.180,-52.734,-19.043,-26.367
1628114810.333,-145.996,-49.805,-11.230,-89.355
1628114810.337,-44.434,-47.852,-1.465,-19.043
1628114810.341,85.449,16.113,-24.414,46.387
1628114810.345,9.277,7.812,-44.922,-19.531
1628114810.353,-129.883,-49.316,-37.109,-102.539
1628114810.357,-79.590,-44.922,-28.320,-51.758
1628114810.361,73.242,-31.738,-39.062,39.551
1628114810.365,68.359,13.184,-37.598,20.996
1628114810.369,-94.238,-10.254,-21.973,-72.266
1628114810.373,-130.859,-55.176,-15.137,-80.566
1628114810.377,25.879,-79.590,-6.836,20.996
1628114810.380,75.684,-44.434,-22.949,44.922
1628114810.384,-54.688,30.273,-37.109,-42.480
1628114810.388,-109.863,-5.371,-27.832,-70.801
1628114810.392,-1.953,-32.715,-49.316,3.906
1628114810.396,83.008,-34.180,-68.359,44.434
1628114810.391,-13.184,-37.109,-45.410,-27.344
1628114810.395,-143.066,-52.246,-30.273,-100.586
1628114810.399,-64.453,-66.406,-27.832,-39.062
1628114810.403,90.820,-43.457,-22.949,46.387
1628114810.407,38.574,-47.852,-25.879,8.789
1628114810.411,-116.211,-1.465,-35.645,-81.055
1628114810.415,-113.281,20.020,-41.016,-79.590
1628114810.418,47.363,-30.762,-29.785,22.461
1628114810.422,75.195,-31.738,-35.645,35.156
1628114810.426,-97.656,-49.316,-55.664,-76.172
1628114810.430,-134.277,21.973,-32.715,-82.520
1628114810.434,12.695,20.508,-17.090,19.531
1628114810.449,72.754,-56.152,-25.879,38.574
1628114810.453,-56.152,-55.664,-21.973,-54.199
1628114810.457,-156.250,-41.504,-26.367,-112.305
1628114810.461,-56.152,-31.250,-43.945,-45.898
1628114810.465,77.148,-65.918,-46.875,30.273
1628114810.469,13.184,-62.988,-26.855,-12.695
1628114810.473,-125.000,-53.711,-20.996,-90.332
1628114810.476,-76.660,-5.859,-35.645,-51.758
1628114810.480,83.496,62.012,-25.391,52.246
1628114810.484,41.504,-15.625,-40.039,9.766
1628114810.488,-124.023,-58.105,-55.176,-97.656
1628114810.492,-104.004,-30.273,-27.344,-64.941
1628114810.485,34.180,-34.668,-20.996,15.137
1628114810.489,60.059,-62.012,-36.133,7.324
1628114810.493,-83.984,-68.359,-49.805,-85.449
1628114810.497,-150.879,-61.523,-42.480,-113.281
1628114810.501,-0.488,-59.570,-28.320,-16.113
1628114810.505,105.957,10.742,-43.457,42.480
1628114810.509,-23.438,29.297,-40.527,-35.156
1628114810.512,-148.438,-20.020,-20.996,-99.121
1628114810.516,-47.852,-2.930,-16.113,-25.391
1628114810.520,71.777,-22.949,-28.809,41.504
1628114810.524,2.930,7.812,-35.645,-12.207
1628114810.528,-128.418,-17.090,-18.555,-83.008
1628114810.542,-101.074,-73.242,-20.996,-55.664
1628114810.546,31.738,-57.617,-43.945,14.648
1628114810.550,23.926,-59.082,-34.668,-8.789
1628114810.554,-123.535,-35.645,-21.973,-95.215
1628114810.558,-136.230,-29.297,-31.250,-89.355
1628114810.562,31.738,-24.902,-42.480,14.648
1628114810.566,84.473,-44.922,-45.898,37.109
1628114810.569,-62.012,-43.945,-41.504,-55.664
1628114810.573,-117.676,5.371,-32.715,-62.500
1628114810.577,3.906,-19.531,-21.973,13.184
1628114810.581,77.637,-48.828,-16.113,37.109
1628114810.585,-46.387,-59.082,-30.762,-52.734
1628114810.578,-168.457,-32.715,-48.828,-126.953
1628114810.582,-76.172,-17.578,-43.457,-59.082
1628114810.586,75.684,-42.969,-39.062,33.691
1628114810.590,20.508,-52.734,-35.645,-5.371
1628114810.594,-120.117,-54.688,-37.598,-81.055
1628114810.598,-69.824,-29.785,-34.180,-32.227
1628114810.602,82.520,-25.391,-23.438,60.059
1628114810.605,57.617,-36.621,-25.879,27.832
1628114810.609,-113.770,-41.504,-16.602,-87.402
1628114810.613,-135.742,-49.805,-11.719,-85.938
1628114810.617,-1.953,-15.137,-55.664,0.977
1628114810.621,55.664,-20.508,-70.801,17.578
1628114810.634,-63.965,-66.895,-40.527,-65.430
1628114810.638,-151.367,-63.965,-36.621,-110.352
1628114810.642,-32.227,-60.547,-48.340,-30.762
1628114810.646,89.355,-17.090,-41.504,39.062
1628114810.650,-11.719,-10.254,-39.062,-33.203
1628114810.654,-148.438,-33.203,-38.574,-111.328
1628114810.658,-68.848,-36.133,-12.207,-49.316
1628114810.661,68.359,-31.738,-14.648,22.949
1628114810.665,6.836,-38.086,-34.180,-24.414
1628114810.669,-139.160,-54.199,-32.715,-97.656
1628114810.673,-123.535,-46.875,-27.832,-80.078
1628114810.677,27.832,-76.172,-34.180,6.348
1628114810.672,67.871,-24.902,-41.992,20.508
1628114810.676,-88.379,35.645,-49.805,-81.543
1628114810.680,-153.320,-16.602,-51.758,-106.934
1628114810.684,-9.277,-30.762,-41.016,-10.742
1628114810.688,83.008,-64.941,-34.668,36.133
1628114810.692,-38.086,-11.719,-34.668,-38.086
1628114810.696,-151.855,33.203,-35.645,-95.703
1628114810.699,-60.059,-48.340,-32.227,-36.621
1628114810.703,69.824,-62.988,-21.484,29.785
1628114810.707,4.395,-65.430,-18.066,-12.695
1628114810.711,-125.488,11.719,-22.461,-88.867
1628114810.715,-77.637,11.719,-30.762,-50.781
1628114810.729,62.500,-62.988,-32.227,37.109
1628114810.733,42.969,-45.898,-29.297,11.719
1628114810.737,-123.047,-32.227,-38.574,-98.145
1628114810.741,-140.137,-18.066,-40.527,-107.910
1628114810.745,23.926,-35.645,-39.062,-9.277
1628114810.749,73.242,-33.691,-49.316,13.672
1628114810.753,-56.641,-38.086,-47.363,-65.918
1628114810.756,-123.535,-47.852,-37.109,-94.238
1628114810.760,-11.230,-23.926,-42.480,-18.555
1628114810.764,80.566,-34.668,-33.203,30.762
1628114810.768,-25.879,-48.828,-20.020,-50.781
1628114810.772,-145.508,-44.922,-35.645,-117.188
1628114810.767,-63.965,-32.227,-45.410,-54.199
1628114810.771,71.289,-33.691,-29.785,19.043
1628114810.775,1.465,-52.734,-33.203,-32.715
1628114810.779,-149.414,-51.758,-53.223,-117.188
1628114810.783,-80.566,-52.246,-41.016,-57.617
1628114810.787,74.707,-1.953,-28.320,41.016
1628114810.791,55.664,12.207,-37.598,10.742
1628114810.794,-91.309,-37.109,-20.996,-83.496
1628114810.798,-116.699,-38.574,-8.301,-87.891
1628114810.802,33.203,-39.551,-15.625,5.371
1628114810.806,81.543,5.859,-28.320,29.785
1628114810.810,-69.336,-11.230,-40.039,-69.336
1628114810.806,-152.832,-57.617,-39.551,-115.234
1628114810.810,-29.297,-62.988,-53.711,-36.621
1628114810.814,89.844,-71.289,-48.340,30.762
1628114810.818,-12.695,-72.266,-25.391,-33.203
1628114810.822,-137.695,-82.031,-23.926,-103.027
1628114810.826,-50.781,-51.270,-26.367,-41.504
1628114810.830,82.520,-20.996,-34.180,38.086
1628114810.833,22.949,-8.301,-44.922,-2.441
1628114810.837,-131.348,-9.766,-40.527,-92.285
1628114810.841,-102.539,-43.457,-23.438,-59.570
1628114810.845,45.898,-52.246,-21.484,32.715
1628114810.849,58.594,-42.480,-23.438,27.344
1628114810.859,-83.008,-26.855,-28.809,-56.641
1628114810.863,-126.953,-43.457,-40.527,-68.359
1628114810.867,9.766,-63.965,-39.551,9.766
1628114810.871,98.633,-32.715,-29.785,54.688
1628114810.875,-36.133,-38.086,-33.203,-25.879
1628114810.879,-140.137,-6.348,-31.738,-83.008
1628114810.883,-18.555,5.371,-11.719,1.953
1628114810.886,91.309,-36.621,-19.043,57.129
1628114810.890,3.906,-34.180,-41.016,-5.371
1628114810.894,-128.418,-43.457,-38.574,-77.148
1628114810.898,-77.148,-40.039,-31.250,-42.480
1628114810.902,64.941,-44.922,-30.273,33.691
1628114810.901,37.109,-46.387,-30.762,10.742
1628114810.905,-115.723,-46.387,-26.855,-78.125
1628114810.909,-118.652,-43.457,-31.250,-71.777
1628114810.913,42.969,15.137,-32.227,32.715
1628114810.917,73.730,-0.488,-33.203,39.551
1628114810.921,-71.289,-27.832,-30.762,-55.664
1628114810.925,-115.234,-25.391,-21.484,-61.523
1628114810.928,1.953,-7.324,-32.715,13.184
1628114810.932,79.590,29.297,-26.855,54.688
1628114810.936,-32.715,-29.785,-9.277,-17.090
1628114810.940,-152.344,-55.176,-19.043,-95.703
1628114810.944,-51.758,-43.945,-19.043,-28.320
1628114810.953,78.125,-18.066,-24.902,45.898
1628114810.957,-12.207,-28.320,-41.016,-19.531
1628114810.961,-147.461,-62.012,-36.621,-100.586
1628114810.965,-77.148,-43.457,-26.855,-43.945
1628114810.969,79.590,-34.668,-21.973,55.664
1628114810.973,60.547,-8.301,-9.766,21.973
1628114810.977,-114.258,-21.973,-13.672,-88.379
1628114810.980,-149.414,-56.641,-33.203,-97.168
1628114810.984,2.930,-41.504,-47.363,-8.301
1628114810.988,59.082,-37.109,-56.152,15.625
1628114810.992,-81.055,-19.531,-47.852,-73.730
1628114810.996,-152.832,-34.668,-15.625,-101.074
1628114810.993,-28.809,-72.754,-6.836,-12.695
1628114810.997,72.266,-71.289,-17.090,41.016
1628114811.001,-36.133,-46.875,-30.273,-40.039
1628114811.005,-163.574,-35.156,-51.758,-113.770
1628114811.009,-65.430,-52.734,-45.410,-38.574
1628114811.013,78.125,-38.086,-33.203,41.016
1628114811.017,1.465,-39.062,-39.551,-24.902
1628114811.020,-149.902,-26.855,-46.875,-114.258
1628114811.024,-118.652,-7.812,-41.016,-83.008
1628114811.028,33.203,-44.922,-33.203,5.859
1628114811.032,49.805,-51.758,-29.785,10.742
1628114811.036,-103.516,-63.965,-38.574,-83.496
1628114811.047,-136.230,-83.496,-34.668,-87.402
1628114811.051,17.090,-83.496,-22.461,6.348
1628114811.055,87.402,-47.852,-18.555,25.391
1628114811.059,-57.617,-6.836,-24.414,-66.895
1628114811.063,-154.785,-31.738,-30.273,-113.281
1628114811.067,-22.949,1.953,-25.391,-18.555
1628114811.071,116.699,31.250,-19.531,62.012
1628114811.074,19.531,-30.273,-38.574,-11.719
1628114811.078,-141.602,-62.012,-54.199,-106.934
1628114811.082,-77.148,-53.223,-34.668,-54.688
1628114811.086,67.871,4.395,-32.715,31.738
1628114811.090,23.438,-18.066,-42.480,-2.930
1628114811.087,-111.816,-64.941,-26.855,-82.520
1628114811.091,-95.703,-36.133,-21.973,-65.918
1628114811.095,41.992,-18.066,-40.039,20.020
1628114811.099,52.734,-30.273,-38.086,14.160
1628114811.103,-96.680,-52.734,-17.090,-78.125
1628114811.107,-124.023,-22.461,-8.789,-75.195
1628114811.111,22.949,-23.438,-20.996,23.438
1628114811.114,98.145,-27.344,-37.598,64.941
1628114811.118,-36.621,9.766,-45.410,-29.785
1628114811.122,-147.461,-36.621,-30.273,-105.957
1628114811.126,-41.016,-65.918,-28.809,-36.133
1628114811.130,92.285,-39.062,-34.180,49.316
1628114811.141,3.418,-18.555,-27.344,-17.090
1628114811.145,-156.738,-21.973,-29.297,-115.234
1628114811.149,-84.473,-39.062,-20.996,-46.387
1628114811.153,80.078,-34.180,-8.789,50.293
1628114811.157,39.062,-51.270,-16.602,2.930
1628114811.161,-117.676,-13.672,-26.367,-77.637
1628114811.165,-109.375,5.859,-17.090,-47.852
1628114811.168,45.410,-59.082,-8.301,44.434
1628114811.172,81.543,-72.266,-9.766,48.340
1628114811.176,-66.406,-91.797,-20.996,-43.457
1628114811.180,-141.602,-54.688,-38.574,-79.590
1628114811.184,-18.066,-39.062,-30.762,0.000
1628114811.198,72.754,-62.500,-12.207,45.898
1628114811.202,-48.828,-69.336,-16.602,-33.691
1628114811.206,-154.785,-82.031,-24.902,-83.008
1628114811.210,-54.199,-59.082,-17.578,-16.602
1628114811.214,76.660,-47.852,-12.207,57.129
1628114811.218,20.508,-23.926,-17.578,14.648
1628114811.222,-118.652,-35.156,-19.043,-70.801
1628114811.225,-81.055,-13.672,-18.066,-35.645
1628114811.229,55.664,16.113,-37.109,42.969
1628114811.233,32.715,-48.828,-44.922,14.648
1628114811.237,-108.398,-69.336,-36.133,-80.566
1628114811.241,-108.398,-59.570,-21.484,-70.312
1628114811.237,46.875,-55.664,5.371,31.738
1628114811.241,98.145,-50.781,15.137,41.992
1628114811.245,-69.824,-62.988,-14.648,-71.289
1628114811.249,-153.809,-61.523,-33.691,-103.516
1628114811.253,6.348,-35.645,-13.184,5.371
1628114811.257,106.445,-13.672,-26.367,59.082
1628114811.261,-34.180,-22.949,-51.270,-36.621
1628114811.264,-166.504,-40.039,-49.316,-110.352
1628114811.268,-67.871,-29.297,-40.527,-38.574
1628114811.272,80.566,-41.992,-39.551,51.270
1628114811.276,16.602,-18.066,-47.363,-0.977
1628114811.280,-128.906,-29.785,-30.273,-83.008
1628114811.275,-87.402,-76.172,-6.348,-41.504
1628114811.279,58.105,-64.453,-6.836,44.922
1628114811.283,58.105,-33.203,-26.367,30.762
1628114811.287,-95.215,-20.020,-31.738,-71.289
1628114811.291,-136.719,-37.598,-33.203,-84.961
1628114811.295,15.137,-33.691,-36.133,17.090
1628114811.299,70.312,-46.387,-27.832,34.180
1628114811.302,-75.684,-35.645,-28.320,-65.918
1628114811.306,-162.109,-12.207,-40.039,-108.398
1628114811.310,-42.969,-42.969,-37.598,-23.438
1628114811.314,74.219,-41.992,-32.227,40.527
1628114811.318,-19.043,-46.387,-23.926,-32.715
1628114811.329,-131.348,-12.695,-16.113,-94.238
1628114811.333,-60.059,3.418,-22.949,-35.156
1628114811.337,87.402,-33.691,-21.973,50.781
1628114811.341,54.688,-21.484,-27.832,17.578
1628114811.345,-119.141,-26.367,-38.086,-92.773
1628114811.349,-115.723,1.953,-46.875,-81.543
1628114811.353,31.738,0.488,-48.340,20.508
1628114811.356,55.664,-46.387,-38.574,28.320
1628114811.360,-90.332,-51.270,-26.855,-67.871
1628114811.364,-143.066,-62.500,-20.508,-93.750
1628114811.368,-4.883,-10.254,-25.391,-5.859
1628114811.372,74.707,-10.254,-40.527,29.297
1628114811.384,-44.434,-57.617,-39.062,-52.734
1628114811.388,-150.879,-76.172,-27.832,-108.887
1628114811.392,-45.410,-56.641,-19.531,-37.109
1628114811.396,77.637,-21.484,-13.672,33.691
1628114811.400,5.371,-24.414,-13.672,-18.555
1628114811.404,-124.512,-22.461,-28.809,-81.543
1628114811.408,-74.219,-40.039,-24.414,-29.785
1628114811.411,84.473,-32.227,-4.883,62.012
1628114811.415,62.988,-19.531,-8.789,37.109
1628114811.419,-117.188,-55.664,-29.785,-81.055
1628114811.423,-129.395,-55.664,-46.387,-83.496
1628114811.427,27.832,-46.875,-44.922,18.555
1628114811.422,62.012,-22.461,-38.574,21.973
1628114811.426,-94.238,-17.578,-43.945,-79.590
1628114811.430,-162.109,-56.152,-33.203,-107.422
1628114811.434,-4.395,-30.762,-17.090,-4.883
1628114811.438,103.027,-31.250,-19.531,52.246
1628114811.442,-40.039,-16.113,-30.273,-43.945
1628114811.446,-158.691,-10.254,-32.227,-104.492
1628114811.449,-50.781,-41.504,-26.855,-26.855
1628114811.453,68.848,-38.574,-29.297,33.203
1628114811.457,-6.348,-53.711,-46.875,-31.738
1628114811.461,-160.645,-12.695,-63.477,-124.023
1628114811.465,-106.445,-8.789,-53.711,-77.148
1628114811.479,72.266,-65.430,-24.902,30.273
1628114811.483,61.523,-63.477,-13.184,11.719
1628114811.487,-103.516,-30.762,-20.020,-83.008
1628114811.491,-134.766,-8.789,-25.391,-91.797
1628114811.495,19.043,-25.879,-24.414,1.953
1628114811.499,92.285,-25.879,-16.113,41.504
1628114811.503,-45.898,-35.645,-31.250,-43.457
1628114811.506,-140.137,-23.926,-53.711,-87.891
1628114811.510,-17.090,-1.465,-33.203,-5.371
1628114811.514,93.262,-49.316,0.977,55.664
1628114811.518,-23.438,-67.383,-9.277,-23.926
1628114811.522,-163.574,-48.828,-29.297,-109.863
1628114811.516,-74.219,-26.367,-15.625,-44.434
1628114811.520,67.871,-28.320,-8.789,42.969
1628114811.524,22.949,-42.969,-9.277,1.465
1628114811.528,-107.422,-34.180,-20.508,-76.660
1628114811.532,-92.773,-37.109,-41.504,-50.293
1628114811.536,41.504,-6.348,-35.156,29.297
1628114811.540,46.387,-2.930,-37.598,10.742
1628114811.543,-109.863,-57.129,-34.668,-87.402
1628114811.547,-135.254,-35.156,-9.277,-85.449
1628114811.551,15.137,-32.715,0.000,11.719
1628114811.555,79.590,-13.672,-0.488,39.551
1628114811.559,-44.434,-15.625,-12.207,-39.551
1628114811.561,-142.578,-61.523,-27.344,-90.332
1628114811.565,-44.434,-61.523,-30.762,-31.250
1628114811.569,75.195,-45.410,-26.855,30.273
1628114811.573,-21.973,-51.270,-30.762,-41.016
1628114811.577,-153.809,-63.965,-39.062,-117.676
1628114811.581,-76.172,-66.406,-24.414,-49.316
1628114811.585,84.961,-70.801,-7.324,57.617
1628114811.588,58.105,-9.766,-22.949,25.879
1628114811.592,-118.164,23.438,-36.621,-91.309
1628114811.596,-118.164,-29.297,-16.113,-85.938
1628114811.600,47.363,-38.574,-4.883,27.344
1628114811.604,74.219,-50.293,-11.719,40.039
1628114811.609,-86.914,-25.391,-28.809,-65.430
1628114811.613,-148.438,-9.766,-39.551,-95.703
1628114811.617,-0.977,-44.922,-17.090,4.883
1628114811.621,89.844,-46.387,-16.113,55.176
1628114811.625,-39.551,-68.848,-30.273,-35.156
1628114811.629,-139.160,-6.348,-23.926,-87.402
1628114811.633,-41.016,21.484,-28.320,-18.066
1628114811.636,75.195,-36.621,-31.738,44.434
1628114811.640,9.277,-27.832,-35.645,-3.418
1628114811.644,-124.023,-49.316,-41.016,-79.102
1628114811.648,-92.285,-0.488,-29.785,-52.246
1628114811.652,39.551,23.438,-25.879,27.832
1628114811.652,20.996,-25.391,-30.273,0.488
1628114811.656,-132.812,-38.574,-37.109,-99.609
1628114811.660,-125.000,-30.273,-29.785,-82.520
1628114811.664,26.367,-41.504,-26.367,6.348
1628114811.668,50.781,-83.984,-29.785,6.836
1628114811.672,-89.844,-66.406,-36.133,-83.984
1628114811.676,-159.180,-44.434,-47.363,-115.234
1628114811.679,-36.621,-18.066,-52.734,-35.645
1628114811.683,62.012,19.043,-44.922,15.137
1628114811.687,-35.645,-40.039,-27.832,-50.781
1628114811.691,-156.250,-82.520,-42.969,-119.629
1628114811.695,-70.801,-67.383,-37.598,-54.688
1628114811.704,68.359,-24.902,-30.273,25.879
1628114811.708,-2.930,-22.949,-38.574,-37.109
1628114811.712,-159.668,-50.781,-21.973,-125.000
1628114811.716,-116.699,-36.133,-15.625,-81.543
1628114811.720,70.312,-38.086,-21.484,29.785
1628114811.724,87.891,4.883,-20.996,30.762
1628114811.728,-94.238,-7.324,-26.855,-79.590
1628114811.731,-142.090,-60.547,-30.273,-95.703
1628114811.735,17.090,-28.809,-41.504,1.465
1628114811.739,80.566,-34.180,-43.457,27.832
1628114811.743,-63.477,-35.645,-40.039,-65.430
1628114811.747,-148.438,-37.109,-51.270,-113.281
1628114811.744,-21.484,-41.992,-46.875,-33.203
1628114811.748,84.473,-27.344,-34.668,24.902
1628114811.752,-8.301,-23.438,-17.090,-32.715
1628114811.756,-111.328,-37.109,-27.344,-86.914
1628114811.760,-40.039,-38.086,-34.668,-36.133
1628114811.764,87.402,-21.973,-27.832,35.645
1628114811.768,38.086,-33.203,-41.016,-3.418
1628114811.771,-124.512,-43.945,-48.340,-99.609
1628114811.775,-107.422,-38.574,-41.504,-78.613
1628114811.779,67.383,-24.902,-19.531,27.344
1628114811.783,85.449,-22.461,-22.949,21.973
1628114811.787,-88.867,-40.527,-41.992,-88.379
1628114811.797,-142.090,-47.852,-51.758,-113.770
1628114811.801,19.043,-28.320,-42.969,0.488
1628114811.805,104.980,-43.457,-25.391,49.316
1628114811.809,-48.340,-68.359,-43.945,-55.176
1628114811.813,-145.996,-41.016,-42.480,-98.633
1628114811.817,-25.879,1.465,-40.527,-16.113
1628114811.821,77.148,-3.418,-64.453,41.504
1628114811.824,-14.160,-36.133,-57.129,-15.137
1628114811.828,-142.578,-36.133,-32.227,-89.844
1628114811.832,-86.914,-32.715,-29.297,-49.316
1628114811.836,56.641,-19.043,-36.133,35.645
1628114811.840,39.062,-31.738,-38.086,13.184
1628114811.837,-104.004,-47.852,-33.203,-68.359
1628114811.841,-117.676,-45.410,-41.504,-69.336
1628114811.845,35.645,-35.645,-48.828,23.438
1628114811.849,81.055,-20.020,-44.434,44.922
1628114811.853,-93.750,-35.645,-46.875,-67.871
1628114811.857,-166.016,-41.016,-54.199,-103.516
1628114811.861,-5.371,-35.645,-36.133,0.000
1628114811.864,90.820,-52.246,-10.742,49.316
1628114811.868,-29.785,-50.781,-20.996,-31.250
1628114811.872,-139.160,-32.715,-34.180,-87.891
1628114811.876,-33.691,-19.043,-20.020,-9.766
1628114811.880,89.355,-39.551,-15.625,57.129
1628114811.891,-7.812,-57.617,-43.945,-19.043
1628114811.895,-169.434,-52.734,-56.641,-114.746
1628114811.899,-121.094,-57.129,-51.758,-69.824
1628114811.903,61.035,-27.832,-34.668,45.410
1628114811.907,51.270,-20.020,-18.066,22.949
1628114811.911,-123.047,1.465,-36.621,-89.844
1628114811.915,-140.137,1.953,-38.574,-88.867
1628114811.918,8.789,-61.035,-33.691,0.977
1628114811.922,65.918,-60.059,-42.480,22.461
1628114811.926,-61.523,-41.504,-29.297,-57.129
1628114811.930,-143.066,-31.250,-13.672,-91.797
1628114811.934,-23.926,-23.438,-14.648,-18.066
1628114811.948,70.801,-23.926,-32.227,26.855
1628114811.952,-42.480,-29.785,-33.203,-50.293
1628114811.956,-160.645,-44.922,-40.527,-119.629
1628114811.960,-74.707,-26.855,-40.527,-55.664
1628114811.964,89.355,-17.578,-21.973,46.387
1628114811.968,44.922,-34.180,-32.715,11.230
1628114811.972,-131.348,-56.641,-53.223,-100.098
1628114811.975,-120.117,-34.668,-43.457,-85.449
1628114811.979,53.223,11.230,-23.926,31.738
1628114811.983,76.660,-19.531,-27.344,37.109
1628114811.987,-101.562,-50.781,-39.551,-81.543
1628114811.991,-146.484,-47.363,-38.574,-103.027
1628114811.986,12.695,-28.320,-32.715,-8.301
1628114811.990,70.801,-14.648,-41.992,15.625
1628114811.994,-71.777,-7.812,-52.734,-79.590
1628114811.998,-150.879,-3.906,-50.781,-124.023
1628114812.002,-29.785,-13.184,-52.734,-47.852
1628114812.006,85.938,20.996,-59.082,13.672
1628114812.010,-20.508,15.625,-65.918,-57.129
1628114812.013,-142.578,-41.992,-47.363,-118.652
1628114812.017,-57.129,-41.992,-33.203,-51.758
1628114812.021,69.824,-38.574,-47.363,17.578
1628114812.025,18.066,0.000,-59.570,-27.832
1628114812.029,-135.742,-0.977,-57.129,-115.234
1628114812.025,-135.254,-29.297,-60.059,-98.633
1628114812.029,20.020,-20.508,-68.359,-6.836
1628114812.033,66.406,-28.809,-56.152,10.742
1628114812.037,-78.125,-29.297,-35.645,-82.520
1628114812.041,-145.020,-36.133,-35.645,-111.816
1628114812.045,4.395,-35.645,-50.781,-1.953
1628114812.049,107.422,-19.043,-51.270,55.664
1628114812.052,-41.992,-15.137,-60.547,-51.270
1628114812.056,-162.109,4.395,-60.547,-122.559
1628114812.060,-41.992,-4.395,-34.180,-37.598
1628114812.064,82.031,-24.902,-22.461,27.344
1628114812.068,-9.277,-43.945,-32.227,-45.410
1628114812.078,-138.184,-9.277,-31.738,-108.398
1628114812.082,-74.707,6.836,-25.391,-55.664
1628114812.086,68.359,-39.551,-35.645,28.809
1628114812.090,46.875,-22.949,-40.039,11.230
1628114812.094,-110.352,-41.504,-31.250,-83.984
1628114812.098,-126.465,3.418,-56.152,-85.449
1628114812.102,29.785,40.039,-71.777,12.695
1628114812.105,68.848,-35.645,-66.406,26.855
1628114812.109,-78.125,-59.082,-55.176,-70.312
1628114812.113,-127.441,-59.082,-30.273,-91.309
1628114812.117,12.207,16.113,-35.645,-0.488
1628114812.121,92.773,8.789,-41.992,39.551
1628114812.119,-32.227,-56.152,-30.762,-48.340
1628114812.123,-141.602,-33.203,-34.668,-111.328
1628114812.127,-42.969,-24.902,-41.992,-40.039
1628114812.131,88.867,-28.809,-58.105,35.156
1628114812.135,12.695,-40.527,-53.711,-27.344
1628114812.139,-134.277,-38.086,-34.668,-113.770
1628114812.143,-88.867,-37.109,-29.785,-68.848
1628114812.146,61.523,-31.250,-38.086,28.320
1628114812.150,55.664,-11.719,-51.758,7.812
1628114812.154,-89.355,-45.898,-45.410,-82.520
1628114812.158,-113.770,-67.383,-36.133,-81.055
1628114812.162,26.855,-69.336,-24.414,11.719
1628114812.172,99.121,-4.883,-7.324,50.781
1628114812.176,-33.691,23.926,-25.879,-44.922
1628114812.180,-142.578,-43.945,-47.363,-105.957
1628114812.184,-36.621,-44.922,-46.875,-31.250
1628114812.188,69.824,-42.480,-41.016,24.902
1628114812.192,-24.902,2.930,-53.711,-42.969
1628114812.196,-144.531,7.812,-42.480,-102.539
1628114812.199,-57.617,-41.016,-12.695,-32.227
1628114812.203,92.285,-24.414,-23.438,54.688
1628114812.207,41.504,-34.668,-25.391,7.324
1628114812.211,-99.121,-10.254,-19.531,-79.590
1628114812.215,-70.312,-14.648,-19.531,-51.270
1628114812.229,82.520,-38.086,-13.184,45.898
1628114812.233,73.242,-45.898,-40.039,35.645
1628114812.237,-104.980,-35.645,-61.523,-80.566
1628114812.241,-144.531,7.812,-42.969,-100.586
1628114812.245,9.766,-6.836,-19.531,-8.789
1628114812.249,79.102,-26.855,-18.066,23.926
1628114812.253,-59.570,-41.504,-23.926,-61.523
1628114812.256,-141.602,-21.973,-21.484,-105.469
1628114812.260,-14.648,8.301,-19.531,-23.438
1628114812.264,83.008,-31.250,-37.598,23.438
1628114812.268,-23.926,-40.527,-48.828,-50.781
1628114812.272,-139.160,-44.434,-38.574,-106.934
1628114812.266,-61.035,-53.223,-20.020,-40.527
1628114812.270,92.285,-36.133,-9.277,57.617
1628114812.274,51.270,-31.738,-41.992,17.090
1628114812.278,-132.324,-41.992,-65.918,-98.145
1628114812.282,-124.512,-57.129,-31.250,-78.613
1628114812.286,44.922,18.066,-1.953,15.625
1628114812.290,60.547,36.621,-17.090,6.348
1628114812.293,-92.773,-56.641,-25.391,-82.031
1628114812.297,-135.254,-64.941,-20.508,-94.238
1628114812.301,19.531,-44.922,-6.348,3.418
1628114812.305,109.863,11.230,-7.812,50.781
1628114812.309,-38.086,-12.207,-30.762,-52.246
1628114812.306,-167.969,-60.547,-41.504,-122.559
1628114812.310,-75.195,-41.992,-41.992,-55.664
1628114812.314,61.523,-31.250,-32.227,25.879
1628114812.318,11.230,-2.441,-19.531,-4.395
1628114812.322,-121.582,-23.438,-23.926,-87.402
1628114812.326,-79.590,-47.852,-39.551,-56.152
1628114812.330,65.918,-64.941,-29.785,35.645
1628114812.333,46.387,-50.293,-21.973,10.254
1628114812.337,-105.957,11.719,-36.133,-89.355
1628114812.341,-110.352,-6.836,-25.879,-75.684
1628114812.345,45.898,-37.109,-19.531,23.438
1628114812.349,99.609,-50.781,-16.602,48.340
1628114812.360,-43.945,-21.484,-20.996,-38.574
1628114812.364,-126.465,2.930,-28.320,-87.402
1628114812.368,-1.465,-31.738,-39.551,-17.090
1628114812.372,100.586,-32.227,-40.527,36.133
1628114812.376,-9.766,-41.992,-28.809,-31.250
1628114812.380,-129.883,22.461,-36.621,-98.145
1628114812.384,-52.246,46.387,-31.738,-46.387
1628114812.387,72.266,-37.598,-22.949,21.484
1628114812.391,12.695,-43.457,-36.133,-15.137
1628114812.395,-132.812,-50.293,-34.668,-95.703
1628114812.399,-109.863,-9.277,-32.227,-74.707
1628114812.403,44.922,-7.812,-29.785,19.531
1628114812.417,53.223,-63.965,-21.973,16.113
1628114812.421,-98.145,-66.406,-26.855,-75.684
1628114812.425,-122.559,-51.758,-33.691,-76.660
1628114812.429,38.574,-17.578,-29.785,27.344
1628114812.433,100.586,-20.996,-16.113,51.758
1628114812.437,-70.312,-36.621,-32.227,-60.547
1628114812.441,-183.594,-64.453,-45.898,-122.070
1628114812.444,-47.852,-36.621,-26.855,-33.691
1628114812.448,75.684,32.227,-20.996,31.250
1628114812.452,-24.902,-24.902,-39.551,-37.109
1628114812.456,-145.996,-60.547,-48.828,-101.074
1628114812.460,-76.660,-56.152,-47.852,-44.922
1628114812.474,86.426,-28.320,-26.855,57.617
1628114812.478,42.969,-30.762,-19.043,18.066
1628114812.482,-140.137,-67.871,-30.762,-88.867
1628114812.486,-116.211,-54.199,-19.043,-58.594
1628114812.490,50.781,-57.617,-22.461,36.133
1628114812.494,60.059,27.832,-55.664,22.949
1628114812.498,-97.656,48.828,-63.477,-76.172
1628114812.501,-141.113,-50.293,-40.527,-91.309
1628114812.505,1.953,-52.734,-31.250,-2.930
1628114812.509,77.637,-57.617,-16.602,30.762
1628114812.513,-66.406,30.762,-41.504,-70.312
1628114812.517,-164.551,35.645,-60.059,-121.094
1628114812.513,-34.668,-56.641,-32.227,-24.414
1628114812.517,91.309,-55.664,-29.297,42.969
1628114812.521,-14.160,-65.430,-61.035,-40.527
1628114812.525,-145.508,-53.223,-65.430,-109.863
1628114812.529,-60.547,-34.668,-32.227,-42.480
1628114812.533,86.426,-38.086,-21.973,43.945
1628114812.537,37.598,-61.035,-45.898,0.977
1628114812.540,-135.742,-44.922,-47.363,-104.492
1628114812.544,-129.883,-19.531,-25.391,-86.914
1628114812.548,31.738,-50.781,-30.273,8.301
1628114812.552,68.848,-55.176,-38.086,19.043
1628114812.556,-82.031,-57.129,-29.297,-71.289
1628114812.547,-135.742,0.000,-32.715,-83.008
1628114812.551,9.277,50.293,-47.363,13.184
1628114812.555,99.609,-20.508,-42.480,50.781
1628114812.559,-23.438,-21.973,-27.344,-34.668
1628114812.563,-143.555,-33.691,-27.832,-104.004
1628114812.567,-47.363,15.137,-38.574,-45.410
1628114812.571,96.680,44.434,-26.367,38.574
1628114812.574,35.156,-35.156,-10.254,-5.371
1628114812.578,-112.793,-47.852,-22.461,-92.285
1628114812.582,-84.473,-65.430,-30.762,-60.059
1628114812.586,56.152,-31.738,-41.504,21.973
1628114812.590,56.152,-22.461,-45.410,7.812
1628114812.588,-95.215,-49.316,-50.781,-82.031
1628114812.592,-117.676,-40.039,-58.594,-75.684
1628114812.596,41.504,-17.578,-24.414,19.531
1628114812.600,97.656,6.836,-13.184,41.504
1628114812.604,-46.387,-13.184,-31.738,-47.363
1628114812.608,-128.418,-28.320,-23.926,-93.750
1628114812.612,-9.277,-50.293,-23.926,-19.531
1628114812.615,93.262,-8.301,-36.133,33.691
1628114812.619,-16.602,13.672,-30.273,-41.016
1628114812.623,-133.301,-47.852,-21.973,-100.586
1628114812.627,-55.664,-43.457,-37.598,-39.062
1628114812.631,87.402,-35.645,-42.480,42.480
1628114812.641,40.527,0.000,-36.621,-5.859
1628114812.645,-118.164,23.926,-37.109,-101.074
1628114812.649,-80.566,-31.250,-32.715,-58.594
1628114812.653,86.426,-26.367,-20.996,42.969
1628114812.657,87.402,-46.387,-26.855,32.715
1628114812.661,-69.824,39.062,-33.203,-59.570
1628114812.665,-100.098,90.332,-23.438,-61.523
1628114812.668,28.809,-37.109,-31.738,20.996
1628114812.672,83.984,-70.312,-28.809,45.410
1628114812.676,-55.176,-67.871,-21.973,-39.062
1628114812.680,-166.504,-27.832,-38.574,-108.887
1628114812.684,-42.480,-20.020,-49.316,-33.691
1628114812.698,78.125,-47.363,-47.363,37.598
1628114812.702,-28.320,-35.645,-33.203,-35.156
1628114812.706,-145.996,-8.789,-15.137,-95.215
1628114812.710,-68.359,2.930,-18.066,-39.551
1628114812.714,64.941,-42.969,-28.320,29.785
1628114812.718,30.273,-43.945,-16.602,-3.906
1628114812.722,-123.047,-43.457,-8.789,-97.168
1628114812.725,-135.742,-51.758,-26.855,-98.633
1628114812.729,22.461,-19.043,-33.691,-1.953
1628114812.733,62.988,-30.273,-29.785,13.672
1628114812.737,-97.656,-54.199,-24.902,-85.938
1628114812.741,-159.668,-65.430,-19.531,-108.398
1628114812.734,-4.395,-60.059,-15.625,-4.395
1628114812.738,92.285,-45.410,-10.742,49.805
1628114812.742,-52.734,-57.129,-22.949,-46.875
1628114812.746,-167.969,-60.547,-36.133,-109.863
1628114812.750,-46.387,-54.199,-33.691,-18.555
1628114812.754,77.148,12.695,-27.832,45.898
1628114812.758,-27.344,30.762,-31.738,-30.273
1628114812.761,-163.086,-36.621,-27.832,-109.863
1628114812.765,-104.980,-49.316,-23.438,-63.477
1628114812.769,41.992,-55.664,-22.461,25.879
1628114812.773,41.016,4.395,-25.879,10.254
1628114812.777,-110.352,0.488,-14.648,-84.473
1628114812.774,-120.117,-67.871,-8.789,-79.102
1628114812.778,25.391,-68.359,-29.785,14.160
1628114812.782,55.176,-51.758,-27.832,15.625
1628114812.786,-93.750,-37.109,-29.785,-87.402
1628114812.790,-163.086,-44.922,-40.527,-126.465
1628114812.794,-25.391,-32.715,-45.410,-37.598
1628114812.798,82.031,-33.691,-47.363,23.438
1628114812.801,-42.969,-26.855,-35.156,-58.594
1628114812.805,-165.039,10.742,-24.414,-128.906
1628114812.809,-51.758,-13.672,-18.066,-52.734
1628114812.813,82.520,-34.668,-32.227,28.320
1628114812.817,-5.371,-45.410,-46.875,-25.879
1628114812.828,-165.039,-21.973,-44.922,-116.211
1628114812.832,-113.770,-18.555,-39.062,-68.848
1628114812.836,57.617,-53.711,-23.438,40.039
1628114812.840,41.504,-61.035,-24.414,19.531
1628114812.844,-112.793,-70.801,-26.367,-75.195
1628114812.848,-123.535,-1.953,-26.367,-69.336
1628114812.852,34.180,31.250,-20.020,32.227
1628114812.855,90.332,-28.809,-9.277,59.570
1628114812.859,-56.641,-30.762,-18.066,-35.156
1628114812.863,-153.809,-45.410,-25.391,-91.309
1628114812.867,-49.805,-16.602,-23.438,-31.738
1628114812.871,55.176,-13.672,-23.926,21.973
1628114812.904,-31.738,-49.316,-25.879,-30.762
1628114812.908,-143.066,-52.734,-25.391,-91.309
1628114812.912,-64.941,-66.895,-31.738,-41.504
1628114812.916,70.801,-47.363,-43.457,36.133
1628114812.920,32.715,-47.852,-30.762,7.324
1628114812.924,-117.676,-47.852,-32.715,-88.867
1628114812.928,-113.770,-34.180,-47.852,-78.613
1628114812.931,41.992,-18.066,-30.762,15.137
1628114812.935,58.105,-6.836,-15.625,17.090
1628114812.939,-108.398,-49.316,-23.438,-82.520
1628114812.943,-145.508,-47.363,-36.621,-94.727
1628114812.947,12.207,-38.574,-30.273,2.930
1628114812.923,83.008,-37.109,-20.508,40.527
1628114812.927,-55.664,-35.645,-23.438,-47.363
1628114812.931,-151.367,-50.781,-42.480,-96.680
1628114812.935,-27.344,-64.941,-53.223,-22.461
1628114812.939,87.402,-79.102,-36.133,34.180
1628114812.943,-8.789,-18.066,-37.109,-36.133
1628114812.947,-138.672,12.695,-46.875,-104.980
1628114812.950,-78.613,-39.062,-41.016,-54.199
1628114812.954,64.453,-54.688,-32.227,27.832
1628114812.958,42.480,-40.039,-17.578,5.371
1628114812.962,-118.164,-33.691,-28.320,-93.750
1628114812.966,-108.887,-33.691,-35.156,-76.172
1628114812.979,61.035,-21.973,-17.090,34.180
1628114812.983,80.078,-40.527,-23.438,38.086
1628114812.987,-87.402,-63.477,-47.852,-67.383
1628114812.991,-142.090,-30.762,-49.316,-98.145
1628114812.995,16.113,-26.855,-29.297,0.000
1628114812.999,95.703,-47.852,-45.410,40.527
1628114813.003,-34.180,-56.152,-62.988,-50.781
1628114813.006,-119.629,-25.391,-45.898,-91.797
1628114813.010,-16.113,15.137,-35.156,-20.020
1628114813.014,99.121,-26.367,-25.879,48.340
1628114813.018,29.785,-45.898,-25.879,1.953
1628114813.022,-113.281,-43.945,-33.691,-81.055
1628114813.017,-74.219,-18.066,-35.645,-37.109
1628114813.021,97.656,-23.438,-37.109,68.848
1628114813.025,86.426,-65.430,-38.574,50.293
1628114813.029,-86.914,-45.410,-41.992,-59.082
1628114813.033,-102.539,-41.504,-43.457,-59.082
1628114813.037,45.898,-1.953,-43.945,31.250
1628114813.041,95.215,14.648,-30.273,53.223
1628114813.044,-63.965,-35.645,-19.043,-47.852
1628114813.048,-150.879,-35.645,-30.762,-96.191
1628114813.052,-8.301,-27.832,-25.391,-6.836
1628114813.056,110.352,23.926,-18.555,52.246
1628114813.060,-0.977,7.812,-21.484,-25.879
1628114813.056,-113.770,-51.270,-25.391,-88.867
1628114813.060,-23.926,-43.945,-33.203,-22.461
1628114813.064,104.492,-30.273,-34.668,54.688
1628114813.068,21.484,-36.133,-34.668,-12.695
1628114813.072,-142.090,-31.250,-56.641,-109.863
1628114813.076,-91.309,-26.855,-61.523,-59.570
1628114813.080,73.242,-46.875,-28.320,38.574
1628114813.083,66.406,-18.066,-20.508,19.531
1628114813.087,-92.285,20.020,-21.484,-81.543
1628114813.091,-129.883,-13.184,-18.066,-96.191
1628114813.095,11.230,-41.016,-25.391,-12.207
1628114813.099,84.473,-57.129,-20.020,17.578
1628114813.112,-58.105,-35.156,-30.762,-77.637
1628114813.116,-145.508,-2.930,-45.410,-114.746
1628114813.120,-15.137,-24.414,-37.109,-30.762
1628114813.124,92.285,-25.391,-31.250,15.625
1628114813.128,-11.719,-36.621,-18.066,-51.758
1628114813.132,-142.090,-12.695,-14.648,-112.305
1628114813.136,-67.383,4.395,-36.133,-52.734
1628114813.139,78.125,-26.855,-39.062,36.133
1628114813.143,26.367,-37.109,-18.555,-2.441
1628114813.147,-129.883,-44.434,-15.625,-93.750
1628114813.151,-100.586,-39.062,-20.020,-60.547
1628114813.155,66.406,-47.852,-9.766,44.434
1628114813.186,78.613,-79.102,-28.809,42.480
1628114813.190,-100.586,-62.988,-50.293,-76.660
1628114813.194,-158.203,-28.809,-34.668,-108.398
1628114813.198,-16.113,-11.230,-31.738,-14.648
1628114813.202,70.801,-10.254,-24.902,29.785
1628114813.206,-42.480,-30.762,-11.719,-40.039
1628114813.210,-151.855,-62.500,-25.879,-97.656
1628114813.213,-59.570,-62.500,-45.898,-41.016
1628114813.217,91.797,-16.602,-10.742,48.828
1628114813.221,-11.230,-30.762,-13.184,-23.926
1628114813.225,-185.547,-45.410,-53.223,-128.906
1628114813.229,-104.004,-26.367,-41.016,-70.801
1628114813.230,-146.484,-64.453,-39.062,-113.281
1628114813.234,-138.672,-55.176,-33.691,-91.309
1628114813.238,39.551,-32.227,1.953,22.949
1628114813.242,90.820,-3.906,-5.859,42.480
1628114813.246,-74.219,-23.926,-34.180,-69.336
1628114813.249,-149.414,-74.707,-15.625,-106.934
1628114813.253,12.207,-40.039,-5.859,5.371
1628114813.257,94.727,-15.625,-24.414,44.922
1628114813.261,-59.570,-16.602,-39.062,-62.500
1628114813.265,-174.805,-32.227,-39.062,-120.605
1628114813.243,-61.035,-32.227,-21.973,-35.156
1628114813.247,68.359,-34.180,-17.578,38.574
1628114813.251,-8.789,-50.781,-22.949,-21.973
1628114813.255,-138.184,-43.457,-26.367,-98.145
1628114813.259,-96.191,-51.758,-41.504,-66.406
1628114813.263,44.922,-45.898,-51.270,19.531
1628114813.267,35.645,-35.156,-48.828,5.859
1628114813.270,-119.629,-36.621,-37.598,-92.773
