timestamps,TP9,AF7,AF8,TP10
1628114717.036,20.508,5.859,-26.855,8.301
1628114717.040,16.113,-10.742,-27.344,-5.371
1628114717.044,-79.102,-34.668,-36.133,-66.406
1628114717.048,-85.449,-25.391,-33.203,-62.012
1628114717.052,14.160,-11.719,-35.645,1.465
1628114717.056,41.992,-2.441,-30.273,20.020
1628114717.060,-51.758,-8.789,-27.832,-43.457
1628114717.063,-111.328,-31.250,-25.879,-84.961
1628114717.067,-33.203,-26.367,-23.926,-27.344
1628114717.071,65.430,-27.832,-6.836,35.645
1628114717.075,20.508,-45.410,-6.348,-3.418
1628114717.079,-85.449,-37.109,-33.691,-72.754
1628114717.082,-37.598,0.977,-61.523,-65.918
1628114717.086,-100.586,7.812,-47.852,-93.750
1628114717.090,-73.730,3.906,-40.527,-57.617
1628114717.094,17.578,-12.207,-36.133,1.953
1628114717.098,26.367,-21.973,-30.762,-9.277
1628114717.101,-56.152,-30.762,-42.480,-61.035
1628114717.105,-95.215,-38.574,-59.082,-71.777
1628114717.109,-5.371,-19.531,-33.203,-17.578
1628114717.113,59.082,-7.324,-11.719,14.648
1628114717.117,-21.484,-26.855,-19.043,-41.504
1628114717.114,-70.801,-49.316,-12.695,-66.895
1628114717.118,-15.137,-41.504,-9.277,-18.066
1628114717.122,36.133,-14.160,-30.273,3.906
1628114717.126,-18.555,-21.484,-34.180,-36.133
1628114717.130,-107.422,-41.016,-42.480,-87.891
1628114717.134,-73.242,-33.203,-47.852,-59.082
1628114717.138,26.367,-12.207,-34.668,14.648
1628114717.141,4.883,-13.672,-31.738,-8.301
1628114717.145,-81.055,-31.250,-34.180,-62.988
1628114717.149,-76.172,-39.062,-40.527,-50.293
1628114717.153,7.324,-28.809,-35.645,-4.883
1628114717.157,34.180,-13.672,-15.625,1.953
1628114717.170,-47.852,-17.578,-16.113,-46.875
1628114717.174,-89.355,-30.762,-26.367,-63.965
1628114717.178,-20.508,-51.758,-34.668,-23.438
1628114717.182,31.250,-45.898,-30.273,-3.418
1628114717.186,-30.273,-26.367,-29.785,-34.180
1628114717.190,-97.656,-22.949,-46.875,-64.941
1628114717.194,-50.781,-17.090,-33.691,-36.133
1628114717.197,16.113,-12.695,-26.367,-3.906
1628114717.201,-26.855,-10.254,-45.410,-44.434
1628114717.205,-102.051,-20.508,-37.109,-85.938
1628114717.209,-55.664,-18.066,-26.367,-32.227
1628114717.213,42.480,-4.883,-28.320,30.762
1628114717.205,20.508,-16.113,-19.043,-0.488
1628114717.209,-75.195,-29.297,-6.348,-54.688
1628114717.213,-77.148,-25.879,-18.555,-41.992
1628114717.217,12.695,-16.113,-28.809,11.230
1628114717.221,29.297,-19.043,-23.438,3.906
1628114717.225,-66.895,-54.199,-36.621,-69.336
1628114717.229,-100.586,-64.453,-47.852,-77.637
1628114717.232,-10.742,-43.945,-26.855,-15.137
1628114717.236,36.621,-24.902,-22.461,-0.977
1628114717.240,-48.828,-26.367,-39.551,-52.734
1628114717.244,-121.582,-43.945,-47.852,-79.102
1628114717.248,-48.828,-31.250,-39.062,-18.066
1628114717.264,47.852,-7.324,-26.855,27.344
1628114717.268,-5.859,-20.996,-31.250,-25.391
1628114717.272,-72.266,-20.996,-16.113,-48.828
1628114717.276,-34.180,-18.066,-5.859,-5.859
1628114717.280,38.086,-35.156,-23.926,15.137
1628114717.284,20.020,-13.184,-41.016,-32.227
1628114717.288,-77.637,-18.066,-33.691,-89.355
1628114717.291,-91.309,-48.340,-17.578,-73.242
1628114717.295,-0.488,-57.129,-19.531,-6.836
1628114717.299,42.480,-57.617,-18.555,9.277
1628114717.303,-41.992,-27.344,-23.438,-44.434
1628114717.307,-112.793,-19.531,-31.250,-73.730
1628114717.302,-29.785,-20.508,-24.414,-15.625
1628114717.306,52.734,-20.020,-20.020,27.832
1628114717.310,-25.879,-34.668,-27.832,-28.809
1628114717.314,-99.609,-40.527,-29.785,-67.383
1628114717.318,-34.180,-38.086,-17.090,-22.949
1628114717.322,46.387,-44.922,-17.578,13.184
1628114717.326,0.977,-62.012,-36.621,-31.738
1628114717.329,-85.449,-55.176,-37.598,-71.289
1628114717.333,-72.266,-42.480,-25.391,-38.574
1628114717.337,27.344,-54.199,-10.742,12.207
1628114717.341,39.062,-48.828,-9.277,-0.977
1628114717.345,-66.895,-25.391,-24.414,-58.594
1628114717.373,-110.840,-35.156,-29.785,-63.965
1628114717.377,-23.926,-53.223,-21.484,-6.348
1628114717.381,37.598,-33.203,-11.230,18.555
1628114717.385,-37.598,-23.926,-21.484,-41.504
1628114717.389,-90.820,-33.691,-25.879,-59.570
1628114717.393,-29.785,-50.781,-31.738,-9.766
1628114717.397,33.203,-43.945,-47.363,9.766
1628114717.400,-16.602,-41.016,-42.969,-31.250
1628114717.404,-83.496,-42.480,-29.297,-58.594
1628114717.408,-54.199,-32.715,-28.809,-27.344
1628114717.412,15.137,-33.203,-31.250,6.348
1628114717.416,-9.766,-27.344,-32.715,-36.133
1628114717.394,-109.375,-23.438,-36.621,-99.121
1628114717.398,-86.914,-20.996,-27.832,-61.523
1628114717.402,25.391,-18.555,-9.766,10.254
1628114717.406,41.992,-15.137,-25.391,13.184
1628114717.410,-59.570,-24.414,-59.570,-57.617
1628114717.414,-92.773,-38.574,-44.434,-58.594
1628114717.418,-12.207,-47.852,-31.738,0.977
1628114717.421,-1.465,-44.434,-47.363,-22.949
1628114717.425,-77.637,-29.785,-41.504,-78.613
1628114717.429,-122.070,-41.992,-27.832,-79.590
1628114717.433,-61.035,-60.059,-18.066,-24.902
1628114717.437,21.973,-47.852,-7.324,3.906
1628114717.448,-14.160,-15.625,-19.531,-30.273
1628114717.452,-103.027,-9.277,-31.738,-67.383
1628114717.456,-74.707,-33.691,-18.066,-40.039
1628114717.460,35.156,-21.484,-12.207,19.531
1628114717.464,21.973,-22.461,-13.672,0.488
1628114717.468,-63.965,-25.879,-25.879,-52.246
1628114717.472,-63.965,-14.160,-49.316,-30.273
1628114717.475,14.160,-20.020,-31.738,21.973
1628114717.479,32.227,-13.672,-18.066,9.277
1628114717.483,-62.500,-9.277,-28.809,-54.688
1628114717.487,-124.023,-22.461,-34.180,-85.449
1628114717.491,-43.457,-40.527,-25.879,-20.996
1628114717.486,35.645,-45.898,-13.672,16.602
1628114717.490,-30.273,-39.551,-16.602,-49.316
1628114717.494,-111.328,-47.363,-23.926,-85.938
1628114717.498,-43.945,-35.645,-23.438,-28.320
1628114717.502,60.059,-6.836,-20.508,28.809
1628114717.506,-10.254,-6.836,-36.621,-32.227
1628114717.510,-127.441,-29.785,-41.992,-96.680
1628114717.513,-90.332,-33.203,-35.645,-57.617
1628114717.517,19.043,-3.418,-41.016,4.395
1628114717.521,17.578,-2.441,-32.715,-0.488
1628114717.525,-77.148,-14.160,-25.879,-54.688
1628114717.529,-101.562,-27.832,-32.715,-65.918
1628114717.542,-15.137,-27.344,-47.363,-13.184
1628114717.546,25.391,-18.066,-53.223,-10.742
1628114717.550,-44.434,-44.922,-46.875,-70.312
1628114717.554,-90.820,-58.105,-36.621,-75.195
1628114717.558,-7.812,-21.484,-20.508,-4.883
1628114717.562,65.430,-7.812,-22.949,23.926
1628114717.566,-34.180,-29.297,-44.922,-59.082
1628114717.569,-112.793,-25.879,-37.598,-103.516
1628114717.573,-48.828,-18.066,-24.414,-51.758
1628114717.577,25.391,-33.691,-41.016,-8.301
1628114717.581,4.395,-43.457,-37.109,-35.156
1628114717.585,-79.102,-42.480,-25.391,-79.590
1628114717.581,-73.242,-39.062,-38.086,-51.270
1628114717.585,39.062,-23.438,-39.551,20.996
1628114717.589,55.176,-20.020,-20.020,11.719
1628114717.593,-52.246,-26.855,-22.461,-58.594
1628114717.597,-89.844,-32.227,-43.457,-69.336
1628114717.601,5.859,-20.508,-42.969,-6.348
1628114717.605,57.129,-15.625,-18.066,16.113
1628114717.608,-43.457,-40.527,-17.578,-52.246
1628114717.612,-121.094,-40.527,-34.668,-88.867
1628114717.616,-41.504,-17.578,-23.926,-25.391
1628114717.620,35.156,-28.809,-18.555,15.625
1628114717.624,-26.855,-36.133,-29.785,-50.781
1628114717.638,-106.934,-28.809,-40.039,-104.492
1628114717.642,-67.871,-50.293,-34.668,-60.059
1628114717.646,37.598,-55.176,-25.879,11.230
1628114717.650,18.066,-42.480,-39.551,-4.395
1628114717.654,-90.820,-52.734,-38.574,-72.266
1628114717.658,-90.332,-26.367,-19.043,-48.340
1628114717.662,10.254,0.488,-14.160,15.137
1628114717.665,25.879,-27.832,-19.531,-4.395
1628114717.669,-60.059,-49.316,-13.184,-64.453
1628114717.673,-94.238,-33.691,-20.508,-66.406
1628114717.677,-21.484,-4.395,-43.457,-16.113
1628114717.681,43.945,-16.113,-24.414,0.488
1628114717.673,-37.109,-32.715,-25.391,-59.570
1628114717.677,-119.629,-28.809,-47.852,-102.539
1628114717.681,-47.852,-31.738,-36.621,-42.480
1628114717.685,62.012,-10.254,-22.461,30.273
1628114717.689,16.602,-24.414,-24.902,-13.672
1628114717.693,-79.590,-65.918,-26.855,-60.547
1628114717.697,-41.504,-62.012,-24.902,-15.137
1628114717.700,44.434,-9.277,-22.949,18.066
1628114717.704,38.574,51.758,-8.789,-4.395
1628114717.708,-53.223,3.418,-14.160,-55.664
1628114717.712,-80.566,-56.152,-43.945,-62.012
1628114717.716,8.789,-51.758,-40.039,-2.930
1628114717.748,48.828,-33.203,-24.902,10.254
1628114717.752,-47.852,-12.695,-43.457,-55.664
1628114717.756,-104.980,-30.273,-48.828,-86.914
1628114717.760,-29.785,-30.762,-22.949,-29.785
1628114717.764,35.645,-26.367,-17.578,5.371
1628114717.768,-27.344,-34.180,-24.902,-41.992
1628114717.772,-95.703,-27.832,-14.160,-70.801
1628114717.775,-22.461,-17.578,-6.836,-9.277
1628114717.779,68.848,-20.020,-1.953,47.852
1628114717.783,14.648,-44.922,-18.066,-0.488
1628114717.787,-94.238,-48.828,-51.270,-65.918
1628114717.791,-85.938,-36.133,-61.035,-49.805
1628114717.767,6.348,-31.738,-55.176,5.371
1628114717.771,21.484,-31.250,-41.016,-11.719
1628114717.775,-73.730,-53.223,-30.273,-80.566
1628114717.779,-108.398,-54.199,-16.602,-76.660
1628114717.783,-13.184,-30.762,-4.395,-13.672
1628114717.787,52.246,-12.695,1.953,15.625
1628114717.791,-24.902,-23.438,-6.348,-35.156
1628114717.794,-104.980,-47.363,-25.391,-67.383
1628114717.798,-56.152,-31.250,-35.156,-29.785
1628114717.802,23.926,-24.414,-31.738,9.277
1628114717.806,-37.109,-40.527,-42.969,-40.527
1628114717.810,-124.512,-48.340,-41.504,-93.750
1628114717.823,-74.219,-40.527,-18.555,-48.340
1628114717.827,16.602,-36.621,-34.668,1.465
1628114717.831,-5.859,-35.156,-45.410,-26.855
1628114717.835,-92.773,-38.086,-37.109,-70.312
1628114717.839,-96.680,-59.082,-23.926,-62.500
1628114717.843,-6.348,-23.438,-27.344,-19.043
1628114717.847,20.020,6.348,-52.246,-26.367
1628114717.850,-76.660,-35.645,-47.852,-87.402
1628114717.854,-124.023,-37.109,-42.969,-91.309
1628114717.858,-29.297,-27.832,-24.414,-18.555
1628114717.862,46.387,-44.434,-17.090,20.508
1628114717.866,-34.180,-41.992,-25.879,-37.598
1628114717.860,-110.352,-18.555,-38.086,-86.426
1628114717.864,-53.223,-20.020,-54.199,-49.316
1628114717.868,33.691,-35.645,-32.715,-3.906
1628114717.872,-17.090,-56.641,-12.695,-49.316
1628114717.876,-113.770,-59.082,-36.621,-96.191
1628114717.880,-95.703,-43.945,-51.758,-59.082
1628114717.884,2.930,-33.203,-28.809,-3.418
1628114717.887,-7.324,-33.691,-17.578,-25.879
1628114717.891,-96.191,-29.297,-17.578,-73.242
1628114717.895,-85.449,-24.902,-20.020,-44.922
1628114717.899,14.648,-22.461,-24.902,18.066
1628114717.903,34.668,-36.133,-37.109,8.301
1628114717.917,-58.105,-40.039,-47.363,-61.035
1628114717.921,-94.727,-8.301,-15.625,-62.012
1628114717.925,-20.996,-12.695,-9.766,-5.371
1628114717.929,26.855,-53.223,-30.762,-2.930
1628114717.933,-36.133,-70.312,-41.992,-49.805
1628114717.937,-107.422,-55.664,-36.621,-73.242
1628114717.941,-51.270,-42.969,-32.227,-31.738
1628114717.944,44.434,-36.133,-37.598,14.648
1628114717.948,26.367,-26.855,-31.738,-4.395
1628114717.952,-40.527,-7.812,-17.090,-27.344
1628114717.956,-42.480,-9.277,-32.227,-13.184
1628114717.960,9.277,-20.508,-42.480,12.695
1628114717.955,14.160,-20.020,-22.461,9.277
1628114717.959,-68.848,-37.598,-16.602,-54.199
1628114717.963,-101.562,-39.062,-22.461,-66.895
1628114717.967,-12.207,-6.836,-15.137,-2.930
1628114717.971,46.387,-17.090,-15.625,20.508
1628114717.975,-46.387,-39.551,-31.250,-41.992
1628114717.979,-105.469,-32.227,-31.250,-68.359
1628114717.982,-32.227,-34.180,-24.414,-25.879
1628114717.986,37.109,-2.930,-24.414,2.441
1628114717.990,0.488,18.555,-23.926,-25.879
1628114717.994,-85.938,-18.555,-27.344,-71.289
1628114717.998,-64.941,-59.570,-36.621,-43.945
1628114718.013,27.832,-36.133,-34.180,5.371
1628114718.017,10.254,-7.812,-32.715,-17.090
1628114718.021,-67.383,-29.297,-17.578,-57.129
1628114718.025,-65.430,-42.969,-20.020,-42.969
1628114718.029,28.320,-37.109,-23.926,11.230
1628114718.033,60.547,14.160,-25.391,15.137
1628114718.037,-48.340,28.809,-44.434,-57.129
1628114718.040,-93.262,-16.602,-30.273,-68.359
1628114718.044,1.953,-16.113,-10.742,-9.277
1628114718.048,56.152,-12.695,-14.648,7.324
1628114718.052,-26.855,-3.418,-26.855,-47.852
1628114718.056,-89.844,-5.859,-22.949,-71.777
1628114718.048,-27.344,-33.203,-23.926,-21.973
1628114718.052,36.133,-50.781,-26.855,6.348
1628114718.056,-15.625,-63.965,-39.551,-40.527
1628114718.060,-85.938,-42.480,-37.598,-71.289
1628114718.064,-47.363,-37.109,-22.949,-26.367
1628114718.068,28.320,-63.965,-24.902,5.371
1628114718.072,11.719,-53.711,-27.344,-27.832
1628114718.075,-62.500,-30.273,-36.133,-74.219
1628114718.079,-72.754,-28.809,-32.227,-59.570
1628114718.083,-1.953,-28.809,-17.090,-8.301
1628114718.087,22.461,-16.602,-20.508,-16.602
1628114718.091,-70.801,-21.973,-35.156,-85.449
1628114718.104,-112.793,-15.137,-36.621,-93.262
1628114718.108,-21.973,1.465,-38.086,-22.461
1628114718.112,32.715,-26.367,-36.133,4.883
1628114718.116,-41.504,-35.645,-28.320,-51.270
1628114718.120,-106.934,-35.645,-31.738,-81.543
1628114718.124,-44.434,-36.621,-28.809,-32.715
1628114718.128,28.320,-47.852,-24.414,-2.930
1628114718.131,-21.973,-48.828,-21.484,-49.805
1628114718.135,-106.445,-39.551,-28.320,-98.633
1628114718.139,-75.684,-30.762,-41.992,-56.152
1628114718.143,11.230,-17.090,-24.902,4.883
1628114718.147,-7.812,-19.531,-27.832,-26.367
1628114718.144,-94.727,-22.949,-48.340,-81.543
1628114718.148,-85.449,-29.297,-37.598,-54.199
1628114718.152,13.672,-28.320,-20.508,18.066
1628114718.156,43.457,-16.113,-18.066,22.949
1628114718.160,-51.758,-43.457,-24.414,-47.363
1628114718.164,-94.238,-57.129,-25.879,-61.035
1628114718.168,-6.836,-34.668,-33.203,5.371
1628114718.171,56.641,-31.250,-31.738,21.484
1628114718.175,-30.273,-24.902,-23.438,-48.340
1628114718.179,-115.723,-24.902,-14.160,-83.008
1628114718.183,-53.711,-23.926,-10.254,-31.250
1628114718.187,44.434,-17.578,-0.977,27.344
1628114718.200,21.973,7.812,-5.371,1.465
1628114718.204,-87.402,23.438,-32.715,-56.641
1628114718.208,-79.590,-22.461,-36.621,-23.438
1628114718.212,16.602,-45.898,-20.020,25.391
1628114718.216,15.625,-50.781,-25.391,-13.184
1628114718.220,-69.824,-7.812,-43.457,-58.594
1628114718.224,-95.703,-11.719,-41.992,-59.570
1628114718.227,-11.230,-41.016,-37.109,-19.043
1628114718.231,37.598,-18.555,-23.926,-6.348
1628114718.235,-48.828,-14.648,-19.043,-57.129
1628114718.239,-95.703,-18.066,-32.227,-70.312
1628114718.243,-20.996,-30.273,-32.227,-12.695
1628114718.236,34.180,-27.832,-31.250,8.789
1628114718.240,-13.184,-25.391,-25.879,-38.086
1628114718.244,-89.355,-34.668,-27.344,-67.383
1628114718.248,-59.570,-25.391,-40.527,-33.691
1628114718.252,30.273,-39.551,-40.527,15.137
1628114718.256,27.832,-37.598,-28.809,0.488
1628114718.260,-52.734,-26.367,-21.973,-48.828
1628114718.263,-70.801,-59.570,-33.691,-44.434
1628114718.267,14.648,-41.992,-36.621,3.418
1628114718.271,24.902,-17.090,-37.598,-8.789
1628114718.275,-76.172,-20.020,-41.992,-68.848
1628114718.279,-104.492,-28.809,-34.180,-74.707
1628114718.294,-24.902,-27.344,-30.273,-14.648
1628114718.298,21.973,-15.137,-24.414,0.000
1628114718.302,-46.387,-21.973,-23.438,-55.176
1628114718.306,-115.234,-48.340,-46.387,-79.102
1628114718.310,-52.734,-65.918,-60.547,-35.156
1628114718.314,32.715,-60.059,-45.898,2.441
1628114718.318,-10.742,-48.828,-35.645,-30.273
1628114718.321,-103.027,-40.039,-47.852,-74.707
1628114718.325,-82.520,-34.180,-34.180,-55.664
1628114718.329,14.160,-29.297,-12.695,0.488
1628114718.333,-0.488,-9.277,-10.254,-25.879
1628114718.337,-92.285,-4.883,-7.324,-86.914
1628114718.329,-78.125,-19.531,-5.859,-58.105
1628114718.333,17.090,-42.969,-21.973,5.371
1628114718.337,50.781,-42.480,-27.832,14.160
1628114718.341,-51.758,-48.340,-35.156,-57.617
1628114718.345,-113.281,-49.316,-36.133,-77.637
1628114718.349,-26.367,-31.250,-37.598,-20.508
1628114718.353,36.621,-32.227,-48.828,5.371
1628114718.356,-34.180,-23.926,-34.668,-42.969
1628114718.360,-112.305,3.418,-36.621,-83.984
1628114718.364,-64.453,-12.207,-38.574,-45.898
1628114718.368,22.461,-33.203,-37.109,0.977
1628114718.372,-10.742,-35.156,-35.645,-24.902
1628114718.386,-70.312,-25.879,-18.555,-46.387
1628114718.390,-48.828,-11.719,-27.344,-20.996
1628114718.394,10.254,-28.809,-31.738,8.301
1628114718.398,15.137,-39.551,-26.855,-7.812
1628114718.402,-67.871,-25.879,-36.621,-63.965
1628114718.406,-96.191,-34.668,-37.109,-59.082
1628114718.410,-18.555,-60.059,-43.945,-12.207
1628114718.413,16.113,-56.641,-48.340,1.465
1628114718.417,-59.570,-56.641,-39.551,-51.270
1628114718.421,-106.445,-45.410,-29.785,-72.266
1628114718.425,-32.227,-25.879,-24.902,-15.137
1628114718.429,36.133,-36.621,-25.391,13.184
1628114718.441,-5.371,-52.246,-16.113,-18.555
1628114718.445,-67.871,-44.434,-14.160,-45.410
1628114718.449,-44.434,-39.062,-33.691,-18.555
1628114718.453,33.203,-15.137,-45.898,18.555
1628114718.457,6.836,0.000,-37.598,-15.137
1628114718.461,-96.191,-24.902,-33.691,-77.148
1628114718.465,-83.496,-46.387,-35.156,-56.641
1628114718.468,18.066,-37.109,-37.598,6.836
1628114718.472,18.555,-17.578,-41.504,-9.277
1628114718.476,-68.359,-18.555,-27.832,-55.176
1628114718.480,-80.078,-25.391,-17.578,-35.156
1628114718.484,6.836,-35.645,-31.250,24.902
1628114718.497,59.570,-49.805,-39.062,37.109
1628114718.501,-20.508,-49.316,-38.086,-27.344
1628114718.505,-81.055,-35.645,-34.180,-59.570
1628114718.509,-20.508,-29.785,-26.855,-13.672
1628114718.513,47.852,-13.672,-28.320,20.020
1628114718.517,-5.859,-14.648,-30.273,-27.832
1628114718.521,-84.473,-23.926,-30.273,-61.035
1628114718.524,-32.227,-22.461,-27.344,-11.719
1628114718.528,53.711,-56.641,-31.250,25.879
1628114718.532,25.879,-59.082,-25.879,-7.812
1628114718.536,-71.289,-25.879,-41.504,-59.570
1628114718.540,-67.383,-31.738,-44.434,-34.180
1628114718.519,38.574,-48.340,-25.879,37.598
1628114718.523,49.316,-27.832,-19.531,21.484
1628114718.527,-74.219,-23.926,-28.809,-69.336
1628114718.531,-109.375,-26.855,-44.434,-74.707
1628114718.535,-7.812,-8.789,-32.715,-11.719
1628114718.539,29.297,-20.996,-27.832,-8.789
1628114718.543,-60.547,-47.852,-36.133,-67.383
1628114718.546,-112.305,-41.504,-40.527,-83.496
1628114718.550,-34.668,-19.043,-44.434,-34.668
1628114718.554,63.965,-20.996,-41.504,9.766
1628114718.558,17.578,-30.762,-24.414,-20.508
1628114718.562,-90.820,-36.621,-9.277,-76.172
1628114718.575,-59.570,-21.484,-4.395,-48.828
1628114718.579,28.320,-17.090,-13.184,10.254
1628114718.583,-0.977,-37.598,-22.949,-21.973
1628114718.587,-96.191,-35.156,-32.227,-79.102
1628114718.591,-115.234,-40.039,-43.945,-67.383
1628114718.595,-6.836,10.742,-32.715,-0.977
1628114718.599,30.273,27.344,-29.297,-7.324
1628114718.602,-67.871,-59.570,-35.156,-81.543
1628114718.606,-97.168,-65.918,-30.273,-78.125
1628114718.610,-24.902,-45.898,-38.574,-21.973
1628114718.614,50.781,-0.488,-37.109,12.207
1628114718.618,-28.809,19.043,-25.391,-51.758
1628114718.611,-122.559,-17.578,-17.090,-92.773
1628114718.615,-57.129,-22.461,-24.902,-36.133
1628114718.619,30.273,-21.973,-30.273,5.859
1628114718.623,0.000,-24.902,-26.367,-25.879
1628114718.627,-91.309,-31.250,-25.879,-76.660
1628114718.631,-68.359,-25.879,-26.855,-50.781
1628114718.635,45.898,-16.602,-32.715,18.066
1628114718.638,28.809,-21.973,-54.199,-8.301
1628114718.642,-94.238,-41.016,-65.918,-87.402
1628114718.646,-101.074,-44.922,-26.367,-68.848
1628114718.650,16.113,-31.738,-0.488,7.812
1628114718.654,52.246,-46.387,-15.625,8.301
1628114718.667,-48.340,-41.016,-19.043,-52.246
1628114718.671,-100.098,-1.953,-15.137,-68.848
1628114718.675,-24.902,-22.949,-19.531,-18.066
1628114718.679,43.457,-27.344,-41.504,16.113
1628114718.683,-16.113,-11.719,-62.988,-32.227
1628114718.687,-80.566,12.207,-44.434,-63.477
1628114718.691,-30.273,26.855,-17.090,-16.113
1628114718.694,38.086,-16.113,-15.625,20.996
1628114718.698,17.578,-28.320,-12.207,-1.465
1628114718.702,-62.988,-40.527,-1.953,-33.203
1628114718.706,-79.102,-52.734,-14.160,-25.391
1628114718.710,3.418,-57.617,-32.227,11.719
1628114718.721,44.922,-60.547,-27.344,15.137
1628114718.725,-41.016,-41.016,-25.391,-29.297
1628114718.729,-107.422,-43.945,-41.504,-59.570
1628114718.733,-25.879,-16.602,-38.086,-12.695
1628114718.737,31.250,2.441,-40.039,14.160
1628114718.741,-41.504,-15.625,-36.133,-32.715
1628114718.745,-93.262,-30.762,-24.414,-49.316
1628114718.748,-22.461,-22.461,-8.789,7.812
1628114718.752,63.477,20.020,4.883,54.199
1628114718.756,-4.395,-10.742,-19.531,-9.766
1628114718.760,-110.352,-49.805,-42.480,-83.008
1628114718.764,-60.059,-45.898,-36.621,-41.504
1628114718.763,49.805,-14.648,-26.855,26.367
1628114718.767,11.719,-2.441,-34.180,-17.578
1628114718.771,-95.703,-29.297,-41.016,-77.637
1628114718.775,-91.309,-45.898,-47.852,-58.594
1628114718.779,8.301,-70.801,-35.156,-5.371
1628114718.783,42.969,-11.230,-20.508,-6.348
1628114718.787,-36.133,32.715,-23.926,-60.059
1628114718.790,-91.309,-32.227,-25.391,-65.430
1628114718.794,-24.902,-50.781,-21.973,-10.742
1628114718.798,55.664,-34.180,-20.020,18.555
1628114718.802,-9.277,-10.742,-30.762,-34.668
1628114718.806,-96.191,-34.180,-42.480,-76.660
1628114718.801,-42.969,-56.641,-26.855,-20.996
1628114718.805,24.414,-47.852,-28.320,21.484
1628114718.809,-18.066,-26.855,-43.457,-24.414
1628114718.813,-93.262,-6.836,-40.039,-72.754
1628114718.817,-77.148,-28.809,-34.668,-52.246
1628114718.821,8.789,-42.480,-26.855,-1.953
1628114718.825,18.066,-50.293,-17.090,-9.766
1628114718.828,-42.480,-44.434,-4.395,-45.410
1628114718.832,-59.082,4.883,-16.602,-39.551
1628114718.836,5.859,-4.883,-34.668,-13.672
1628114718.840,32.227,-29.785,-35.645,-15.137
1628114718.844,-46.875,-35.645,-35.156,-65.430
1628114718.857,-98.145,-17.578,-35.645,-76.660
1628114718.861,-22.949,-1.953,-44.922,-14.160
1628114718.865,41.992,-42.480,-43.945,26.367
1628114718.869,-30.273,-61.035,-38.086,-28.809
1628114718.873,-102.051,-63.477,-28.809,-66.895
1628114718.877,-41.992,11.230,-3.418,-12.207
1628114718.881,42.969,48.828,-5.371,30.762
1628114718.884,-8.789,-29.297,-25.391,-10.254
1628114718.888,-101.074,-63.477,-35.156,-58.105
1628114718.892,-73.242,-55.664,-28.809,-38.574
1628114718.896,5.859,-12.695,-31.250,2.441
1628114718.900,-0.488,-3.418,-40.527,-17.578
1628114718.892,-73.242,-50.293,-35.156,-58.594
1628114718.896,-96.680,-61.523,-35.645,-55.176
1628114718.900,-11.719,-54.688,-25.391,-3.418
1628114718.904,28.809,-49.805,-34.668,5.371
1628114718.908,-48.828,-42.480,-42.969,-46.387
1628114718.912,-110.352,-29.297,-36.621,-73.242
1628114718.916,-46.387,-37.109,-17.090,-25.879
1628114718.919,27.832,-49.316,-20.020,8.301
1628114718.923,-14.648,-14.160,-39.551,-34.180
1628114718.927,-91.309,-27.832,-44.922,-73.730
1628114718.931,-65.430,-52.246,-51.270,-53.223
1628114718.935,24.414,-68.848,-49.316,-9.766
1628114718.967,32.715,-38.574,-35.156,-12.695
1628114718.971,-48.340,19.531,-51.758,-49.316
1628114718.975,-74.707,-6.836,-44.922,-43.457
1628114718.979,11.719,-4.883,-19.531,6.836
1628114718.983,41.016,-22.461,-26.367,10.742
1628114718.987,-36.621,1.465,-24.414,-34.668
1628114718.991,-84.473,28.809,-31.738,-57.129
1628114718.994,-23.926,-46.387,-31.738,-26.855
1628114718.998,32.227,-72.266,-32.227,-13.184
1628114719.002,-20.020,-66.895,-37.109,-57.129
1628114719.006,-81.543,-66.406,-41.992,-81.055
1628114719.010,-28.320,-52.734,-55.176,-28.320
1628114718.986,37.109,-31.250,-49.316,11.230
1628114718.990,-2.930,-23.438,-33.203,-29.785
1628114718.994,-87.402,-18.066,-44.434,-83.496
1628114718.998,-70.801,-12.207,-36.621,-53.223
1628114719.002,28.809,-24.902,-19.531,9.277
1628114719.006,35.156,-35.645,-29.297,-2.441
1628114719.010,-51.270,-73.730,-30.762,-58.594
1628114719.013,-71.777,-58.105,-18.555,-52.734
1628114719.017,14.160,6.348,-13.184,-3.418
1628114719.021,38.574,-14.160,-28.809,-9.766
1628114719.025,-56.152,-45.410,-40.039,-57.617
1628114719.029,-104.004,-51.270,-25.391,-62.500
1628114719.060,-40.527,-53.711,-23.926,-20.508
1628114719.064,12.695,-32.227,-36.133,-9.277
1628114719.068,-36.133,-30.273,-38.086,-44.434
1628114719.072,-93.262,-37.109,-30.762,-57.617
1628114719.076,-57.617,-41.504,-24.902,-21.973
1628114719.080,30.273,-39.551,-42.480,27.832
1628114719.084,11.719,-34.180,-44.922,5.371
1628114719.087,-93.262,-44.922,-31.738,-61.523
1628114719.091,-102.539,-40.527,-38.574,-56.641
1628114719.095,-17.090,-37.109,-36.133,-8.301
1628114719.099,18.066,-41.016,-19.043,-3.418
1628114719.103,-59.570,-42.969,-17.578,-57.129
1628114719.080,-93.262,-41.504,-24.902,-73.242
1628114719.084,-24.414,-34.180,-31.738,-28.320
1628114719.088,19.531,-41.992,-28.320,-10.742
1628114719.092,-41.992,-30.762,-35.645,-48.828
1628114719.096,-102.051,-33.203,-25.391,-63.965
1628114719.100,-32.227,-33.691,-14.648,-15.137
1628114719.104,38.086,-38.086,-39.062,7.324
1628114719.107,-26.367,-52.734,-56.152,-40.527
1628114719.111,-96.191,-3.418,-46.387,-66.895
1628114719.115,-67.383,-11.719,-30.762,-33.203
1628114719.119,1.465,-41.504,-20.996,1.465
1628114719.123,-13.184,-42.480,-12.695,-28.320
1628114719.135,-95.215,-36.621,-24.414,-77.637
1628114719.139,-100.098,-18.066,-36.621,-62.988
1628114719.143,-9.766,-38.086,-31.250,-5.371
1628114719.147,30.273,-39.062,-22.949,-1.953
1628114719.151,-36.133,-57.617,-4.883,-41.992
1628114719.155,-80.078,-27.344,1.953,-42.480
1628114719.159,-37.109,-0.488,-27.832,-18.066
1628114719.162,-0.977,-48.828,-54.199,-23.438
1628114719.166,-59.082,-62.012,-45.410,-68.359
1628114719.170,-119.141,-66.406,-34.668,-92.285
1628114719.174,-57.617,-28.320,-28.809,-41.016
1628114719.178,39.062,-10.254,-23.438,16.113
1628114719.173,13.672,-29.785,-19.043,-11.230
1628114719.177,-61.035,-29.785,-7.324,-51.270
1628114719.181,-56.152,-29.297,3.906,-25.391
1628114719.185,14.648,-2.930,-20.508,12.207
1628114719.189,15.625,-1.953,-29.785,-13.184
1628114719.193,-69.336,-39.062,-24.902,-68.848
1628114719.197,-85.449,-47.852,-27.832,-70.312
1628114719.200,17.578,-41.016,-12.207,-10.254
1628114719.204,56.641,-29.297,-10.254,11.230
1628114719.208,-35.645,-40.527,-11.230,-39.062
1628114719.212,-79.102,-43.457,-21.973,-48.340
1628114719.216,-7.812,-38.574,-37.109,2.441
1628114719.248,62.012,-6.348,-15.137,36.621
1628114719.252,-16.113,1.465,-11.719,-28.809
1628114719.256,-110.840,-30.273,-28.809,-83.008
1628114719.260,-74.707,-40.039,-29.785,-46.875
1628114719.264,10.254,-48.340,-48.828,-3.906
1628114719.268,6.836,-18.066,-47.363,-11.719
1628114719.272,-69.336,-29.297,-30.762,-43.457
1628114719.275,-67.383,-56.152,-13.672,-23.438
1628114719.279,20.508,-18.066,-3.906,20.508
1628114719.283,24.414,-31.738,-15.625,-3.906
1628114719.287,-66.406,-18.555,-29.785,-55.176
1628114719.291,-77.148,-7.324,-29.785,-48.340
1628114719.266,-1.465,-25.879,-22.949,-8.301
1628114719.270,28.320,-16.113,-19.043,-1.465
1628114719.274,-41.016,-15.137,-26.367,-37.598
1628114719.278,-85.449,-16.602,-41.992,-53.223
1628114719.282,-16.602,-33.691,-37.109,-6.836
1628114719.286,63.965,-47.852,-15.137,36.621
1628114719.290,20.020,-38.086,-8.301,-8.789
1628114719.293,-79.590,-44.922,-22.461,-71.289
1628114719.297,-61.035,-31.738,-28.320,-41.504
1628114719.301,32.715,-25.879,-18.066,11.719
1628114719.305,-2.441,-37.109,-34.180,-28.320
1628114719.309,-95.215,-22.949,-32.715,-82.031
1628114719.323,-80.566,0.000,-19.043,-53.711
1628114719.327,-6.348,-6.836,-34.180,-1.953
1628114719.331,24.414,-37.598,-39.062,3.418
1628114719.335,-46.875,-39.062,-48.340,-54.199
1628114719.339,-91.797,-49.316,-50.293,-67.383
1628114719.343,-9.277,-32.227,-31.250,-2.930
1628114719.347,44.434,-15.137,-26.367,8.789
1628114719.350,-35.156,-35.645,-35.156,-40.527
1628114719.354,-107.422,-42.969,-20.508,-65.430
1628114719.358,-26.855,-33.203,0.977,-1.465
1628114719.362,44.434,-15.625,-9.766,36.621
1628114719.366,-19.531,-31.738,-24.414,-15.137
1628114719.360,-89.844,-45.898,-17.578,-58.105
1628114719.364,-61.035,-17.578,-16.602,-26.367
1628114719.368,15.625,-9.277,-31.738,19.531
1628114719.372,22.461,-17.578,-22.461,7.812
1628114719.376,-49.805,-38.086,-20.996,-33.203
1628114719.380,-81.055,-42.480,-38.574,-52.246
1628114719.384,-13.184,-28.320,-29.785,-17.090
1628114719.387,11.230,-43.457,-26.855,-21.484
1628114719.391,-62.500,-36.621,-37.109,-69.336
1628114719.395,-104.980,-23.926,-32.227,-83.008
1628114719.399,-33.691,-40.039,-29.297,-33.691
1628114719.403,36.621,-47.363,-38.086,1.465
1628114719.416,-26.367,-25.391,-37.109,-42.969
1628114719.420,-104.492,-7.324,-28.809,-75.195
1628114719.424,-58.105,-20.508,-21.973,-33.691
1628114719.428,35.156,-18.555,-14.648,17.090
1628114719.432,6.836,-37.598,-20.996,-12.207
1628114719.436,-74.707,-14.648,-31.250,-62.500
1628114719.440,-71.777,7.324,-36.621,-49.316
1628114719.443,14.648,-38.086,-36.133,4.395
1628114719.447,34.180,-45.898,-34.668,-7.812
1628114719.451,-56.152,-40.039,-31.250,-73.242
1628114719.455,-78.613,-42.480,-21.484,-65.918
1628114719.459,6.348,-42.480,-15.625,-0.977
1628114719.455,56.152,-30.273,-13.672,14.648
1628114719.459,-29.785,-28.320,-20.996,-46.875
1628114719.463,-105.469,-46.875,-39.062,-71.777
1628114719.467,-39.551,19.531,-50.781,-17.578
1628114719.471,54.688,24.414,-30.762,23.926
1628114719.475,-2.441,-49.805,-13.672,-17.578
1628114719.479,-100.098,-50.781,-31.250,-49.805
1628114719.482,-60.059,-32.227,-34.180,-19.531
1628114719.486,20.996,14.648,-38.086,8.789
1628114719.490,-1.953,-8.789,-31.250,-18.555
1628114719.494,-84.473,-53.711,-15.625,-64.941
1628114719.498,-72.754,-44.922,-4.883,-39.062
1628114719.512,15.625,-23.926,-1.953,14.160
1628114719.516,21.484,-27.832,-22.461,-5.371
1628114719.520,-57.617,-41.016,-25.879,-57.617
1628114719.524,-90.820,-26.855,-27.344,-64.453
1628114719.528,-30.273,-51.270,-44.434,-21.973
1628114719.532,22.949,-2.441,-49.805,-3.418
1628114719.536,-31.738,49.805,-25.391,-45.410
1628114719.539,-103.516,-30.273,-15.625,-68.848
1628114719.543,-45.410,-63.477,-11.230,-20.020
1628114719.547,32.715,-52.246,-22.949,7.812
1628114719.551,-27.832,-15.137,-61.035,-48.828
1628114719.555,-113.281,-11.719,-51.758,-85.449
1628114719.548,-67.871,-39.062,-20.508,-39.551
1628114719.552,21.973,-43.945,-21.484,0.000
1628114719.556,6.348,-55.664,-24.414,-20.508
1628114719.560,-74.707,-42.969,-21.973,-60.059
1628114719.564,-80.566,-22.949,-31.738,-56.152
1628114719.568,14.648,-29.297,-19.531,-6.836
1628114719.572,26.855,-64.453,-26.855,-21.973
1628114719.575,-72.754,-65.430,-42.480,-73.242
1628114719.579,-106.445,-3.418,-32.715,-68.848
1628114719.583,-35.156,-10.742,-20.020,-25.391
1628114719.587,17.578,-51.758,-13.184,-0.488
1628114719.591,-40.039,-62.988,-22.949,-41.504
1628114719.605,-99.609,-34.668,-31.738,-71.289
1628114719.609,-63.965,3.906,-41.016,-42.480
1628114719.613,8.301,-26.855,-45.410,-6.836
1628114719.617,-22.949,-47.852,-41.504,-43.945
1628114719.621,-104.980,-63.477,-33.203,-85.938
1628114719.625,-73.242,-16.602,-25.391,-45.898
1628114719.629,37.598,17.090,-13.672,24.902
1628114719.632,43.457,-43.945,-14.160,9.766
1628114719.636,-70.312,-54.688,-53.711,-66.406
1628114719.640,-104.004,-49.805,-59.082,-70.801
1628114719.644,-7.324,2.930,-36.133,-16.113
1628114719.648,29.297,-1.465,-21.973,-13.184
1628114719.641,-54.199,-70.312,-11.719,-61.035
1628114719.645,-109.863,-62.988,-8.301,-75.195
1628114719.649,-40.039,-41.016,-17.578,-22.461
1628114719.653,54.199,-9.277,-20.508,18.066
1628114719.657,3.418,-25.879,-24.414,-31.738
1628114719.661,-92.773,-59.570,-41.504,-82.520
1628114719.665,-62.988,-60.547,-36.133,-52.246
1628114719.668,33.691,-28.809,-12.207,10.742
1628114719.672,23.438,-1.465,-16.602,-11.719
1628114719.676,-76.172,-39.062,-18.066,-73.242
1628114719.680,-87.891,-69.336,-13.184,-60.059
1628114719.684,-11.230,-72.754,-24.902,-17.578
1628114719.717,5.371,-36.133,-45.410,-26.855
1628114719.721,-74.707,4.883,-52.734,-77.637
1628114719.725,-101.074,-47.852,-44.922,-81.055
1628114719.729,-21.973,-59.570,-46.387,-29.297
1628114719.733,38.574,-41.504,-32.715,1.465
1628114719.737,-5.371,-4.395,-17.090,-21.484
1628114719.741,-101.074,13.184,-33.691,-70.801
1628114719.744,-65.430,-25.391,-14.160,-36.621
1628114719.748,34.668,-35.645,0.488,28.809
1628114719.752,-12.695,-47.363,-27.832,-18.066
1628114719.756,-112.793,-50.293,-47.363,-81.543
1628114719.760,-83.496,-45.410,-39.551,-51.270
1628114719.736,25.879,-39.551,-13.672,6.836
1628114719.740,22.949,-38.574,-21.484,-11.719
1628114719.744,-75.684,-35.645,-35.156,-71.289
1628114719.748,-77.148,-11.230,-44.434,-48.340
1628114719.752,12.207,-14.160,-50.781,17.578
1628114719.756,28.809,-37.109,-55.176,3.418
1628114719.760,-49.805,-34.668,-56.641,-62.500
1628114719.763,-100.098,-27.832,-40.039,-86.914
1628114719.767,-27.344,21.484,-21.973,-30.273
1628114719.771,40.527,8.789,-20.508,6.348
1628114719.775,-9.277,-22.461,-24.414,-31.250
1628114719.779,-85.449,-46.387,-28.809,-62.988
1628114719.794,-60.547,-36.133,-32.227,-39.551
1628114719.798,26.367,39.062,-47.852,1.465
1628114719.802,6.836,8.789,-31.250,-18.555
1628114719.806,-86.914,-33.691,-26.855,-57.617
1628114719.810,-70.801,-56.641,-31.738,-40.039
1628114719.814,23.926,-17.090,-25.879,5.859
1628114719.818,25.391,18.066,-24.902,-1.953
1628114719.821,-61.035,-38.086,-19.043,-47.852
1628114719.825,-97.656,-63.477,-28.809,-61.035
1628114719.829,-14.648,-65.918,-28.320,-21.484
1628114719.833,32.715,-8.301,-20.508,-14.160
1628114719.837,-47.363,-0.977,-20.020,-68.359
1628114719.829,-89.844,-53.711,-20.996,-67.871
1628114719.833,6.348,-31.738,-15.625,16.113
1628114719.837,50.293,-28.320,-17.578,23.926
1628114719.841,-35.156,-35.645,-36.133,-50.781
1628114719.845,-104.004,-39.551,-38.574,-79.102
1628114719.849,-58.594,-40.527,-22.461,-44.922
1628114719.853,24.414,-43.457,-27.344,-16.602
1628114719.856,-4.395,-42.969,-47.852,-43.457
1628114719.860,-90.820,7.324,-56.152,-88.867
1628114719.864,-82.520,-24.414,-26.855,-75.195
1628114719.868,24.902,-57.129,-5.371,-3.418
1628114719.872,27.344,-55.664,-20.996,-12.207
1628114719.886,-71.777,-22.461,-43.945,-83.496
1628114719.890,-93.262,40.039,-61.523,-72.266
1628114719.894,-19.043,-6.836,-41.992,-8.789
1628114719.898,20.996,-40.039,-38.086,-6.836
1628114719.902,-26.855,-56.641,-34.180,-48.340
1628114719.906,-75.684,7.812,-27.344,-55.664
1628114719.910,-26.855,61.523,-27.344,-16.602
1628114719.913,43.457,-36.133,-19.531,6.348
1628114719.917,-0.977,-52.734,-10.742,-29.297
1628114719.921,-87.891,-50.781,-9.277,-65.430
1628114719.925,-78.613,-41.992,-30.273,-49.316
1628114719.929,18.066,-22.949,-38.574,-7.324
1628114719.923,22.461,-31.250,-27.832,-13.672
1628114719.927,-69.824,-49.316,-36.133,-59.082
1628114719.931,-88.379,-70.312,-48.828,-52.734
1628114719.935,-8.789,-17.578,-56.641,-1.465
1628114719.939,14.648,5.859,-44.434,0.488
1628114719.943,-47.852,-28.809,-27.344,-36.133
1628114719.947,-93.750,-57.617,-29.297,-60.059
1628114719.950,-43.457,-64.941,-28.809,-27.344
1628114719.954,30.273,28.320,-24.902,19.531
1628114719.958,-14.648,21.973,-10.742,-16.602
1628114719.962,-82.031,-32.715,-11.719,-51.270
1628114719.966,-41.992,-48.340,-16.602,-28.809
1628114719.980,25.391,-18.555,-17.578,2.441
1628114719.984,0.488,14.648,-12.695,-18.555
1628114719.988,-84.961,-44.922,-18.066,-59.570
1628114719.992,-78.125,-61.523,-31.738,-34.668
1628114719.996,11.230,-77.148,-29.785,7.324
1628114720.000,0.488,-35.156,-34.668,-25.879
1628114720.004,-78.125,10.742,-35.156,-71.289
1628114720.007,-87.891,-41.992,-28.809,-54.688
1628114720.011,-1.953,-40.039,-20.508,0.488
1628114720.015,34.180,-34.180,-3.906,13.672
1628114720.019,-44.922,-14.160,-12.207,-36.133
1628114720.023,-101.562,-17.090,-29.297,-60.059
1628114720.018,-35.156,-58.105,-14.648,-16.113
1628114720.022,40.527,-54.199,-15.137,19.531
1628114720.026,-36.133,-44.434,-21.484,-34.180
1628114720.030,-104.004,-29.297,-23.438,-63.477
1628114720.034,-36.621,-33.691,-25.391,-2.441
1628114720.038,35.156,-42.969,-14.160,30.762
1628114720.042,-6.348,-49.316,-12.207,-11.719
1628114720.045,-85.938,-48.828,-16.113,-53.711
1628114720.049,-69.824,-23.438,-19.043,-26.367
1628114720.053,14.160,-38.086,-20.508,11.719
1628114720.057,20.508,-51.758,-17.090,-1.465
1628114720.061,-74.219,-56.152,-26.367,-54.688
1628114720.073,-83.496,-31.738,-24.414,-43.945
1628114720.077,1.953,-9.766,-16.113,11.719
1628114720.081,15.625,-32.715,-43.457,-1.953
1628114720.085,-58.105,-30.762,-54.688,-47.852
1628114720.089,-105.957,-41.992,-33.203,-64.453
1628114720.093,-47.363,-23.926,-29.297,-42.969
1628114720.097,9.766,-2.441,-41.016,-24.414
1628114720.100,-28.320,-37.598,-26.367,-43.945
1628114720.104,-88.867,-45.898,-31.250,-63.965
1628114720.108,-63.965,-58.594,-45.410,-39.551
1628114720.112,23.926,-20.996,-40.527,3.906
1628114720.116,8.789,-16.113,-29.785,-19.531
1628114720.110,-77.637,-52.246,-14.648,-62.012
1628114720.114,-52.246,-20.996,-13.184,-32.227
1628114720.118,43.457,-1.465,-25.391,26.367
1628114720.122,50.781,-7.812,-34.668,9.766
1628114720.126,-51.270,-43.457,-32.715,-69.336
1628114720.130,-91.797,-48.340,-26.855,-82.031
1628114720.134,-8.789,-40.527,-13.672,-14.160
1628114720.137,23.438,-38.086,-17.090,4.883
1628114720.141,-53.223,6.836,-25.879,-46.875
1628114720.145,-104.492,-5.859,-20.996,-67.383
1628114720.149,-44.922,-35.645,-23.438,-18.066
1628114720.153,38.086,-42.480,-26.367,16.602
1628114720.168,-5.859,-32.715,-23.926,-18.555
1628114720.172,-107.910,2.930,-32.715,-66.406
1628114720.176,-77.637,-29.785,-27.832,-55.664
1628114720.180,28.320,-44.434,-16.602,1.465
1628114720.184,17.578,-53.711,-16.602,-12.207
1628114720.188,-84.473,-26.367,-39.551,-73.730
1628114720.192,-87.891,9.766,-59.082,-54.199
1628114720.195,-4.883,-47.363,-40.527,-10.742
1628114720.199,7.812,-60.547,-35.645,-31.250
1628114720.203,-62.988,-31.250,-41.016,-69.336
1628114720.207,-89.844,-14.648,-41.504,-66.895
1628114720.211,-2.930,-12.695,-26.855,-9.277
1628114720.205,51.270,-29.785,-9.277,11.230
1628114720.209,-18.066,-39.551,-26.855,-34.180
1628114720.213,-83.008,-46.387,-34.668,-57.617
1628114720.217,-47.852,-26.855,-40.039,-31.250
1628114720.221,25.391,-22.949,-40.527,-2.930
1628114720.225,0.977,-48.340,-18.555,-25.879
1628114720.229,-88.379,-48.340,-17.090,-63.477
1628114720.232,-63.965,-36.133,-15.625,-34.180
1628114720.236,22.461,-7.812,-11.719,10.742
1628114720.240,24.902,-8.301,-8.789,0.000
1628114720.244,-44.922,-32.227,-13.184,-34.180
1628114720.248,-60.547,-52.734,-20.508,-29.297
1628114720.261,8.789,-45.410,-21.484,14.648
1628114720.265,17.578,-28.320,-30.273,5.859
1628114720.269,-73.730,-46.875,-37.598,-62.500
1628114720.273,-100.098,-44.434,-28.320,-67.383
1628114720.277,-19.531,-31.738,-22.461,-4.883
1628114720.281,28.320,-7.324,-39.062,14.648
1628114720.285,-41.016,-11.230,-34.180,-40.039
1628114720.288,-97.168,-49.805,-13.184,-52.734
1628114720.292,-40.039,-45.898,-13.672,-7.324
1628114720.296,27.344,-41.016,-32.227,13.184
1628114720.300,-12.207,-7.812,-43.457,-19.043
1628114720.304,-92.285,-4.883,-33.203,-67.383
1628114720.297,-70.312,-30.762,-18.555,-41.016
1628114720.301,18.066,-28.809,-7.812,8.301
1628114720.305,15.625,-41.016,-16.113,-15.625
1628114720.309,-68.359,-30.273,-29.297,-58.105
1628114720.313,-94.727,-27.344,-31.250,-62.500
1628114720.317,-11.230,-25.879,-23.926,-3.418
1628114720.321,36.621,-35.156,-25.879,5.859
1628114720.324,-39.062,-42.969,-21.973,-55.664
1628114720.328,-88.379,0.977,-17.090,-67.871
1628114720.332,-34.668,-17.578,-26.367,-21.973
1628114720.336,32.227,-38.574,-23.926,8.789
1628114720.340,-16.602,-33.203,-26.855,-17.090
1628114720.356,-103.027,-22.949,-31.738,-55.664
1628114720.360,-61.523,15.137,-34.180,-35.156
1628114720.364,28.809,-17.578,-32.227,11.719
1628114720.368,0.000,-41.504,-36.133,-23.926
1628114720.372,-74.219,-43.457,-31.738,-63.477
1628114720.376,-61.035,-28.809,-20.020,-37.598
1628114720.380,12.695,-29.297,-26.855,5.859
1628114720.383,31.250,-49.316,-21.973,9.277
1628114720.387,-48.340,-44.434,-16.602,-36.133
1628114720.391,-97.656,-58.594,-23.926,-62.012
1628114720.395,-18.555,-31.250,-26.367,-10.742
1628114720.399,30.273,-5.859,-27.344,10.254
1628114720.395,-46.875,-15.625,-28.809,-45.898
1628114720.399,-100.586,-32.227,-31.250,-59.082
1628114720.403,-57.129,-56.641,-38.086,-20.020
1628114720.407,31.738,-42.480,-33.691,2.441
1628114720.411,7.812,-23.438,-23.926,-25.391
1628114720.415,-92.773,-28.320,-30.273,-77.637
1628114720.419,-89.844,-44.434,-44.434,-73.242
1628114720.422,-7.812,-44.922,-36.621,-21.973
1628114720.426,15.137,-9.766,-39.062,-12.695
1628114720.430,-57.617,-34.180,-34.180,-50.781
1628114720.434,-76.660,-63.965,-21.484,-49.316
1628114720.438,3.418,-51.758,-29.785,-4.883
1628114720.467,33.203,-28.809,-26.367,1.465
1628114720.471,-34.668,0.977,-29.297,-32.227
1628114720.475,-93.262,-32.227,-48.828,-58.105
1628114720.479,-28.320,-61.035,-46.875,-18.555
1628114720.483,38.086,-37.598,-22.461,1.465
1628114720.487,-29.297,-7.324,-23.926,-57.617
1628114720.491,-86.426,5.371,-41.504,-63.965
1628114720.494,-40.039,-20.508,-26.367,-19.043
1628114720.498,28.320,-34.668,-8.301,11.230
1628114720.502,-10.254,-39.551,-17.578,-22.461
1628114720.506,-102.539,-44.434,-32.715,-72.754
1628114720.510,-69.824,-39.062,-28.320,-40.039
1628114720.485,28.809,-27.344,-18.066,8.789
1628114720.489,18.066,-34.668,-23.926,-9.766
1628114720.493,-63.965,-40.039,-31.738,-45.410
1628114720.497,-69.824,-30.762,-29.785,-26.367
1628114720.501,10.742,-32.715,-29.297,21.973
1628114720.505,25.391,-46.875,-39.551,2.441
1628114720.509,-49.316,-33.203,-34.180,-73.730
1628114720.512,-89.844,-24.902,-21.484,-85.449
1628114720.516,-39.062,-29.297,-29.785,-37.109
1628114720.520,44.922,-22.949,-26.367,1.953
1628114720.524,-7.812,-32.715,-25.391,-39.551
1628114720.528,-100.098,-57.129,-37.598,-82.031
1628114720.542,-47.363,-45.410,-20.020,-32.715
1628114720.546,47.852,-2.930,-14.160,21.973
1628114720.550,7.324,-21.484,-44.434,-2.441
1628114720.554,-92.773,-38.086,-53.711,-48.340
1628114720.558,-74.707,-42.969,-25.391,-29.785
1628114720.562,22.949,-1.953,-21.484,14.648
1628114720.566,22.949,10.742,-49.805,0.000
1628114720.569,-69.336,-38.574,-36.621,-55.664
1628114720.573,-98.145,-28.809,-18.066,-60.547
1628114720.577,-22.949,-26.855,-20.508,-14.160
1628114720.581,33.203,-1.953,-29.297,4.395
1628114720.585,-34.180,-2.930,-31.250,-30.273
1628114720.578,-88.379,-35.156,-22.461,-48.340
1628114720.582,-15.625,-23.438,-7.324,-6.348
1628114720.586,64.453,-21.484,6.836,23.438
1628114720.590,8.301,-31.738,-16.602,-19.531
1628114720.594,-72.754,-45.898,-45.898,-66.406
1628114720.598,-42.969,-48.828,-40.527,-38.086
1628114720.602,21.484,-52.734,-27.344,2.930
1628114720.605,-5.371,-46.875,-30.762,-27.344
1628114720.609,-88.867,-9.277,-45.410,-67.383
1628114720.613,-92.773,-13.672,-39.062,-57.129
1628114720.617,6.348,-29.785,-10.742,-4.395
1628114720.621,38.086,-27.344,-16.113,-12.207
1628114720.637,-52.734,-32.227,-45.898,-70.312
1628114720.641,-102.051,-32.227,-48.828,-77.148
1628114720.645,-12.695,-28.320,-18.555,-18.555
1628114720.649,63.965,-15.137,-14.160,13.184
1628114720.653,-11.719,-30.762,-29.297,-41.504
1628114720.657,-86.914,-19.531,-34.668,-68.848
1628114720.661,-39.551,-5.371,-58.105,-34.180
1628114720.664,41.016,-24.902,-30.273,8.301
1628114720.668,-8.789,-42.480,-22.461,-30.273
1628114720.672,-112.305,-55.176,-35.645,-83.984
1628114720.676,-89.844,-51.758,-22.949,-52.734
1628114720.680,9.277,-47.852,-21.973,-0.488
1628114720.675,16.602,-41.016,-18.066,-18.066
1628114720.679,-70.312,-33.203,-21.973,-71.777
1628114720.683,-71.777,-20.020,-14.160,-57.617
1628114720.687,8.789,2.930,-21.973,-3.418
1628114720.691,19.043,-6.348,-54.688,-10.742
1628114720.695,-41.016,-17.090,-36.133,-43.945
1628114720.699,-69.824,-24.902,-16.602,-48.828
1628114720.702,-6.836,-31.738,-22.461,-9.277
1628114720.706,48.340,-4.395,-34.668,15.625
1628114720.710,-40.527,-27.344,-38.086,-55.664
1628114720.714,-118.164,-54.199,-27.344,-101.074
1628114720.718,-51.270,-37.109,-18.066,-43.945
1628114720.729,31.250,-32.715,-17.578,14.160
1628114720.733,3.906,-47.852,-16.602,-5.859
1628114720.737,-75.195,-50.781,-23.438,-45.410
1628114720.741,-50.293,-21.973,-19.531,-27.344
1628114720.745,36.621,-23.438,2.441,20.020
1628114720.749,30.273,-0.977,-2.441,-4.395
1628114720.753,-50.781,28.320,-32.715,-61.035
1628114720.756,-78.613,-17.578,-34.668,-48.340
1628114720.760,-10.742,-31.250,-37.598,-5.371
1628114720.764,30.762,-26.855,-52.246,2.441
1628114720.768,-39.062,-22.461,-41.504,-44.434
1628114720.772,-79.590,-36.621,-27.832,-48.828
1628114720.766,-21.973,-55.176,-30.273,-3.906
1628114720.770,35.645,-48.828,-19.531,14.648
1628114720.774,-19.531,-45.898,-6.348,-21.484
1628114720.778,-103.516,-42.480,-16.602,-70.312
1628114720.782,-61.035,-42.480,-27.832,-33.203
1628114720.786,41.504,-31.250,-23.926,33.203
1628114720.790,39.062,-2.930,-11.719,2.930
1628114720.793,-59.570,-18.555,-19.531,-66.406
1628114720.797,-80.078,-39.062,-24.902,-71.289
1628114720.801,18.555,-29.297,-18.066,-10.254
1628114720.805,47.852,-16.113,-12.207,4.395
1628114720.809,-44.434,-31.738,-31.738,-53.711
1628114720.825,-95.215,-45.898,-59.570,-69.336
1628114720.829,-30.762,-22.461,-62.988,-23.926
1628114720.833,27.832,-27.344,-45.410,-6.348
1628114720.837,-38.086,-40.527,-23.438,-48.828
1628114720.841,-106.445,-45.410,-21.484,-67.871
1628114720.845,-41.016,-17.578,-32.715,-22.461
1628114720.849,57.129,0.000,-24.414,28.320
1628114720.852,-0.977,-41.504,-21.484,-16.113
1628114720.856,-104.004,-60.059,-35.156,-80.566
1628114720.860,-60.059,-32.715,-32.227,-42.969
1628114720.864,33.203,-8.789,-29.297,8.301
1628114720.868,5.859,-28.320,-27.344,-31.250
1628114720.860,-96.191,-48.340,-36.133,-87.402
1628114720.864,-86.426,-42.969,-36.133,-55.664
1628114720.868,29.785,-27.832,-19.531,18.555
1628114720.872,49.805,-25.391,-20.996,19.043
1628114720.876,-42.969,-39.062,-34.180,-28.320
1628114720.880,-101.562,-49.805,-41.992,-45.410
1628114720.884,-43.457,-43.457,-35.156,-20.996
1628114720.887,17.578,-45.410,-30.273,-18.555
1628114720.891,-33.691,-21.484,-33.691,-66.406
1628114720.895,-92.285,-12.207,-40.527,-83.008
1628114720.899,-15.625,-27.832,-41.504,-15.137
1628114720.903,60.059,-30.762,-33.691,19.043
1628114720.917,-2.441,-19.043,-23.438,-27.832
1628114720.921,-88.867,-21.484,-27.344,-74.219
1628114720.925,-89.355,-49.316,-25.879,-61.523
1628114720.929,7.812,-30.273,-26.855,0.977
1628114720.933,23.926,-15.137,-16.602,0.977
1628114720.937,-80.078,-26.855,-33.691,-65.430
1628114720.941,-88.379,-34.668,-61.523,-49.805
1628114720.944,-3.418,-47.852,-37.598,5.859
1628114720.948,5.859,-45.410,-30.762,-10.742
1628114720.952,-68.359,-32.227,-21.973,-57.617
1628114720.956,-97.168,-32.227,-23.926,-59.570
1628114720.960,-18.555,-31.738,-37.109,-15.137
1628114720.954,52.246,-10.742,-38.086,13.184
1628114720.958,-12.695,-6.348,-15.625,-19.043
1628114720.962,-77.637,-23.438,-7.812,-38.574
1628114720.966,-41.992,-40.527,-41.504,-22.461
1628114720.970,12.695,-61.523,-40.527,-6.348
1628114720.974,-8.789,-54.199,-15.137,-29.785
1628114720.978,-76.660,-26.367,-15.137,-68.359
1628114720.981,-63.965,-41.016,-30.273,-54.688
1628114720.985,20.508,-30.762,-35.645,-2.441
1628114720.989,0.977,-4.883,-22.949,-16.602
1628114720.993,-84.961,-16.113,-25.391,-63.965
1628114720.997,-101.074,-35.156,-30.273,-55.664
1628114721.011,-9.766,-33.203,-24.414,-6.836
1628114721.015,34.668,-33.691,-30.273,-4.395
1628114721.019,-64.941,-48.828,-51.270,-67.871
1628114721.023,-99.609,-51.758,-19.043,-69.824
1628114721.027,9.277,-29.785,12.207,19.531
1628114721.031,74.707,0.977,-15.625,47.363
1628114721.035,-27.832,4.883,-43.945,-53.711
1628114721.038,-127.930,-24.414,-42.969,-117.188
1628114721.042,-44.922,-30.273,-26.855,-43.457
1628114721.046,59.082,-21.973,-15.137,28.320
1628114721.050,-4.395,-10.742,-25.879,-28.320
1628114721.054,-115.234,-4.883,-38.086,-97.168
1628114721.056,-98.633,-14.160,-22.949,-74.219
1628114721.060,22.461,-5.371,-40.039,0.977
1628114721.064,32.715,-8.301,-59.570,-8.789
1628114721.068,-62.012,-22.461,-21.973,-69.824
1628114721.072,-65.430,-43.945,4.395,-45.410
1628114721.076,2.441,-58.594,-26.855,-14.160
1628114721.080,4.883,-49.805,-60.547,-39.062
1628114721.083,-62.500,-22.461,-54.199,-83.496
1628114721.087,-107.422,24.902,-53.223,-78.613
1628114721.091,-50.293,1.953,-49.805,-23.926
1628114721.095,30.273,-38.574,-41.016,5.859
1628114721.099,1.465,-24.902,-23.926,-17.578
1628114721.105,-86.914,-27.344,-37.598,-63.965
1628114721.109,-73.242,-27.344,-53.223,-45.410
1628114721.113,28.320,-20.508,-17.578,1.953
1628114721.117,14.160,-12.695,-14.648,-23.438
1628114721.121,-61.035,-31.738,-24.414,-54.688
1628114721.125,-49.316,-47.363,-25.879,-38.086
1628114721.129,33.203,-29.297,-31.738,10.742
1628114721.132,27.832,-32.715,-29.785,-13.672
1628114721.136,-65.918,-15.625,-32.227,-79.590
1628114721.140,-101.562,-19.531,-29.297,-74.219
1628114721.144,-14.648,-7.324,-29.785,-11.230
1628114721.148,34.668,-18.066,-28.320,-4.395
1628114721.147,-55.176,-39.062,-26.855,-69.824
1628114721.151,-106.934,-32.227,-29.785,-79.590
1628114721.155,-16.113,-32.715,2.441,-12.207
1628114721.159,80.078,-20.020,3.906,35.156
1628114721.163,-9.277,-60.059,-44.434,-37.598
1628114721.167,-116.699,-72.754,-63.477,-88.379
1628114721.171,-45.410,-21.484,-46.387,-19.043
1628114721.174,51.270,-6.348,-18.066,33.203
1628114721.178,0.977,14.648,-23.926,-15.137
1628114721.182,-89.355,-3.418,-21.484,-76.660
1628114721.186,-84.473,-37.109,-12.695,-61.523
1628114721.190,10.254,-34.668,-20.996,12.207
1628114721.216,40.527,-18.555,-28.809,18.555
1628114721.220,-44.434,-1.465,-20.508,-44.922
1628114721.224,-83.496,-32.715,-22.461,-51.270
1628114721.228,0.488,-41.016,-26.855,1.953
1628114721.232,64.453,-49.805,-17.578,23.438
1628114721.236,-16.602,-53.711,-25.879,-31.250
1628114721.240,-97.168,-38.574,-41.016,-70.801
1628114721.243,-35.156,-33.691,-38.574,-21.973
1628114721.247,34.180,-41.016,-55.176,9.766
1628114721.251,-18.066,-56.641,-51.270,-36.621
1628114721.255,-87.891,-46.387,-18.555,-73.730
1628114721.259,-56.152,-39.551,-18.555,-40.527
1628114721.235,43.945,-45.410,-19.531,17.578
1628114721.239,44.922,-39.062,-14.648,7.812
1628114721.243,-62.988,-28.320,-30.273,-54.688
1628114721.247,-90.332,-27.832,-41.504,-47.852
1628114721.251,-9.277,-37.109,-37.109,6.836
1628114721.255,12.695,-54.688,-32.227,8.789
1628114721.259,-58.105,-49.316,-30.273,-44.922
1628114721.262,-99.121,-38.086,-26.367,-57.129
1628114721.266,-35.156,-55.664,-32.227,-16.113
1628114721.270,31.250,-49.805,-35.156,6.836
1628114721.274,-22.461,-39.062,-37.109,-37.109
1628114721.278,-99.609,-50.293,-43.945,-81.543
1628114721.292,-40.527,-44.434,-30.273,-23.438
1628114721.296,68.359,-24.902,-10.254,37.598
1628114721.300,32.715,-14.160,-23.438,0.000
1628114721.304,-84.961,-37.598,-42.969,-57.129
1628114721.308,-75.195,-46.387,-33.691,-26.367
1628114721.312,38.574,-19.531,-22.461,44.922
1628114721.316,36.621,-19.531,-26.855,26.855
1628114721.319,-70.801,-32.227,-25.391,-52.246
1628114721.323,-91.797,-35.156,-17.578,-53.711
1628114721.327,19.043,-33.691,-8.789,25.391
1628114721.331,85.449,-32.227,7.812,55.176
1628114721.335,-15.137,-47.852,0.000,-18.555
1628114721.328,-107.910,-46.387,-20.020,-75.684
1628114721.332,-41.992,-32.227,-25.391,-29.785
1628114721.336,39.062,-31.250,-24.902,4.883
1628114721.340,-4.395,-9.766,-25.391,-37.598
1628114721.344,-83.984,-3.418,-22.461,-66.895
1628114721.348,-40.527,-7.324,-24.902,-19.531
1628114721.352,63.477,0.977,-12.695,48.340
1628114721.355,30.762,-24.414,-23.926,5.859
1628114721.359,-79.102,-42.480,-46.387,-63.477
1628114721.363,-78.125,-61.035,-38.086,-41.992
1628114721.367,27.344,-65.918,-38.086,18.066
1628114721.371,41.016,-59.570,-37.109,1.465
1628114721.386,-68.359,-35.645,-33.691,-77.637
1628114721.390,-96.191,18.555,-42.480,-71.777
1628114721.394,-0.977,11.719,-10.254,-2.930
1628114721.398,35.156,-0.488,-13.184,-4.883
1628114721.402,-53.223,-39.551,-45.410,-77.148
1628114721.406,-120.117,-30.762,-47.363,-102.051
1628114721.410,-43.945,23.438,-30.762,-34.180
1628114721.413,43.945,-10.742,-28.320,15.625
1628114721.417,-22.949,-16.602,-44.434,-42.969
1628114721.421,-127.930,-22.461,-41.016,-114.746
1628114721.425,-80.078,-22.949,-52.246,-76.172
1628114721.429,10.742,-35.645,-61.523,-16.602
1628114721.423,37.109,-21.484,-30.762,0.977
1628114721.427,-22.461,-13.184,-4.883,-33.203
1628114721.431,-94.727,-67.871,-17.578,-81.543
1628114721.435,-36.621,-21.484,-40.527,-50.781
1628114721.439,23.926,-0.488,-36.621,-21.484
1628114721.443,-35.645,-40.039,-17.090,-51.758
1628114721.447,-83.984,-30.762,-21.973,-55.176
1628114721.450,-26.367,-17.090,-40.039,0.488
1628114721.454,33.691,39.551,-51.270,25.879
1628114721.458,-16.602,11.719,-44.922,-28.320
1628114721.462,-95.215,-45.410,-35.645,-82.031
1628114721.466,-60.547,-40.527,-32.715,-47.852
1628114721.480,37.109,-23.926,-27.344,8.789
1628114721.484,31.250,-40.039,-7.812,-13.184
1628114721.488,-43.945,-87.891,-9.766,-53.223
1628114721.492,-37.598,-54.199,-15.625,-31.738
1628114721.496,43.945,-13.672,-12.695,22.949
1628114721.500,41.992,-17.090,-33.691,8.301
1628114721.504,-43.457,-13.672,-32.715,-49.316
1628114721.507,-94.238,-28.320,-22.949,-52.734
1628114721.511,-32.227,-37.598,-43.457,-8.301
1628114721.515,31.250,-36.621,-40.039,8.789
1628114721.519,-41.016,-50.293,-44.434,-43.457
1628114721.523,-107.422,-52.734,-35.645,-63.477
1628114721.516,-32.715,-39.062,-3.906,-2.441
1628114721.520,52.246,-38.086,-13.184,28.809
1628114721.524,3.906,-40.527,-21.973,-16.113
1628114721.528,-57.617,-34.180,-17.578,-38.574
1628114721.532,-11.230,-36.621,-5.859,12.207
1628114721.536,43.457,-38.574,-14.160,33.203
1628114721.540,-3.418,-40.527,-28.809,-14.648
1628114721.543,-91.797,-21.484,-16.602,-53.711
1628114721.547,-92.285,-11.719,-8.789,-35.645
1628114721.551,-6.836,-40.527,-22.949,13.672
1628114721.555,24.414,-41.504,-19.043,1.953
1628114721.559,-42.480,-42.480,-16.113,-44.434
1628114721.573,-79.102,-35.645,-36.621,-53.711
1628114721.577,-31.250,-14.648,-49.316,-14.648
1628114721.581,20.020,-36.133,-35.156,5.371
1628114721.585,-24.414,-41.504,-15.137,-42.480
1628114721.589,-98.145,-31.738,-16.602,-79.102
1628114721.593,-53.223,-6.348,-32.715,-34.668
1628114721.597,49.805,0.000,-18.555,20.020
1628114721.600,5.859,-41.992,-9.277,-17.578
1628114721.604,-74.707,-33.203,-22.949,-57.617
1628114721.608,-58.105,-42.969,-33.203,-36.621
1628114721.612,2.441,-66.406,-54.199,-6.348
1628114721.616,-4.883,-61.523,-59.082,-26.367
1628114721.610,-73.730,-51.758,-33.691,-65.918
1628114721.614,-66.895,-30.762,-12.207,-45.898
1628114721.618,-1.465,-20.996,-18.555,-5.371
1628114721.622,25.391,-13.184,-20.508,0.977
1628114721.626,-36.621,-21.484,-14.648,-42.969
1628114721.630,-86.426,-41.992,-16.602,-63.965
1628114721.634,-19.043,-31.738,-26.367,-3.906
1628114721.637,60.059,-29.297,-39.551,33.203
1628114721.641,6.836,-54.199,-29.297,-19.531
1628114721.645,-87.402,-46.387,-20.020,-62.500
1628114721.649,-53.223,-27.832,-27.832,-28.320
1628114721.653,16.113,-44.434,-53.223,0.000
1628114721.669,-2.930,-36.133,-46.387,-20.996
1628114721.673,-60.059,-9.277,-5.371,-36.133
1628114721.677,-57.129,-15.137,-11.230,-22.949
1628114721.681,7.812,-40.039,-30.762,4.395
1628114721.685,27.832,-39.062,-24.902,-3.906
1628114721.689,-38.086,-28.320,-31.250,-54.199
1628114721.693,-81.543,-51.758,-40.527,-65.918
1628114721.696,-17.578,-61.523,-48.828,-19.043
1628114721.700,41.016,-36.133,-53.711,7.812
1628114721.704,-35.645,-24.414,-37.598,-43.457
1628114721.708,-110.840,-26.367,-36.133,-88.379
1628114721.712,-56.152,-33.691,-49.805,-50.781
1628114721.704,42.969,-17.090,-25.879,15.137
1628114721.708,8.789,-19.531,-15.625,-16.113
1628114721.712,-91.797,-44.434,-18.555,-78.125
1628114721.716,-68.359,-52.246,-26.855,-50.293
1628114721.720,9.277,-58.594,-35.645,-12.207
1628114721.724,-9.277,-52.246,-41.016,-40.527
1628114721.728,-92.773,-49.316,-52.734,-81.543
1628114721.731,-91.309,-47.852,-41.992,-52.734
1628114721.735,-5.859,-36.621,-34.180,-0.977
1628114721.739,17.578,-44.922,-56.641,-10.742
1628114721.743,-53.223,-44.434,-55.664,-41.016
1628114721.747,-90.332,-32.227,-16.602,-38.574
1628114721.761,-31.250,-23.926,-3.418,-13.672
1628114721.765,20.508,-18.066,-22.949,1.465
1628114721.769,-35.645,-25.879,-20.996,-36.621
1628114721.773,-109.375,-44.434,-32.715,-80.566
1628114721.777,-59.082,-41.992,-50.781,-42.480
1628114721.781,26.367,-7.812,-51.758,-5.371
1628114721.785,-16.602,-9.766,-45.410,-50.293
1628114721.788,-100.586,-41.992,-39.062,-90.332
1628114721.792,-71.289,-50.293,-40.039,-61.523
1628114721.796,13.672,-74.707,-41.504,-18.066
1628114721.800,12.207,-58.105,-47.363,-27.344
1628114721.804,-54.199,-17.090,-34.668,-60.547
1628114721.797,-71.289,-29.785,-28.320,-57.129
1628114721.801,-3.906,-38.086,-34.668,-20.020
1628114721.805,37.109,-9.277,-28.809,-6.836
1628114721.809,-18.066,16.602,-24.414,-24.902
1628114721.813,-82.520,-9.766,-43.945,-47.852
1628114721.817,-34.668,-39.062,-41.504,-24.902
1628114721.821,17.578,-48.828,-31.250,-6.836
1628114721.824,-39.062,-48.340,-30.273,-51.758
1628114721.828,-96.680,-42.480,-17.578,-71.777
1628114721.832,-48.340,-50.781,-9.766,-18.066
1628114721.836,34.180,-39.062,-16.602,22.949
1628114721.840,8.789,-25.879,-19.531,-5.859
1628114721.857,-82.031,-35.645,-35.156,-54.688
1628114721.861,-61.035,-16.602,-30.273,-18.555
1628114721.865,31.250,-18.066,-11.230,29.785
1628114721.869,-4.883,-38.574,-18.066,-28.809
1628114721.873,-112.305,-28.809,-26.855,-98.633
1628114721.877,-112.305,-13.184,-34.180,-79.102
1628114721.881,-8.789,-9.277,-30.762,-11.719
1628114721.884,48.340,-14.160,-20.996,-2.441
1628114721.888,-36.621,-36.621,-41.504,-63.965
1628114721.892,-91.797,-59.082,-34.180,-78.613
1628114721.896,-16.602,-64.941,-23.438,-13.672
1628114721.900,40.527,-32.715,-37.598,20.996
1628114721.892,-19.043,-5.859,-29.785,-30.273
1628114721.896,-99.609,-20.996,-15.137,-75.684
1628114721.900,-75.684,-39.062,-15.137,-52.246
1628114721.904,16.602,-22.461,-14.160,8.301
1628114721.908,7.812,-8.301,-13.672,-6.836
1628114721.912,-90.332,-20.996,-25.879,-84.473
1628114721.916,-88.867,-50.293,-27.344,-68.848
1628114721.919,7.812,-54.688,-25.391,-5.371
1628114721.923,10.742,-28.809,-38.086,-15.625
1628114721.927,-84.961,-20.020,-43.457,-83.984
1628114721.931,-114.258,-19.531,-45.410,-98.145
1628114721.935,-32.227,-22.949,-40.527,-36.133
1628114721.966,30.762,-12.695,-22.949,-5.371
1628114721.970,-47.363,-12.695,-38.086,-59.570
1628114721.974,-115.234,-42.480,-47.852,-88.379
1628114721.978,-26.367,-54.199,-14.160,-23.438
1628114721.982,51.270,-27.832,-19.531,6.836
1628114721.986,-20.996,-18.555,-50.293,-55.664
1628114721.990,-111.328,-31.738,-62.012,-100.098
1628114721.993,-82.520,-17.090,-41.016,-68.359
1628114721.997,24.902,-2.441,-25.879,-1.953
1628114722.001,0.488,-18.066,-50.293,-31.738
1628114722.005,-113.770,-48.340,-67.383,-98.633
1628114722.009,-92.285,-49.316,-37.598,-63.965
1628114721.985,17.090,-51.758,-15.137,2.441
1628114721.989,30.762,-50.293,-27.832,-10.254
1628114721.993,-81.543,-43.457,-43.945,-83.496
1628114721.997,-120.605,-39.551,-41.992,-85.938
1628114722.001,-25.391,-28.320,-26.855,-11.719
1628114722.005,34.668,-18.555,-24.902,19.531
1628114722.009,-41.016,-14.160,-38.574,-32.715
1628114722.012,-96.680,-36.133,-41.992,-68.848
1628114722.016,-44.922,-93.262,-24.902,-30.762
1628114722.020,0.977,-75.195,-29.785,-9.277
1628114722.024,-21.484,-4.883,-44.434,-44.434
1628114722.028,-82.031,13.184,-37.109,-67.871
1628114722.043,-46.387,-15.625,-23.438,-32.227
1628114722.047,29.297,-49.316,-25.879,1.953
1628114722.051,-1.465,-31.738,-49.805,-29.297
1628114722.055,-92.773,-27.832,-41.504,-80.078
1628114722.059,-92.285,-21.484,-17.090,-69.824
1628114722.063,-0.488,-21.973,-34.668,-7.324
1628114722.067,30.762,-38.086,-46.387,0.000
1628114722.070,-56.152,-41.992,-30.273,-61.523
1628114722.074,-101.074,-49.805,-11.230,-65.430
1628114722.078,-38.086,-53.223,-12.695,-18.066
1628114722.082,21.484,-37.598,-27.832,8.301
1628114722.086,-28.320,-29.785,-33.203,-39.062
1628114722.087,10.254,-38.574,-46.387,-11.230
1628114722.091,-8.301,-30.762,-42.969,-22.461
1628114722.095,-74.707,-26.367,-26.855,-51.270
1628114722.099,-69.824,-43.457,-20.996,-47.852
1628114722.103,26.855,-43.457,-19.043,-4.883
1628114722.106,-1.953,-35.156,-23.926,-34.668
1628114722.110,-123.535,-38.086,-37.109,-107.422
1628114722.114,-125.488,-43.945,-34.668,-82.520
1628114722.118,-26.367,-42.969,-12.207,-21.484
1628114722.122,54.688,-25.879,10.742,16.113
1628114722.135,-12.695,-39.062,0.488,-18.555
1628114722.139,-109.863,-67.383,-28.320,-61.035
1628114722.143,-44.434,-64.453,-17.090,-13.184
1628114722.147,55.176,-42.969,-12.207,32.227
1628114722.151,-16.113,-41.016,-29.297,-26.855
1628114722.155,-119.141,-62.988,-28.809,-83.008
1628114722.159,-67.871,-56.152,-24.902,-35.645
1628114722.162,28.809,-48.340,-37.109,12.695
1628114722.166,3.418,-66.895,-46.875,-19.531
1628114722.170,-63.965,-52.246,-39.062,-48.828
1628114722.174,-58.105,-37.598,-20.996,-30.762
1628114722.178,20.508,-40.039,-4.883,18.555
1628114722.173,42.480,-30.273,-12.207,20.508
1628114722.177,-44.922,-16.602,-22.949,-41.504
1628114722.181,-86.914,-26.367,-29.297,-53.711
1628114722.185,-15.625,-48.828,-39.551,-5.371
1628114722.189,42.480,-41.992,-31.250,15.625
1628114722.193,-8.789,-22.949,-14.160,-10.742
1628114722.197,-89.355,-33.203,-29.297,-45.410
1628114722.200,-52.246,-35.645,-31.738,-17.578
1628114722.204,29.785,-20.996,-27.344,24.414
1628114722.208,7.324,-27.832,-32.227,-12.695
1628114722.212,-70.312,-35.645,-31.738,-57.129
1628114722.216,-81.543,-35.645,-30.762,-42.969
1628114722.230,5.371,-29.785,-31.738,-1.465
1628114722.234,23.926,-18.066,-32.715,-6.348
1628114722.238,-62.988,-31.250,-42.480,-56.641
1628114722.242,-82.031,-41.992,-61.035,-54.199
1628114722.246,-7.324,-36.133,-59.570,-6.348
1628114722.250,11.719,-50.781,-50.781,-15.625
1628114722.254,-73.730,-72.266,-42.969,-82.031
1628114722.257,-106.934,-61.523,-21.973,-84.473
1628114722.261,-20.508,-37.109,-11.230,-20.996
1628114722.265,63.965,-20.020,-22.949,13.672
1628114722.269,20.020,-10.254,-36.133,-12.207
1628114722.273,-94.238,-22.461,-43.945,-65.430
1628114722.266,-89.844,-32.227,-30.762,-49.805
1628114722.270,-4.395,-28.809,-24.414,-4.395
1628114722.274,-30.273,-36.621,-50.293,-36.133
1628114722.278,-124.512,-66.895,-70.801,-86.914
1628114722.282,-112.305,-80.566,-55.176,-76.172
1628114722.286,3.418,-39.551,-43.945,-14.648
1628114722.290,12.695,-25.879,-42.969,-20.996
1628114722.293,-61.523,-36.133,-19.531,-67.383
1628114722.297,-75.195,-55.176,-15.625,-50.781
1628114722.301,3.906,-38.086,-27.344,20.508
1628114722.305,36.133,-22.461,-22.949,23.438
1628114722.309,-76.660,-53.223,-42.480,-69.336
1628114722.323,-143.066,-66.406,-63.965,-103.516
1628114722.327,-48.828,-50.293,-52.734,-35.645
1628114722.331,22.461,-41.016,-39.062,2.441
1628114722.335,-38.574,-56.152,-30.273,-41.992
1628114722.339,-110.352,-52.246,-20.996,-76.660
1628114722.343,-48.828,-8.301,-34.180,-21.484
1628114722.347,44.434,-1.465,-26.367,25.879
1628114722.350,2.930,-17.090,-13.672,-12.695
1628114722.354,-66.406,-15.137,-2.441,-54.688
1628114722.358,-59.082,-19.043,6.836,-45.410
1628114722.362,-9.766,-39.062,-50.781,-11.719
1628114722.366,-4.883,-50.293,-92.773,-20.020
1628114722.360,-79.590,-41.504,-61.523,-77.637
1628114722.364,-109.375,-51.758,-26.855,-73.730
1628114722.368,-30.273,-53.711,-17.090,-15.625
1628114722.372,32.715,-34.668,-17.090,8.789
1628114722.376,-25.879,-13.184,-27.344,-33.691
1628114722.380,-84.961,-6.836,-38.574,-51.758
1628114722.384,-21.484,-1.465,-21.484,2.441
1628114722.387,55.664,-5.371,-12.695,33.203
1628114722.391,17.090,-17.090,-25.879,-8.301
1628114722.395,-82.520,-32.715,-44.434,-57.617
1628114722.399,-84.961,-69.824,-45.898,-52.246
1628114722.403,-8.789,-57.129,-26.855,-20.996
1628114722.435,-13.672,-28.809,-18.066,-40.039
1628114722.439,-98.633,-37.598,-21.484,-88.867
1628114722.443,-96.680,-20.020,-30.273,-68.359
1628114722.447,-5.859,-21.973,-45.898,-7.812
1628114722.451,21.484,-37.109,-38.086,-0.977
1628114722.455,-47.852,-27.832,-23.926,-41.016
1628114722.459,-103.027,-38.574,-42.480,-61.523
1628114722.462,-31.250,-28.809,-61.035,-24.414
1628114722.466,48.340,-30.273,-48.828,11.719
1628114722.470,-25.391,-51.758,-27.832,-43.457
1628114722.474,-100.098,-34.180,-22.949,-83.984
1628114722.478,-35.645,-19.043,-17.578,-32.227
1628114722.456,51.270,-31.738,-13.184,13.184
1628114722.460,12.695,-29.297,-18.066,-27.832
1628114722.464,-75.684,-23.438,-28.809,-76.172
1628114722.468,-55.664,-18.066,-31.250,-45.410
1628114722.472,56.641,-15.137,-16.602,27.344
1628114722.476,55.664,-39.062,-41.504,10.742
1628114722.480,-68.848,-60.059,-68.359,-73.242
1628114722.483,-87.891,-37.598,-50.293,-73.242
1628114722.487,2.930,37.598,-32.715,-16.113
1628114722.491,29.297,18.066,-29.785,-16.602
1628114722.495,-43.457,-41.504,-25.391,-65.918
1628114722.499,-83.008,-40.527,-13.184,-65.430
1628114722.511,-17.090,-37.598,-22.949,-14.648
1628114722.515,49.805,-7.324,-37.598,15.137
1628114722.519,-11.719,-28.320,-37.598,-41.992
1628114722.523,-80.566,-46.875,-27.344,-77.148
1628114722.527,-28.809,-36.621,-13.184,-21.484
1628114722.531,58.594,-12.207,-20.020,22.461
1628114722.535,30.273,11.230,-35.156,-10.742
1628114722.538,-64.941,-17.090,-24.902,-61.035
1628114722.542,-41.992,-21.973,-30.762,-33.691
1628114722.546,37.109,-56.641,-49.316,10.742
1628114722.550,23.926,-16.602,-39.551,-10.742
1628114722.554,-51.758,17.090,-22.461,-48.340
1628114722.547,-77.637,-30.762,-26.367,-45.410
1628114722.551,-2.930,-28.320,-30.762,6.348
1628114722.555,42.480,-29.297,-24.414,29.785
1628114722.559,-23.926,-22.949,-28.320,-25.391
1628114722.563,-83.008,-20.508,-35.645,-64.941
1628114722.567,-38.086,-27.832,-32.715,-28.809
1628114722.571,25.391,-52.734,-41.504,7.812
1628114722.574,-20.508,-69.336,-38.086,-28.320
1628114722.578,-83.984,11.230,-28.809,-49.316
1628114722.582,-37.598,14.648,-26.855,-7.324
1628114722.586,41.504,-40.527,-26.855,31.250
1628114722.590,9.277,-63.965,-27.344,-4.883
1628114722.604,-87.402,-51.270,-33.203,-75.684
1628114722.608,-63.477,36.621,-42.480,-55.664
1628114722.612,35.156,13.672,-32.715,4.395
1628114722.616,36.621,-30.762,-17.090,-4.883
1628114722.620,-49.805,-44.922,-24.902,-54.688
1628114722.624,-78.125,-27.344,-42.480,-46.875
1628114722.628,-3.418,-4.883,-39.551,1.465
1628114722.631,26.855,-47.363,-41.992,7.324
1628114722.635,-50.781,-42.480,-43.457,-44.922
1628114722.639,-100.098,-28.809,-24.414,-71.289
1628114722.643,-35.645,-31.738,-21.484,-28.809
1628114722.647,51.270,-33.203,-23.926,11.230
1628114722.645,10.742,-28.809,-24.414,-28.320
1628114722.649,-80.566,-44.434,-34.668,-73.730
1628114722.653,-37.598,-75.195,-28.809,-26.367
1628114722.657,64.453,-28.809,-21.484,38.086
1628114722.661,28.809,-3.906,-35.156,6.348
1628114722.665,-67.871,-40.039,-33.691,-47.363
1628114722.669,-49.805,-27.832,-21.484,-21.973
1628114722.672,30.762,-36.621,-37.109,20.508
1628114722.676,30.762,-71.777,-52.246,1.465
1628114722.680,-71.777,-64.453,-43.945,-73.242
1628114722.684,-119.629,-43.457,-33.691,-86.914
1628114722.688,-15.137,-24.902,-14.160,-3.906
1628114722.698,70.312,-14.648,2.930,30.762
1628114722.702,-12.695,-26.855,-12.207,-33.203
1628114722.706,-100.098,-54.199,-31.738,-65.918
1628114722.710,-42.480,-49.805,-34.668,-18.555
1628114722.714,45.410,-26.855,-26.855,20.508
1628114722.718,1.953,-29.785,-28.320,-22.949
1628114722.722,-90.332,-32.227,-32.227,-77.148
1628114722.725,-63.965,-35.645,-29.297,-40.039
1628114722.729,33.691,-29.297,-34.180,22.949
1628114722.733,21.973,-14.160,-39.062,2.930
1628114722.737,-90.820,-32.227,-57.129,-74.219
1628114722.741,-105.469,-43.945,-51.270,-81.543
1628114722.735,-1.465,-37.109,-34.668,-10.742
1628114722.739,41.992,-33.691,-30.762,7.324
1628114722.743,-39.551,-31.738,-26.367,-49.316
1628114722.747,-83.984,-43.945,-22.949,-62.988
1628114722.751,-3.418,-33.203,-11.230,-0.977
1628114722.755,57.617,-29.297,-20.996,15.137
1628114722.759,-21.973,-61.035,-35.645,-44.922
1628114722.762,-105.957,-70.312,-26.855,-82.031
1628114722.766,-45.898,-43.945,-42.969,-39.062
1628114722.770,48.828,0.000,-68.359,11.230
1628114722.774,-1.953,-8.301,-67.383,-30.273
1628114722.778,-71.777,-18.555,-27.832,-51.758
1628114722.792,-32.227,-8.301,-10.254,-7.812
1628114722.796,37.109,-33.203,-34.668,18.555
1628114722.800,48.828,-41.504,-10.254,-0.977
1628114722.804,-61.035,-32.227,-21.484,-65.430
1628114722.808,-126.953,-56.152,-38.086,-88.867
1628114722.812,-23.438,-32.227,-29.297,-20.508
1628114722.816,37.109,0.000,-51.270,17.578
1628114722.819,-52.734,-42.480,-41.016,-35.645
1628114722.823,-109.863,-59.570,-26.367,-65.430
1628114722.827,-26.367,-30.273,-14.648,-4.395
1628114722.831,51.270,-8.301,-37.109,35.156
1628114722.835,-7.324,1.953,-60.547,-13.672
1628114722.829,-77.637,-14.648,-35.156,-48.828
1628114722.833,-26.367,-32.715,-10.742,-1.953
1628114722.837,47.852,-42.969,-17.578,30.762
1628114722.841,-5.371,-59.082,-26.855,-24.902
1628114722.845,-92.773,-45.898,-22.461,-78.613
1628114722.849,-83.496,-25.391,-29.785,-59.570
1628114722.853,-2.930,-19.043,-25.391,-10.742
1628114722.856,21.484,-22.949,-25.391,-12.695
1628114722.860,-61.523,-31.250,-53.711,-62.012
1628114722.864,-97.168,-25.879,-48.340,-54.688
1628114722.868,-10.742,-18.555,-26.367,10.254
1628114722.872,62.012,-19.531,-8.789,32.227
1628114722.885,-14.648,-35.645,-11.230,-26.855
1628114722.889,-122.070,-64.453,-41.992,-78.613
1628114722.893,-78.125,-57.617,-47.852,-46.875
1628114722.897,6.836,-33.691,-35.156,-4.883
1628114722.901,-34.180,-31.738,-30.762,-41.504
1628114722.905,-110.352,-42.480,-38.574,-89.844
1628114722.909,-65.430,-39.551,-44.922,-49.805
1628114722.912,31.738,-30.762,-40.527,1.953
1628114722.916,19.531,-27.832,-31.250,-27.832
1628114722.920,-66.406,-21.973,-33.691,-88.379
1628114722.924,-66.895,-35.156,-36.621,-56.641
1628114722.928,23.438,-47.363,-28.320,11.230
1628114722.923,43.945,-31.250,-26.367,-7.812
1628114722.927,-50.293,-24.414,-31.250,-62.012
1628114722.931,-98.145,-21.973,-37.109,-74.707
1628114722.935,-29.297,-2.930,-34.180,-31.250
1628114722.939,24.414,-7.324,-39.062,-14.648
1628114722.943,-26.855,-37.109,-52.734,-61.523
1628114722.947,-94.238,-48.828,-47.363,-87.402
1628114722.950,-47.852,-44.434,-19.043,-41.016
1628114722.954,38.086,-23.926,-11.719,10.254
1628114722.958,-6.836,-27.344,-37.598,-27.832
1628114722.962,-105.469,-56.152,-50.781,-86.426
1628114722.966,-68.848,-77.637,-25.391,-41.992
1628114722.981,29.297,-55.176,-18.066,20.020
1628114722.985,-0.488,-25.391,-44.434,-18.066
1628114722.989,-72.754,-21.973,-25.879,-62.012
1628114722.993,-78.613,-28.809,-0.488,-42.480
1628114722.997,-19.043,-26.367,-8.301,-7.324
1628114723.001,13.184,-22.461,-27.832,-10.254
1628114723.005,-40.527,-31.250,-40.039,-59.570
1628114723.008,-74.707,-31.250,-28.809,-68.848
1628114723.012,-18.555,-20.508,-17.578,-21.973
1628114723.016,47.363,-18.066,-16.602,9.277
1628114723.020,1.953,-43.457,-35.156,-24.902
1628114723.024,-76.660,-60.547,-55.664,-61.523
1628114723.016,-73.242,-52.246,-63.965,-54.688
1628114723.020,14.160,-17.578,-51.270,-13.672
1628114723.024,21.484,2.441,-39.062,-20.996
1628114723.028,-62.012,-11.719,-40.039,-63.965
1628114723.032,-79.590,-26.855,-27.344,-64.453
1628114723.036,-7.812,-30.762,-25.391,-21.973
1628114723.040,16.113,-23.926,-20.508,-15.625
1628114723.043,-70.312,-41.504,-40.039,-62.012
1628114723.047,-112.305,-58.105,-56.641,-68.359
1628114723.051,-27.832,-41.504,-36.133,-15.625
1628114723.055,48.828,-26.855,-21.973,20.996
1628114723.059,-2.441,-20.020,-16.113,-12.695
1628114723.073,-64.941,-30.273,-20.508,-32.227
1628114723.077,-28.320,-65.430,-31.250,1.953
1628114723.081,56.641,-48.340,-31.738,31.250
1628114723.085,14.160,-17.578,-45.898,-21.973
1628114723.089,-94.727,-26.367,-51.270,-84.473
1628114723.093,-77.148,-29.297,-31.250,-51.758
1628114723.097,10.254,-33.203,-16.602,4.883
1628114723.100,2.930,-41.992,-9.277,-12.207
1628114723.104,-79.590,-25.879,-23.438,-52.734
1628114723.108,-87.402,0.000,-29.785,-39.062
1628114723.112,-7.812,-11.230,-31.738,10.742
1628114723.116,15.625,-32.715,-36.133,9.766
1628114723.111,-68.359,-33.691,-41.992,-61.035
1628114723.115,-108.887,-32.715,-41.016,-74.707
1628114723.119,-32.227,-30.273,-16.113,-15.137
1628114723.123,20.020,-50.781,-20.508,1.465
1628114723.127,-41.016,-62.500,-19.531,-45.898
1628114723.131,-102.539,-55.176,-4.395,-70.312
1628114723.135,-56.641,-48.340,-17.578,-22.461
1628114723.138,8.789,-20.508,-20.508,14.160
1628114723.142,-28.320,-15.137,-49.805,-35.645
1628114723.146,-109.375,-38.086,-78.125,-89.844
1628114723.150,-110.840,-53.223,-50.293,-76.172
1628114723.154,-31.250,-63.965,-26.367,-37.109
1628114723.186,-8.301,-75.195,-28.320,-43.457
1628114723.190,-58.594,-63.965,-26.367,-66.895
1628114723.194,-93.262,-22.461,-31.250,-63.965
1628114723.198,-37.598,0.977,-41.504,-33.203
1628114723.202,9.766,-7.324,-31.738,-25.391
1628114723.206,-54.199,-26.367,-27.832,-61.523
1628114723.210,-106.934,-59.082,-39.062,-77.637
1628114723.213,-36.133,-42.969,-32.227,-23.926
1628114723.217,50.293,-17.090,-25.391,16.113
1628114723.221,-15.137,-33.691,-40.039,-33.203
1628114723.225,-87.891,-39.551,-53.711,-64.453
1628114723.229,-49.805,-31.738,-41.016,-25.879
1628114723.204,31.250,-33.691,-21.484,22.461
1628114723.208,29.785,-28.320,-22.461,2.930
1628114723.212,-67.383,-28.320,-27.344,-60.059
1628114723.216,-82.520,-40.527,-28.809,-46.875
1628114723.220,7.324,-38.086,-27.344,3.418
1628114723.224,27.344,-28.809,-33.691,-3.906
1628114723.228,-39.062,-34.180,-27.832,-40.039
1628114723.231,-62.012,-30.273,-13.672,-40.527
1628114723.235,12.207,-8.789,-29.297,14.160
1628114723.239,65.918,-26.367,-36.621,39.551
1628114723.243,7.324,-35.645,-37.598,-4.395
1628114723.247,-83.496,-25.879,-36.133,-59.082
1628114723.261,-48.340,-20.996,-40.039,-30.762
1628114723.265,47.363,3.906,-29.785,24.414
1628114723.269,-0.488,-1.465,-32.227,-22.949
1628114723.273,-104.492,-25.879,-47.852,-83.496
1628114723.277,-71.777,-40.039,-36.133,-52.246
1628114723.281,43.457,-43.945,-24.414,10.254
1628114723.285,38.086,-43.457,-34.668,-19.531
1628114723.288,-55.176,-41.504,-22.949,-69.824
1628114723.292,-62.988,-34.180,-8.301,-42.969
1628114723.296,17.090,-19.531,-25.879,7.324
1628114723.300,51.758,-13.672,-41.504,18.066
1628114723.304,-41.504,-26.367,-52.246,-44.922
1628114723.297,-108.887,-29.785,-42.969,-75.195
1628114723.301,-35.156,-34.180,-17.578,-26.367
1628114723.305,36.621,-35.645,-23.926,-1.465
1628114723.309,-27.832,-34.180,-38.574,-46.387
1628114723.313,-102.539,-36.133,-30.762,-75.195
1628114723.317,-49.316,-27.832,-20.020,-31.250
1628114723.321,39.551,-21.484,-17.090,13.672
1628114723.324,12.207,-21.973,-22.949,-4.883
1628114723.328,-81.543,-19.043,-27.832,-50.781
1628114723.332,-71.777,-36.621,-22.461,-47.363
1628114723.336,19.531,-40.527,-7.324,7.812
1628114723.340,27.832,-29.297,-13.184,15.137
1628114723.354,-56.152,-36.621,-35.156,-44.434
1628114723.358,-81.055,-29.785,-47.852,-50.293
1628114723.362,-0.977,-33.691,-55.176,0.977
1628114723.366,43.457,-27.832,-52.734,3.906
1628114723.370,-40.039,-14.648,-39.062,-44.922
1628114723.374,-86.914,-5.371,-24.414,-51.758
1628114723.378,-15.137,-28.320,-16.602,-0.977
1628114723.381,43.457,-50.781,-23.438,21.484
1628114723.385,-0.977,-32.715,-20.020,-21.484
1628114723.389,-73.242,-21.973,-13.184,-57.129
1628114723.393,-41.016,-45.410,-24.414,-22.949
1628114723.397,42.480,-64.941,-15.137,27.832
1628114723.392,13.672,-48.340,-12.695,-3.418
1628114723.396,-92.773,-30.762,-30.762,-59.570
1628114723.400,-70.801,-22.949,-18.066,-26.367
1628114723.404,33.203,-24.902,-19.531,24.902
1628114723.408,30.273,-28.320,-48.828,-0.977
1628114723.412,-60.547,-21.973,-41.016,-59.082
1628114723.416,-70.801,-32.227,-22.461,-45.410
1628114723.419,23.926,-41.016,-13.672,21.484
1628114723.423,65.430,-14.648,-13.672,36.133
1628114723.427,-23.926,-18.066,-19.043,-26.855
1628114723.431,-95.703,-27.832,-25.879,-62.988
1628114723.435,-57.617,-42.480,-39.062,-38.086
1628114723.467,17.090,-61.035,-35.645,-1.465
1628114723.471,-19.043,-55.664,-35.645,-39.551
1628114723.475,-102.051,-46.387,-42.480,-87.891
1628114723.479,-45.898,-28.809,-31.738,-39.062
1628114723.483,50.781,-16.602,-17.090,21.973
1628114723.487,19.531,-41.504,-25.391,-8.301
1628114723.491,-79.102,-58.594,-37.109,-69.824
1628114723.494,-81.543,-47.363,-31.250,-58.594
1628114723.498,23.438,-34.180,-25.391,3.906
1628114723.502,58.594,-12.207,-21.973,24.414
1628114723.506,-29.297,-36.133,-31.250,-28.320
1628114723.510,-76.660,-62.500,-33.203,-60.547
1628114723.488,-2.930,-39.551,-20.996,-14.648
1628114723.492,36.621,-30.762,-30.762,2.441
1628114723.496,-52.734,-39.062,-37.109,-55.664
1628114723.500,-117.188,-48.340,-45.898,-78.125
1628114723.504,-60.059,-50.293,-53.223,-35.156
1628114723.508,15.625,-51.758,-38.574,-6.348
1628114723.512,-14.648,-51.758,-25.879,-42.969
1628114723.515,-102.539,-39.551,-35.156,-88.379
1628114723.519,-83.984,-45.898,-36.621,-62.500
1628114723.523,16.602,-34.180,-32.715,-6.348
1628114723.527,15.625,-19.531,-32.227,-12.207
1628114723.531,-77.637,-18.555,-28.320,-58.105
1628114723.542,-98.633,-29.297,-28.809,-47.363
1628114723.546,-16.602,-58.105,-33.691,5.371
1628114723.550,19.043,-41.504,-20.508,7.324
1628114723.554,-57.129,-39.551,-18.555,-50.293
1628114723.558,-99.609,-37.109,-45.898,-62.012
1628114723.562,-15.625,-51.270,-45.410,7.324
1628114723.566,47.363,-83.008,-28.320,29.297
1628114723.569,-11.230,-30.273,-8.301,-23.438
1628114723.573,-84.961,-21.484,3.906,-61.035
1628114723.577,-45.410,-21.973,-15.625,-29.785
1628114723.581,40.527,-33.203,-32.715,20.020
1628114723.585,0.977,-57.129,-32.227,-14.648
1628114723.579,-100.098,-34.180,-41.016,-67.871
1628114723.583,-86.914,-32.715,-44.434,-49.316
1628114723.587,28.809,-9.766,-18.066,10.742
1628114723.591,44.434,-20.508,-7.324,9.277
1628114723.595,-45.410,-27.344,-17.578,-46.387
1628114723.599,-60.059,-17.578,-18.555,-46.387
1628114723.603,8.301,-32.715,-16.602,3.418
1628114723.606,50.293,-18.066,-23.926,20.996
1628114723.610,-28.320,-81.543,-20.508,-27.344
1628114723.614,-84.961,-74.219,-15.625,-52.734
1628114723.618,-20.996,-10.254,-23.438,-14.160
1628114723.622,44.434,0.488,-28.320,20.020
1628114723.637,-10.254,-3.418,-37.109,-34.180
1628114723.641,-102.539,-66.895,-45.410,-88.379
1628114723.645,-64.453,-52.246,-36.133,-46.387
1628114723.649,19.043,-18.555,-27.344,-4.883
1628114723.653,6.836,-3.906,-44.434,-24.902
1628114723.657,-72.266,-24.414,-59.570,-71.289
1628114723.661,-69.824,-46.875,-42.480,-51.270
1628114723.664,12.207,-23.438,-18.555,5.859
1628114723.668,20.996,-19.531,-16.602,-10.742
1628114723.672,-66.895,-25.391,-28.809,-74.707
1628114723.676,-110.840,-54.199,-34.668,-81.055
1628114723.680,-35.645,-56.152,-27.344,-26.855
1628114723.672,17.578,-10.254,-24.902,-9.766
1628114723.676,-61.035,-0.977,-33.203,-69.336
1628114723.680,-113.281,8.789,-26.855,-83.984
1628114723.684,-44.434,-37.598,-28.320,-29.297
1628114723.688,27.344,-59.570,-38.086,5.859
1628114723.692,-17.578,-16.113,-33.691,-38.574
1628114723.696,-104.492,-19.531,-40.527,-87.402
1628114723.699,-75.195,-24.414,-46.875,-56.641
1628114723.703,5.371,-42.969,-63.477,-28.320
1628114723.707,-10.254,-38.574,-66.406,-57.129
1628114723.711,-93.750,-24.902,-40.527,-94.238
1628114723.715,-102.051,-19.531,-33.691,-71.777
1628114723.730,-10.742,-25.879,-37.598,-6.348
1628114723.734,9.766,-37.598,-28.809,-13.184
1628114723.738,-73.242,-35.156,-14.160,-67.871
1628114723.742,-107.910,-34.668,-16.113,-69.336
1628114723.746,-27.832,-12.695,-15.137,-10.742
1628114723.750,39.551,-29.785,-34.668,21.484
1628114723.754,-26.367,-65.918,-70.801,-30.762
1628114723.757,-97.656,-31.250,-47.852,-65.430
1628114723.761,-62.500,-20.996,-24.902,-32.715
1628114723.765,1.465,-6.348,-23.926,2.441
1628114723.769,-27.832,-39.551,-23.438,-29.297
1628114723.773,-105.957,-67.383,-28.320,-82.520
1628114723.767,-77.148,-24.902,-30.762,-56.152
1628114723.771,16.113,-24.414,-49.316,5.859
1628114723.775,13.672,-29.785,-48.828,-5.371
1628114723.779,-69.336,-31.738,-34.668,-56.641
1628114723.783,-91.797,-28.320,-28.320,-53.223
1628114723.787,-10.742,-17.578,-28.320,-5.371
1628114723.791,36.133,-5.859,-20.508,5.859
1628114723.794,-47.363,-4.395,-23.926,-47.852
1628114723.798,-102.051,-54.688,-48.828,-73.242
1628114723.802,-37.109,-58.105,-53.223,-41.504
1628114723.806,33.203,-22.461,-27.832,-6.348
1628114723.810,-11.719,-10.742,-12.695,-30.762
1628114723.824,-91.309,-25.391,-20.508,-62.500
1628114723.828,-62.500,-65.430,-26.367,-29.297
1628114723.832,14.648,-63.965,-42.969,4.395
1628114723.836,-16.113,-64.453,-53.223,-32.227
1628114723.840,-90.332,-27.832,-42.969,-69.336
1628114723.844,-68.848,-27.344,-42.969,-33.691
1628114723.848,29.297,-30.273,-35.156,25.879
1628114723.851,26.855,0.488,-36.133,2.930
1628114723.855,-76.172,-3.418,-34.668,-73.730
1628114723.859,-109.863,-18.555,-27.832,-88.867
1628114723.863,-17.578,-29.785,-29.785,-26.367
1628114723.867,54.199,-33.691,-21.973,19.043
1628114723.861,-17.578,-57.129,-31.738,-35.156
1628114723.865,-87.891,-63.477,-51.758,-63.965
1628114723.869,-39.551,-22.461,-40.039,-19.043
1628114723.873,24.902,-24.902,-33.203,1.465
1628114723.877,-23.438,-43.945,-51.270,-31.738
1628114723.881,-94.727,-33.203,-65.918,-56.641
1628114723.885,-43.457,-7.324,-55.176,-15.625
1628114723.888,44.922,2.441,-30.273,20.996
1628114723.892,5.371,-34.180,-18.066,-31.738
1628114723.896,-87.891,-51.270,-21.973,-89.844
1628114723.900,-67.871,-22.949,-26.855,-53.223
1628114723.904,24.902,-13.184,-29.297,9.277
1628114723.935,33.203,-23.438,-34.668,-7.324
1628114723.939,-49.316,-28.809,-38.574,-60.059
1628114723.943,-93.262,-29.785,-43.457,-64.941
1628114723.947,-12.695,-11.230,-43.457,-2.930
1628114723.951,65.918,-5.371,-40.527,38.086
1628114723.955,5.371,-11.230,-21.973,-5.859
1628114723.959,-86.914,-6.836,-8.789,-62.012
1628114723.962,-47.852,-13.672,-20.020,-39.062
1628114723.966,41.016,2.930,-20.020,5.859
1628114723.970,-17.578,-8.301,-35.156,-44.922
1628114723.974,-102.539,-15.137,-54.199,-90.332
1628114723.978,-73.730,-27.344,-53.711,-52.246
1628114723.954,20.996,-36.621,-36.133,6.348
1628114723.958,27.344,-36.133,-20.020,-2.441
1628114723.962,-75.195,-46.875,-36.621,-62.988
1628114723.966,-85.449,-29.785,-46.387,-54.688
1628114723.970,30.273,-11.230,-28.320,18.066
1628114723.974,41.504,-32.227,-36.133,17.578
1628114723.978,-82.031,-60.059,-52.246,-68.848
1628114723.981,-115.723,-38.574,-47.852,-85.938
1628114723.985,6.348,-14.160,-23.438,7.812
1628114723.989,60.059,-25.879,-14.648,15.625
1628114723.993,-37.598,-37.598,-32.227,-72.266
1628114723.997,-102.051,-33.203,-45.898,-88.379
1628114724.011,-24.414,-26.367,-34.668,-21.484
1628114724.015,48.340,-42.480,-26.367,16.602
1628114724.019,-20.020,-61.035,-33.203,-34.180
1628114724.023,-107.422,-65.430,-48.828,-82.031
1628114724.027,-60.547,-44.922,-57.129,-40.527
1628114724.031,59.570,-17.090,-46.387,27.344
1628114724.035,48.340,-23.438,-37.598,-2.441
1628114724.038,-70.312,-24.902,-42.480,-68.848
1628114724.042,-82.520,-6.348,-41.992,-55.176
1628114724.046,13.672,-22.461,-45.898,2.930
1628114724.050,23.438,-44.434,-55.664,-13.672
1628114724.054,-73.730,-34.668,-61.035,-82.031
1628114724.047,-97.168,-22.949,-51.270,-82.031
1628114724.051,6.348,-25.391,-15.137,3.906
1628114724.055,66.406,-41.504,-2.930,41.016
1628114724.059,-10.254,-34.668,-29.297,-17.090
1628114724.063,-88.379,-9.766,-38.086,-50.781
1628114724.067,-57.129,-17.090,-49.316,-27.832
1628114724.071,44.434,-21.484,-47.852,25.391
1628114724.074,10.254,-23.926,-46.875,-5.371
1628114724.078,-117.676,-48.828,-56.152,-88.867
1628114724.082,-101.562,-47.852,-54.199,-65.918
1628114724.086,23.926,-52.734,-44.434,21.484
1628114724.090,39.551,-45.410,-28.809,13.672
1628114724.104,-70.312,-2.930,-31.738,-61.035
1628114724.108,-103.516,-1.953,-41.016,-63.965
1628114724.112,-4.395,-22.461,-23.438,2.930
1628114724.116,48.340,-24.902,-6.836,32.715
1628114724.120,-41.992,-13.672,-24.414,-39.551
1628114724.124,-119.629,-36.133,-62.012,-88.867
1628114724.128,-47.363,-74.707,-54.199,-35.645
1628114724.131,35.156,-49.316,-22.461,10.254
1628114724.135,-28.320,-25.391,-38.086,-46.387
1628114724.139,-104.004,-45.898,-38.086,-90.332
1628114724.143,-48.340,-61.523,-33.203,-34.180
1628114724.147,34.180,-30.762,-50.293,10.254
1628114724.142,-2.441,-19.531,-28.809,-30.762
1628114724.146,-104.980,-33.203,-36.133,-85.449
1628114724.150,-102.051,-24.902,-59.082,-62.500
1628114724.154,4.395,-18.555,-24.902,8.789
1628114724.158,22.461,-21.484,6.348,1.465
1628114724.162,-86.426,-27.344,-4.395,-75.684
1628114724.166,-141.602,-54.199,-34.668,-94.727
1628114724.169,-67.383,-52.734,-30.273,-50.293
1628114724.173,5.859,-39.551,-11.230,-16.602
1628114724.177,-38.086,-51.270,-16.602,-38.574
1628114724.181,-116.699,-60.547,-33.691,-77.148
1628114724.185,-86.426,-42.969,-30.762,-65.430
1628114724.198,-4.395,-27.832,-30.762,-27.832
1628114724.202,-39.551,-68.848,-55.176,-54.199
1628114724.206,-110.840,-88.867,-35.645,-88.379
1628114724.210,-72.266,-62.012,-16.602,-44.434
1628114724.214,0.488,-36.133,-24.902,-8.301
1628114724.218,-2.930,-22.461,-23.438,-19.531
1628114724.222,-74.219,-39.551,-21.973,-52.734
1628114724.225,-72.266,-47.852,-21.973,-41.504
1628114724.229,1.953,-43.457,-32.227,9.277
1628114724.233,21.484,-41.504,-26.367,5.859
1628114724.237,-58.594,-51.270,-28.809,-54.688
1628114724.241,-103.027,-31.738,-36.133,-62.500
1628114724.235,-24.414,-23.926,-24.414,-3.906
1628114724.239,83.984,-39.062,-1.465,56.641
1628114724.243,21.484,-35.156,0.000,5.371
1628114724.247,-80.566,-27.344,-2.441,-62.500
1628114724.251,-31.250,-31.738,-1.465,-12.207
1628114724.255,26.855,-52.734,-34.668,15.625
1628114724.259,-12.207,-51.758,-51.758,-30.273
1628114724.262,-80.566,-49.316,-34.668,-65.430
1628114724.266,-63.477,-82.520,-17.578,-35.645
1628114724.270,27.344,-53.223,-13.672,14.160
1628114724.274,55.664,-1.465,-8.789,16.602
1628114724.278,-42.480,-28.809,-30.762,-32.227
1628114724.292,-76.660,-35.156,-38.086,-39.062
1628114724.296,11.230,-52.734,-20.508,9.766
1628114724.300,42.480,-58.105,-20.020,8.789
1628114724.304,-51.270,-31.738,-33.203,-57.617
1628114724.308,-93.750,-27.832,-43.945,-71.777
1628114724.312,-12.207,-19.043,-42.969,-11.230
1628114724.316,45.410,-17.090,-44.922,20.508
1628114724.319,-17.090,-28.320,-25.879,-27.344
1628114724.323,-96.680,-25.391,-9.766,-70.312
1628114724.327,-26.367,-16.113,-10.742,-11.719
1628114724.331,81.543,-7.812,-18.066,50.781
1628114724.335,20.508,-15.625,-36.621,-6.836
1628114724.328,-83.008,-25.391,-23.926,-61.035
1628114724.332,-77.148,-25.391,-25.879,-39.551
1628114724.336,23.926,-6.836,-35.645,14.648
1628114724.340,45.410,-22.949,-26.855,11.230
1628114724.344,-66.895,-62.012,-30.762,-63.965
1628114724.348,-105.469,-40.527,-28.809,-72.754
1628114724.352,-20.996,-20.996,-27.832,-18.066
1628114724.355,35.645,-30.273,-28.320,-3.906
1628114724.359,-26.367,-36.621,-23.926,-38.574
1628114724.363,-68.848,-41.992,-11.719,-42.480
1628114724.367,-12.207,-47.852,-15.137,-14.160
1628114724.371,41.992,-34.180,-24.414,-6.348
1628114724.385,-12.695,-16.113,-31.738,-45.898
1628114724.389,-109.375,7.812,-47.852,-88.379
1628114724.393,-71.777,-10.742,-40.039,-47.363
1628114724.397,36.133,-47.363,-21.484,14.648
1628114724.401,30.762,-54.688,-11.719,0.977
1628114724.405,-50.781,-14.160,-17.578,-40.039
1628114724.409,-65.918,8.789,-33.203,-35.645
1628114724.412,10.742,-16.602,-37.109,11.230
1628114724.416,48.828,-14.160,-21.484,18.066
1628114724.420,-38.086,-35.645,-2.441,-41.504
1628114724.424,-97.656,-71.777,-29.297,-64.453
1628114724.428,-22.949,-62.988,-35.645,-10.254
1628114724.423,59.082,-20.508,-10.742,36.133
1628114724.427,-18.066,-20.020,-22.461,-26.855
1628114724.431,-108.398,-44.434,-41.504,-82.520
1628114724.435,-36.133,-23.926,-30.762,-16.602
1628114724.439,40.039,-13.672,-26.367,21.484
1628114724.443,-13.672,-18.555,-29.297,-39.062
1628114724.447,-92.773,-27.832,-32.227,-88.379
1628114724.450,-62.012,-40.039,-35.645,-45.898
1628114724.454,52.734,-13.184,-20.020,34.180
1628114724.458,49.316,-39.062,-16.113,12.207
1628114724.462,-69.336,-69.824,-23.926,-61.523
1628114724.466,-79.102,-29.785,-16.602,-51.270
1628114724.498,7.812,-8.789,-43.457,-5.859
1628114724.502,18.555,-21.973,-67.871,-14.160
1628114724.506,-60.547,-35.645,-40.527,-54.688
1628114724.510,-93.262,-35.156,-30.762,-61.035
1628114724.514,-14.648,-34.180,-30.762,-8.789
1628114724.518,66.406,-7.812,-26.855,25.879
1628114724.522,-7.812,-17.090,-25.391,-30.762
1628114724.525,-92.773,-50.293,-20.020,-71.777
1628114724.529,-44.434,-41.504,-22.461,-30.273
1628114724.533,27.832,-63.477,-36.133,7.324
1628114724.537,-18.066,-31.738,-53.223,-48.340
1628114724.541,-93.262,20.020,-49.316,-89.355
1628114724.519,-67.383,-11.230,-36.133,-41.992
1628114724.523,4.883,-31.250,-61.035,-0.488
1628114724.527,19.043,-32.227,-62.500,-18.066
1628114724.531,-74.707,-46.875,-46.875,-76.172
1628114724.535,-101.074,-41.992,-43.945,-81.543
1628114724.539,7.812,-15.137,-15.137,-11.719
1628114724.543,41.016,-26.367,-12.207,3.418
1628114724.546,-50.781,-29.785,-22.949,-66.895
1628114724.550,-100.586,-10.254,-30.273,-92.773
1628114724.554,-23.926,-26.855,-33.203,-23.926
1628114724.558,47.363,-51.758,-33.203,24.414
1628114724.562,-2.930,-40.039,-18.555,-13.672
1628114724.573,-88.867,-22.461,-18.066,-66.895
1628114724.577,-49.805,-31.738,-41.504,-23.438
1628114724.581,54.199,-44.922,-43.945,41.992
1628114724.585,15.137,-26.367,-38.574,-13.184
1628114724.589,-91.797,-28.320,-44.434,-96.191
1628114724.593,-59.082,-22.461,-39.551,-48.340
1628114724.597,41.504,-4.395,-50.781,35.156
1628114724.600,37.109,-10.254,-56.152,3.418
1628114724.604,-64.453,-17.578,-30.762,-76.660
1628114724.608,-97.168,-35.645,-43.945,-80.078
1628114724.612,1.953,-16.113,-56.152,-10.742
1628114724.616,55.176,-28.320,-36.133,10.254
1628114724.611,-27.832,-62.012,-25.879,-47.363
1628114724.615,-80.566,-31.250,-17.090,-68.359
1628114724.619,-32.227,-35.645,-37.109,-16.113
1628114724.623,29.297,-15.137,-61.035,11.230
1628114724.627,-18.066,5.371,-52.734,-37.109
1628114724.631,-98.145,-26.855,-55.664,-74.707
1628114724.635,-61.035,-35.156,-46.875,-41.016
1628114724.638,17.090,-45.898,-21.973,-2.441
1628114724.642,-2.441,-36.621,-27.832,-33.203
1628114724.646,-78.613,-21.484,-21.973,-71.777
1628114724.650,-84.473,-38.086,-23.438,-58.594
1628114724.654,-6.836,-44.922,-39.062,-11.230
1628114724.685,24.414,-34.180,-42.480,-5.859
1628114724.689,-54.688,-43.945,-43.945,-52.734
1628114724.693,-96.680,-53.223,-31.250,-50.293
1628114724.697,-16.602,-42.480,-7.812,12.207
1628114724.701,48.828,-43.945,1.953,36.621
1628114724.705,-18.066,-27.832,-12.207,-24.902
1628114724.709,-106.934,-22.949,-31.250,-79.102
1628114724.712,-63.477,-37.109,-48.340,-44.434
1628114724.716,33.203,-41.992,-48.828,0.977
1628114724.720,-0.488,-42.480,-27.832,-35.645
1628114724.724,-97.656,-36.621,-17.090,-87.402
1628114724.728,-81.055,-43.945,-32.227,-51.270
1628114724.706,20.020,-48.340,-32.227,9.277
1628114724.710,26.855,-41.504,-20.020,0.977
1628114724.714,-63.477,-31.250,-20.020,-50.781
1628114724.718,-88.867,-33.203,-29.297,-62.988
1628114724.722,3.906,-39.062,-50.293,-3.418
1628114724.726,56.152,-37.109,-48.340,17.090
1628114724.730,-52.734,-45.898,-36.621,-59.082
1628114724.733,-104.980,-41.016,-29.297,-82.520
1628114724.737,-10.742,-23.926,-23.438,-8.789
1628114724.741,50.781,-19.043,-24.902,20.020
1628114724.745,-20.996,-34.180,-32.715,-43.457
1628114724.749,-112.305,-43.457,-32.227,-82.520
1628114724.761,-54.199,-26.367,-20.508,-24.414
1628114724.765,41.504,-30.273,-26.367,23.926
1628114724.769,-2.930,-41.992,-27.832,-16.602
1628114724.773,-88.379,-39.062,-40.039,-63.965
1628114724.777,-74.707,-37.598,-57.129,-41.016
1628114724.781,7.324,-26.855,-39.062,6.836
1628114724.785,20.508,-16.113,-35.156,-14.160
1628114724.788,-68.359,-26.367,-17.578,-67.383
1628114724.792,-106.934,-35.156,-15.137,-59.570
1628114724.796,-33.203,-32.227,-43.945,-13.184
1628114724.800,24.414,-9.766,-26.367,6.836
1628114724.804,-44.434,-3.906,-8.789,-38.086
1628114724.797,-131.348,-41.016,-28.320,-84.473
1628114724.801,-52.734,-52.246,-35.645,-20.020
1628114724.805,48.828,-40.527,-20.996,28.320
1628114724.809,-27.344,-35.156,-37.109,-44.922
1628114724.813,-127.930,-35.645,-47.363,-103.516
1628114724.817,-74.219,-19.043,-37.109,-52.734
1628114724.821,26.855,-17.578,-37.109,9.277
1628114724.824,-0.488,-40.527,-37.598,-23.438
1628114724.828,-111.328,-38.574,-53.711,-87.402
1628114724.832,-90.332,-25.879,-51.270,-58.105
1628114724.836,40.527,-23.926,-18.555,26.367
1628114724.840,38.086,-38.574,-21.484,1.953
1628114724.854,-70.312,-51.270,-39.551,-74.219
1628114724.858,-110.840,-35.645,-45.410,-81.543
1628114724.862,-37.109,-27.344,-28.320,-30.273
1628114724.866,21.973,-32.227,-20.996,-2.930
1628114724.870,-58.105,-37.598,-17.090,-59.570
1628114724.874,-115.723,-38.086,-33.691,-78.125
1628114724.878,-50.293,-30.762,-56.152,-32.227
1628114724.881,22.949,-35.156,-42.969,-2.930
1628114724.885,-12.695,-51.270,-32.715,-27.832
1628114724.889,-95.215,-53.223,-25.391,-55.176
1628114724.893,-82.520,-34.180,-24.902,-41.016
1628114724.897,-1.953,-29.785,-30.762,-15.625
1628114724.911,6.836,-32.715,-39.062,-21.484
1628114724.915,-72.266,-34.180,-51.758,-57.617
1628114724.919,-107.910,-35.156,-56.152,-62.988
1628114724.923,-19.043,-61.523,-33.203,-8.301
1628114724.927,-2.441,-90.820,-36.133,-25.391
1628114724.931,-84.961,-51.270,-42.480,-94.727
1628114724.935,-95.215,-22.949,-25.391,-94.727
1628114724.938,-14.160,-18.555,-11.719,-39.062
1628114724.942,42.480,-45.898,-29.297,-9.277
1628114724.946,4.395,-39.551,-32.715,-36.133
1628114724.950,-68.359,-24.902,-30.762,-60.547
1628114724.954,-57.129,-43.457,-34.668,-30.273
1628114724.948,34.668,-36.133,-15.137,16.602
1628114724.952,16.602,-31.738,-5.859,-12.695
1628114724.956,-88.867,-51.758,-28.809,-75.195
1628114724.960,-71.777,-55.176,-35.645,-47.852
1628114724.964,32.227,-22.461,-27.832,15.137
1628114724.968,29.297,-17.090,-49.805,-5.859
1628114724.972,-57.617,-28.320,-48.828,-65.430
1628114724.975,-98.145,-30.273,-23.438,-66.895
1628114724.979,-33.203,-35.645,-23.438,-4.395
1628114724.983,41.016,-30.762,-22.461,29.785
1628114724.987,-8.789,-26.855,-18.066,-11.719
1628114724.991,-81.543,-22.949,-20.020,-45.898
1628114724.985,-32.715,-11.719,-25.391,-9.277
1628114724.989,44.922,-19.043,-26.367,28.320
1628114724.993,0.000,-33.203,-33.203,-23.438
1628114724.997,-87.891,-44.922,-37.598,-69.336
1628114725.001,-60.547,-51.758,-30.762,-24.902
1628114725.005,28.809,-45.898,-34.668,27.832
1628114725.009,26.855,-32.715,-67.383,2.930
1628114725.012,-52.734,-49.805,-59.082,-46.875
1628114725.016,-72.266,-33.691,-19.043,-27.344
1628114725.020,-3.906,-1.953,-10.254,9.766
1628114725.024,24.902,-8.301,-21.484,-10.742
1628114725.028,-46.875,-13.672,-28.320,-63.477
1628114725.042,-86.426,-16.602,-31.250,-65.918
1628114725.046,-9.277,-12.695,-27.832,-1.465
1628114725.050,48.828,-37.598,-34.668,16.113
1628114725.054,-24.414,-47.852,-44.922,-41.992
1628114725.058,-99.121,-29.297,-34.668,-64.941
1628114725.062,-36.621,-10.254,-25.879,-16.602
1628114725.066,46.875,-12.695,-38.574,17.578
1628114725.069,16.113,-27.832,-48.340,-22.461
1628114725.073,-74.219,-41.504,-43.457,-68.848
1628114725.077,-65.430,-46.875,-33.203,-37.598
1628114725.081,20.020,-45.410,-27.344,13.672
1628114725.085,28.320,-44.434,-20.996,-0.977
1628114725.079,-36.621,-30.273,-7.812,-48.828
1628114725.083,-63.965,-13.672,-10.254,-48.340
1628114725.087,-5.371,-7.812,-37.109,-6.348
1628114725.091,47.852,-12.207,-47.363,8.789
1628114725.095,-27.344,-22.949,-34.668,-41.504
1628114725.099,-104.492,-24.414,-23.926,-63.965
1628114725.103,-53.711,-36.133,-22.461,-21.973
1628114725.106,23.438,-47.852,-26.367,9.277
1628114725.110,1.465,-25.391,-32.227,-7.812
1628114725.114,-61.035,-21.973,-24.902,-33.203
1628114725.118,-39.551,-55.176,-15.137,-20.020
1628114725.122,30.273,-62.012,-19.043,11.719
1628114725.137,0.000,-37.598,-29.297,-23.438
1628114725.141,-93.262,-24.414,-43.945,-83.984
1628114725.145,-97.656,-21.973,-41.016,-60.059
1628114725.149,-6.348,-13.672,-33.203,5.859
1628114725.153,14.160,-20.508,-40.527,-2.930
1628114725.157,-59.570,-41.992,-40.039,-55.664
1628114725.161,-83.496,-57.617,-33.203,-54.688
1628114725.164,-16.113,-35.645,-35.156,-2.930
1628114725.168,49.316,-21.484,-21.484,30.273
1628114725.172,-3.418,-30.273,-7.812,-13.184
1628114725.176,-93.262,-41.992,-20.020,-59.570
1628114725.180,-67.383,-41.504,-43.945,-35.156
1628114725.172,5.859,-35.156,-53.711,4.883
1628114725.176,-23.438,-41.992,-30.762,-33.691
1628114725.180,-107.910,-42.969,-22.949,-80.566
1628114725.184,-90.332,-43.945,-33.691,-48.340
1628114725.188,5.859,-44.434,-31.250,-4.883
1628114725.192,8.789,-30.273,-27.832,-29.297
1628114725.196,-63.477,-12.695,-22.461,-68.848
1628114725.199,-77.148,-15.625,-20.996,-58.105
1628114725.203,-8.301,-41.016,-37.109,-14.648
1628114725.207,24.902,-35.156,-47.852,-6.836
1628114725.211,-49.316,-7.812,-49.316,-47.363
1628114725.215,-101.562,-20.996,-42.480,-61.035
1628114725.230,-28.809,-40.527,-19.043,-20.020
1628114725.234,41.504,-46.387,-18.066,9.277
1628114725.238,-23.926,-39.062,-42.969,-43.457
1628114725.242,-101.074,-43.457,-46.875,-82.520
1628114725.246,-60.059,-42.969,-29.297,-41.992
1628114725.250,10.742,-50.781,-36.133,-5.859
1628114725.254,-7.324,-59.082,-34.668,-27.344
1628114725.257,-84.961,-29.297,-18.066,-72.754
1628114725.261,-82.031,-21.973,-20.020,-62.500
1628114725.265,12.207,-26.855,-34.180,-8.301
1628114725.269,25.879,-25.391,-49.316,-17.090
1628114725.273,-57.129,-10.254,-37.598,-61.523
1628114725.267,-83.984,-9.766,-19.531,-52.246
1628114725.271,-17.578,-30.273,-13.672,-8.301
1628114725.275,19.531,-35.156,-16.602,0.000
1628114725.279,-51.270,-32.715,-38.574,-53.711
1628114725.283,-99.609,-36.621,-40.039,-70.312
1628114725.287,-17.578,-38.574,-27.344,-15.137
1628114725.291,48.828,-34.180,-27.344,16.113
1628114725.294,-26.855,-28.320,-29.785,-30.273
1628114725.298,-105.957,-50.293,-21.973,-63.477
1628114725.302,-59.570,-59.082,-23.438,-19.043
1628114725.306,34.668,-18.555,-22.949,27.344
1628114725.310,17.578,-0.488,-25.391,-10.254
1628114725.323,-83.496,-15.625,-38.574,-76.172
1628114725.327,-83.496,-38.086,-44.922,-61.523
1628114725.331,11.719,-44.434,-46.875,-2.441
1628114725.335,35.156,-32.227,-39.062,-4.395
1628114725.339,-36.621,-4.883,-19.043,-49.316
1628114725.343,-72.266,-17.090,-20.508,-56.641
1628114725.347,-12.695,-54.688,-37.598,-21.484
1628114725.350,22.461,-38.574,-35.645,-11.719
1628114725.354,-23.438,-27.832,-4.883,-33.691
1628114725.358,-84.961,-45.898,-9.277,-49.805
1628114725.362,-47.363,-38.086,-27.832,-18.555
1628114725.366,28.809,-26.367,-29.297,12.207
1628114725.361,-24.414,-35.645,-43.457,-35.156
1628114725.365,-114.746,-32.715,-43.457,-88.379
1628114725.369,-76.172,-11.230,-26.367,-54.688
1628114725.373,11.719,-39.062,-29.785,-3.906
1628114725.377,3.418,-53.223,-28.809,-25.879
1628114725.381,-67.383,-16.113,-26.367,-61.523
1628114725.385,-85.449,-26.367,-39.062,-51.270
1628114725.388,-12.207,-33.203,-40.039,-10.254
1628114725.392,17.578,-71.289,-39.551,-10.254
1628114725.396,-44.434,-64.941,-28.809,-51.270
1628114725.400,-78.613,-32.227,-22.461,-61.035
1628114725.404,-31.250,-38.086,-36.621,-16.602
1628114725.418,18.066,-41.504,-29.297,3.906
1628114725.422,-35.645,-59.082,-29.297,-44.434
1628114725.426,-102.539,-27.344,-47.852,-71.289
1628114725.430,-57.617,-6.348,-44.434,-36.621
1628114725.434,34.180,-8.789,-23.438,7.812
1628114725.438,-6.836,-32.227,-15.625,-27.344
1628114725.442,-99.121,-49.805,-17.090,-68.848
1628114725.445,-56.152,-20.508,-14.648,-29.297
1628114725.449,27.832,-15.137,-32.715,4.883
1628114725.453,5.859,-31.738,-30.762,-20.020
1628114725.457,-79.590,-47.852,-28.320,-59.570
1628114725.461,-80.566,-40.039,-39.062,-44.434
1628114725.454,13.184,-27.832,-33.203,10.254
1628114725.458,3.418,-40.527,-33.691,-15.625
1628114725.462,-88.867,-28.809,-24.902,-77.637
1628114725.466,-97.168,-20.020,-28.320,-55.176
1628114725.470,-5.371,-30.762,-44.434,10.742
1628114725.474,54.688,-20.508,-33.203,26.367
1628114725.478,-36.133,-19.043,-21.973,-44.434
1628114725.481,-124.023,-36.133,-25.391,-94.727
1628114725.485,-62.988,-53.223,-35.156,-44.922
1628114725.489,30.273,-36.621,-30.762,-1.953
1628114725.493,-14.648,-13.672,-24.414,-62.500
1628114725.497,-111.328,-24.902,-32.715,-110.840
1628114725.511,-79.590,-41.504,-27.832,-60.547
1628114725.515,16.113,-41.504,-25.391,-1.465
1628114725.519,8.789,-34.668,-28.809,-23.926
1628114725.523,-91.309,-43.945,-34.180,-86.914
1628114725.527,-107.910,-50.293,-38.086,-77.637
1628114725.531,0.000,-27.832,-36.133,-6.836
1628114725.535,31.738,-19.043,-38.086,2.441
1628114725.538,-69.824,-27.832,-34.668,-62.500
1628114725.542,-99.121,-7.324,-23.438,-61.523
1628114725.546,-1.953,-4.883,-28.320,0.488
1628114725.550,46.387,-33.203,-50.293,1.465
1628114725.554,-34.180,-35.156,-51.758,-62.988
1628114725.551,-117.188,-17.090,-40.527,-86.426
1628114725.555,-63.965,-23.438,-38.574,-39.062
1628114725.559,27.344,-20.020,-27.832,-6.836
1628114725.563,-9.766,-18.066,-28.809,-51.270
1628114725.567,-86.426,-27.832,-24.414,-85.449
1628114725.571,-61.523,-32.227,-15.625,-49.805
1628114725.575,40.039,-33.203,-33.691,7.324
1628114725.578,38.574,-33.203,-35.156,-3.418
1628114725.582,-85.938,-79.590,-38.574,-81.055
1628114725.586,-94.238,-57.129,-35.645,-75.195
1628114725.590,2.930,-6.836,-22.461,-3.906
1628114725.594,26.855,-13.672,-34.668,-6.348
1628114725.604,-41.992,-21.973,-37.109,-58.594
1628114725.608,-86.426,-70.312,-39.062,-54.199
1628114725.612,-25.879,-64.453,-41.992,0.977
1628114725.616,28.320,-24.414,-31.738,10.254
1628114725.620,-37.109,-10.254,-28.320,-54.688
1628114725.624,-102.539,-14.648,-34.668,-82.520
1628114725.628,-42.480,-27.344,-39.062,-19.531
1628114725.631,50.293,-16.113,-23.926,32.227
1628114725.635,24.902,-26.367,-13.184,-4.883
1628114725.639,-85.449,-49.316,-33.203,-67.871
1628114725.643,-100.586,-46.875,-47.852,-68.848
1628114725.647,-0.488,-20.020,-38.086,-12.695
1628114725.643,20.508,-0.977,-39.062,-16.113
1628114725.647,-77.637,-13.672,-44.434,-81.543
1628114725.651,-92.285,-15.137,-22.461,-58.105
1628114725.655,3.906,-11.719,-19.043,11.719
1628114725.659,39.062,-31.738,-31.250,11.719
1628114725.663,-44.434,-53.223,-36.133,-49.805
1628114725.667,-114.258,-54.688,-41.504,-80.566
1628114725.670,-51.270,-21.973,-31.250,-23.926
1628114725.674,32.227,1.465,-29.785,21.484
1628114725.678,-13.184,-21.484,-24.902,-32.227
1628114725.682,-111.328,-51.758,-22.949,-92.773
1628114725.686,-84.961,-43.945,-23.926,-60.547
1628114725.699,15.137,-37.598,-21.973,0.488
1628114725.703,12.695,-42.969,-28.320,-12.207
1628114725.707,-79.102,-32.715,-26.367,-67.871
1628114725.711,-97.656,-22.461,-27.344,-58.105
1628114725.715,-8.301,-15.625,-36.621,-6.348
1628114725.719,28.320,-0.488,-38.086,3.906
1628114725.723,-43.945,-12.695,-32.227,-33.691
1628114725.726,-99.609,-53.223,-36.133,-54.688
1628114725.730,-30.762,-48.828,-29.297,-12.207
1628114725.734,33.691,-42.969,-29.297,0.488
1628114725.738,-16.113,-48.340,-35.645,-46.387
1628114725.742,-92.285,-43.945,-26.367,-74.219
1628114725.735,-61.035,-16.113,-18.066,-30.273
1628114725.739,27.832,-7.324,-21.484,10.254
1628114725.743,-11.230,-23.438,-40.527,-33.203
1628114725.747,-99.121,-32.227,-51.758,-86.914
1628114725.751,-81.543,-31.738,-41.016,-59.570
1628114725.755,10.742,-20.996,-28.809,5.859
1628114725.759,34.180,-22.461,-23.926,-6.836
1628114725.762,-33.691,-25.879,-26.367,-55.176
1628114725.766,-68.848,-21.973,-35.156,-50.293
1628114725.770,-4.883,-36.133,-37.598,-4.395
1628114725.774,32.227,-53.223,-33.691,6.348
1628114725.778,-49.316,-41.504,-22.461,-46.387
1628114725.791,-112.305,-28.320,-24.414,-75.195
1628114725.795,-49.316,-19.531,-30.762,-30.762
1628114725.799,39.551,-16.602,-14.648,18.066
1628114725.803,-7.324,-34.668,-19.531,-22.461
1628114725.807,-114.258,-55.176,-38.086,-89.844
1628114725.811,-67.383,-41.992,-27.832,-41.504
1628114725.815,41.016,-26.367,-17.578,22.461
1628114725.818,14.648,-16.602,-38.574,-12.695
1628114725.822,-83.496,-17.578,-46.875,-67.383
1628114725.826,-104.980,-40.527,-29.785,-58.105
1628114725.830,-22.461,-41.016,-33.203,-3.906
1628114725.834,-3.906,-29.785,-51.758,-14.648
1628114725.830,-78.613,-36.621,-55.176,-66.406
1628114725.834,-86.426,-58.105,-32.715,-49.805
1628114725.838,-25.879,-73.242,-23.926,-8.789
1628114725.842,14.160,-23.926,-38.086,-7.324
1628114725.846,-47.363,-6.836,-35.645,-62.500
1628114725.850,-112.305,-32.227,-22.949,-79.102
1628114725.854,-38.086,-36.133,-14.648,-13.184
1628114725.857,52.246,-44.922,-9.766,26.855
1628114725.861,-24.902,-36.621,-41.504,-33.691
1628114725.865,-132.324,-19.531,-58.105,-83.008
1628114725.869,-82.031,-20.508,-21.973,-26.855
1628114725.873,10.254,-47.363,-17.090,21.484
1628114725.903,6.836,-65.918,-28.320,-2.441
1628114725.907,-90.820,-61.035,-31.250,-64.453
1628114725.911,-117.676,-50.781,-39.551,-80.078
1628114725.915,-19.043,-42.480,-41.504,-33.203
1628114725.919,27.832,-18.066,-43.945,-7.324
1628114725.923,-43.457,-17.090,-34.668,-43.945
1628114725.927,-88.379,-47.363,-24.414,-52.734
1628114725.930,-22.461,-28.320,-15.625,-4.395
1628114725.934,42.969,-9.277,-7.812,21.484
1628114725.938,-12.207,-32.715,-3.906,-20.508
1628114725.942,-101.562,-29.785,-30.273,-69.824
1628114725.946,-75.195,-31.738,-57.129,-46.387
1628114725.922,39.062,-42.480,-23.438,22.949
1628114725.926,11.230,-47.852,-9.277,-3.906
1628114725.930,-106.445,-43.945,-32.715,-81.055
1628114725.934,-100.586,-25.391,-38.574,-66.406
1628114725.938,-6.348,-15.625,-23.926,-2.441
1628114725.942,9.766,-20.020,-17.578,-12.207
1628114725.946,-65.918,-31.250,-36.621,-62.012
1628114725.949,-86.914,-34.180,-38.574,-49.805
1628114725.953,-12.695,-9.766,-28.809,-5.859
1628114725.957,6.836,-14.160,-40.039,-18.066
1628114725.961,-67.871,-33.203,-43.945,-81.543
1628114725.965,-95.703,-35.645,-40.527,-78.613
1628114725.979,-21.973,-49.316,-28.320,-13.184
1628114725.983,37.109,-49.316,-37.109,3.906
1628114725.987,-15.625,-47.363,-45.410,-45.410
1628114725.991,-95.215,-53.223,-35.645,-85.449
1628114725.995,-34.180,-19.043,-14.160,-25.879
1628114725.999,65.430,-3.906,-12.695,38.574
1628114726.003,-3.418,-49.316,-58.594,-25.879
1628114726.006,-101.074,-60.547,-54.688,-87.891
1628114726.010,-87.402,-55.664,-32.715,-61.035
1628114726.014,-0.977,-15.137,-35.645,-14.160
1628114726.018,22.461,-4.395,-44.434,-17.090
1628114726.022,-66.895,-43.945,-57.129,-75.684
1628114726.016,-90.332,-24.414,-54.688,-70.312
1628114726.020,0.488,-17.090,-32.227,-1.465
1628114726.024,43.457,-37.598,-20.020,10.254
1628114726.028,-18.555,-33.691,-21.484,-33.691
1628114726.032,-85.449,-19.531,-16.113,-62.988
1628114726.036,-45.898,0.977,-21.484,-28.320
1628114726.040,28.809,-9.277,-30.762,0.977
1628114726.043,-2.930,-19.531,-29.297,-31.738
1628114726.047,-86.426,-19.043,-34.180,-61.035
1628114726.051,-71.777,-27.344,-36.133,-33.691
1628114726.055,32.227,-25.879,-30.273,20.996
1628114726.059,30.273,-30.273,-16.113,2.441
1628114726.073,-83.008,-46.875,-21.973,-60.547
1628114726.077,-107.422,-43.945,-48.828,-57.617
1628114726.081,-5.371,-23.438,-35.156,7.324
1628114726.085,22.949,-18.555,-12.695,7.812
1628114726.089,-65.430,-23.438,-12.207,-63.477
1628114726.093,-91.797,-44.922,-14.160,-66.406
1628114726.097,-1.465,-81.543,-12.695,2.441
1628114726.100,53.223,-57.617,-25.879,19.531
1628114726.104,-24.902,-22.461,-44.434,-46.387
1628114726.108,-104.004,-21.484,-44.922,-86.914
1628114726.112,-57.129,-15.137,-34.180,-35.645
1628114726.116,25.391,-2.930,-35.156,12.207
1628114726.111,-1.953,-3.906,-40.039,-21.973
1628114726.115,-93.750,-22.949,-30.762,-68.848
1628114726.119,-88.379,-40.527,-27.832,-45.898
1628114726.123,2.441,-58.105,-38.086,-0.488
1628114726.127,6.348,-63.477,-41.016,-15.137
1628114726.131,-86.426,-56.152,-32.715,-72.754
1628114726.135,-104.980,-61.523,-33.691,-69.824
1628114726.138,-5.859,-35.156,-23.926,-6.348
1628114726.142,39.062,-40.527,-16.602,13.184
1628114726.146,-33.691,-55.176,-21.484,-37.598
1628114726.150,-89.844,-46.875,-30.762,-56.641
1628114726.154,-21.973,-33.691,-25.879,-0.977
1628114726.167,38.086,-49.805,-36.621,6.836
1628114726.171,-34.668,-67.383,-68.359,-52.246
1628114726.175,-102.051,-34.668,-51.270,-73.730
1628114726.179,-72.266,-40.527,-39.551,-44.434
1628114726.183,4.883,-37.109,-45.410,-14.648
1628114726.187,-6.348,-32.227,-34.180,-36.621
1628114726.191,-87.891,-53.223,-35.645,-68.359
1628114726.194,-86.914,-62.012,-42.969,-43.945
1628114726.198,3.906,-56.152,-24.902,9.766
1628114726.202,22.949,-34.180,-15.137,-3.906
1628114726.206,-55.176,-36.133,-28.320,-65.430
1628114726.210,-82.520,-45.410,-30.762,-62.500
1628114726.204,-3.906,-40.527,-24.414,-1.465
1628114726.208,34.180,-38.574,-31.250,4.883
1628114726.212,-31.738,-25.879,-31.738,-37.598
1628114726.216,-80.566,-24.902,-27.832,-50.293
1628114726.220,-47.852,-37.598,-39.062,-27.344
1628114726.224,15.137,-21.484,-46.875,-7.324
1628114726.228,-11.719,-28.320,-40.527,-34.668
1628114726.231,-96.680,-33.203,-48.340,-80.078
1628114726.235,-80.566,-66.895,-51.270,-54.199
1628114726.239,9.277,-67.383,-35.156,-1.953
1628114726.243,11.230,-26.367,-29.297,-24.414
1628114726.247,-65.918,-27.344,-33.203,-65.430
1628114726.261,-72.754,-28.809,-36.133,-49.805
1628114726.265,4.395,-44.922,-28.320,-4.883
1628114726.269,17.578,-44.922,-24.414,-15.625
1628114726.273,-62.012,-41.504,-29.297,-74.707
1628114726.277,-96.191,-28.320,-25.879,-79.590
1628114726.281,-12.207,-10.254,-35.645,-17.090
1628114726.285,50.781,-17.578,-42.480,8.789
1628114726.288,-23.926,-26.367,-39.062,-49.316
1628114726.292,-94.727,-12.207,-37.109,-81.543
1628114726.296,-42.480,-7.324,-31.250,-38.086
1628114726.300,26.367,-8.301,-38.086,1.465
1628114726.304,-9.277,-10.254,-41.992,-45.410
1628114726.297,-80.566,-29.785,-32.715,-89.355
1628114726.301,-66.406,-47.363,-22.461,-54.688
1628114726.305,14.160,-43.945,-18.066,-10.742
1628114726.309,19.043,-15.625,-31.250,-20.996
1628114726.313,-63.477,-10.742,-36.621,-57.617
1628114726.317,-60.547,-16.113,-23.926,-30.762
1628114726.321,41.992,-7.812,-20.508,38.086
1628114726.324,49.316,-16.113,-25.391,18.066
1628114726.328,-58.105,-25.879,-44.434,-70.801
1628114726.332,-101.074,-23.926,-40.527,-84.473
1628114726.336,-34.668,-25.879,-19.043,-29.297
1628114726.340,37.598,-18.555,-23.926,4.395
1628114726.356,-23.438,-34.180,-41.504,-36.621
1628114726.360,-110.352,-38.086,-36.133,-61.035
1628114726.364,-71.777,-30.273,-21.973,-25.879
1628114726.368,2.930,-41.992,-20.020,3.906
1628114726.372,-13.672,-49.316,-28.320,-21.484
1628114726.376,-85.938,-36.133,-41.992,-57.129
1628114726.380,-69.824,-19.043,-30.273,-32.715
1628114726.383,11.719,-17.578,-33.203,6.348
1628114726.387,10.254,-23.438,-46.875,-17.090
1628114726.391,-62.988,-31.738,-21.973,-49.805
1628114726.395,-71.777,-39.062,-14.648,-27.832
1628114726.399,-3.418,-42.480,-20.020,12.695
1628114726.392,31.250,-28.320,-16.602,3.418
1628114726.396,-49.805,-29.297,-24.902,-53.223
1628114726.400,-110.840,-45.898,-18.555,-73.242
1628114726.404,-34.668,-15.625,-17.090,-18.555
1628114726.408,30.273,4.883,-19.531,6.836
1628114726.412,-24.902,-30.273,-12.695,-48.340
1628114726.416,-89.844,-56.152,-20.508,-68.359
1628114726.419,-59.082,-57.617,-33.203,-32.715
1628114726.423,9.277,-29.297,-41.504,-0.488
1628114726.427,-12.695,-28.320,-33.203,-31.250
1628114726.431,-93.750,-44.434,-27.344,-81.543
1628114726.435,-93.750,-37.598,-26.367,-63.477
1628114726.451,-0.488,-24.414,-20.508,-7.324
1628114726.455,43.457,-5.371,-19.043,-4.883
1628114726.459,-33.691,-14.648,-15.137,-54.688
1628114726.463,-89.355,-33.691,-24.414,-72.754
1628114726.467,-14.648,-58.594,-34.180,-25.391
1628114726.471,45.898,-48.828,-30.273,3.418
1628114726.475,-30.762,-15.137,-32.715,-37.109
1628114726.478,-109.863,-41.992,-48.828,-69.336
1628114726.482,-43.945,-44.434,-36.133,-27.344
1628114726.486,58.594,-19.043,-13.184,25.879
1628114726.490,9.277,-9.277,-37.109,-11.719
1628114726.494,-75.684,-28.809,-41.992,-59.570
1628114726.485,-39.062,-38.086,-24.902,-26.855
1628114726.489,47.852,-23.926,-27.832,24.414
1628114726.493,28.320,-36.621,-21.973,-5.859
1628114726.497,-64.941,-39.062,-13.184,-58.594
1628114726.501,-74.707,-32.715,-10.742,-40.527
1628114726.505,-0.488,-37.109,-18.066,5.859
1628114726.509,28.809,-48.340,-25.391,16.602
1628114726.512,-46.387,-60.547,-28.320,-25.879
1628114726.516,-96.191,-15.625,-32.715,-67.383
1628114726.520,-31.250,-2.930,-32.227,-43.945
1628114726.524,35.156,-36.621,-21.973,-20.020
1628114726.528,-35.645,-49.805,-24.902,-62.500
1628114726.544,-111.816,-40.527,-24.902,-90.332
1628114726.548,-47.363,9.277,-29.297,-36.133
1628114726.552,38.574,-16.602,-32.715,14.160
1628114726.556,7.812,-38.086,-18.066,-24.902
1628114726.560,-70.801,-28.809,-21.484,-66.406
1628114726.564,-45.410,-7.812,-29.297,-28.809
1628114726.568,23.926,19.531,-25.391,15.137
1628114726.571,-2.441,-19.531,-25.879,-5.859
1628114726.575,-90.820,-59.570,-31.738,-57.129
1628114726.579,-104.980,-70.312,-41.992,-52.734
1628114726.583,-10.254,-38.086,-37.598,4.395
1628114726.587,34.668,-35.645,-30.762,11.719
1628114726.579,-58.105,-64.453,-38.086,-50.293
1628114726.583,-115.234,-47.852,-36.621,-75.195
1628114726.587,-31.250,-23.438,-30.273,-24.902
1628114726.591,51.270,-18.066,-26.855,20.020
1628114726.595,4.395,-31.250,-27.344,-13.672
1628114726.599,-69.336,-30.762,-27.832,-51.758
1628114726.603,-41.504,-29.785,-27.344,-28.320
1628114726.606,22.461,-35.645,-31.738,-3.906
1628114726.610,-0.977,1.953,-26.855,-20.020
1628114726.614,-78.613,-0.977,-22.461,-55.176
1628114726.618,-85.938,-47.852,-39.551,-43.945
1628114726.622,-1.465,-43.945,-49.316,1.465
1628114726.653,27.832,-29.297,-40.039,-2.441
1628114726.657,-53.223,-19.043,-34.668,-54.199
1628114726.661,-102.051,-54.199,-44.922,-64.453
1628114726.665,-30.273,-66.406,-35.156,-17.578
1628114726.669,20.996,-59.082,-35.156,-6.836
1628114726.673,-68.359,-61.035,-45.898,-62.500
1628114726.677,-123.047,-20.508,-41.016,-70.312
1628114726.680,-55.664,-13.184,-31.250,-19.043
1628114726.684,29.785,-27.344,-8.301,18.555
1628114726.688,-3.906,-46.387,-7.324,-24.414
1628114726.692,-104.004,-51.758,-38.086,-80.566
1628114726.696,-91.309,-44.434,-40.039,-50.781
1628114726.672,-0.977,-27.832,-29.785,3.418
1628114726.676,13.184,-17.090,-31.738,-9.766
1628114726.680,-62.500,-25.391,-28.809,-62.012
1628114726.684,-68.848,-26.855,-22.949,-54.688
1628114726.688,15.137,-40.527,-16.113,-5.371
1628114726.692,41.504,-58.105,-19.043,-3.418
1628114726.696,-40.527,-53.711,-25.391,-55.176
1628114726.699,-95.703,-50.781,-28.320,-60.547
1628114726.703,-26.367,-62.012,-29.297,-0.488
1628114726.707,36.133,-62.012,-28.320,23.926
1628114726.711,-27.344,-50.781,-28.809,-22.461
1628114726.715,-106.934,-37.109,-25.391,-57.617
1628114726.729,-69.336,-18.555,-32.715,-33.691
1628114726.733,12.695,-34.180,-42.480,-2.441
1628114726.737,-8.789,-43.457,-39.551,-30.273
1628114726.741,-89.355,-37.109,-35.645,-65.430
1628114726.745,-62.988,-32.227,-26.855,-25.391
1628114726.749,34.180,-24.414,-14.648,26.855
1628114726.753,21.484,-32.715,-18.066,-5.859
1628114726.756,-80.078,-35.156,-39.062,-78.125
1628114726.760,-107.910,-25.391,-63.477,-73.730
1628114726.764,-1.953,-24.902,-59.082,0.488
1628114726.768,55.176,-19.531,-32.227,9.277
1628114726.772,-30.273,-17.090,-18.066,-52.246
1628114726.766,-102.051,-54.199,-40.527,-79.590
1628114726.770,-52.246,-63.477,-43.457,-41.992
1628114726.774,25.879,-48.828,-29.785,-6.836
1628114726.778,-2.441,-17.578,-23.438,-26.855
1628114726.782,-74.707,11.230,-20.508,-51.758
1628114726.786,-51.758,-9.277,-33.203,-30.762
1628114726.790,21.973,-30.273,-35.156,-2.441
1628114726.793,-1.953,-35.156,-29.785,-30.273
1628114726.797,-67.383,3.906,-24.414,-58.105
1628114726.801,-60.547,-7.812,-25.391,-34.180
1628114726.805,1.953,-58.594,-42.480,2.930
1628114726.809,15.137,-38.086,-54.199,9.277
1628114726.823,-70.801,-19.531,-50.293,-25.391
1628114726.827,-106.934,-7.324,-45.898,-42.480
1628114726.831,-42.480,-25.879,-45.410,-14.160
1628114726.835,-11.230,-44.434,-42.969,-15.137
1628114726.839,-69.824,-45.898,-43.945,-51.270
1628114726.843,-104.492,-41.504,-51.758,-47.852
1628114726.847,-46.875,-25.391,-38.574,-9.277
1628114726.850,24.902,-25.879,-13.672,13.672
1628114726.854,-26.855,-36.133,-14.160,-40.039
1628114726.858,-128.418,-59.570,-28.809,-106.445
1628114726.862,-85.938,-41.992,-32.715,-70.312
1628114726.866,28.809,6.348,-38.574,-2.441
1628114726.861,20.996,13.672,-38.086,-16.113
1628114726.865,-73.242,7.812,-36.621,-62.988
1628114726.869,-75.684,-23.438,-38.086,-48.828
1628114726.873,13.184,-45.898,-47.363,-6.348
1628114726.877,39.551,-28.809,-73.242,-21.484
1628114726.881,-20.508,-33.691,-59.082,-53.223
1628114726.885,-74.219,-44.922,-41.016,-68.848
1628114726.888,-30.762,-35.156,-52.246,-55.664
1628114726.892,44.434,-20.996,-36.133,-26.855
1628114726.896,11.230,-25.879,-14.160,-49.316
1628114726.900,-83.008,-26.367,-32.715,-88.379
1628114726.904,-60.547,-6.836,-55.176,-64.453
1628114726.918,31.250,-3.906,-47.852,-20.996
1628114726.922,-2.930,-20.020,-26.855,-54.199
1628114726.926,-82.520,-27.832,-17.090,-79.590
1628114726.930,-44.434,-20.508,-21.484,-30.273
1628114726.934,42.480,-21.973,-20.996,9.277
1628114726.938,15.137,-24.902,-32.715,-12.695
1628114726.942,-81.543,-17.090,-42.969,-52.734
1628114726.945,-88.379,-27.832,-46.387,-48.340
1628114726.949,-0.977,-46.875,-32.227,7.812
1628114726.953,25.879,-22.949,-4.883,11.719
1628114726.957,-66.895,-15.137,-22.949,-67.871
1628114726.961,-117.676,-35.645,-41.016,-90.820
1628114726.954,-25.391,-20.996,-28.320,-25.879
1628114726.958,26.367,-12.207,-32.227,-18.066
1628114726.962,-52.734,-24.414,-35.156,-79.102
1628114726.966,-104.980,-23.438,-12.207,-90.820
1628114726.970,-50.293,-26.367,-8.301,-34.180
1628114726.974,27.832,-30.762,-18.555,0.488
1628114726.978,-5.371,-39.551,-22.461,-38.574
1628114726.981,-104.004,-52.246,-31.250,-88.867
1628114726.985,-93.750,-48.828,-39.062,-67.383
1628114726.989,18.066,-28.809,-34.668,-1.465
1628114726.993,13.672,-20.508,-34.180,-19.531
1628114726.997,-98.145,-28.320,-47.363,-84.473
1628114727.011,-100.586,-31.250,-41.016,-70.312
1628114727.015,4.883,-9.766,-29.297,1.953
1628114727.019,39.062,-6.836,-39.062,-1.953
1628114727.023,-54.688,-11.230,-29.297,-64.941
1628114727.027,-112.793,-23.926,-7.812,-76.660
1628114727.031,-53.223,-20.996,-16.602,-44.434
1628114727.035,26.855,-7.324,-32.227,-8.301
1628114727.038,-32.715,-43.945,-53.223,-46.387
1628114727.042,-121.582,-44.922,-53.711,-85.449
1628114727.046,-81.055,-37.598,-42.969,-46.387
1628114727.050,17.578,-14.160,-24.902,4.883
1628114727.054,2.441,-0.977,-18.555,-17.090
1628114727.048,-82.520,-29.297,-29.297,-58.105
1628114727.052,-56.152,-30.273,-21.484,-30.273
1628114727.056,39.551,-21.973,-10.742,25.879
1628114727.060,26.367,-61.523,-32.227,8.301
1628114727.064,-79.102,-87.891,-41.992,-62.988
1628114727.068,-103.516,-61.523,-32.227,-52.734
1628114727.072,-14.160,-51.270,-31.738,21.484
1628114727.075,27.344,-46.387,-48.340,28.809
1628114727.079,-51.270,-46.875,-59.570,-45.410
1628114727.083,-99.121,-39.062,-36.621,-78.613
1628114727.087,-25.391,-34.180,-8.301,-26.367
1628114727.091,62.500,-38.086,3.418,30.273
1628114727.104,32.227,-33.203,2.930,9.766
1628114727.108,-56.641,-34.180,-13.184,-36.133
1628114727.112,-35.156,-28.320,-25.391,-12.695
1628114727.116,60.059,-25.879,-11.719,41.504
1628114727.120,36.133,-36.133,-8.301,18.555
1628114727.124,-71.777,-49.316,-33.203,-52.246
1628114727.128,-80.078,-53.223,-38.086,-40.527
1628114727.131,19.531,-33.691,-20.020,22.461
1628114727.135,38.086,-16.113,-16.602,12.207
1628114727.139,-61.035,-21.484,-34.668,-54.688
1628114727.143,-88.379,-26.855,-24.414,-49.316
1628114727.147,-4.883,-15.625,-3.418,3.418
1628114727.141,52.246,-11.230,-3.906,10.254
1628114727.145,-5.371,-23.926,-10.254,-25.879
1628114727.149,-78.125,-30.762,-20.020,-54.688
1628114727.153,-26.367,-35.645,-20.020,-8.301
1628114727.157,43.945,-38.574,-28.320,25.879
1628114727.161,0.000,-28.320,-40.039,-20.020
1628114727.165,-82.031,-32.227,-32.227,-56.152
1628114727.168,-72.754,-39.551,-28.320,-41.016
1628114727.172,20.020,-50.293,-26.855,1.465
1628114727.176,30.762,-47.852,-12.207,0.000
1628114727.180,-54.688,-52.246,-20.996,-48.340
1628114727.184,-88.379,-61.523,-55.176,-64.941
1628114727.198,-8.789,-58.105,-62.988,-20.508
1628114727.202,24.414,-52.246,-49.316,-15.625
1628114727.206,-58.594,-21.973,-28.809,-73.242
1628114727.210,-120.117,-14.648,-36.621,-99.609
1628114727.214,-63.477,-41.016,-50.781,-56.152
1628114727.218,15.625,-31.738,-41.504,-16.113
