timestamps,TP9,AF7,AF8,TP10
1626.465483397,41.504,-22.461,-44.922,-8.301
1626.465483401,-5.859,-28.32,-53.711000000000006,-58.593999999999994
1626.465483405,-83.008,-31.738000000000003,-11.719000000000001,-53.223
1626.465483409,-29.296999999999997,-23.926,2.93,0.0
1626.465483413,38.086,-20.996,-36.621,0.977
1626.465483417,26.366999999999997,-29.785,-58.593999999999994,-50.781000000000006
1626.465483421,-65.918,-29.296999999999997,-24.414,-65.43
1626.465483424,-41.016000000000005,-12.695,7.812,-0.488
1626.465483428,27.344,-21.484,-32.715,11.719000000000001
1626.4654834320002,34.668,-35.645,-64.941,-37.109
1626.465483436,-34.668,-23.926,-26.855,-54.199
1626.46548344,-50.781000000000006,-20.996,13.184000000000001,1.465
1626.465483442,12.695,-30.761999999999997,-19.531,26.366999999999997
1626.465483446,32.227,-37.109,-59.57,-16.602
1626.46548345,-40.039,-39.551,-47.852,-44.922
1626.465483454,-71.289,-29.296999999999997,1.465,-11.719000000000001
1626.4654834579999,-7.324,-20.508000000000003,-6.836,16.602
1626.465483462,20.508000000000003,-24.414,-52.246,-22.949
1626.465483466,-18.066,-31.25,-54.199,-70.312
1626.4654834689998,-98.145,-35.156,-14.648,-66.895
1626.4654834729997,-64.453,-30.273000000000003,-5.859,-7.812
1626.4654834770001,12.695,-22.461,-53.223,-13.184000000000001
1626.4654834809999,1.953,-35.156,-72.266,-64.453
1626.4654834849998,-82.031,-37.598,-37.598,-69.336
1626.4654834870003,-62.012,-25.391,-9.277000000000001,-10.742
1626.4654834910002,3.418,-33.691,-40.039,0.488
1626.465483495,14.648,-35.645,-80.566,-43.945
1626.465483499,-60.547,-26.855,-57.617,-70.312
1626.4654835029999,-89.355,-31.25,-11.719000000000001,-42.48
1626.4654835070003,-16.602,-32.227,-30.761999999999997,-12.207
1626.4654835110002,24.414,-23.926,-63.477,-33.203
1626.465483514,-43.457,-40.039,-58.105,-79.102
1626.465483518,-105.469,-47.363,-13.672,-54.688
1626.465483522,-31.25,-31.25,2.93,3.418
1626.465483526,36.133,-26.366999999999997,-39.551,-8.301
1626.46548353,11.719000000000001,-35.645,-62.988,-48.34
1626.465483532,-74.707,-35.645,-19.043,-57.129
1626.465483536,-52.246,-27.831999999999997,4.883,-7.324
1626.46548354,16.602,-24.414,-32.227,-4.883
1626.4654835439999,16.602,-32.227,-59.57,-52.733999999999995
1626.4654835479998,-76.66,-44.434,-33.203,-68.359
1626.465483552,-63.477,-35.645,6.836,-9.277000000000001
1626.465483556,19.531,-28.32,-17.578,16.602
1626.465483559,50.781000000000006,-31.738000000000003,-60.547,-19.043
1626.465483563,-24.901999999999997,-30.761999999999997,-47.852,-52.733999999999995
1626.465483567,-70.312,-28.32,0.0,-27.344
1626.465483571,5.859,-22.949,-5.371,13.184000000000001
1626.465483575,52.733999999999995,-19.043,-51.27,-10.254000000000001
1626.4654835779997,-0.488,-20.02,-52.246,-51.27
1626.465483582,-62.5,-22.949,0.488,-37.598
1626.465483586,-11.719000000000001,-25.879,10.742,21.484
1626.4654835899998,51.758,-23.438000000000002,-37.109,10.742
1626.4654835939998,30.761999999999997,-27.831999999999997,-54.688,-46.387
1626.4654835979998,-64.941,-33.203,-10.254000000000001,-53.711000000000006
1626.4654836020002,-40.527,-35.156,12.695,4.883
1626.465483605,27.344,-29.785,-21.484,3.418
1626.4654836089999,33.691,-22.461,-47.852,-48.828
1626.4654836129998,-57.617,-35.156,-23.926,-76.66
1626.465483617,-67.383,-31.25,11.719000000000001,-30.273000000000003
1626.465483621,-1.953,-28.32,-16.113,-5.371
1626.4654836220002,20.996,-40.039,-53.223,-34.668
1626.4654836260002,-53.223,-41.992,-37.598,-62.988
1626.46548363,-96.68,-41.016000000000005,11.23,-41.504
1626.4654836339998,-9.277000000000001,-30.273000000000003,9.766,10.742
1626.4654836379998,39.551,-30.761999999999997,-40.527,-9.766
1626.4654836420002,-26.855,-36.621,-60.547,-73.242
1626.4654836460002,-105.95700000000001,-35.645,-21.973000000000003,-68.848
1626.465483649,-51.758,-31.25,-3.418,-2.93
1626.4654836529999,24.901999999999997,-20.996,-36.133,0.488
1626.465483657,8.789,-34.668,-60.059,-45.898
1626.465483661,-88.37899999999999,-45.41,-23.926,-60.547
1626.465483665,-61.035,-34.668,7.812,-8.301
1626.4654836820002,7.324,-36.133,-35.645,0.0
1626.4654836860002,9.277000000000001,-40.039,-78.125,-46.387
1626.4654836900002,-71.777,-41.016000000000005,-48.34,-69.824
1626.465483694,-77.148,-29.296999999999997,3.906,-20.508000000000003
1626.4654836979998,3.906,-20.996,-8.789,14.648
1626.465483702,30.761999999999997,-26.855,-51.758,-20.02
1626.465483706,-36.133,-36.621,-48.34,-65.43
1626.465483709,-83.49600000000001,-33.691,-3.906,-37.109
1626.465483713,-26.855,-28.32,-5.859,11.23
1626.465483717,23.926,-30.761999999999997,-49.316,-15.137
1626.465483721,-5.371,-29.785,-58.593999999999994,-50.781000000000006
1626.465483725,-93.262,-37.109,-18.555,-55.663999999999994
1626.465483728,-63.965,-41.504,0.488,-12.207
1626.4654837320002,3.906,-43.457,-42.48,-9.277000000000001
1626.4654837360001,6.836,-41.504,-67.87100000000001,-57.129
1626.46548374,-80.566,-36.621,-27.344,-63.965
1626.465483744,-69.336,-33.203,5.371,-5.371
1626.465483748,9.766,-38.574,-26.855,8.301
1626.4654837520002,23.438000000000002,-37.598,-63.965,-34.668
1626.4654837550002,-68.848,-32.227,-41.504,-64.453
1626.4654837589999,-94.727,-37.109,9.277000000000001,-24.901999999999997
1626.4654837629998,-2.93,-40.527,-13.184000000000001,13.672
1626.4654837670003,43.457,-33.691,-60.547,-21.973000000000003
1626.4654837710002,-23.926,-33.691,-57.617,-68.848
1626.465483772,-85.449,-34.668,-10.254000000000001,-47.852
1626.465483776,-20.02,-29.785,0.488,2.93
1626.4654837799999,37.109,-27.344,-41.992,-13.672
1626.4654837839998,7.812,-24.414,-50.781000000000006,-58.105
1626.4654837879998,-82.031,-31.25,-16.113,-61.035
1626.465483792,-45.898,-32.227,4.395,1.465
1626.465483796,22.949,-27.344,-31.738000000000003,1.953
1626.465483799,12.207,-29.296999999999997,-69.824,-49.316
1626.4654838029999,-80.566,-38.574,-38.086,-67.383
1626.465483807,-79.59,-29.296999999999997,5.859,-14.648
1626.465483811,7.324,-14.16,-14.16,20.508000000000003
1626.465483815,34.668,-22.949,-48.828,-23.438000000000002
1626.4654838170002,-54.199,-40.527,-39.551,-62.5
1626.4654838210001,-84.961,-32.715,-0.488,-19.531
1626.465483825,-7.812,-15.137,-9.766,16.113
1626.465483829,31.738000000000003,-13.672,-56.641000000000005,-19.043
1626.465483833,-34.18,-29.296999999999997,-64.941,-64.941
1626.4654838370002,-106.445,-30.761999999999997,-17.09,-57.617
1626.4654838410002,-41.992,-12.695,-13.672,-17.578
1626.465483844,26.366999999999997,-10.742,-59.57,-26.855
1626.4654838479998,-0.488,-13.672,-76.66,-72.75399999999999
1626.4654838520003,-94.238,-12.695,-43.945,-85.93799999999999
1626.465483856,-65.43,-7.812,-21.484,-32.227
1626.46548386,15.137,-5.859,-62.012,-23.926
1626.4654838620002,26.855,-10.254000000000001,-92.773,-61.523
1626.465483866,-58.593999999999994,-17.09,-60.059,-79.59
1626.4654838699998,-74.219,-15.137,-19.043,-37.598
1626.4654838739998,5.371,-9.766,-39.551,-2.93
1626.4654838779998,44.434,-13.672,-78.125,-33.203
1626.4654838820002,-29.296999999999997,-12.207,-61.523,-73.242
1626.4654838860001,-75.195,-14.16,-13.184000000000001,-40.039
1626.4654838889999,-12.695,-21.973000000000003,-13.672,7.324
1626.4654838929998,37.109,-26.366999999999997,-51.758,-12.695
1626.465483897,-15.625,-31.25,-66.406,-63.965
1626.465483901,-90.82,-32.715,-21.973000000000003,-56.641000000000005
1626.465483905,-48.828,-34.18,-8.789,1.465
1626.4654839070001,7.324,-25.391,-51.758,-11.719000000000001
1626.465483911,-7.324,-22.461,-72.75399999999999,-53.711000000000006
1626.465483915,-91.309,-16.602,-32.715,-53.223
1626.465483919,-62.012,-10.254000000000001,-2.441,-12.207
1626.465483923,2.441,-23.926,-35.156,-5.859
1626.4654839270002,19.043,-28.809,-63.477,-43.945
1626.4654839309999,-61.523,-34.18,-43.457,-74.219
1626.465483934,-76.66,-40.039,-6.836,-25.391
1626.465483938,13.184000000000001,-26.366999999999997,-25.879,13.184000000000001
1626.4654839420002,49.805,-23.926,-64.941,-17.578
1626.4654839460002,-31.738000000000003,-28.32,-57.617,-61.035
1626.4654839500001,-91.309,-24.414,-11.23,-41.016000000000005
1626.465483952,-10.742,-21.484,-5.859,17.09
1626.465483956,47.363,-26.366999999999997,-52.733999999999995,-5.371
1626.46548396,3.418,-32.715,-61.035,-57.129
1626.465483964,-83.008,-37.598,-15.625,-49.805
1626.465483968,-44.434,-35.156,4.395,2.93
1626.4654839720001,26.366999999999997,-22.949,-28.809,-4.395
1626.465483976,2.93,-32.715,-71.777,-64.941
1626.4654839789998,-96.191,-48.828,-40.527,-80.078
1626.4654839829998,-69.336,-36.133,11.23,-17.09
1626.4654839870002,7.812,-26.366999999999997,-20.996,-2.441
1626.4654839910002,20.02,-32.715,-61.523,-45.41
1626.4654839949999,-74.219,-42.48,-48.828,-85.93799999999999
1626.4654839970003,-91.79700000000001,-33.203,-1.465,-37.598
1626.4654840010003,7.324,-22.461,-10.254000000000001,7.812
1626.465484005,45.41,-29.296999999999997,-58.105,-29.296999999999997
1626.4654840089997,-29.785,-41.016000000000005,-61.035,-75.684
1626.4654840129997,-90.33200000000001,-39.551,-10.254000000000001,-47.363
1626.465484017,-22.949,-37.109,-4.395,4.395
1626.465484021,38.574,-39.551,-53.711000000000006,-13.184000000000001
1626.465484024,4.395,-38.574,-67.383,-51.27
1626.4654840279998,-71.777,-39.062,-15.137,-54.199
1626.4654840320002,-31.738000000000003,-27.831999999999997,9.277000000000001,-2.93
1626.465484036,24.414,-23.438000000000002,-27.344,11.23
1626.4654840399999,23.926,-36.133,-52.733999999999995,-30.761999999999997
1626.465484043,-71.777,-36.133,-30.273000000000003,-64.941
1626.4654840470002,-89.355,-42.48,-2.93,-30.761999999999997
1626.4654840510002,-11.23,-36.621,-34.668,-8.301
1626.4654840550002,20.508000000000003,-28.809,-67.87100000000001,-39.551
1626.4654840590001,-55.176,-36.133,-47.852,-74.219
1626.465484063,-89.355,-26.366999999999997,0.977,-33.691
1626.4654840670003,-4.883,-21.484,-9.277000000000001,8.789
1626.46548407,34.18,-28.32,-56.152,-24.414
1626.465484074,-30.761999999999997,-35.645,-55.176,-65.43
1626.465484078,-89.844,-34.18,-2.93,-51.758
1626.465484082,-35.156,-22.461,-1.953,-1.953
1626.465484086,23.438000000000002,-19.043,-48.828,-13.184000000000001
1626.4654841029999,-2.93,-30.273000000000003,-62.988,-54.688
1626.465484107,-92.773,-41.992,-23.438000000000002,-59.082
1626.465484111,-60.547,-36.621,5.859,-12.695
1626.465484115,19.043,-31.25,-25.391,-6.348
1626.465484119,20.508000000000003,-26.855,-58.593999999999994,-44.434
1626.465484123,-65.43,-32.715,-31.738000000000003,-66.406
1626.465484127,-64.453,-31.25,4.395,-22.949
1626.46548413,9.277000000000001,-26.366999999999997,-22.461,5.371
1626.4654841339998,34.18,-30.761999999999997,-58.593999999999994,-23.438000000000002
1626.4654841379997,-40.527,-34.18,-44.434,-59.082
1626.4654841420002,-78.613,-26.855,8.301,-33.203
1626.465484146,-1.953,-17.578,1.953,12.207
1626.465484147,47.363,-24.901999999999997,-47.363,-15.625
1626.465484151,-5.859,-36.621,-58.105,-62.988
1626.465484155,-97.16799999999999,-28.32,-13.184000000000001,-47.852
1626.465484159,-43.945,-20.02,4.883,1.953
1626.465484163,22.461,-23.926,-38.086,-9.277000000000001
1626.465484167,7.324,-18.066,-55.176,-44.434
1626.465484171,-70.312,-24.414,-10.254000000000001,-51.27
1626.465484174,-46.387,-30.273000000000003,19.043,2.93
1626.465484178,21.484,-34.18,-21.973000000000003,13.184000000000001
1626.4654841820002,25.391,-37.109,-60.547,-30.273000000000003
1626.4654841860001,-52.733999999999995,-27.344,-31.25,-50.781000000000006
1626.46548419,-60.547,-26.366999999999997,13.672,-8.301
1626.4654841929998,9.277000000000001,-33.203,-14.648,17.09
1626.465484197,40.527,-28.809,-61.035,-13.672
1626.465484201,-26.366999999999997,-23.926,-44.434,-56.152
1626.465484205,-77.148,-19.043,7.812,-32.715
1626.465484209,-16.602,-22.949,-1.465,17.09
1626.4654842129999,45.898,-31.25,-52.246,-4.883
1626.465484217,9.277000000000001,-32.227,-64.941,-54.199
1626.46548422,-74.219,-36.133,-16.602,-45.898
1626.465484224,-37.109,-43.945,3.418,16.602
1626.465484228,34.668,-32.227,-30.761999999999997,14.648
1626.465484232,26.855,-28.809,-58.105,-43.457
1626.465484236,-69.824,-31.25,-24.901999999999997,-63.477
1626.4654842370003,-59.082,-34.668,9.277000000000001,-10.742
1626.4654842410002,5.371,-39.551,-14.16,9.766
1626.465484245,31.738000000000003,-29.785,-48.34,-28.809
1626.465484249,-40.527,-25.391,-37.109,-62.5
1626.4654842529999,-60.059,-20.996,9.766,-21.973000000000003
1626.4654842570003,10.254000000000001,-18.555,-5.859,20.02
1626.4654842610003,37.109,-24.414,-57.617,-18.555
1626.465484264,-19.043,-30.273000000000003,-49.316,-67.87100000000001
1626.465484268,-70.312,-34.668,-0.977,-40.527
1626.4654842720001,-15.625,-38.574,-2.441,9.277000000000001
1626.465484276,30.761999999999997,-27.344,-35.645,-17.09
1626.46548428,-4.883,-30.761999999999997,-48.828,-65.918
1626.465484283,-83.49600000000001,-36.621,-16.113,-63.965
1626.4654842870002,-47.852,-26.855,3.906,-6.836
1626.4654842910002,18.066,-31.738000000000003,-32.227,-5.371
1626.4654842950001,15.137,-42.968999999999994,-64.453,-53.711000000000006
1626.465484299,-62.988,-40.527,-33.691,-72.75399999999999
1626.465484303,-47.363,-33.203,9.766,-10.742
1626.4654843070002,21.484,-33.203,-20.02,12.695
1626.46548431,25.391,-40.527,-65.918,-38.574
1626.465484314,-56.641000000000005,-40.039,-42.968999999999994,-73.73
1626.4654843179999,-85.449,-35.645,9.277000000000001,-35.645
1626.465484322,-7.812,-28.32,-5.371,4.395
1626.465484326,29.785,-30.273000000000003,-52.733999999999995,-31.25
1626.4654843279998,-35.645,-32.715,-49.316,-71.289
1626.465484332,-96.191,-23.926,1.465,-51.27
1626.465484336,-25.879,-18.555,15.137,2.441
1626.4654843399999,23.926,-26.855,-31.738000000000003,-20.02
1626.4654843439998,-14.16,-31.738000000000003,-55.663999999999994,-66.895
1626.4654843479998,-92.285,-24.414,-14.16,-62.012
1626.4654843520002,-55.663999999999994,-30.273000000000003,4.883,-20.996
1626.465484355,3.418,-41.504,-35.156,-14.16
1626.465484359,6.836,-37.598,-55.176,-40.527
1626.4654843629999,-67.87100000000001,-37.109,-25.391,-66.406
1626.465484367,-67.87100000000001,-32.227,10.742,-20.508000000000003
1626.465484371,1.465,-24.414,-15.137,14.16
1626.4654843720002,26.366999999999997,-23.438000000000002,-55.663999999999994,-26.366999999999997
1626.4654843760002,-38.574,-23.438000000000002,-41.992,-71.777
1626.4654843800001,-76.66,-27.344,4.883,-39.062
1626.4654843839999,-11.23,-30.273000000000003,-0.977,1.953
1626.4654843879998,43.457,-24.901999999999997,-47.363,-22.949
1626.4654843920002,-10.742,-30.761999999999997,-51.758,-69.336
1626.4654843960002,-93.75,-46.387,-0.977,-62.012
1626.465484399,-36.133,-37.598,3.906,3.418
1626.465484403,30.273000000000003,-27.344,-39.062,-3.418
1626.465484407,16.113,-32.227,-51.758,-46.387
1626.465484411,-67.87100000000001,-37.109,-20.508000000000003,-56.152
1626.465484415,-50.293,-37.109,2.441,-3.906
1626.4654844320003,27.831999999999997,-30.273000000000003,-22.949,11.719000000000001
1626.465484436,39.062,-36.621,-51.758,-38.086
1626.46548444,-70.801,-48.34,-37.109,-79.102
1626.465484444,-92.285,-40.039,5.371,-34.18
1626.4654844479999,-4.883,-29.296999999999997,-12.695,0.977
1626.465484452,41.504,-27.831999999999997,-54.199,-32.715
1626.465484456,-30.761999999999997,-42.968999999999994,-43.945,-63.965
1626.465484459,-90.82,-51.758,8.789,-33.203
1626.4654844629997,-33.691,-43.457,10.742,8.301
1626.465484467,15.625,-44.922,-34.18,-14.648
1626.4654844709999,-14.648,-48.828,-38.574,-51.758
1626.4654844749998,-83.49600000000001,-46.387,8.789,-44.434
1626.4654844770002,-32.227,-41.016000000000005,28.32,13.672
1626.465484481,34.18,-32.715,-13.672,11.23
1626.465484485,17.578,-39.062,-47.852,-43.945
1626.465484489,-70.801,-43.945,-7.324,-65.43
1626.4654844929998,-50.781000000000006,-32.227,27.831999999999997,-1.953
1626.4654844970003,19.043,-28.809,-9.766,17.09
1626.4654845010002,19.531,-30.761999999999997,-56.152,-34.18
1626.465484504,-69.336,-43.457,-45.41,-62.012
1626.465484508,-74.219,-41.504,0.488,-18.555
1626.465484512,8.301,-31.25,-12.695,13.672
1626.465484516,36.133,-37.109,-50.293,-21.973000000000003
1626.46548452,-25.879,-41.016000000000005,-40.039,-61.523
1626.465484522,-71.777,-35.645,7.812,-32.227
1626.465484526,-11.23,-37.598,11.719000000000001,23.926
1626.46548453,41.504,-46.387,-37.598,2.441
1626.4654845339999,1.953,-45.898,-63.477,-52.733999999999995
1626.4654845379998,-86.914,-45.898,-20.996,-42.968999999999994
1626.465484542,-39.062,-40.039,2.93,18.066
1626.465484546,33.203,-36.133,-29.785,14.16
1626.465484549,25.879,-40.527,-58.105,-27.831999999999997
1626.465484553,-80.566,-47.363,-27.831999999999997,-47.852
1626.465484557,-64.453,-43.945,15.625,-0.977
1626.465484561,23.926,-33.203,-12.207,22.461
1626.465484565,49.316,-39.062,-46.875,-9.766
1626.4654845670002,-35.645,-49.316,-32.227,-43.457
1626.4654845710002,-81.543,-44.922,11.23,-9.277000000000001
1626.4654845750001,-2.93,-37.109,5.859,29.296999999999997
1626.465484579,45.898,-35.645,-41.992,-8.301
1626.465484583,-14.16,-38.574,-47.363,-51.758
1626.4654845870002,-73.73,-31.25,2.93,-26.366999999999997
1626.4654845910002,-15.137,-24.901999999999997,11.23,29.785
1626.465484594,27.831999999999997,-31.738000000000003,-40.039,2.93
1626.4654845979999,-7.324,-44.434,-66.895,-59.082
1626.4654846020003,-88.37899999999999,-41.504,-15.137,-58.593999999999994
1626.465484606,-51.27,-30.273000000000003,17.09,7.324
1626.46548461,14.16,-30.761999999999997,-36.133,3.906
1626.4654846120002,8.789,-37.598,-73.242,-41.504
1626.4654846160001,-80.566,-45.41,-42.968999999999994,-67.87100000000001
1626.4654846199999,-80.078,-40.527,7.324,-19.531
1626.4654846239998,5.371,-36.621,-14.648,13.672
1626.4654846279998,30.273000000000003,-46.875,-60.547,-31.25
1626.4654846320002,-37.598,-42.48,-42.48,-66.895
1626.4654846360002,-74.707,-37.109,6.348,-38.574
1626.465484639,-10.742,-40.527,-6.836,9.766
1626.4654846429999,28.809,-41.016000000000005,-54.199,-10.254000000000001
1626.465484647,-26.366999999999997,-43.945,-53.711000000000006,-59.082
1626.465484651,-92.773,-43.945,-0.977,-50.293
1626.465484655,-48.828,-45.898,0.488,-6.836
1626.4654846570002,3.906,-51.758,-45.41,-18.066
1626.4654846610001,-10.254000000000001,-48.34,-58.593999999999994,-64.453
1626.4654846649998,-98.633,-47.363,-26.366999999999997,-76.172
1626.4654846689998,-83.49600000000001,-43.945,4.395,-10.742
1626.4654846729998,1.465,-34.668,-21.484,10.742
1626.465484677,23.438000000000002,-32.715,-52.733999999999995,-35.156
1626.465484681,-69.824,-43.945,-29.296999999999997,-70.801
1626.465484684,-90.33200000000001,-53.223,5.371,-40.039
1626.465484688,-6.348,-41.016000000000005,-7.324,0.977
1626.4654846920002,27.831999999999997,-40.039,-46.875,-30.273000000000003
1626.4654846960002,-53.711000000000006,-51.758,-42.968999999999994,-76.66
1626.4654847000002,-109.375,-47.852,1.465,-42.48
1626.4654847020001,-44.434,-51.758,-10.254000000000001,18.066
1626.465484706,22.461,-51.27,-51.758,-4.395
1626.46548471,-5.859,-36.133,-57.617,-61.035
1626.465484714,-89.355,-31.738000000000003,-14.16,-55.663999999999994
1626.465484718,-34.18,-25.879,6.348,8.301
1626.4654847220002,35.645,-22.461,-31.25,3.906
1626.465484726,8.789,-32.715,-64.453,-49.316
1626.4654847289999,-91.309,-38.574,-36.133,-62.012
1626.4654847329998,-76.172,-32.715,-4.395,-7.812
1626.4654847370002,0.977,-28.32,-31.25,9.766
1626.4654847410002,18.555,-32.715,-66.406,-24.901999999999997
1626.465484745,-62.5,-34.18,-49.316,-54.688
1626.4654847489999,-78.613,-32.715,5.371,-20.02
1626.4654847529998,2.441,-32.715,-7.812,15.137
1626.4654847570002,37.598,-34.668,-55.663999999999994,-15.625
1626.4654847610002,-29.785,-34.668,-44.434,-55.176
1626.4654847650002,-82.031,-32.715,8.789,-27.831999999999997
1626.465484769,-18.066,-33.203,2.441,13.672
1626.4654847729998,36.621,-31.738000000000003,-50.781000000000006,-8.789
1626.465484776,-10.742,-29.785,-66.895,-52.733999999999995
1626.46548478,-96.191,-26.366999999999997,-20.996,-47.363
1626.465484784,-44.434,-23.926,-0.488,18.066
1626.465484788,28.32,-19.531,-34.18,17.578
1626.465484792,15.625,-24.901999999999997,-62.5,-36.621
1626.4654848070002,-65.43,-34.668,-28.809,-58.105
1626.4654848110001,-52.246,-29.296999999999997,4.395,-6.836
1626.465484815,18.066,-21.484,-29.296999999999997,15.625
1626.465484819,43.945,-28.809,-62.988,-24.901999999999997
1626.465484823,-37.598,-31.738000000000003,-41.992,-57.129
1626.4654848270002,-72.266,-26.855,0.488,-11.719000000000001
1626.4654848310001,-0.977,-31.738000000000003,-16.113,27.344
1626.4654848339999,33.203,-37.598,-58.105,-15.137
1626.4654848379998,-33.203,-35.156,-52.733999999999995,-55.663999999999994
1626.465484842,-94.727,-33.691,-3.906,-43.945
1626.465484846,-25.391,-31.25,6.348,12.207
1626.46548485,36.133,-33.691,-43.945,-1.953
1626.4654848520001,4.395,-28.809,-71.289,-57.617
1626.4654848559999,-96.191,-40.039,-38.086,-67.383
1626.4654848599998,-64.941,-42.48,-13.184000000000001,-8.789
1626.4654848639998,11.23,-34.668,-40.039,-3.418
1626.4654848679997,14.16,-34.18,-59.57,-56.152
1626.4654848720002,-66.895,-29.296999999999997,-24.901999999999997,-71.289
1626.4654848760001,-75.684,-29.785,6.836,-20.508000000000003
1626.4654848789999,-6.348,-32.227,-27.344,5.859
1626.4654848829998,21.484,-35.645,-66.895,-27.831999999999997
1626.465484887,-54.199,-35.156,-52.733999999999995,-62.5
1626.465484891,-86.914,-27.344,-0.977,-29.785
1626.465484895,-12.207,-25.391,-8.301,20.996
1626.4654848970001,42.968999999999994,-32.715,-47.363,-3.418
1626.465484901,-5.371,-42.968999999999994,-44.434,-45.898
1626.465484905,-85.93799999999999,-38.574,-9.766,-38.574
1626.465484909,-35.645,-25.391,-3.906,3.906
1626.465484913,16.602,-29.785,-41.504,-11.23
1626.4654849170001,1.465,-31.738000000000003,-56.152,-54.688
1626.465484921,-63.965,-32.227,-19.531,-49.316
1626.465484924,-40.039,-31.738000000000003,8.789,-2.93
1626.465484928,24.901999999999997,-36.133,-32.227,-0.488
1626.4654849320002,45.41,-45.41,-59.57,-26.855
1626.4654849360002,-46.387,-44.922,-19.531,-60.059
1626.4654849400001,-66.895,-42.968999999999994,20.996,-20.996
1626.465484942,2.441,-42.48,-5.371,17.09
1626.465484946,23.926,-42.48,-49.805,-24.901999999999997
1626.46548495,-41.992,-50.781000000000006,-34.18,-55.176
1626.465484954,-73.73,-51.758,23.926,-11.23
1626.465484958,-2.93,-53.223,27.344,33.203
1626.4654849620001,42.968999999999994,-55.663999999999994,-10.742,11.23
1626.465484966,4.395,-62.012,-14.16,-26.855
1626.4654849689998,-70.801,-66.895,27.831999999999997,-22.461
1626.4654849729998,-27.344,-67.383,34.668,34.668
1626.4654849770002,42.968999999999994,-58.105,-6.836,41.504
1626.465484981,26.855,-59.082,-30.761999999999997,-7.324
1626.4654849849999,-68.359,-69.824,2.93,-30.273000000000003
1626.4654849879998,-56.641000000000005,-58.593999999999994,37.109,18.066
1626.465484992,22.461,-49.805,2.441,36.133
1626.465484996,37.109,-53.223,-35.645,-16.113
1626.465485,-46.387,-53.223,-12.207,-43.945
1626.465485004,-52.246,-45.898,22.461,5.371
1626.4654850079999,19.531,-32.227,4.883,33.203
1626.465485012,50.781000000000006,-32.227,-30.761999999999997,-5.371
1626.465485015,-24.901999999999997,-52.246,-41.504,-53.223
1626.465485019,-90.33200000000001,-52.246,3.906,-28.32
1626.4654850229997,-22.461,-38.574,14.16,20.508000000000003
1626.465485027,48.828,-34.18,-34.668,-0.977
1626.465485031,2.93,-44.434,-60.547,-45.898
1626.465485032,-88.37899999999999,-45.898,-9.277000000000001,-42.48
1626.465485036,-35.156,-38.086,17.09,9.766
1626.46548504,26.366999999999997,-35.645,-30.273000000000003,11.23
1626.465485044,23.438000000000002,-32.715,-57.129,-31.25
1626.465485048,-60.547,-39.062,-23.926,-56.152
1626.465485052,-68.359,-44.922,16.113,-11.23
1626.465485056,2.441,-41.504,-8.789,18.555
1626.465485059,24.414,-49.316,-50.781000000000006,-19.043
1626.465485063,-51.27,-51.758,-27.344,-55.663999999999994
1626.4654850670001,-79.102,-46.387,19.531,-14.16
1626.465485071,-7.324,-36.133,-5.371,22.949
1626.465485075,34.668,-30.273000000000003,-42.48,-6.836
1626.465485077,-25.391,-37.109,-36.133,-46.875
1626.465485081,-85.93799999999999,-38.086,7.812,-24.901999999999997
1626.465485085,-13.184000000000001,-36.133,17.578,25.391
1626.465485089,46.387,-39.062,-22.461,6.348
1626.4654850929999,12.207,-42.968999999999994,-31.738000000000003,-30.273000000000003
1626.465485097,-60.059,-40.039,1.465,-28.32
1626.465485101,-33.203,-37.109,10.254000000000001,23.926
1626.4654851039998,11.719000000000001,-49.316,-32.715,20.02
1626.4654851079997,8.301,-53.223,-57.617,-26.366999999999997
1626.4654851120001,-71.289,-53.223,-22.461,-47.363
1626.465485116,-64.453,-42.48,20.996,2.441
1626.4654851199998,15.137,-28.809,-11.719000000000001,31.738000000000003
1626.4654851220002,46.875,-28.809,-50.781000000000006,-18.066
1626.4654851260002,-41.992,-37.109,-30.761999999999997,-55.176
1626.4654851300002,-91.309,-47.852,10.742,-18.555
1626.465485134,-10.254000000000001,-48.34,-4.395,26.855
1626.4654851379998,36.621,-50.781000000000006,-41.016000000000005,-1.953
1626.4654851420003,-20.508000000000003,-50.293,-40.527,-48.34
1626.4654851460002,-93.75,-47.852,-0.977,-29.785
1626.465485149,-48.828,-53.711000000000006,5.859,20.508000000000003
1626.465485153,10.254000000000001,-51.758,-42.968999999999994,0.488
1626.465485157,-5.371,-42.48,-59.082,-39.062
1626.465485161,-86.914,-43.457,-17.09,-44.434
1626.465485165,-59.082,-48.34,7.324,8.301
1626.465485167,6.348,-49.316,-32.227,8.301
1626.465485171,12.207,-52.246,-62.988,-42.968999999999994
1626.465485175,-76.66,-53.223,-32.715,-55.176
1626.4654851789999,-88.37899999999999,-49.805,1.465,-8.301
1626.4654851829998,-9.277000000000001,-56.641000000000005,-24.414,14.16
1626.465485187,20.508000000000003,-54.688,-72.266,-23.926
1626.465485191,-59.082,-55.176,-61.035,-67.87100000000001
1626.465485194,-102.051,-52.733999999999995,-0.977,-30.273000000000003
1626.465485198,-26.855,-48.34,-3.906,20.996
1626.465485202,28.32,-51.27,-48.828,-10.254000000000001
1626.465485206,-7.324,-48.34,-59.57,-51.27
1626.46548521,-81.055,-46.387,-10.254000000000001,-29.785
1626.465485228,-36.133,-43.457,9.277000000000001,26.855
1626.4654852320002,14.16,-45.41,-45.898,-1.953
1626.465485236,-13.184000000000001,-49.316,-70.801,-52.733999999999995
1626.46548524,-89.844,-41.504,-27.831999999999997,-53.223
1626.4654852439999,-64.941,-33.691,0.977,-8.301
1626.4654852479998,7.324,-31.738000000000003,-36.621,-1.953
1626.465485252,23.926,-35.156,-79.102,-40.527
1626.4654852550002,-62.5,-35.156,-41.504,-64.941
1626.465485259,-71.777,-33.691,14.648,-22.461
1626.4654852629997,3.418,-31.25,-15.625,11.719000000000001
1626.4654852670003,30.273000000000003,-27.831999999999997,-55.663999999999994,-21.973000000000003
1626.465485271,-43.457,-34.668,-50.781000000000006,-62.012
1626.465485272,-94.727,-35.645,-9.766,-36.621
1626.465485276,-20.508000000000003,-30.273000000000003,-1.465,13.184000000000001
1626.46548528,32.715,-33.691,-39.551,-6.836
1626.465485284,-3.418,-36.621,-56.152,-56.152
1626.4654852879999,-79.102,-35.645,-18.555,-49.805
1626.465485292,-45.898,-31.738000000000003,0.977,3.906
1626.465485296,15.625,-25.879,-34.668,5.371
1626.465485299,14.648,-24.901999999999997,-58.593999999999994,-38.574
1626.465485303,-68.848,-32.227,-23.926,-71.289
1626.465485307,-57.617,-36.133,7.812,-13.184000000000001
1626.465485311,14.648,-29.785,-23.438000000000002,15.137
1626.465485315,38.574,-21.973000000000003,-58.105,-24.414
1626.4654853170002,-45.41,-34.18,-43.457,-56.641000000000005
1626.4654853210002,-86.426,-37.109,-4.883,-22.949
1626.4654853250001,-5.859,-30.273000000000003,-10.254000000000001,20.996
1626.465485329,45.41,-31.25,-45.898,-6.348
1626.4654853329998,-22.461,-36.133,-50.781000000000006,-56.152
1626.465485337,-88.867,-37.109,-4.883,-37.109
1626.465485341,-15.137,-25.879,5.859,15.137
1626.465485344,47.363,-30.273000000000003,-34.18,1.465
1626.465485348,-2.441,-50.781000000000006,-61.523,-48.34
1626.4654853520003,-91.309,-48.34,-25.391,-58.593999999999994
1626.465485356,-51.758,-41.504,5.859,1.465
1626.46548536,20.508000000000003,-38.574,-31.25,11.23
1626.4654853620002,15.137,-36.621,-62.988,-43.945
1626.4654853660002,-76.172,-46.387,-25.391,-62.5
1626.46548537,-45.898,-42.968999999999994,20.996,15.137
1626.4654853739999,30.761999999999997,-31.25,-13.672,46.387
1626.4654853779998,44.922,-26.366999999999997,-61.523,-4.883
1626.4654853820002,-39.551,-25.391,-44.922,-66.895
1626.4654853860002,-86.426,-20.508000000000003,5.859,-45.41
1626.465485389,-20.508000000000003,-17.578,-17.578,-8.789
1626.4654853929999,11.23,-22.461,-75.684,-52.733999999999995
1626.465485397,-57.617,-24.901999999999997,-81.543,-111.32799999999999
1626.465485401,-115.723,-18.066,-40.527,-98.633
1626.465485405,-56.152,-14.16,-41.504,-53.223
1626.465485407,-6.836,-7.812,-86.426,-71.289
1626.465485411,-25.879,-16.113,-107.42200000000001,-109.863
1626.4654854149999,-100.098,-22.949,-61.523,-112.305
1626.4654854189998,-66.406,-7.812,-28.32,-42.968999999999994
1626.4654854229998,-4.395,-15.137,-72.75399999999999,-33.203
1626.465485427,7.812,-29.296999999999997,-106.445,-83.49600000000001
1626.465485431,-72.266,-24.901999999999997,-74.707,-96.191
1626.465485434,-80.566,-13.184000000000001,-24.901999999999997,-41.504
1626.4654854379999,1.465,-1.465,-49.805,-22.949
1626.465485442,34.18,-10.254000000000001,-90.82,-60.547
1626.465485446,-32.715,-20.508000000000003,-64.941,-86.914
1626.46548545,-84.961,-20.02,-21.973000000000003,-57.617
1626.465485453,-24.414,-21.484,-34.18,-13.672
1626.465485457,35.645,-17.09,-74.707,-41.992
1626.465485461,-16.113,-23.926,-82.031,-89.844
1626.4654854649998,-91.309,-29.296999999999997,-32.715,-71.289
1626.4654854689998,-37.598,-16.113,-10.742,-7.812
1626.4654854729997,21.973000000000003,-8.301,-45.898,-14.648
1626.4654854770001,2.93,-15.625,-75.195,-64.453
1626.46548548,-92.285,-20.996,-41.016000000000005,-79.102
1626.465485484,-60.547,-18.066,1.953,-18.066
1626.465485488,4.395,-32.227,-36.133,-14.648
1626.4654854920002,17.09,-32.227,-72.266,-60.547
1626.4654854960002,-66.406,-27.344,-51.27,-84.473
1626.465485498,-95.70299999999999,-29.785,-6.836,-38.086
1626.465485502,-13.184000000000001,-31.25,-31.738000000000003,-9.277000000000001
1626.465485506,36.133,-29.785,-74.219,-42.968999999999994
1626.46548551,-33.203,-26.366999999999997,-54.688,-77.148
1626.465485514,-93.75,-19.043,-12.695,-56.152
1626.465485518,-29.785,-18.066,-17.09,-4.883
1626.465485522,11.719000000000001,-40.527,-66.406,-23.926
1626.465485525,-31.738000000000003,-45.41,-77.637,-77.637
1626.465485529,-106.934,-35.156,-24.901999999999997,-68.848
1626.465485533,-48.828,-26.366999999999997,-1.465,-4.395
1626.4654855370002,19.531,-25.879,-42.968999999999994,-6.836
1626.4654855410001,1.953,-25.879,-71.777,-61.523
1626.4654855570002,-77.148,-23.438000000000002,-37.109,-89.844
1626.4654855610002,-60.059,-25.879,-0.977,-27.831999999999997
1626.465485565,10.254000000000001,-23.926,-30.273000000000003,3.418
1626.465485569,21.484,-26.855,-70.312,-44.922
1626.465485573,-61.035,-29.785,-47.852,-82.52
1626.4654855770002,-73.73,-13.672,3.906,-35.156
1626.4654855810002,10.742,-7.324,-10.742,7.812
1626.465485584,50.781000000000006,-19.531,-57.129,-20.996
1626.4654855879999,-17.09,-27.831999999999997,-53.223,-60.547
1626.465485592,-84.473,-25.391,3.418,-38.086
1626.465485596,-17.09,-21.484,2.93,20.508000000000003
1626.4654856,43.945,-30.273000000000003,-48.828,4.395
1626.4654856020002,4.395,-31.738000000000003,-60.059,-44.434
1626.465485606,-85.449,-36.621,-22.949,-49.316
1626.4654856099999,-46.875,-33.691,1.465,0.977
1626.4654856139998,27.344,-28.32,-38.086,0.977
1626.4654856179998,15.137,-36.621,-69.824,-46.875
1626.4654856220002,-73.73,-44.922,-33.203,-68.359
1626.4654856260001,-62.012,-41.016000000000005,4.395,-20.508000000000003
1626.4654856289999,4.395,-32.715,-28.809,13.184000000000001
1626.4654856329998,29.785,-38.574,-63.477,-29.785
1626.465485637,-50.293,-50.781000000000006,-42.48,-73.242
1626.465485641,-79.59,-36.621,-3.906,-23.438000000000002
1626.465485645,-0.488,-29.785,-18.066,20.996
1626.465485649,40.527,-41.016000000000005,-57.617,-12.695
1626.4654856529999,-25.879,-48.34,-61.523,-62.988
1626.465485657,-98.145,-38.574,-12.695,-56.152
1626.465485661,-29.296999999999997,-28.32,3.906,6.836
1626.465485665,26.855,-30.761999999999997,-42.968999999999994,-0.977
1626.465485669,-2.441,-36.621,-71.289,-62.5
1626.4654856729999,-90.82,-47.363,-31.25,-69.824
1626.465485676,-66.406,-45.898,0.488,-9.277000000000001
1626.46548568,11.23,-34.668,-33.691,-2.93
1626.465485684,33.691,-32.715,-62.5,-46.875
1626.465485688,-52.733999999999995,-38.574,-33.691,-72.266
1626.4654856920001,-74.707,-34.668,5.859,-17.578
1626.465485694,0.0,-32.227,-15.137,15.137
1626.465485698,31.738000000000003,-34.668,-57.129,-23.438000000000002
1626.4654857020003,-34.668,-36.621,-47.852,-58.105
1626.465485706,-87.891,-39.062,0.488,-35.645
1626.46548571,-28.32,-28.809,-1.465,8.301
1626.465485714,31.25,-20.996,-39.551,-6.348
1626.4654857179999,-14.16,-28.32,-52.246,-57.129
1626.465485721,-99.609,-30.273000000000003,-19.531,-49.316
1626.465485725,-53.711000000000006,-32.715,-10.254000000000001,12.207
1626.465485729,23.926,-25.879,-40.527,13.184000000000001
1626.4654857329997,13.672,-28.32,-62.012,-33.203
1626.4654857370003,-79.59,-40.527,-30.273000000000003,-46.875
1626.4654857370003,-59.57,-36.133,10.742,8.789
1626.465485741,10.742,-38.574,-22.949,12.207
1626.4654857449998,24.901999999999997,-40.039,-56.641000000000005,-32.715
1626.4654857489998,-63.477,-29.785,-22.949,-50.293
1626.4654857529997,-94.727,-27.344,8.789,-16.602
1626.4654857570001,-12.207,-34.18,-13.184000000000001,10.742
1626.465485761,37.598,-31.738000000000003,-49.805,-20.508000000000003
1626.465485764,-34.18,-40.039,-52.733999999999995,-69.824
1626.4654857679998,-90.33200000000001,-47.852,-3.906,-50.293
1626.465485772,-13.184000000000001,-35.645,7.324,10.254000000000001
1626.465485776,50.781000000000006,-33.203,-33.203,4.395
1626.4654857799999,-7.324,-37.598,-60.059,-41.016000000000005
1626.465485782,-100.586,-36.133,-14.16,-49.805
1626.465485786,-48.34,-25.391,11.719000000000001,9.277000000000001
1626.46548579,20.996,-24.414,-28.32,17.09
1626.465485794,5.859,-35.645,-52.246,-47.363
1626.465485798,-80.566,-36.621,-21.484,-68.359
1626.465485802,-63.477,-30.273000000000003,7.812,-5.371
1626.465485806,-0.488,-35.645,-22.949,8.789
1626.465485809,7.324,-46.875,-60.547,-36.133
1626.465485813,-76.172,-43.457,-40.527,-64.941
1626.4654858170002,-94.238,-35.645,12.207,-23.926
1626.4654858210001,-5.371,-28.809,0.488,18.555
1626.465485825,38.086,-25.879,-57.129,-19.531
1626.4654858279998,-27.344,-36.621,-68.359,-74.707
1626.465485832,-78.613,-39.062,-10.742,-47.363
1626.465485836,-31.738000000000003,-36.621,-1.953,8.301
1626.46548584,6.836,-41.992,-49.805,-22.949
1626.4654858439999,-28.32,-45.41,-59.57,-73.73
1626.4654858479998,-108.887,-46.875,-8.789,-62.5
1626.4654858520003,-69.824,-51.27,19.531,-0.488
1626.465485855,-1.465,-56.641000000000005,-24.414,-6.348
1626.465485859,5.859,-55.176,-55.176,-48.828
1626.465485863,-79.59,-55.663999999999994,-22.461,-66.406
1626.465485867,-78.125,-46.387,14.16,-16.113
1626.465485871,1.953,-45.41,-21.973000000000003,4.395
1626.4654858720003,33.203,-38.086,-60.547,-40.039
1626.4654858760002,-48.828,-32.227,-37.109,-71.777
1626.4654858800002,-88.867,-47.363,8.301,-36.133
1626.465485884,-6.836,-42.968999999999994,-0.977,8.789
1626.4654858879999,41.992,-34.18,-41.504,-7.324
1626.4654858920003,-24.901999999999997,-34.668,-41.504,-56.152
1626.4654858960002,-95.215,-34.668,0.0,-50.293
1626.465485899,-28.809,-22.949,11.719000000000001,6.836
1626.465485903,29.296999999999997,-22.461,-28.32,-5.859
1626.4654859070001,1.953,-32.227,-50.781000000000006,-62.012
1626.465485911,-91.79700000000001,-31.738000000000003,-14.648,-77.637
1626.465485915,-67.383,-32.227,13.672,-25.391
1626.465485918,11.719000000000001,-26.366999999999997,-16.113,-10.742
1626.4654859220002,22.949,-32.715,-50.781000000000006,-51.758
1626.4654859260002,-65.43,-39.551,-26.855,-76.172
1626.46548593,-74.219,-35.156,17.09,-21.973000000000003
1626.465485934,3.906,-30.273000000000003,-4.395,5.859
1626.465485938,38.574,-29.296999999999997,-48.828,-25.391
1626.4654859420002,-38.086,-31.738000000000003,-47.363,-69.336
1626.465485945,-83.984,-28.32,1.953,-38.086
1626.465485949,-14.16,-22.949,1.953,14.648
1626.4654859529999,40.527,-17.578,-41.992,-14.16
1626.465485957,6.836,-6.348,-41.504,-52.246
1626.465485961,-62.5,-5.371,16.113,-31.738000000000003
1626.4654859770003,-18.066,-12.207,28.32,24.901999999999997
1626.465485981,29.785,-19.043,-33.203,3.906
1626.465485985,4.395,-29.785,-60.059,-48.34
1626.465485989,-74.707,-17.09,-19.043,-57.129
1626.465485993,-40.527,6.836,6.348,-6.836
1626.4654859970003,22.461,2.93,-18.066,1.465
1626.4654860010003,0.488,-6.348,-46.875,-68.359
1626.465486004,-111.32799999999999,-7.812,-27.831999999999997,-123.535
1626.465486008,-142.09,-4.883,15.625,-86.426
1626.4654860120002,-90.82,-6.836,-1.465,-71.289
1626.465486016,-93.75,-13.184000000000001,-38.574,-134.766
1626.46548602,-177.24599999999998,-17.578,-20.02,-180.66400000000002
1626.465486022,-238.77,-10.254000000000001,27.344,-177.734
1626.465486026,-182.12900000000002,-8.789,14.16,-141.113
1626.46548603,-134.766,-26.855,-20.996,-148.92600000000002
1626.465486034,-176.75799999999998,-32.227,-27.831999999999997,-193.359
1626.4654860379999,-247.55900000000003,-32.715,16.113,-178.71099999999998
1626.465486042,-188.477,-33.203,37.598,-112.305
1626.465486046,-105.469,-38.086,-6.836,-102.051
1626.465486049,-89.355,-46.387,-35.645,-125.977
1626.465486053,-157.227,-54.199,-1.953,-113.281
1626.4654860570001,-133.30100000000002,-57.617,31.25,-42.48
1626.465486061,-30.761999999999997,-46.875,0.0,-14.16
1626.465486065,3.418,-49.316,-29.785,-40.527
1626.4654860670003,-82.031,-60.547,-23.926,-61.035
1626.465486071,-96.68,-53.223,15.625,-16.113
1626.465486075,-10.742,-46.875,11.23,27.831999999999997
1626.465486079,30.761999999999997,-53.711000000000006,-34.668,0.488
1626.4654860829999,-22.461,-58.593999999999994,-32.715,-29.785
1626.465486087,-64.453,-49.805,22.949,1.953
1626.465486091,5.371,-40.039,28.809,53.223
1626.465486094,49.316,-45.41,-20.02,31.25
1626.4654860979997,3.418,-57.129,-42.48,-17.09
1626.4654861020003,-60.547,-48.34,0.977,-10.742
1626.4654861059998,-9.277000000000001,-33.203,27.831999999999997,48.828
1626.4654861099998,48.34,-40.039,-16.113,57.129
1626.4654861120002,48.34,-45.898,-46.387,10.742
1626.4654861160002,-38.086,-45.898,-10.254000000000001,-17.578
1626.46548612,-32.227,-48.34,34.18,35.156
1626.4654861239999,56.152,-43.945,6.348,63.477
1626.4654861279998,74.707,-45.898,-35.645,21.484
1626.4654861320003,-13.184000000000001,-54.688,-21.973000000000003,-18.555
1626.4654861360002,-41.016000000000005,-49.805,21.484,17.09
1626.465486139,38.574,-48.828,7.812,69.824
1626.465486143,75.684,-56.641000000000005,-42.48,31.25
1626.465486147,16.113,-58.593999999999994,-43.945,-17.578
1626.465486151,-40.527,-46.387,8.301,2.441
1626.465486155,16.113,-42.48,9.766,49.805
1626.465486159,65.918,-50.781000000000006,-31.25,35.645
1626.465486163,45.898,-43.945,-40.527,-5.859
1626.465486167,-27.344,-44.434,-3.906,-6.836
1626.465486171,-6.836,-51.27,13.672,40.039
1626.465486175,58.105,-46.875,-19.531,44.434
1626.465486179,64.453,-47.852,-42.968999999999994,5.371
1626.465486183,-24.901999999999997,-44.922,-21.973000000000003,-21.484
1626.4654861860001,-35.645,-46.387,7.812,14.648
1626.46548619,36.621,-43.457,-15.625,41.992
1626.465486194,66.406,-45.898,-51.27,10.254000000000001
1626.465486198,-8.301,-53.223,-31.25,-24.901999999999997
1626.4654862020002,-45.898,-43.457,15.625,5.371
1626.4654862020002,31.738000000000003,-31.25,2.93,50.781000000000006
1626.4654862060002,78.613,-35.156,-40.039,25.879
1626.46548621,13.672,-48.34,-49.316,-27.831999999999997
1626.465486214,-63.477,-48.828,-9.277000000000001,-22.949
1626.465486218,11.23,-37.598,1.953,40.527
1626.4654862220002,74.707,-38.574,-35.645,42.48
1626.4654862260002,31.25,-51.758,-64.453,-17.578
1626.465486229,-60.059,-47.363,-31.738000000000003,-39.551
1626.4654862329999,-38.574,-38.574,2.441,12.695
1626.4654862370003,35.156,-38.574,-23.926,21.973000000000003
1626.4654862410002,46.387,-38.086,-54.688,-14.16
1626.465486245,-51.758,-42.968999999999994,-39.551,-40.527
1626.4654862470002,-55.176,-37.109,9.277000000000001,6.836
1626.4654862510001,32.715,-27.831999999999997,-9.766,41.504
1626.465486255,63.477,-30.273000000000003,-49.316,8.301
1626.4654862589998,-13.184000000000001,-37.598,-39.062,-25.391
1626.4654862629998,-65.918,-39.062,6.836,4.395
1626.4654862670002,0.977,-30.273000000000003,2.93,46.387
1626.4654862710001,38.086,-40.039,-50.293,13.184000000000001
1626.4654862739999,-1.465,-40.039,-57.129,-31.738000000000003
1626.4654862779998,-69.824,-39.062,-11.719000000000001,-28.32
1626.465486282,-29.296999999999997,-38.574,3.906,27.831999999999997
1626.465486286,28.32,-37.598,-33.691,26.855
1626.46548629,18.555,-42.968999999999994,-56.152,-29.296999999999997
1626.4654863070002,-66.406,-47.363,-17.09,-46.387
1626.4654863110002,-48.828,-51.758,11.23,9.766
1626.4654863150001,15.625,-42.48,-25.879,28.809
1626.465486319,30.761999999999997,-37.109,-62.988,-12.695
1626.465486323,-52.733999999999995,-42.968999999999994,-38.086,-47.363
1626.4654863270002,-76.172,-33.203,11.23,-7.812
1626.4654863310002,-3.418,-37.598,-6.836,28.32
1626.465486334,31.25,-46.387,-51.758,-6.348
1626.465486338,-32.715,-41.504,-50.781000000000006,-47.852
1626.465486342,-82.52,-36.621,0.0,-19.531
1626.465486346,-11.719000000000001,-30.761999999999997,5.859,24.414
1626.46548635,25.391,-31.738000000000003,-40.527,-5.859
1626.4654863520002,-12.695,-40.039,-56.152,-52.246
1626.465486356,-90.33200000000001,-54.199,-20.02,-54.199
1626.4654863599999,-38.086,-44.434,8.301,3.418
1626.4654863639998,40.527,-28.809,-24.414,15.137
1626.4654863679998,29.785,-31.738000000000003,-49.316,-27.344
1626.4654863720002,-63.477,-33.203,-11.23,-41.992
1626.4654863760002,-51.27,-22.949,20.508000000000003,9.277000000000001
1626.465486379,21.484,-20.508000000000003,-13.184000000000001,28.32
1626.4654863829999,41.992,-31.25,-57.129,-24.901999999999997
1626.465486387,-43.457,-37.598,-45.41,-65.918
1626.465486391,-80.566,-34.668,3.906,-25.879
1626.465486395,-10.742,-38.574,-1.953,17.578
1626.465486399,35.645,-38.086,-37.598,-2.93
1626.4654864029999,-14.648,-33.691,-42.48,-48.34
1626.465486407,-83.984,-36.133,-11.23,-45.41
1626.465486411,-20.02,-27.344,-2.441,11.23
1626.465486415,33.203,-27.831999999999997,-40.527,3.418
1626.465486419,6.348,-30.761999999999997,-59.082,-43.945
1626.465486423,-74.707,-36.621,-17.578,-46.387
1626.465486426,-44.922,-45.41,11.23,17.09
1626.46548643,37.598,-35.645,-27.344,32.227
1626.465486434,27.831999999999997,-32.227,-63.477,-36.133
1626.465486438,-87.891,-39.062,-34.668,-85.449
1626.4654864420002,-98.145,-33.203,0.488,-44.434
1626.4654864420002,-27.344,-27.344,-29.785,-30.273000000000003
1626.465486446,0.0,-27.831999999999997,-63.965,-66.895
1626.46548645,-70.312,-33.203,-57.129,-101.56200000000001
1626.465486454,-113.281,-27.344,-27.344,-85.93799999999999
1626.465486458,-39.551,-21.973000000000003,-26.366999999999997,-36.621
1626.4654864620002,21.484,-20.996,-60.059,-41.016000000000005
1626.4654864660001,-23.926,-27.344,-68.359,-79.102
1626.4654864689999,-107.42200000000001,-33.203,-28.809,-72.75399999999999
1626.4654864729998,-56.641000000000005,-27.831999999999997,-16.113,-24.414
1626.4654864770002,9.766,-28.809,-51.27,-20.02
1626.465486481,-9.277000000000001,-28.32,-73.73,-59.57
1626.465486485,-90.33200000000001,-27.344,-34.668,-70.312
1626.4654864870001,-56.641000000000005,-25.391,-6.348,-12.695
1626.465486491,9.766,-29.296999999999997,-46.387,-5.859
1626.4654864949998,16.113,-31.738000000000003,-72.75399999999999,-49.316
1626.4654864989998,-67.87100000000001,-29.296999999999997,-46.387,-71.777
1626.4654865029997,-76.66,-20.996,-6.348,-28.32
1626.4654865070002,3.418,-17.09,-19.043,11.23
1626.465486511,33.203,-27.831999999999997,-62.5,-29.785
1626.4654865139998,-48.828,-40.039,-65.43,-86.426
1626.4654865179998,-98.145,-39.551,-23.438000000000002,-56.641000000000005
1626.465486522,-28.809,-33.203,-12.207,12.695
1626.465486526,28.32,-23.926,-46.387,-13.672
1626.46548653,-16.113,-24.901999999999997,-60.547,-72.266
1626.465486532,-92.285,-40.039,-18.555,-60.059
1626.465486536,-33.203,-33.203,2.441,-1.465
1626.46548654,31.25,-26.855,-35.156,-4.395
1626.465486544,18.066,-37.598,-65.918,-46.875
1626.465486548,-69.336,-43.457,-28.32,-58.593999999999994
1626.4654865520001,-44.922,-25.879,5.371,-0.488
1626.465486556,27.831999999999997,-16.602,-26.855,22.949
1626.465486559,44.434,-24.901999999999997,-59.57,-11.719000000000001
1626.465486563,-41.504,-27.344,-32.715,-44.434
1626.4654865670002,-80.078,-31.738000000000003,8.301,-17.578
1626.4654865710002,4.395,-24.414,-10.742,18.555
1626.465486575,42.968999999999994,-23.438000000000002,-53.711000000000006,-21.484
1626.465486577,-32.227,-32.227,-46.875,-72.75399999999999
1626.465486581,-83.008,-24.901999999999997,7.324,-39.062
1626.465486585,-19.531,-16.113,0.488,12.207
1626.465486589,32.227,-27.831999999999997,-46.387,-15.625
1626.465486593,1.953,-38.574,-55.176,-68.848
1626.465486597,-84.961,-32.715,-13.184000000000001,-68.848
1626.465486601,-43.457,-25.879,5.859,-3.418
1626.4654866039998,22.949,-27.831999999999997,-37.109,-0.977
1626.4654866079998,11.719000000000001,-29.785,-58.593999999999994,-44.922
1626.4654866120002,-68.359,-31.738000000000003,-26.366999999999997,-62.5
1626.4654866160001,-56.152,-29.785,5.859,-12.695
1626.4654866199999,8.789,-25.879,-21.973000000000003,11.23
1626.4654866229998,32.715,-23.926,-53.711000000000006,-33.691
1626.465486627,-41.016000000000005,-31.738000000000003,-33.691,-58.105
1626.465486631,-81.543,-37.109,2.93,-20.508000000000003
1626.465486635,-3.906,-27.831999999999997,-10.742,10.254000000000001
1626.465486639,43.945,-15.137,-51.758,-10.742
1626.4654866429998,-15.137,-22.461,-53.223,-52.246
1626.465486647,-83.984,-34.668,-6.348,-42.48
1626.46548665,-16.602,-21.484,8.789,20.02
1626.465486654,46.875,-15.625,-34.18,10.742
1626.465486658,13.184000000000001,-31.25,-55.663999999999994,-49.316
1626.465486662,-61.523,-28.809,-11.719000000000001,-49.316
1626.465486666,-34.668,-23.438000000000002,15.625,11.719000000000001
1626.465486668,26.366999999999997,-25.879,-23.438000000000002,10.742
1626.4654866720002,38.086,-27.344,-54.688,-33.691
1626.4654866760002,-61.035,-28.32,-21.484,-60.547
1626.4654866800001,-62.012,-20.02,22.949,-11.719000000000001
1626.465486684,28.809,-15.137,-2.93,22.461
1626.465486688,46.387,-26.366999999999997,-49.805,-23.926
1626.4654866920002,-47.363,-43.945,-47.852,-72.266
1626.465486695,-81.055,-42.968999999999994,-2.441,-36.621
1626.465486699,-0.977,-29.296999999999997,1.465,10.254000000000001
1626.465486703,36.621,-21.973000000000003,-34.18,-18.555
1626.465486707,-18.066,-27.831999999999997,-41.504,-62.5
1626.465486711,-86.426,-30.761999999999997,-2.441,-49.805
1626.4654867279999,-35.645,-26.366999999999997,10.742,-3.906
1626.465486732,13.672,-29.785,-36.133,-23.926
1626.465486736,-11.719000000000001,-40.039,-58.593999999999994,-61.523
1626.46548674,-93.75,-39.551,-18.555,-76.172
1626.465486744,-66.406,-28.809,15.625,-23.438000000000002
1626.4654867479999,11.719000000000001,-23.926,-13.672,-2.441
1626.465486752,21.484,-30.273000000000003,-46.387,-42.48
1626.465486755,-51.758,-32.227,-29.296999999999997,-56.641000000000005
1626.4654867589998,-68.848,-31.738000000000003,-0.488,-16.602
1626.4654867629997,-20.02,-36.133,-19.043,1.465
1626.4654867670001,27.831999999999997,-24.901999999999997,-46.387,-22.949
1626.465486771,-37.598,-29.785,-34.668,-59.082
1626.465486772,-93.75,-38.574,10.254000000000001,-39.062
1626.465486776,-16.602,-31.25,9.277000000000001,3.418
1626.46548678,30.761999999999997,-33.203,-42.968999999999994,-29.296999999999997
1626.465486784,-25.391,-38.574,-58.593999999999994,-72.266
1626.465486788,-89.355,-24.901999999999997,-9.277000000000001,-51.758
1626.465486792,-20.508000000000003,-8.789,20.02,10.742
1626.465486796,40.527,-17.578,-20.996,3.418
1626.465486799,10.742,-27.344,-55.663999999999994,-49.805
1626.465486803,-97.16799999999999,-33.203,-20.508000000000003,-76.66
1626.4654868070002,-87.402,-30.761999999999997,10.742,-29.296999999999997
1626.4654868110001,-4.395,-13.184000000000001,-14.648,-8.789
1626.465486815,12.207,-11.23,-41.504,-59.082
1626.465486817,-106.934,-29.785,-30.761999999999997,-122.559
1626.465486821,-150.391,-19.531,11.719000000000001,-97.16799999999999
1626.465486825,-91.309,-2.441,3.418,-72.75399999999999
1626.465486829,-98.633,-5.859,-41.016000000000005,-149.414
1626.4654868329999,-202.148,-11.719000000000001,-46.387,-214.355
1626.465486837,-279.785,-8.301,-0.977,-202.637
1626.465486841,-246.582,0.977,-1.953,-190.918
1626.4654868439998,-212.40200000000002,-0.977,-55.176,-236.81599999999997
1626.4654868479997,-258.789,-16.602,-77.148,-298.34
1626.4654868520001,-330.07800000000003,-7.324,-33.203,-294.922
1626.4654868559999,-287.10900000000004,-0.977,-10.254000000000001,-238.77
1626.4654868599998,-228.02700000000002,-11.719000000000001,-52.246,-256.348
1626.465486863,-229.49200000000002,-24.414,-80.566,-307.129
1626.4654868670002,-310.059,-22.461,-40.527,-317.871
1626.465486871,-296.387,-11.719000000000001,4.395,-254.395
1626.465486875,-223.63299999999998,-9.277000000000001,-25.391,-235.84
1626.4654868789999,-195.801,-2.93,-64.941,-271.48400000000004
1626.4654868829998,-252.44099999999997,7.324,-39.551,-283.691
1626.465486887,-265.137,12.695,-1.465,-228.02700000000002
1626.4654868900002,-185.547,2.93,-28.32,-180.66400000000002
1626.4654868940002,-125.0,-3.906,-66.406,-202.148
1626.4654868979997,-150.879,-2.441,-57.129,-217.773
1626.4654869020003,-203.613,-3.418,-14.16,-178.71099999999998
1626.465486906,-137.207,-4.395,-19.531,-120.605
1626.465486907,-61.035,-11.23,-57.129,-110.84
1626.465486911,-66.406,-13.184000000000001,-71.777,-126.95299999999999
1626.465486915,-138.672,-14.648,-40.039,-118.164
1626.4654869189999,-88.867,-17.09,-18.066,-42.968999999999994
1626.4654869229998,-4.883,-15.625,-55.176,-26.855
1626.465486927,5.859,-23.926,-81.055,-58.593999999999994
1626.465486931,-60.059,-37.109,-47.363,-56.641000000000005
1626.465486934,-60.547,-41.504,-16.113,-15.625
1626.465486938,20.996,-33.691,-40.527,11.23
1626.465486942,79.59,-26.855,-68.848,-3.418
1626.465486946,9.766,-30.273000000000003,-57.617,-34.668
1626.46548695,-34.668,-35.645,-13.184000000000001,1.953
1626.4654869520002,51.27,-33.203,-18.066,59.57
1626.4654869560002,94.238,-36.133,-58.105,28.32
1626.4654869600001,39.551,-45.41,-63.965,-18.066
1626.465486964,-29.785,-48.828,-18.066,-7.324
1626.4654869679998,24.414,-34.668,-1.953,51.27
1626.4654869720002,86.426,-34.18,-36.621,53.711000000000006
1626.465486976,66.406,-47.363,-60.547,3.906
1626.465486979,-21.973000000000003,-50.781000000000006,-27.344,4.395
1626.465486983,8.789,-42.48,9.766,72.75399999999999
1626.4654869870003,85.93799999999999,-37.598,-21.973000000000003,86.426
1626.4654869910003,88.37899999999999,-48.828,-52.733999999999995,47.852
1626.465486995,-1.953,-50.781000000000006,-25.879,20.508000000000003
1626.465487012,-9.277000000000001,-44.922,16.113,60.547
1626.465487016,66.895,-46.875,-7.324,88.867
1626.46548702,103.027,-46.387,-53.223,57.617
1626.465487024,20.508000000000003,-55.176,-49.316,14.648
1626.4654870279999,-30.761999999999997,-55.176,5.371,47.363
1626.465487032,53.223,-46.875,7.812,100.586
1626.465487036,107.42200000000001,-48.828,-45.898,65.43
1626.465487039,46.875,-53.223,-53.223,19.531
1626.465487043,-16.113,-48.34,1.953,31.25
1626.4654870470001,50.293,-37.109,13.184000000000001,83.984
1626.465487051,99.12100000000001,-36.621,-33.691,69.824
1626.465487055,86.914,-40.527,-54.688,16.113
1626.465487043,5.859,-39.062,-25.879,-0.488
1626.4654870470001,19.531,-39.062,0.977,49.805
1626.465487051,94.727,-37.598,-29.296999999999997,74.219
1626.465487055,110.352,-45.898,-62.5,41.016000000000005
1626.465487059,19.531,-48.828,-36.133,13.672
1626.465487063,-4.883,-40.527,8.301,54.199
1626.4654870670001,71.289,-41.992,-8.789,82.031
1626.4654870699999,104.492,-42.968999999999994,-45.41,44.922
1626.4654870739998,39.062,-31.738000000000003,-37.598,11.23
1626.4654870779998,-20.508000000000003,-28.32,2.93,31.25
1626.465487082,37.598,-32.227,-8.789,65.918
1626.465487086,86.426,-32.715,-53.223,50.781000000000006
1626.465487103,40.527,-32.227,-60.547,6.348
1626.4654871070002,-41.504,-38.086,-14.648,-0.488
1626.4654871110001,8.789,-35.645,16.113,49.316
1626.465487115,79.59,-35.156,-20.02,46.387
1626.465487119,55.663999999999994,-41.016000000000005,-46.875,-3.906
1626.465487123,-35.645,-38.574,-13.184000000000001,-29.785
1626.4654871270002,-4.883,-30.761999999999997,21.484,26.855
1626.4654871300002,62.5,-31.25,-17.578,49.805
1626.4654871339999,62.012,-41.992,-62.988,1.953
1626.4654871379998,-24.414,-58.105,-46.875,-51.27
1626.4654871420003,-38.574,-46.875,12.207,-5.859
1626.4654871460002,52.733999999999995,-28.809,7.812,56.641000000000005
1626.465487147,76.172,-31.25,-46.875,19.043
1626.465487151,-0.977,-37.109,-44.434,-30.273000000000003
1626.465487155,-46.387,-35.156,7.324,-4.395
1626.4654871589998,34.668,-24.414,12.695,47.852
1626.4654871629998,90.82,-26.366999999999997,-31.738000000000003,35.645
1626.465487167,39.551,-36.133,-48.828,-4.395
1626.465487171,-41.992,-44.922,-7.324,-13.184000000000001
1626.465487174,15.625,-38.574,14.648,41.504
1626.4654871779999,84.961,-31.25,-21.484,52.733999999999995
1626.465487182,71.777,-29.296999999999997,-43.945,5.371
1626.465487186,-6.836,-35.645,-13.184000000000001,-17.09
1626.46548719,-1.953,-38.086,23.926,32.227
1626.465487193,70.801,-34.668,-0.977,51.27
1626.4654871970001,90.33200000000001,-37.109,-49.805,3.418
1626.465487201,-2.93,-40.039,-43.457,-32.715
1626.4654872049998,-37.598,-34.18,6.836,-2.93
1626.4654872089998,48.828,-26.366999999999997,5.371,52.246
1626.4654872129997,95.215,-24.901999999999997,-35.645,32.715
1626.465487217,31.738000000000003,-32.715,-37.598,-15.137
1626.46548722,-50.293,-44.922,2.93,-0.977
1626.465487224,-3.418,-43.457,4.395,47.363
1626.465487228,48.828,-42.48,-36.133,24.901999999999997
1626.4654872320002,18.066,-41.504,-55.663999999999994,-21.484
1626.4654872360002,-64.941,-41.992,-13.672,-34.18
1626.4654872370002,-29.785,-35.645,13.184000000000001,20.508000000000003
1626.4654872410001,44.922,-25.391,-13.184000000000001,40.527
1626.4654872449998,43.457,-32.227,-45.898,-7.812
1626.4654872489998,-62.5,-41.504,-30.761999999999997,-41.016000000000005
1626.4654872529998,-67.383,-36.621,4.883,0.0
1626.4654872570002,25.879,-29.785,-22.461,30.761999999999997
1626.4654872610001,46.875,-31.738000000000003,-65.43,-11.23
1626.4654872639999,-38.574,-40.039,-55.176,-59.57
1626.4654872679998,-74.219,-35.645,-3.418,-23.926
1626.465487272,9.277000000000001,-23.926,3.906,34.18
1626.465487276,45.41,-28.809,-38.086,6.836
1626.46548728,-27.344,-48.34,-64.941,-44.922
1626.4654872820001,-104.98,-49.805,-23.926,-46.387
1626.465487286,-42.48,-38.086,2.441,8.789
1626.46548729,12.207,-41.016000000000005,-34.668,3.906
1626.465487294,-18.066,-44.922,-51.758,-43.945
1626.465487298,-102.051,-39.062,-9.766,-53.711000000000006
1626.4654873020002,-61.523,-30.273000000000003,24.901999999999997,8.301
1626.4654873059999,25.391,-30.273000000000003,-21.973000000000003,26.855
1626.465487309,16.602,-43.457,-70.801,-36.133
1626.465487313,-70.801,-42.968999999999994,-36.133,-54.688
1626.4654873170002,-73.73,-36.621,17.578,-1.953
1626.4654873210002,11.23,-29.296999999999997,0.977,28.32
1626.4654873250001,32.227,-36.621,-42.48,1.953
1626.4654873279999,-40.039,-47.363,-39.551,-41.504
1626.465487332,-80.078,-34.668,4.395,-31.25
1626.465487336,-8.789,-31.25,8.301,19.531
1626.46548734,39.551,-35.156,-32.227,8.301
1626.465487344,-3.906,-42.48,-48.34,-41.504
1626.465487348,-81.543,-45.898,-4.883,-45.898
1626.4654873520003,-37.598,-36.621,15.137,11.23
1626.465487355,26.366999999999997,-34.668,-21.973000000000003,14.16
1626.465487359,12.207,-45.41,-52.733999999999995,-32.715
1626.465487363,-88.867,-57.129,-28.32,-52.246
1626.4654873670002,-69.336,-44.434,12.207,-1.465
1626.465487371,13.672,-32.227,-18.066,21.484
1626.4654873720003,23.926,-41.992,-53.711000000000006,-18.066
1626.465487376,-65.43,-51.758,-32.715,-54.199
1626.46548738,-93.262,-45.898,7.324,-25.391
1626.4654873839997,-20.02,-35.645,-10.742,13.672
1626.4654873879997,21.484,-32.227,-47.852,-18.066
1626.465487392,-33.203,-30.761999999999997,-40.527,-53.223
1626.465487396,-102.051,-47.852,-0.488,-33.203
1626.465487399,-23.438000000000002,-38.086,11.719000000000001,20.996
1626.4654874029998,36.621,-22.949,-21.973000000000003,-0.977
1626.465487407,-14.648,-30.761999999999997,-54.199,-72.75399999999999
1626.465487411,-100.586,-28.809,-29.296999999999997,-78.125
1626.4654874149999,-67.87100000000001,-18.066,-2.93,-14.648
1626.465487417,-5.859,-19.531,-40.039,-19.043
1626.465487421,1.465,-25.391,-71.777,-58.593999999999994
1626.465487425,-83.984,-30.761999999999997,-39.062,-81.055
1626.465487429,-85.93799999999999,-31.25,6.836,-36.133
1626.465487433,-10.254000000000001,-26.855,-20.508000000000003,1.953
1626.465487437,26.366999999999997,-24.414,-60.547,-39.551
1626.465487441,-54.199,-26.366999999999997,-49.316,-79.102
1626.465487444,-99.609,-35.156,-1.465,-42.48
1626.465487448,-12.695,-27.344,-5.859,14.16
1626.4654874520002,42.968999999999994,-25.391,-49.805,0.0
1626.4654874560001,-8.789,-25.391,-53.711000000000006,-46.387
1626.46548746,-83.984,-30.761999999999997,-17.578,-37.109
1626.4654874770001,-35.156,-30.273000000000003,-9.277000000000001,16.113
1626.4654874809999,30.273000000000003,-18.555,-42.968999999999994,6.348
1626.4654874849998,10.742,-21.973000000000003,-62.5,-35.645
1626.4654874889998,-73.242,-28.32,-20.996,-48.828
1626.4654874929997,-41.016000000000005,-25.879,17.578,-9.766
1626.4654874970001,36.621,-23.926,-20.02,9.277000000000001
1626.465487501,54.688,-27.344,-67.383,-24.414
1626.4654875039998,-39.062,-29.785,-44.922,-56.641000000000005
1626.4654875079998,-55.176,-19.043,4.883,-16.602
1626.465487512,10.742,-23.438000000000002,-19.531,11.719000000000001
1626.465487516,38.086,-37.598,-62.5,-19.043
1626.46548752,-32.227,-39.551,-53.711000000000006,-59.082
1626.465487522,-85.93799999999999,-36.133,-9.277000000000001,-41.016000000000005
1626.465487526,-17.09,-32.227,-6.348,11.719000000000001
1626.46548753,44.922,-26.366999999999997,-43.457,-3.418
1626.465487534,3.418,-35.156,-56.152,-44.922
1626.465487538,-79.59,-39.062,-9.766,-37.109
1626.4654875420001,-23.438000000000002,-29.785,12.207,12.207
1626.465487546,45.41,-20.996,-28.32,8.789
1626.465487549,20.996,-21.973000000000003,-59.57,-30.273000000000003
1626.465487553,-81.055,-41.016000000000005,-34.18,-56.152
1626.4654875570002,-70.312,-41.992,2.441,-18.066
1626.4654875610001,20.508000000000003,-21.973000000000003,-20.508000000000003,7.324
1626.465487565,59.57,-26.855,-54.688,-23.438000000000002
1626.4654875679998,-45.41,-41.016000000000005,-47.363,-71.289
1626.465487572,-79.59,-29.296999999999997,-1.465,-26.366999999999997
1626.465487576,12.695,-18.555,-8.789,14.648
1626.46548758,46.387,-25.391,-52.733999999999995,-28.809
1626.465487584,-32.227,-36.621,-58.105,-71.777
1626.4654875879999,-92.773,-35.645,-11.719000000000001,-50.781000000000006
1626.465487592,-22.949,-26.366999999999997,1.465,5.371
1626.465487595,27.831999999999997,-30.761999999999997,-41.992,-10.254000000000001
1626.465487599,-9.277000000000001,-45.898,-61.523,-60.059
1626.465487603,-99.12100000000001,-45.898,-18.555,-57.617
1626.4654876070001,-62.988,-38.574,8.301,1.953
1626.465487611,16.602,-37.109,-27.831999999999997,1.953
1626.4654876120003,17.09,-31.25,-57.129,-41.992
1626.4654876160002,-77.148,-25.879,-24.901999999999997,-57.129
1626.46548762,-70.801,-26.855,7.324,-10.254000000000001
1626.465487624,18.555,-32.227,-20.02,14.648
1626.465487628,49.805,-30.273000000000003,-51.27,-21.973000000000003
1626.4654876320003,-43.945,-27.831999999999997,-38.086,-54.688
1626.4654876360003,-76.66,-32.715,8.301,-22.461
1626.465487639,-6.348,-32.227,-6.836,10.742
1626.465487643,37.109,-33.691,-51.758,-13.184000000000001
1626.4654876470001,-13.672,-30.273000000000003,-44.922,-46.387
1626.465487651,-87.891,-31.738000000000003,-3.418,-35.156
1626.465487655,-30.761999999999997,-44.434,-5.371,14.648
1626.465487657,27.831999999999997,-47.852,-41.016000000000005,3.418
1626.465487661,8.789,-41.992,-53.711000000000006,-33.691
1626.465487665,-73.242,-35.645,-17.578,-44.434
1626.465487669,-45.41,-28.32,7.812,2.441
1626.4654876729999,30.273000000000003,-29.296999999999997,-27.344,11.719000000000001
1626.465487677,34.18,-30.273000000000003,-57.617,-37.109
1626.465487681,-62.988,-30.273000000000003,-33.203,-58.593999999999994
1626.465487684,-70.312,-36.621,1.465,-14.648
1626.465487688,-0.977,-41.504,-25.391,8.301
1626.4654876920001,29.785,-43.457,-62.012,-26.366999999999997
1626.465487696,-44.434,-47.852,-48.828,-66.406
1626.4654877,-91.79700000000001,-43.945,-5.859,-43.945
1626.4654877020002,-21.484,-42.968999999999994,-15.625,8.301
1626.465487706,32.227,-41.992,-53.223,-13.672
1626.46548771,-17.578,-39.551,-53.711000000000006,-62.012
1626.465487714,-92.773,-41.016000000000005,-6.836,-42.968999999999994
1626.4654877179998,-37.109,-34.18,-1.465,3.906
1626.465487722,41.016000000000005,-23.438000000000002,-30.273000000000003,-2.441
1626.465487726,25.391,-29.785,-45.898,-38.086
1626.465487729,-82.52,-43.457,-16.113,-45.41
1626.4654877329997,-57.617,-36.133,16.602,6.836
1626.4654877370003,11.719000000000001,-34.668,-24.414,-1.953
1626.4654877410003,28.32,-38.574,-60.059,-37.109
1626.4654877449998,-51.758,-39.551,-29.785,-58.105
1626.465487748,-74.707,-38.086,13.184000000000001,-24.901999999999997
1626.4654877520002,-1.465,-29.785,-6.348,8.301
1626.4654877560001,35.645,-43.945,-49.316,-24.414
1626.46548776,-30.761999999999997,-52.246,-40.527,-69.336
1626.465487764,-73.242,-34.668,8.789,-43.457
1626.4654877679998,-4.395,-21.484,13.672,14.16
1626.4654877720002,48.34,-32.227,-32.715,-3.418
1626.4654877750002,5.371,-41.504,-47.852,-54.199
1626.4654877790001,-82.031,-35.156,3.418,-51.758
1626.465487783,-40.039,-38.574,14.648,-2.93
1626.4654877870003,29.296999999999997,-51.27,-29.296999999999997,-7.812
1626.4654877910002,32.227,-43.945,-50.293,-38.574
1626.465487794,-59.57,-37.598,-18.066,-48.34
1626.465487798,-65.918,-43.457,13.184000000000001,-12.207
1626.465487802,11.719000000000001,-48.34,-20.02,2.93
1626.465487806,40.527,-46.875,-57.129,-32.227
1626.46548781,-43.945,-42.968999999999994,-29.785,-54.199
1626.465487814,-60.547,-41.992,19.043,-8.789
1626.465487818,14.16,-33.691,-0.977,25.391
1626.4654878210001,56.641000000000005,-32.227,-38.086,3.906
1626.465487825,-10.254000000000001,-37.109,-40.039,-39.551
1626.465487829,-74.707,-30.761999999999997,5.859,-23.926
1626.465487833,-6.348,-28.32,13.672,23.438000000000002
1626.4654878370002,46.875,-42.968999999999994,-34.18,-1.953
1626.4654878520003,13.184000000000001,-49.316,-54.688,-43.457
1626.465487856,-76.66,-44.434,-20.508000000000003,-41.016000000000005
1626.46548786,-35.645,-31.738000000000003,4.395,2.93
1626.465487864,34.668,-30.273000000000003,-28.809,10.254000000000001
1626.4654878679999,28.809,-35.645,-56.152,-23.438000000000002
1626.4654878720003,-53.711000000000006,-31.738000000000003,-32.227,-41.992
1626.4654878760002,-49.316,-27.344,-2.441,3.418
1626.465487879,20.996,-30.273000000000003,-23.926,25.879
1626.465487883,45.898,-31.25,-57.617,-10.254000000000001
1626.465487887,-45.41,-33.203,-48.34,-50.293
1626.465487891,-76.66,-23.926,6.836,-8.789
1626.465487895,2.441,-20.996,-9.277000000000001,23.926
1626.465487897,58.105,-18.555,-51.758,-1.953
1626.465487901,-2.441,-27.344,-45.41,-34.668
1626.465487905,-80.566,-42.48,-2.441,-29.785
1626.4654879089999,-23.926,-36.621,0.0,11.719000000000001
1626.4654879129998,45.41,-29.296999999999997,-33.691,2.441
1626.465487917,25.879,-35.645,-44.922,-33.203
1626.465487921,-71.289,-47.363,-12.695,-46.387
1626.465487924,-44.922,-43.457,13.672,4.395
1626.465487928,25.391,-36.621,-19.043,12.695
1626.465487932,21.973000000000003,-41.992,-53.223,-27.344
1626.465487936,-77.637,-46.875,-23.926,-55.176
1626.46548794,-95.215,-51.758,11.719000000000001,-16.602
1626.4654879420002,-27.831999999999997,-55.176,-13.184000000000001,11.719000000000001
1626.4654879460002,18.555,-51.27,-45.898,-8.301
1626.4654879500001,-48.34,-43.457,-36.133,-55.176
1626.465487954,-99.12100000000001,-34.668,16.602,-38.574
1626.465487958,-34.668,-36.133,6.348,8.301
1626.4654879620002,14.16,-43.945,-38.574,-22.461
1626.4654879660002,-24.901999999999997,-51.27,-44.922,-68.848
1626.465487969,-104.98,-50.293,-6.836,-53.711000000000006
1626.4654879729999,-60.547,-47.852,6.348,-0.977
1626.4654879770003,18.066,-52.246,-36.621,-4.395
1626.465487981,5.371,-46.875,-52.733999999999995,-43.945
1626.465487985,-89.355,-34.18,-15.625,-50.293
1626.4654879870002,-64.453,-35.645,12.207,3.906
1626.4654879910001,7.324,-39.551,-23.926,10.254000000000001
1626.4654879949999,24.901999999999997,-34.18,-56.152,-25.391
1626.4654879989998,-61.035,-38.086,-34.18,-52.246
1626.4654880029998,-84.473,-41.992,5.371,-20.02
1626.4654880070002,-6.836,-32.227,-11.719000000000001,11.23
1626.4654880110002,37.598,-28.32,-49.805,-13.672
1626.465488014,-45.41,-43.457,-51.758,-55.663999999999994
1626.4654880179999,-98.633,-42.968999999999994,-8.789,-40.527
1626.465488022,-18.066,-28.809,-3.906,3.418
1626.465488026,36.621,-32.715,-37.109,-19.043
1626.46548803,-13.184000000000001,-41.016000000000005,-50.293,-60.059
1626.465488033,-87.402,-32.227,-10.254000000000001,-44.922
1626.4654880370001,-36.621,-21.973000000000003,4.883,0.977
1626.465488041,18.066,-18.066,-38.086,-17.09
1626.465488045,16.113,-21.484,-62.988,-55.663999999999994
1626.465488049,-63.477,-34.668,-29.296999999999997,-61.523
1626.465488053,-54.688,-33.691,8.301,-16.602
1626.4654880570001,12.695,-34.18,-23.926,-3.418
1626.4654880599999,38.086,-37.109,-62.5,-29.296999999999997
1626.4654880639998,-41.016000000000005,-29.785,-38.086,-59.082
1626.4654880679998,-84.961,-29.785,5.371,-26.855
1626.465488072,-11.719000000000001,-31.738000000000003,-15.137,9.277000000000001
1626.465488076,49.805,-30.761999999999997,-57.617,-14.16
1626.4654880770001,-21.973000000000003,-37.109,-53.711000000000006,-53.711000000000006
1626.465488081,-91.309,-42.48,-4.395,-36.621
1626.465488085,-21.973000000000003,-39.062,-2.93,5.371
1626.465488089,40.039,-39.551,-42.48,-13.184000000000001
1626.465488093,2.93,-36.133,-58.593999999999994,-45.898
1626.4654880970002,-79.102,-24.414,-15.137,-43.457
1626.4654881010001,-45.898,-23.438000000000002,1.953,-0.488
1626.4654881039999,9.277000000000001,-34.18,-38.574,-1.953
1626.4654881079998,13.672,-32.227,-55.176,-35.645
1626.4654881120002,-78.613,-33.203,-31.25,-50.781000000000006
1626.4654881160002,-69.336,-31.25,0.488,-9.766
1626.46548812,5.371,-27.831999999999997,-20.02,6.348
1626.4654881220001,27.831999999999997,-29.785,-53.223,-29.296999999999997
1626.465488126,-41.992,-34.18,-36.621,-58.593999999999994
1626.46548813,-71.289,-36.621,11.23,-28.809
1626.4654881339998,1.953,-19.531,0.488,7.812
1626.4654881379997,48.34,-18.066,-41.504,-12.207
1626.4654881420001,-9.277000000000001,-35.645,-51.27,-55.176
1626.465488146,-75.684,-38.574,-13.184000000000001,-36.133
1626.4654881489998,-14.16,-32.715,0.0,18.066
1626.4654881529998,42.48,-28.809,-29.785,5.371
1626.465488157,19.531,-27.344,-41.992,-27.831999999999997
1626.465488161,-59.57,-40.039,-14.16,-26.855
1626.465488165,-27.831999999999997,-36.133,7.812,21.973000000000003
1626.4654881820002,38.086,-23.438000000000002,-22.949,20.508000000000003
1626.4654881860001,46.387,-26.366999999999997,-50.293,-23.926
1626.46548819,-44.922,-30.761999999999997,-28.32,-42.968999999999994
1626.465488194,-67.383,-31.25,7.812,-6.348
1626.465488198,3.906,-31.738000000000003,-14.648,13.672
1626.4654882020002,38.086,-36.133,-55.176,-13.672
1626.4654882060001,-43.945,-39.062,-44.922,-49.805
1626.465488209,-84.473,-33.691,2.93,-12.695
1626.4654882129998,1.953,-32.227,-0.977,41.016000000000005
1626.465488217,59.57,-35.645,-43.457,14.16
1626.465488221,1.953,-28.32,-51.758,-30.761999999999997
1626.465488225,-75.195,-28.809,-4.883,-22.461
1626.465488228,-21.484,-33.691,0.0,17.578
1626.465488232,35.645,-36.133,-47.852,1.465
1626.465488236,21.484,-32.227,-63.965,-38.086
1626.46548824,-58.593999999999994,-29.785,-25.879,-48.34
1626.465488244,-49.805,-30.273000000000003,-0.488,-5.859
1626.465488248,19.043,-19.531,-28.32,7.324
1626.4654882520001,46.387,-18.066,-49.805,-30.761999999999997
1626.465488255,-46.875,-26.855,-34.18,-56.152
1626.4654882589998,-71.289,-30.273000000000003,-6.348,-20.508000000000003
1626.4654882629998,-2.441,-35.645,-29.296999999999997,2.441
1626.4654882670002,41.016000000000005,-36.133,-63.965,-15.625
1626.4654882710001,-21.484,-35.645,-48.34,-52.246
1626.4654882729997,-74.707,-28.32,1.953,-29.785
1626.465488277,-25.391,-26.366999999999997,-4.395,7.812
1626.465488281,7.812,-41.016000000000005,-52.733999999999995,-20.508000000000003
1626.465488285,-30.761999999999997,-41.992,-70.801,-62.5
1626.465488289,-93.262,-32.227,-33.203,-51.27
1626.465488293,-39.551,-32.227,-8.301,0.0
1626.465488297,20.996,-36.621,-45.898,-12.207
1626.4654883,3.418,-36.621,-73.73,-58.593999999999994
1626.4654883039998,-94.727,-43.945,-38.574,-76.66
1626.4654883079997,-79.59,-40.527,-5.859,-19.043
1626.465488312,-0.977,-30.273000000000003,-37.598,-3.906
1626.465488316,28.809,-32.715,-71.777,-44.922
1626.465488317,-53.711000000000006,-38.086,-50.781000000000006,-73.242
1626.465488321,-76.172,-35.645,-9.277000000000001,-35.156
1626.465488325,-6.836,-19.043,-24.901999999999997,2.93
1626.465488329,30.273000000000003,-25.879,-53.711000000000006,-32.715
1626.465488333,-30.761999999999997,-33.203,-42.48,-70.801
1626.4654883370001,-93.262,-26.855,-0.977,-57.129
1626.465488341,-24.901999999999997,-23.926,-3.906,-11.719000000000001
1626.4654883439998,38.574,-23.926,-39.551,-16.602
1626.4654883479998,1.465,-33.203,-44.434,-65.43
1626.4654883520002,-91.79700000000001,-35.645,-13.184000000000001,-70.312
1626.465488356,-56.152,-26.366999999999997,2.93,-7.324
1626.4654883599999,20.02,-28.32,-29.296999999999997,5.371
1626.4654883620003,20.02,-27.831999999999997,-56.152,-31.25
1626.4654883660003,-65.918,-31.738000000000003,-24.414,-48.34
1626.4654883699998,-49.805,-27.344,14.16,1.465
1626.4654883739997,17.09,-20.02,-18.066,2.441
1626.4654883779997,36.133,-26.855,-59.57,-36.621
1626.465488382,-46.875,-34.18,-43.945,-62.988
1626.465488386,-89.355,-29.785,-4.395,-35.156
1626.465488389,-10.742,-24.414,-16.113,6.348
1626.465488393,42.48,-27.344,-55.176,-18.555
1626.4654883970002,-27.344,-29.296999999999997,-50.781000000000006,-53.711000000000006
1626.4654884010001,-84.961,-24.414,0.0,-39.062
1626.4654884049999,-22.949,-31.738000000000003,0.488,3.906
1626.465488407,28.32,-34.18,-41.016000000000005,-13.184000000000001
1626.465488411,-2.93,-31.25,-62.988,-51.758
1626.465488415,-83.008,-33.203,-27.344,-44.922
1626.465488419,-47.363,-18.555,6.836,2.93
1626.465488423,19.531,-20.02,-22.949,2.441
1626.465488427,26.366999999999997,-34.18,-58.105,-24.901999999999997
1626.465488431,-56.152,-31.738000000000003,-39.062,-46.875
1626.465488434,-55.176,-34.18,-10.742,-19.043
1626.465488438,12.695,-39.062,-29.785,6.348
1626.4654884420002,39.062,-36.621,-56.152,-23.926
1626.465488446,-48.828,-39.062,-41.504,-61.035
1626.46548845,-100.098,-34.668,0.0,-27.831999999999997
1626.465488452,-24.414,-32.715,-9.766,15.137
1626.465488456,19.531,-38.574,-52.733999999999995,-14.648
1626.46548846,-43.457,-47.363,-60.547,-65.43
1626.465488464,-100.098,-44.434,-16.113,-49.316
1626.4654884679999,-30.761999999999997,-30.273000000000003,2.93,15.625
1626.465488472,34.668,-34.18,-33.691,1.465
1626.465488476,10.254000000000001,-50.781000000000006,-63.477,-49.805
1626.4654884789998,-83.984,-54.199,-26.855,-57.129
1626.4654884829997,-49.316,-43.457,13.184000000000001,-1.465
1626.4654884870001,27.344,-34.18,-23.438000000000002,3.418
1626.465488491,26.366999999999997,-40.039,-63.965,-36.621
1626.4654884949998,-69.336,-45.41,-45.898,-63.477
1626.4654884989998,-76.172,-29.785,0.488,-33.203
1626.4654885029997,4.883,-21.973000000000003,-13.672,-1.953
1626.4654885070001,30.761999999999997,-31.25,-58.593999999999994,-33.691
1626.465488511,-40.039,-34.18,-46.387,-64.941
1626.465488515,-77.637,-32.227,-0.488,-31.25
1626.465488519,-13.672,-36.133,-8.789,6.836
1626.4654885229997,27.344,-54.688,-55.663999999999994,-21.484
1626.465488526,-15.137,-53.711000000000006,-61.035,-57.617
1626.46548853,-76.66,-39.062,-11.719000000000001,-39.062
1626.4654885339999,-35.645,-41.504,-2.441,0.0
1626.4654885379998,12.695,-48.828,-37.109,-16.602
1626.465488542,-6.348,-48.34,-54.199,-59.57
1626.465488542,-96.191,-46.875,-28.809,-76.172
1626.465488546,-83.49600000000001,-48.828,2.441,-32.227
1626.46548855,-8.301,-46.387,-23.926,-19.043
1626.4654885539999,8.789,-42.968999999999994,-55.663999999999994,-48.34
1626.4654885579998,-64.941,-34.18,-23.438000000000002,-63.965
1626.465488562,-75.195,-39.062,14.16,-16.602
1626.465488566,-10.742,-47.852,-11.23,14.648
1626.465488569,35.645,-40.039,-46.875,-10.742
1626.465488573,-41.016000000000005,-47.363,-43.457,-55.663999999999994
1626.465488577,-96.68,-47.363,-1.953,-45.41
1626.465488581,-19.043,-38.086,-2.93,-0.488
1626.465488585,26.366999999999997,-48.34,-46.387,-26.855
1626.4654886029998,-14.16,-47.852,-58.593999999999994,-72.266
1626.4654886070002,-92.285,-39.551,-14.16,-66.406
1626.465488611,-37.598,-30.273000000000003,9.277000000000001,-15.625
1626.465488615,30.761999999999997,-25.391,-33.203,-10.742
1626.4654886189999,8.789,-32.227,-61.035,-48.828
1626.4654886229998,-78.613,-35.156,-30.761999999999997,-72.266
1626.465488627,-67.383,-30.761999999999997,-3.906,-18.066
1626.4654886300002,0.488,-29.296999999999997,-22.461,1.465
1626.4654886339997,20.508000000000003,-36.133,-51.758,-33.203
1626.4654886379997,-64.941,-41.992,-46.387,-64.941
1626.4654886420003,-83.49600000000001,-33.691,1.953,-24.414
1626.465488646,-4.395,-29.785,-2.93,25.879
1626.465488647,33.203,-32.715,-44.434,-1.953
1626.465488651,-27.344,-33.691,-48.828,-49.316
1626.465488655,-88.867,-30.273000000000003,-5.371,-33.691
1626.465488659,-15.625,-26.366999999999997,1.465,16.113
1626.4654886629999,40.039,-32.227,-42.968999999999994,-5.859
1626.465488667,-10.742,-34.668,-58.593999999999994,-62.988
1626.465488671,-88.867,-35.156,-19.043,-65.43
1626.465488674,-45.898,-34.18,1.465,-15.137
1626.465488678,9.766,-39.062,-39.551,-22.949
1626.4654886820001,1.465,-40.527,-64.453,-62.5
1626.465488686,-75.195,-32.715,-27.344,-77.148
1626.46548869,-60.059,-24.414,3.418,-34.18
1626.4654886929998,3.418,-32.715,-30.761999999999997,-12.695
1626.465488697,21.973000000000003,-41.504,-67.383,-42.48
1626.465488701,-57.129,-40.527,-51.758,-74.219
1626.4654887049999,-93.75,-38.086,3.418,-35.645
1626.4654887089998,-12.207,-31.738000000000003,-4.883,5.859
1626.4654887129998,33.203,-22.949,-48.34,-22.461
1626.465488717,-25.391,-22.949,-49.316,-56.641000000000005
1626.46548872,-88.37899999999999,-31.25,-3.418,-41.992
1626.465488724,-36.133,-32.227,3.418,6.348
1626.4654887279999,11.23,-39.551,-38.574,-9.766
1626.465488732,-15.625,-46.875,-63.965,-64.453
1626.465488736,-93.262,-33.203,-24.414,-68.848
1626.4654887389997,-60.547,-27.831999999999997,3.418,-10.742
1626.4654887429997,0.977,-34.668,-33.203,-9.277000000000001
1626.465488747,13.184000000000001,-30.761999999999997,-61.035,-48.828
1626.465488751,-74.219,-39.062,-44.922,-74.707
1626.465488755,-81.543,-39.551,-3.418,-28.32
1626.4654887589998,9.277000000000001,-29.296999999999997,-19.531,15.625
1626.4654887629997,46.387,-31.738000000000003,-57.129,-15.137
1626.4654887660001,-41.504,-46.387,-46.875,-55.663999999999994
1626.46548877,-87.891,-42.968999999999994,-8.789,-33.691
1626.4654887739998,-8.789,-26.855,-11.23,13.184000000000001
1626.4654887779998,38.086,-32.227,-54.688,-8.789
1626.465488782,-20.02,-43.945,-73.242,-61.035
1626.465488782,-83.49600000000001,-41.504,-21.973000000000003,-48.828
1626.465488786,-20.02,-38.086,-4.883,1.465
1626.4654887899999,31.738000000000003,-33.691,-46.387,-10.742
1626.4654887939998,10.742,-26.366999999999997,-56.641000000000005,-47.852
1626.4654887979998,-71.289,-23.926,-15.137,-56.152
1626.465488802,-45.898,-24.414,14.16,-6.836
1626.465488806,22.461,-29.296999999999997,-23.438000000000002,-2.441
1626.465488809,8.789,-44.434,-60.547,-46.875
1626.4654888129999,-89.844,-48.34,-31.738000000000003,-66.406
1626.465488817,-91.79700000000001,-32.227,5.859,-24.901999999999997
1626.465488821,-4.883,-22.461,-15.625,5.859
1626.465488825,27.344,-26.855,-49.316,-14.648
1626.465488828,-48.828,-38.086,-50.293,-58.105
1626.4654888320001,-89.844,-37.109,-3.906,-42.968999999999994
1626.465488836,-13.672,-29.296999999999997,4.395,6.836
1626.4654888399998,28.32,-32.715,-41.504,-16.602
1626.4654888439998,-17.09,-37.598,-60.547,-60.059
1626.4654888479997,-89.355,-34.668,-20.02,-66.895
1626.4654888520001,-49.805,-32.227,-2.441,-15.137
1626.465488855,11.719000000000001,-33.203,-40.527,-12.695
1626.465488859,9.766,-34.668,-51.27,-46.875
1626.465488863,-75.195,-33.691,-15.137,-56.641000000000005
1626.4654888670002,-62.012,-25.391,3.906,-21.973000000000003
1626.4654888710002,11.23,-28.809,-45.41,-11.719000000000001
1626.4654888720002,23.926,-37.109,-74.707,-45.41
1626.465488876,-65.918,-53.711000000000006,-43.457,-74.707
1626.46548888,-99.12100000000001,-49.805,1.465,-35.645
1626.4654888839998,-28.32,-36.621,-14.648,2.441
1626.4654888879998,20.508000000000003,-33.691,-58.105,-22.949
1626.4654888920002,-39.062,-35.156,-46.387,-63.477
1626.4654888960001,-88.37899999999999,-35.156,-3.906,-41.992
1626.4654888989999,-22.949,-31.25,-8.789,16.602
1626.4654889029998,31.25,-33.203,-50.293,-3.418
1626.465488907,1.953,-34.18,-66.895,-56.641000000000005
1626.465488911,-82.031,-38.086,-20.02,-52.733999999999995
1626.465488915,-45.41,-35.156,8.301,3.418
1626.465488918,20.02,-36.133,-35.645,0.0
1626.465488922,11.719000000000001,-43.457,-67.87100000000001,-47.852
1626.465488926,-75.195,-40.039,-32.715,-71.777
1626.46548893,-68.359,-38.086,6.836,-29.785
1626.465488934,-4.883,-36.133,-23.438000000000002,-7.812
1626.465488938,25.391,-30.761999999999997,-53.711000000000006,-36.133
1626.465488942,-47.363,-42.48,-45.41,-71.289
1626.4654889449998,-89.844,-40.527,-14.648,-38.086
1626.4654889489998,-9.277000000000001,-29.785,-21.973000000000003,-1.465
1626.4654889529997,40.039,-32.227,-57.129,-23.926
1626.465488957,-28.32,-35.645,-59.57,-61.035
1626.465488961,-94.727,-36.133,-15.137,-50.781000000000006
1626.465488978,-35.156,-30.273000000000003,-3.418,6.348
1626.4654889820001,20.996,-33.203,-41.504,-4.883
1626.465488986,0.0,-35.645,-58.593999999999994,-52.246
1626.46548899,-93.75,-35.156,-26.855,-62.012
1626.465488994,-67.383,-39.551,-3.418,-19.043
1626.465488998,3.906,-41.016000000000005,-38.574,-13.672
1626.4654890020001,16.602,-31.25,-66.406,-38.574
1626.465489005,-58.593999999999994,-27.831999999999997,-32.715,-52.246
1626.4654890089998,-60.059,-20.02,7.324,-12.695
1626.4654890129998,15.137,-23.438000000000002,-19.531,5.371
1626.4654890170002,30.273000000000003,-32.227,-59.57,-38.086
1626.4654890210002,-46.875,-27.831999999999997,-41.504,-62.988
1626.4654890220002,-85.93799999999999,-35.156,9.766,-21.484
1626.4654890260001,-15.137,-34.18,-0.977,14.648
1626.46548903,30.761999999999997,-30.761999999999997,-45.41,-13.672
1626.465489034,-21.973000000000003,-34.668,-48.828,-49.805
1626.4654890379998,-82.031,-37.598,-4.883,-40.527
1626.465489042,-36.133,-34.668,5.371,-2.441
1626.465489046,19.043,-34.18,-34.668,-7.324
1626.465489049,5.859,-34.668,-52.246,-46.387
1626.465489053,-83.49600000000001,-38.574,-15.625,-59.082
1626.4654890570002,-66.406,-44.434,9.766,-6.348
1626.4654890610002,14.16,-37.598,-17.09,11.719000000000001
1626.4654890650002,37.598,-37.598,-51.27,-23.438000000000002
1626.4654890670001,-62.012,-45.898,-43.457,-60.547
1626.465489071,-84.473,-34.18,-4.883,-30.273000000000003
1626.465489075,-0.977,-13.672,-12.695,5.371
1626.465489079,42.968999999999994,-10.254000000000001,-50.781000000000006,-22.461
1626.465489083,-39.551,-25.391,-48.828,-71.289
1626.4654890870002,-107.42200000000001,-35.156,-0.977,-48.34
1626.465489091,-30.273000000000003,-31.738000000000003,-1.953,-5.371
1626.4654890939998,24.414,-32.227,-46.387,-29.296999999999997
1626.4654890979998,-26.366999999999997,-32.227,-61.035,-75.195
1626.4654891020002,-106.445,-32.227,-24.901999999999997,-75.195
1626.465489106,-51.758,-25.879,-6.836,-6.348
1626.46548911,14.648,-20.02,-36.133,1.465
1626.4654891120001,1.465,-30.761999999999997,-61.523,-45.898
1626.465489116,-82.031,-41.016000000000005,-38.574,-64.453
1626.4654891199998,-69.824,-40.527,2.441,-21.973000000000003
1626.4654891239998,-7.812,-39.062,-19.531,-9.766
1626.4654891279997,7.324,-38.086,-55.176,-42.48
1626.4654891320001,-70.801,-31.738000000000003,-29.785,-62.012
1626.465489136,-87.891,-26.855,8.301,-30.273000000000003
1626.4654891389998,-14.16,-31.738000000000003,-18.555,2.93
1626.4654891429998,25.879,-41.992,-51.758,-22.461
1626.465489147,-38.574,-46.875,-45.41,-61.523
1626.465489151,-81.055,-30.761999999999997,7.812,-33.691
1626.465489155,-9.277000000000001,-29.296999999999997,7.812,11.719000000000001
1626.465489157,26.366999999999997,-37.109,-34.18,-10.254000000000001
1626.465489161,-15.137,-38.574,-44.922,-58.593999999999994
1626.465489165,-87.402,-43.457,-4.395,-62.988
1626.465489169,-44.922,-33.203,12.207,-6.836
1626.465489173,24.414,-25.391,-24.414,-9.766
1626.465489177,24.901999999999997,-29.785,-41.016000000000005,-47.363
1626.465489181,-63.477,-30.273000000000003,-17.09,-61.035
1626.465489184,-71.289,-36.133,3.418,-26.366999999999997
1626.465489188,-1.465,-37.598,-17.578,0.488
1626.4654891920002,29.785,-31.738000000000003,-49.805,-17.578
1626.4654891960001,-39.551,-32.227,-31.738000000000003,-46.387
1626.4654892,-74.707,-34.18,11.23,-12.207
1626.465489202,-3.418,-35.156,-4.395,21.973000000000003
1626.465489206,43.457,-32.715,-39.551,-10.742
1626.46548921,-12.695,-28.809,-37.598,-48.34
1626.465489214,-81.543,-41.504,-5.371,-34.18
1626.465489218,-22.461,-42.968999999999994,0.0,21.484
1626.465489222,45.898,-28.809,-37.109,17.578
1626.465489226,17.09,-33.691,-60.059,-33.691
1626.4654892289998,-71.777,-38.086,-19.043,-48.34
1626.4654892329997,-41.992,-33.203,13.672,2.441
1626.4654892370002,24.414,-29.296999999999997,-23.926,6.836
1626.4654892410001,17.09,-31.738000000000003,-55.663999999999994,-40.039
1626.4654892449998,-63.477,-36.133,-25.879,-57.617
1626.4654892470003,-59.082,-32.227,11.719000000000001,-10.254000000000001
1626.4654892510002,8.301,-22.949,-20.02,5.859
1626.4654892550002,31.738000000000003,-22.461,-61.035,-36.133
1626.465489259,-41.992,-34.668,-47.363,-70.801
1626.4654892629999,-78.613,-35.645,4.883,-39.551
1626.4654892670003,1.465,-26.366999999999997,0.488,1.953
1626.4654892710003,51.758,-28.32,-50.293,-13.672
1626.465489274,-11.23,-42.48,-65.43,-49.316
1626.465489278,-91.79700000000001,-41.504,-12.207,-48.828
1626.4654892820001,-37.598,-34.18,5.859,-0.977
1626.465489286,27.344,-37.598,-31.25,2.93
1626.46548929,4.883,-44.434,-47.363,-46.387
1626.465489307,-90.82,-41.504,-19.531,-66.895
1626.465489311,-58.105,-24.901999999999997,11.23,-10.742
1626.465489315,23.926,-22.461,-19.043,9.766
1626.465489319,26.366999999999997,-37.109,-54.199,-25.391
1626.465489323,-63.477,-39.062,-24.901999999999997,-48.828
1626.4654893270001,-69.824,-25.391,22.461,-2.441
1626.465489331,0.977,-29.296999999999997,-7.324,25.391
1626.4654893339998,32.227,-34.668,-49.805,-15.625
1626.4654893379998,-41.016000000000005,-42.48,-41.992,-50.781000000000006
1626.465489342,-88.867,-46.875,-2.93,-32.715
1626.465489346,-17.09,-37.598,-1.953,7.324
1626.4654893499999,34.18,-37.109,-47.363,-4.395
1626.4654893520003,-8.301,-39.551,-54.199,-46.875
1626.465489356,-90.33200000000001,-41.016000000000005,-12.695,-48.34
1626.46548936,-32.715,-32.227,10.742,4.883
1626.465489364,39.062,-31.738000000000003,-23.438000000000002,2.441
1626.4654893679997,19.531,-38.574,-53.223,-34.18
1626.4654893720003,-74.707,-46.387,-22.949,-53.711000000000006
1626.4654893760003,-45.898,-41.504,12.207,-8.301
1626.465489379,28.32,-36.621,-22.461,11.23
1626.465489383,28.809,-40.527,-62.012,-29.296999999999997
1626.4654893870002,-56.152,-40.039,-40.039,-55.176
1626.4654893910001,-74.707,-39.551,8.789,-16.113
1626.465489395,4.883,-41.016000000000005,-4.883,17.578
1626.465489397,38.086,-35.645,-54.688,-12.695
1626.465489401,-39.062,-38.574,-54.199,-53.223
1626.465489405,-92.285,-36.133,1.953,-30.761999999999997
1626.465489409,-31.25,-32.715,5.859,10.254000000000001
1626.465489413,20.508000000000003,-37.598,-35.156,-6.348
1626.465489417,-11.719000000000001,-31.25,-44.922,-53.223
1626.465489421,-84.961,-35.156,-6.836,-45.41
1626.465489424,-39.062,-41.016000000000005,6.836,12.695
1626.465489428,17.578,-43.945,-40.527,1.465
1626.4654894320001,18.066,-40.527,-63.965,-30.273000000000003
1626.465489436,-67.87100000000001,-31.738000000000003,-27.344,-50.293
1626.46548944,-62.012,-30.761999999999997,8.789,-12.207
1626.4654894420003,12.207,-37.598,-19.043,13.184000000000001
1626.465489446,21.973000000000003,-42.48,-59.57,-24.414
1626.46548945,-52.733999999999995,-38.086,-41.504,-64.453
1626.465489454,-82.031,-41.016000000000005,6.348,-34.18
1626.4654894579999,0.977,-44.922,7.812,23.926
1626.465489462,41.504,-44.922,-36.133,-7.812
1626.465489466,-22.949,-43.457,-45.41,-54.199
1626.4654894689997,-88.37899999999999,-44.434,-0.977,-26.855
1626.4654894729997,-29.296999999999997,-49.805,4.883,17.09
1626.4654894770003,31.738000000000003,-42.48,-37.598,6.348
1626.4654894809998,28.809,-33.691,-52.246,-24.901999999999997
1626.4654894849998,-47.363,-35.156,-4.395,-27.344
1626.4654894870002,-44.922,-31.738000000000003,21.973000000000003,8.789
1626.4654894910002,5.371,-35.645,-17.578,0.977
1626.465489495,-2.93,-44.922,-51.27,-42.48
1626.465489499,-87.891,-37.598,-22.461,-57.129
1626.4654895029998,-86.914,-35.156,23.926,-12.207
1626.4654895070003,-10.254000000000001,-35.156,-0.488,8.789
1626.4654895110002,13.184000000000001,-33.203,-51.27,-40.527
1626.465489514,-61.035,-35.645,-44.434,-81.543
1626.465489518,-91.79700000000001,-40.527,4.395,-36.621
1626.465489522,-21.484,-45.41,2.441,9.766
1626.465489526,30.273000000000003,-36.133,-39.062,-16.113
1626.46548953,-24.901999999999997,-42.48,-50.293,-63.477
1626.465489532,-88.867,-43.945,-4.395,-47.363
1626.465489536,-21.973000000000003,-25.391,4.395,14.16
1626.46548954,36.133,-24.901999999999997,-41.504,0.977
1626.4654895439999,7.324,-35.645,-56.641000000000005,-51.758
1626.4654895479998,-63.965,-32.715,-10.742,-59.57
1626.465489552,-29.296999999999997,-25.391,15.137,-3.906
1626.465489556,37.109,-25.879,-29.296999999999997,11.23
1626.465489559,25.391,-31.25,-56.641000000000005,-40.527
1626.465489563,-61.035,-32.227,-27.831999999999997,-69.824
1626.465489567,-58.593999999999994,-27.831999999999997,6.836,-12.207
1626.465489571,12.207,-28.809,-12.695,15.137
1626.465489575,29.296999999999997,-31.738000000000003,-58.105,-34.18
1626.4654895770002,-42.968999999999994,-38.574,-50.781000000000006,-72.266
1626.4654895810002,-66.406,-38.086,3.906,-34.668
1626.4654895850001,-7.812,-25.391,-3.418,14.648
1626.465489589,26.366999999999997,-20.996,-53.223,-10.254000000000001
1626.465489593,-20.996,-26.366999999999997,-57.617,-57.617
1626.4654895970002,-83.008,-32.227,-7.812,-44.434
1626.4654896010002,-26.855,-31.25,8.789,8.301
1626.465489604,22.461,-35.156,-37.109,1.465
1626.4654896079999,8.301,-29.785,-58.593999999999994,-36.133
1626.4654896120003,-67.383,-22.949,-13.672,-51.27
1626.4654896160002,-38.086,-18.555,17.578,0.977
1626.46548962,24.901999999999997,-18.555,-17.09,20.508000000000003
1626.465489623,16.602,-28.32,-53.711000000000006,-20.508000000000003
1626.4654896270001,-69.336,-31.738000000000003,-31.738000000000003,-58.105
1626.465489631,-82.031,-29.296999999999997,6.836,-23.438000000000002
1626.465489635,-1.953,-31.738000000000003,-11.719000000000001,19.043
1626.465489639,26.366999999999997,-32.715,-49.316,-11.719000000000001
1626.465489643,-48.34,-31.25,-42.968999999999994,-65.918
1626.4654896470001,-93.262,-30.273000000000003,-4.883,-33.691
1626.46548965,-20.996,-32.715,-4.395,16.113
1626.465489654,26.855,-33.691,-41.504,-8.301
1626.465489658,-28.809,-40.527,-56.641000000000005,-58.593999999999994
1626.4654896620002,-93.262,-42.48,-13.184000000000001,-54.688
1626.4654896660002,-42.48,-34.668,7.812,5.859
1626.4654896820002,20.02,-32.227,-37.598,-2.441
1626.4654896860002,6.348,-38.574,-63.965,-53.223
1626.4654896900001,-87.891,-39.062,-24.901999999999997,-68.848
1626.465489694,-71.289,-32.715,8.301,-13.672
1626.465489698,4.395,-29.296999999999997,-20.996,10.254000000000001
1626.4654897020002,18.555,-31.25,-58.593999999999994,-30.761999999999997
1626.4654897060002,-60.547,-36.133,-42.48,-75.195
1626.465489709,-77.637,-26.366999999999997,2.441,-36.621
1626.465489713,-2.441,-22.949,-11.719000000000001,12.695
1626.465489717,32.227,-27.344,-46.387,-18.555
1626.465489721,-22.461,-25.879,-40.527,-58.105
1626.465489725,-67.383,-24.414,0.0,-28.809
1626.465489728,-7.812,-22.461,-1.465,17.578
1626.4654897320002,35.645,-22.949,-50.293,-8.301
1626.465489736,0.488,-40.039,-66.406,-54.199
1626.46548974,-74.219,-47.852,-20.996,-47.852
1626.465489744,-40.527,-46.387,4.883,6.348
1626.465489748,13.184000000000001,-40.039,-34.18,1.465
1626.4654897520002,21.973000000000003,-31.738000000000003,-60.547,-34.18
1626.4654897550001,-54.199,-38.086,-23.926,-47.363
1626.4654897589999,-66.895,-34.668,6.836,-16.113
1626.4654897629998,-0.488,-44.922,-13.672,15.625
1626.4654897670002,33.691,-46.387,-48.828,-4.395
1626.4654897710002,-31.25,-38.086,-31.738000000000003,-40.527
1626.4654897720002,-74.219,-41.992,15.137,-10.254000000000001
1626.465489776,-3.418,-40.527,5.859,41.504
1626.4654897799999,42.48,-33.691,-32.715,8.789
1626.4654897839998,-18.066,-36.621,-41.992,-50.293
1626.4654897879998,-79.102,-46.875,1.465,-27.344
1626.465489792,-4.395,-37.109,10.742,34.18
1626.465489796,42.968999999999994,-31.738000000000003,-39.062,11.23
1626.4654897990001,3.418,-35.645,-55.663999999999994,-36.621
1626.465489803,-72.266,-35.156,-14.648,-41.992
1626.4654898070003,-50.781000000000006,-35.156,2.93,-4.883
1626.465489811,6.348,-37.598,-32.715,-2.441
1626.465489815,4.883,-46.387,-57.129,-39.551
1626.4654898170002,-79.102,-49.805,-26.366999999999997,-61.523
1626.4654898210001,-65.918,-34.18,16.602,-18.066
1626.465489825,13.184000000000001,-27.344,-9.277000000000001,18.555
1626.465489829,30.273000000000003,-28.32,-57.129,-12.207
1626.465489833,-49.805,-35.645,-44.434,-61.035
1626.4654898370002,-83.008,-37.109,8.789,-30.273000000000003
1626.4654898410001,-3.418,-30.761999999999997,1.465,25.391
1626.4654898439999,21.973000000000003,-34.18,-52.246,-17.578
1626.4654898479998,-30.761999999999997,-38.574,-62.5,-65.918
1626.4654898520002,-95.70299999999999,-39.551,-13.184000000000001,-41.504
1626.465489856,-38.086,-35.645,3.418,9.277000000000001
1626.46548986,36.621,-29.296999999999997,-34.668,2.441
1626.4654898620001,12.695,-37.109,-60.059,-34.18
1626.465489866,-67.87100000000001,-41.016000000000005,-22.461,-36.621
1626.4654898699998,-37.109,-32.227,6.348,11.23
1626.4654898739998,28.32,-29.296999999999997,-26.855,12.207
1626.4654898779997,32.227,-24.414,-58.593999999999994,-29.785
1626.4654898820002,-44.434,-21.973000000000003,-30.761999999999997,-50.293
1626.4654898860001,-61.523,-27.344,11.23,-13.184000000000001
1626.4654898889999,13.184000000000001,-26.855,-11.23,17.09
1626.4654898929998,50.781000000000006,-25.879,-52.733999999999995,-15.625
1626.465489897,-18.555,-29.785,-47.852,-53.223
1626.465489901,-64.941,-21.484,3.418,-21.973000000000003
1626.465489905,5.371,-19.531,-6.348,18.066
1626.4654899070001,44.434,-26.855,-53.711000000000006,-10.254000000000001
1626.465489911,-2.441,-26.366999999999997,-57.617,-51.758
1626.465489915,-72.266,-28.809,-7.324,-42.48
1626.465489919,-28.32,-29.296999999999997,0.488,9.277000000000001
1626.465489923,29.296999999999997,-26.855,-39.551,4.395
1626.4654899270001,22.461,-24.414,-53.223,-40.039
1626.465489931,-56.152,-35.156,-25.391,-51.758
1626.465489934,-44.434,-32.227,4.395,4.883
1626.465489938,31.25,-12.695,-21.973000000000003,28.32
1626.4654899420002,50.293,-14.16,-51.758,-10.254000000000001
1626.4654899460002,-36.621,-22.949,-34.668,-52.733999999999995
1626.4654899500001,-62.5,-11.719000000000001,-2.441,-24.414
1626.465489952,22.461,-7.324,-20.996,20.996
1626.465489956,53.711000000000006,-27.344,-63.477,-10.742
1626.46548996,-20.996,-27.831999999999997,-55.176,-59.57
1626.465489964,-68.359,-16.113,-2.93,-34.668
1626.465489968,8.301,-10.254000000000001,5.371,20.02
1626.4654899720001,59.57,-10.254000000000001,-34.18,5.371
1626.465489976,10.742,-24.414,-57.129,-40.527
1626.4654899789998,-78.125,-41.992,-30.761999999999997,-51.758
1626.4654899829998,-30.761999999999997,-36.621,-0.977,5.371
1626.4654899870002,40.039,-30.273000000000003,-33.691,10.742
1626.4654899910001,29.296999999999997,-31.25,-65.43,-38.574
1626.4654899949999,-64.941,-34.668,-33.203,-54.199
1626.4654899970003,-51.27,-27.831999999999997,16.602,-8.301
1626.4654900010003,29.296999999999997,-19.043,-8.301,18.066
1626.4654900050002,39.551,-30.761999999999997,-60.059,-14.648
1626.4654900089997,-41.016000000000005,-39.062,-47.852,-64.941
1626.4654900129997,-65.43,-33.691,3.906,-37.109
1626.465490017,8.789,-27.344,-10.742,10.742
1626.465490021,34.668,-32.227,-53.223,-17.09
1626.465490024,-24.901999999999997,-32.715,-44.922,-62.012
1626.465490028,-81.055,-27.344,2.441,-52.733999999999995
1626.4654900320002,-22.461,-23.438000000000002,0.488,-2.93
1626.4654900360001,34.668,-23.926,-50.293,-10.254000000000001
1626.4654900399998,7.812,-33.691,-62.012,-54.688
1626.465490042,-77.148,-37.109,-16.113,-65.918
1626.465490046,-38.086,-28.32,9.766,-2.441
1626.46549005,35.156,-24.414,-25.879,14.16
1626.465490054,21.973000000000003,-31.25,-58.593999999999994,-50.293
1626.465490058,-72.266,-35.156,-37.598,-71.289
1626.465490062,-71.777,-30.273000000000003,3.906,-13.672
1626.465490066,1.953,-26.855,-21.484,0.0
1626.465490069,15.137,-34.18,-64.453,-52.733999999999995
1626.465490073,-63.965,-37.598,-46.387,-86.914
1626.4654900770001,-98.145,-29.296999999999997,3.418,-46.875
1626.465490081,-9.766,-27.344,-5.371,4.883
1626.465490085,28.809,-29.296999999999997,-56.152,-19.531
1626.4654901029999,-41.504,-30.761999999999997,-59.082,-61.523
1626.465490107,-101.074,-35.645,-12.695,-58.105
1626.465490111,-41.016000000000005,-30.273000000000003,-1.953,-10.742
1626.465490115,3.906,-29.296999999999997,-38.086,-14.648
1626.465490119,-10.254000000000001,-32.715,-57.617,-62.5
1626.4654901229999,-79.102,-31.25,-19.531,-73.242
1626.465490127,-66.895,-25.879,3.906,-19.531
1626.46549013,4.395,-30.273000000000003,-35.156,-2.93
1626.4654901339998,13.184000000000001,-37.109,-65.918,-41.992
1626.4654901379997,-83.008,-42.48,-42.48,-79.59
1626.4654901420001,-83.008,-41.504,11.719000000000001,-33.203
1626.465490146,-10.254000000000001,-41.016000000000005,-5.371,4.395
1626.465490147,9.277000000000001,-45.898,-50.781000000000006,-30.273000000000003
1626.465490151,-61.523,-45.898,-43.945,-68.359
1626.465490155,-112.79299999999999,-39.062,-2.441,-51.27
1626.465490159,-41.504,-37.598,-11.719000000000001,-9.277000000000001
1626.465490163,10.742,-40.039,-50.781000000000006,-22.949
1626.465490167,-22.461,-31.738000000000003,-51.27,-52.733999999999995
1626.465490171,-88.867,-28.809,-8.789,-42.968999999999994
1626.465490174,-48.828,-31.25,2.441,3.906
1626.465490178,1.953,-37.109,-46.387,-5.859
1626.4654901820002,-9.277000000000001,-39.551,-72.266,-47.363
1626.4654901860001,-80.078,-30.273000000000003,-30.273000000000003,-61.523
1626.46549019,-56.152,-25.391,0.0,-10.742
1626.4654901929998,13.672,-25.879,-24.901999999999997,18.066
1626.465490197,25.879,-28.809,-57.617,-23.438000000000002
1626.465490201,-58.593999999999994,-36.133,-43.945,-61.035
1626.465490205,-74.219,-30.761999999999997,1.953,-23.926
1626.4654902089999,2.441,-22.461,-12.695,11.719000000000001
1626.4654902129998,41.016000000000005,-20.508000000000003,-51.758,-7.812
1626.465490217,-28.809,-29.296999999999997,-53.711000000000006,-48.828
1626.46549022,-91.79700000000001,-40.527,-10.254000000000001,-38.574
1626.465490224,-13.672,-37.598,-9.766,5.371
1626.465490228,35.156,-30.273000000000003,-54.199,-8.789
1626.465490232,0.488,-35.156,-56.641000000000005,-47.852
1626.465490236,-79.59,-35.156,-9.766,-46.387
1626.4654902370003,-43.457,-23.926,10.254000000000001,12.695
1626.4654902410002,25.391,-26.855,-27.831999999999997,12.695
1626.465490245,22.949,-31.738000000000003,-53.711000000000006,-32.715
1626.465490249,-61.035,-23.926,-29.785,-47.363
1626.4654902529999,-61.523,-20.508000000000003,3.906,-4.395
1626.4654902570003,24.414,-19.043,-14.16,20.996
1626.4654902610002,46.875,-24.901999999999997,-54.199,-9.277000000000001
1626.465490264,-41.504,-35.645,-46.875,-48.34
1626.465490268,-68.359,-36.133,4.883,-28.809
1626.4654902720001,1.953,-32.715,-1.953,14.648
1626.465490276,37.598,-28.809,-47.363,-8.301
1626.46549028,-26.366999999999997,-30.761999999999997,-59.082,-62.012
1626.465490282,-90.82,-31.738000000000003,-9.277000000000001,-49.316
1626.465490286,-17.09,-26.366999999999997,3.906,13.184000000000001
1626.46549029,46.387,-23.438000000000002,-34.18,3.418
1626.465490294,18.066,-23.926,-50.781000000000006,-45.898
1626.4654902979998,-81.055,-30.273000000000003,-23.438000000000002,-54.199
1626.465490302,-58.105,-38.086,5.859,-1.465
1626.465490306,13.672,-34.668,-26.366999999999997,13.184000000000001
1626.465490309,19.043,-33.203,-65.43,-21.484
1626.465490313,-66.895,-37.598,-40.527,-50.293
1626.465490317,-74.219,-35.645,8.789,-11.719000000000001
1626.465490321,0.977,-32.715,-13.184000000000001,12.207
1626.465490325,34.668,-31.738000000000003,-59.57,-26.366999999999997
1626.46549033,-40.039,-35.156,-53.711000000000006,-62.988
1626.465490334,-86.914,-31.25,-5.859,-39.551
1626.4654903379999,-9.277000000000001,-17.578,-3.906,11.23
1626.465490342,40.039,-26.366999999999997,-49.316,1.953
1626.465490346,-11.23,-34.18,-57.129,-41.992
1626.46549035,-75.684,-25.391,-4.395,-54.688
1626.465490354,-27.344,-34.668,0.0,-12.695
1626.4654903570001,10.742,-43.457,-44.434,-17.578
1626.465490361,-6.836,-30.761999999999997,-55.176,-60.059
1626.465490365,-75.195,-28.32,-20.996,-76.66
1626.465490369,-60.059,-24.901999999999997,7.812,-29.785
1626.465490373,-4.395,-30.273000000000003,-27.831999999999997,-17.578
1626.4654903720002,9.277000000000001,-34.668,-62.012,-57.129
1626.4654903760002,-76.66,-41.016000000000005,-37.598,-87.891
1626.4654903800001,-84.961,-38.086,12.695,-38.086
1626.4654903839998,-11.23,-32.715,-9.277000000000001,-0.488
1626.4654903879998,15.137,-33.691,-56.641000000000005,-38.086
1626.4654903920002,-49.316,-29.296999999999997,-53.711000000000006,-77.148
1626.4654903960002,-97.656,-41.016000000000005,-6.836,-63.477
1626.465490399,-22.461,-39.551,-9.766,-10.742
1626.4654904029999,21.484,-37.109,-50.781000000000006,-20.508000000000003
1626.465490407,-23.438000000000002,-45.898,-52.246,-72.266
1626.465490411,-94.238,-38.086,-9.277000000000001,-66.406
1626.465490415,-47.363,-30.761999999999997,8.301,-5.371
1626.465490417,18.066,-27.344,-31.738000000000003,-7.324
1626.465490421,2.441,-32.715,-58.105,-55.663999999999994
1626.4654904249999,-76.172,-37.598,-20.996,-73.73
1626.4654904289998,-53.223,-27.344,14.16,-17.578
1626.4654904329998,20.996,-23.438000000000002,-15.137,0.977
1626.465490437,29.785,-34.18,-54.688,-34.18
1626.465490441,-59.082,-39.062,-40.039,-59.57
1626.465490444,-75.684,-32.227,11.23,-32.715
1626.4654904479999,6.348,-22.949,-4.883,-1.465
1626.465490452,43.457,-24.901999999999997,-59.57,-20.996
1626.465490456,-17.09,-30.761999999999997,-58.105,-50.293
1626.46549046,-68.848,-38.086,-4.395,-30.761999999999997
1626.4654904770002,-19.043,-36.621,-2.441,13.184000000000001
1626.465490481,28.32,-34.668,-48.828,-5.371
1626.465490485,-0.977,-37.598,-61.523,-56.152
1626.4654904889999,-78.125,-31.738000000000003,-13.184000000000001,-50.781000000000006
1626.4654904929998,-37.598,-26.855,10.254000000000001,3.906
1626.4654904970002,20.02,-32.715,-35.645,-3.906
1626.4654905010002,19.043,-36.133,-70.801,-34.668
1626.465490504,-63.477,-35.156,-37.109,-56.152
1626.465490508,-68.359,-34.668,7.324,-19.531
1626.465490512,3.418,-36.133,-25.391,6.836
1626.465490516,24.414,-36.133,-62.012,-29.785
1626.46549052,-60.547,-32.227,-41.992,-65.43
1626.465490522,-88.37899999999999,-27.344,4.395,-26.366999999999997
1626.465490526,0.977,-11.719000000000001,-0.977,9.277000000000001
1626.46549053,33.203,-19.043,-51.758,-29.785
1626.4654905339999,-31.25,-32.227,-57.617,-70.312
1626.4654905379998,-81.055,-21.973000000000003,-7.812,-48.34
1626.465490542,-7.324,-12.695,0.488,15.137
1626.465490546,38.086,-22.461,-45.41,1.465
1626.465490549,-5.859,-38.086,-58.105,-42.968999999999994
1626.4654905529999,-84.961,-42.48,-8.789,-50.781000000000006
1626.465490557,-57.617,-36.621,12.695,-11.23
1626.465490561,5.371,-28.32,-31.738000000000003,13.184000000000001
1626.465490565,16.113,-19.531,-65.918,-23.926
1626.4654905670002,-65.918,-29.785,-47.363,-64.941
1626.4654905710001,-58.105,-34.18,-3.906,-10.254000000000001
1626.465490575,14.648,-31.738000000000003,-13.184000000000001,25.391
1626.465490579,18.066,-42.48,-51.27,-18.066
1626.465490583,-65.43,-43.457,-45.41,-62.5
1626.4654905870002,-90.33200000000001,-37.598,15.137,-26.366999999999997
1626.4654905910002,-13.184000000000001,-31.25,14.648,14.648
1626.465490594,11.719000000000001,-37.598,-40.039,-21.973000000000003
1626.4654905979999,-40.527,-53.223,-50.781000000000006,-64.453
1626.4654906020003,-98.633,-49.316,1.953,-53.223
1626.465490606,-46.875,-40.039,16.602,-9.277000000000001
1626.46549061,7.812,-41.016000000000005,-26.366999999999997,-17.09
1626.4654906120002,-7.812,-43.457,-45.41,-47.363
1626.4654906160001,-83.984,-48.34,-9.277000000000001,-52.246
1626.4654906199999,-59.57,-45.41,22.949,-1.953
1626.4654906239998,13.184000000000001,-39.062,-11.23,8.789
1626.4654906279998,16.113,-46.875,-48.34,-25.879
1626.4654906320002,-75.684,-44.922,-21.973000000000003,-50.781000000000006
1626.4654906360001,-88.867,-40.527,13.672,-20.996
1626.4654906389999,-16.113,-49.316,-12.695,6.348
1626.4654906429998,24.414,-49.805,-42.968999999999994,-15.137
1626.465490647,-39.062,-51.758,-38.574,-49.805
1626.465490651,-85.93799999999999,-37.109,6.836,-27.344
1626.465490655,-13.672,-31.25,4.395,20.508000000000003
1626.4654906570001,39.062,-47.363,-41.992,-3.418
1626.465490661,-9.277000000000001,-47.852,-55.176,-54.199
1626.465490665,-86.914,-36.621,-3.418,-51.27
1626.465490669,-28.809,-29.296999999999997,22.949,9.766
1626.4654906729997,38.574,-31.738000000000003,-20.996,12.695
1626.465490677,29.785,-31.738000000000003,-54.199,-33.203
1626.465490681,-52.733999999999995,-37.109,-24.901999999999997,-51.758
1626.465490684,-51.758,-49.805,-0.488,-3.906
1626.465490688,11.23,-43.945,-27.344,15.137
1626.4654906920002,29.296999999999997,-32.227,-53.223,-26.366999999999997
1626.4654906960002,-43.945,-34.668,-32.715,-47.363
1626.4654907000001,-62.012,-42.968999999999994,7.324,-21.484
1626.465490703,5.859,-44.922,-13.672,2.441
1626.465490707,36.621,-40.527,-56.152,-16.113
1626.465490711,-35.156,-40.527,-54.688,-53.711000000000006
1626.465490715,-84.473,-42.968999999999994,-7.324,-34.18
1626.465490719,-14.16,-40.039,2.93,20.996
1626.465490723,41.504,-31.738000000000003,-36.621,10.254000000000001
1626.4654907270003,10.742,-43.945,-60.547,-36.133
1626.46549073,-86.914,-57.617,-25.391,-46.875
1626.465490734,-63.477,-49.805,0.0,-1.465
1626.465490738,13.184000000000001,-50.293,-33.691,-3.418
1626.4654907420002,23.926,-48.828,-59.082,-26.366999999999997
1626.4654907460001,-62.5,-33.691,-31.25,-45.898
1626.4654907470003,-67.87100000000001,-21.973000000000003,4.395,-20.508000000000003
1626.465490751,-5.371,-21.973000000000003,-28.809,-1.953
1626.465490755,19.531,-23.926,-67.87100000000001,-38.086
1626.4654907589997,-55.663999999999994,-21.973000000000003,-52.246,-79.59
1626.4654907629997,-89.355,-19.531,-2.93,-42.48
1626.4654907670001,-16.602,-14.648,-13.672,-5.859
1626.465490771,20.02,-25.879,-62.012,-39.551
1626.4654907739998,-33.691,-35.645,-65.43,-72.75399999999999
1626.4654907779998,-96.68,-33.691,-25.391,-66.406
1626.465490782,-24.414,-21.973000000000003,-14.648,-5.371
1626.465490786,43.457,-10.254000000000001,-53.223,-1.465
1626.4654907899999,16.113,-12.207,-72.75399999999999,-45.41
1626.4654907939998,-68.848,-14.16,-32.715,-47.852
1626.4654907979998,-52.733999999999995,-20.996,-11.719000000000001,-8.789
1626.465490802,16.602,-21.484,-45.898,-7.812
1626.465490806,17.578,-25.879,-74.219,-45.41
1626.46549081,-63.965,-28.32,-42.968999999999994,-63.965
1626.4654908139998,-59.57,-17.09,1.465,-17.578
1626.4654908179998,4.883,-25.391,-31.738000000000003,2.441
1626.465490821,34.18,-34.668,-64.941,-34.668
1626.465490825,-40.039,-34.668,-58.105,-70.312
1626.465490829,-84.473,-33.203,-18.066,-40.527
1626.4654908329999,-5.371,-17.578,-12.695,-2.441
1626.465490837,34.668,-19.043,-60.547,-22.461
1626.4654908520001,-23.438000000000002,-30.761999999999997,-66.406,-61.035
1626.4654908559999,-90.33200000000001,-38.086,-20.02,-53.711000000000006
1626.4654908599998,-21.484,-30.273000000000003,-2.441,9.766
1626.4654908639998,40.039,-25.391,-44.922,0.0
1626.4654908679997,-4.395,-38.086,-67.87100000000001,-50.293
1626.4654908720001,-90.82,-40.039,-23.926,-55.663999999999994
1626.465490876,-54.199,-30.761999999999997,0.0,-7.812
1626.4654908789998,18.555,-29.296999999999997,-37.598,1.465
1626.4654908829998,23.438000000000002,-33.691,-66.895,-31.25
1626.465490887,-67.87100000000001,-42.968999999999994,-49.805,-61.035
1626.465490891,-75.684,-38.574,-9.277000000000001,-20.02
1626.465490895,-1.465,-32.227,-19.531,23.926
1626.4654908979999,27.344,-34.18,-56.641000000000005,-13.184000000000001
1626.4654909020003,-46.387,-49.805,-49.805,-68.359
1626.4654909060002,-87.891,-45.41,-7.324,-46.387
1626.4654909100002,-17.09,-27.344,-9.766,6.836
1626.465490914,27.831999999999997,-30.761999999999997,-50.781000000000006,-5.859
1626.465490918,-10.742,-37.109,-62.012,-52.733999999999995
1626.465490922,-80.566,-29.785,-17.09,-54.688
1626.465490925,-34.18,-26.855,-3.418,2.441
1626.465490929,20.508000000000003,-35.156,-43.457,6.348
1626.465490933,0.0,-46.875,-70.312,-43.457
1626.4654909370001,-79.59,-42.968999999999994,-25.391,-58.105
1626.465490941,-59.082,-30.273000000000003,10.254000000000001,-3.418
1626.465490942,6.836,-33.203,-29.785,9.766
1626.465490946,21.484,-42.48,-57.129,-26.366999999999997
1626.46549095,-58.593999999999994,-45.41,-36.133,-62.5
1626.465490954,-80.566,-35.156,0.977,-25.391
1626.465490958,-1.953,-27.344,-21.973000000000003,14.16
1626.465490962,35.645,-30.761999999999997,-62.012,-17.09
1626.465490966,-30.273000000000003,-31.25,-55.176,-50.781000000000006
1626.4654909689998,-88.867,-30.761999999999997,-10.254000000000001,-38.086
1626.4654909729998,-31.738000000000003,-36.133,-10.742,-6.836
1626.4654909770002,27.344,-37.109,-49.805,-14.16
1626.465490981,-6.836,-35.645,-54.199,-49.805
1626.4654909849999,-97.16799999999999,-37.109,-13.672,-55.176
1626.4654909870003,-51.27,-37.598,9.766,-0.977
1626.4654909910003,19.531,-35.645,-25.879,11.23
1626.465490995,8.789,-37.598,-62.5,-29.785
1626.465490999,-65.918,-33.691,-26.855,-43.457
1626.4654910029997,-47.852,-28.809,12.207,4.395
1626.4654910070003,32.227,-32.227,-17.09,20.02
1626.4654910110003,46.875,-38.086,-48.34,-20.996
1626.465491014,-47.852,-46.387,-44.434,-69.336
1626.465491018,-70.312,-39.551,0.488,-34.18
1626.4654910220002,-2.441,-28.32,0.488,26.366999999999997
1626.465491026,28.32,-32.227,-43.457,-11.719000000000001
1626.46549103,-30.761999999999997,-36.133,-46.875,-66.895
1626.465491034,-103.516,-39.551,-1.465,-49.805
1626.465491038,-40.527,-38.086,5.859,0.488
1626.4654910420002,27.831999999999997,-34.18,-33.691,-12.207
1626.465491046,1.465,-41.992,-52.246,-46.387
1626.4654910499999,-78.125,-41.504,-10.742,-41.504
1626.4654910539998,-32.715,-25.879,20.02,15.625
1626.4654910579998,31.25,-31.738000000000003,-24.414,22.461
1626.4654910610002,17.578,-45.898,-62.012,-24.414
1626.4654910650002,-64.941,-46.875,-27.344,-52.246
1626.465491069,-71.289,-41.504,16.602,-10.742
1626.465491073,-9.277000000000001,-41.992,-4.395,23.926
1626.4654910770003,37.109,-33.691,-37.598,-4.395
1626.4654910770003,-35.156,-32.227,-28.809,-49.316
1626.465491081,-86.426,-32.227,8.789,-31.738000000000003
1626.465491085,-5.859,-19.531,-6.836,10.742
1626.465491089,46.387,-19.531,-54.688,-1.465
1626.4654910929999,-6.348,-29.785,-61.035,-42.48
1626.465491097,-78.613,-29.296999999999997,-13.672,-46.875
1626.465491101,-29.785,-26.855,-7.812,4.395
1626.465491104,25.391,-28.32,-48.828,7.812
1626.4654911079997,8.789,-24.901999999999997,-62.012,-43.945
1626.4654911120003,-66.406,-26.855,-19.043,-60.547
1626.465491116,-37.109,-28.809,4.395,-3.906
1626.4654911199998,34.18,-26.366999999999997,-40.039,7.812
1626.4654911220002,36.133,-30.761999999999997,-63.965,-30.273000000000003
1626.4654911260002,-53.223,-36.621,-32.715,-52.733999999999995
1626.4654911300001,-67.383,-32.715,7.812,-11.23
1626.4654911339999,0.488,-31.738000000000003,-10.254000000000001,23.438000000000002
1626.4654911379998,40.527,-35.156,-52.733999999999995,-3.418
1626.4654911420002,-40.039,-44.434,-53.711000000000006,-49.805
1626.4654911460002,-97.656,-46.387,-8.301,-25.879
1626.465491149,-16.602,-38.086,0.0,20.508000000000003
1626.465491153,39.062,-39.551,-41.992,-1.953
1626.465491157,2.441,-36.621,-62.5,-39.062
1626.465491161,-75.684,-23.438000000000002,-10.254000000000001,-41.992
1626.465491165,-30.273000000000003,-30.761999999999997,10.742,8.789
1626.465491167,36.621,-37.109,-28.809,19.043
1626.465491171,14.16,-33.691,-56.641000000000005,-27.344
1626.465491175,-79.102,-43.457,-29.296999999999997,-54.688
1626.4654911789999,-59.082,-40.527,4.395,-6.348
1626.4654911829998,18.066,-33.203,-19.043,15.625
1626.465491187,36.621,-32.715,-54.199,-19.043
1626.465491191,-50.781000000000006,-31.738000000000003,-46.387,-50.293
1626.465491194,-80.566,-28.809,-3.906,-19.043
1626.4654911979999,0.488,-21.484,-17.578,23.926
1626.465491202,37.109,-20.02,-54.199,-5.859
1626.465491206,-27.831999999999997,-29.296999999999997,-53.711000000000006,-57.129
1626.46549121,-81.543,-32.715,-3.906,-33.691
1626.46549123,-14.16,-25.879,3.906,21.484
1626.465491234,46.875,-26.366999999999997,-40.527,6.836
1626.465491238,0.0,-29.296999999999997,-52.246,-35.156
1626.465491242,-92.285,-25.879,-14.648,-37.109
1626.465491246,-45.898,-25.391,8.301,12.207
1626.46549125,30.761999999999997,-22.949,-27.831999999999997,17.578
1626.465491254,18.066,-30.273000000000003,-62.012,-36.133
1626.4654912570002,-77.637,-42.48,-40.039,-70.312
1626.4654912610001,-76.66,-36.133,-5.859,-20.996
1626.465491265,-0.488,-34.18,-32.715,10.742
1626.465491269,25.879,-36.133,-65.43,-20.508000000000003
1626.4654912729998,-56.641000000000005,-36.621,-42.968999999999994,-62.988
1626.465491272,-90.33200000000001,-39.551,2.93,-32.715
1626.465491276,-23.926,-42.48,-17.09,5.371
1626.46549128,27.344,-35.156,-50.781000000000006,-15.625
1626.4654912839999,-34.18,-37.598,-53.711000000000006,-66.406
1626.4654912879998,-101.074,-42.968999999999994,-11.719000000000001,-55.176
1626.465491292,-31.25,-38.086,-2.441,-0.977
1626.465491296,34.668,-36.133,-39.062,-2.441
1626.465491299,7.812,-32.715,-52.246,-41.992
1626.465491303,-81.055,-31.738000000000003,-18.066,-53.223
1626.465491307,-41.016000000000005,-29.296999999999997,4.883,6.348
1626.465491311,37.109,-27.831999999999997,-35.156,10.742
1626.465491315,28.32,-37.598,-68.359,-42.968999999999994
1626.4654913170002,-66.895,-48.828,-37.598,-64.453
1626.4654913210002,-58.105,-43.945,0.488,-4.883
1626.4654913250001,20.508000000000003,-34.668,-13.672,23.438000000000002
1626.465491329,41.504,-28.809,-52.246,-17.578
1626.465491333,-37.109,-28.809,-52.246,-47.363
1626.4654913370002,-68.359,-30.761999999999997,3.418,-11.719000000000001
1626.4654913410002,1.953,-28.32,-0.977,29.296999999999997
1626.465491344,34.18,-38.574,-52.733999999999995,-1.953
1626.465491348,-24.414,-48.34,-71.777,-61.035
1626.4654913520003,-83.984,-32.227,-16.602,-43.945
1626.465491356,-19.043,-20.996,11.719000000000001,20.02
1626.46549136,33.203,-26.855,-32.227,10.742
1626.465491363,15.137,-29.785,-51.758,-34.18
1626.4654913670001,-61.523,-33.203,-11.23,-42.968999999999994
1626.465491371,-31.738000000000003,-30.761999999999997,20.02,12.207
1626.465491375,33.691,-19.043,-22.461,15.625
1626.465491379,23.438000000000002,-21.484,-56.152,-28.809
1626.465491383,-61.035,-32.227,-26.855,-53.711000000000006
1626.4654913870002,-55.176,-21.973000000000003,16.113,-11.23
1626.4654913900001,19.531,-17.578,-3.906,29.785
1626.465491394,35.645,-34.668,-47.363,-14.16
1626.4654913979998,-37.109,-37.109,-34.668,-67.87100000000001
1626.4654914020002,-71.289,-23.926,17.09,-32.227
1626.4654914060002,-2.93,-22.461,2.441,13.672
1626.4654914070002,31.738000000000003,-27.344,-46.875,-1.465
1626.465491411,-18.555,-30.761999999999997,-49.805,-49.805
1626.4654914149999,-91.79700000000001,-32.227,-9.277000000000001,-51.27
1626.4654914189998,-29.785,-21.973000000000003,4.883,11.23
1626.4654914229998,25.879,-27.831999999999997,-35.156,1.953
1626.465491427,-3.906,-37.109,-62.5,-49.805
1626.465491431,-80.566,-36.133,-30.761999999999997,-64.453
1626.4654914340001,-60.547,-36.133,0.977,-10.742
1626.465491438,23.926,-31.25,-30.761999999999997,3.906
1626.4654914420003,28.32,-29.296999999999997,-70.801,-32.715
1626.465491446,-69.824,-36.621,-44.922,-55.663999999999994
1626.46549145,-79.59,-41.992,6.836,-20.996
1626.4654914520002,4.395,-35.156,-6.348,14.16
1626.465491456,32.227,-40.039,-50.293,-20.508000000000003
1626.46549146,-53.223,-55.176,-49.805,-68.359
1626.465491464,-94.238,-39.551,-4.883,-39.551
1626.465491468,-13.672,-22.949,-1.953,9.277000000000001
1626.4654914720002,29.785,-31.738000000000003,-43.945,-17.578
1626.4654914760001,-26.855,-42.968999999999994,-60.059,-56.152
1626.4654914789999,-105.469,-42.48,-16.602,-51.27
1626.4654914829998,-50.781000000000006,-34.18,7.812,-6.348
1626.4654914870002,20.02,-34.18,-16.602,-3.418
1626.4654914910002,5.859,-36.133,-50.293,-54.688
1626.465491495,-84.473,-32.715,-28.32,-71.289
1626.4654914989999,-67.87100000000001,-21.484,6.836,-14.648
1626.4654915029998,8.789,-25.391,-23.926,-2.441
1626.4654915070003,24.901999999999997,-36.621,-56.641000000000005,-40.039
1626.4654915110002,-58.593999999999994,-29.296999999999997,-35.645,-63.965
1626.4654915150002,-90.82,-24.414,13.672,-18.555
1626.4654915190001,-17.09,-24.901999999999997,-0.488,10.254000000000001
1626.4654915229999,15.625,-38.086,-58.593999999999994,-35.156
1626.465491526,-49.805,-49.316,-55.176,-76.66
1626.46549153,-99.12100000000001,-40.039,-1.953,-60.547
1626.465491534,-35.156,-36.621,0.0,-6.348
1626.465491538,26.855,-30.761999999999997,-38.086,-3.418
1626.465491542,-14.16,-36.621,-62.012,-62.012
1626.465491542,-90.33200000000001,-46.387,-23.438000000000002,-71.289
1626.465491546,-44.922,-38.574,11.719000000000001,0.977
1626.46549155,12.207,-32.715,-24.901999999999997,2.93
1626.465491554,14.16,-33.691,-61.035,-38.086
1626.465491558,-65.918,-34.18,-34.668,-53.711000000000006
1626.4654915620001,-57.129,-35.156,3.906,-6.836
1626.465491566,18.555,-40.039,-30.761999999999997,13.184000000000001
1626.465491569,30.761999999999997,-41.992,-65.43,-30.761999999999997
1626.465491573,-55.663999999999994,-48.828,-44.434,-62.5
1626.4654915770002,-88.867,-45.41,1.953,-18.555
1626.4654915810002,-1.953,-38.086,-9.277000000000001,26.855
1626.465491585,37.109,-36.621,-56.641000000000005,-13.672
1626.465491603,-22.461,-42.968999999999994,-60.059,-57.617
1626.465491607,-86.914,-44.434,-17.09,-47.852
1626.465491611,-29.785,-39.062,-1.465,6.348
1626.465491615,29.785,-39.062,-34.18,6.348
1626.465491619,14.16,-35.156,-45.898,-36.621
1626.465491623,-64.453,-32.715,-11.719000000000001,-48.34
1626.4654916270001,-31.738000000000003,-27.344,14.648,0.488
1626.46549163,37.109,-31.25,-16.602,5.859
1626.4654916339998,25.879,-41.504,-49.805,-34.18
1626.4654916379998,-71.777,-50.293,-33.203,-61.035
1626.4654916420002,-66.406,-35.645,12.207,-20.02
1626.4654916460001,15.137,-24.414,-12.695,7.324
1626.4654916470001,28.32,-33.691,-61.035,-23.926
1626.465491651,-55.176,-50.293,-47.852,-54.688
1626.465491655,-92.285,-45.898,9.766,-32.227
1626.465491659,-2.93,-30.761999999999997,20.508000000000003,19.531
1626.465491663,42.968999999999994,-34.668,-29.296999999999997,5.859
1626.4654916670002,-19.531,-36.133,-53.711000000000006,-47.852
1626.465491671,-84.961,-28.809,-9.277000000000001,-45.41
1626.465491674,-27.831999999999997,-28.809,3.418,8.789
1626.465491678,28.32,-35.156,-36.621,3.906
1626.4654916820002,1.465,-48.828,-53.711000000000006,-50.293
1626.4654916860002,-76.66,-47.363,-4.395,-61.523
1626.4654916900001,-58.593999999999994,-32.715,26.366999999999997,-1.953
1626.4654916929999,0.977,-34.18,-22.949,9.766
1626.465491697,9.766,-41.992,-62.5,-42.968999999999994
1626.465491701,-69.336,-41.504,-38.086,-69.336
1626.465491705,-69.824,-39.062,10.254000000000001,-24.414
1626.465491709,6.348,-30.761999999999997,-4.883,10.254000000000001
1626.465491713,37.109,-22.461,-41.992,-21.484
1626.465491717,-20.02,-25.391,-34.668,-53.223
1626.46549172,-72.75399999999999,-32.715,7.324,-39.551
1626.465491724,-10.742,-29.785,3.418,3.418
1626.465491728,30.273000000000003,-26.366999999999997,-38.574,-10.254000000000001
1626.4654917320001,-20.508000000000003,-28.809,-47.852,-56.152
1626.465491736,-84.473,-29.785,-0.977,-51.27
1626.4654917379999,-26.855,-27.344,16.602,3.418
1626.465491742,23.926,-24.901999999999997,-30.761999999999997,-6.836
1626.465491746,3.418,-27.344,-60.059,-54.688
1626.46549175,-73.242,-32.715,-18.066,-73.73
1626.465491754,-56.641000000000005,-31.25,19.531,-27.344
1626.4654917579999,6.348,-28.809,-13.184000000000001,0.0
1626.465491762,27.831999999999997,-29.296999999999997,-52.246,-34.18
1626.465491765,-45.41,-37.109,-36.621,-71.289
1626.465491769,-74.219,-32.715,11.23,-18.066
1626.4654917729997,2.93,-25.391,-4.883,28.32
