timestamps,TP9,AF7,AF8,TP10
1628114550.535,49.316,-33.691,-34.668,12.207
1628114550.539,53.711,-40.039,-34.668,4.395
1628114550.543,-93.262,-44.434,-39.062,-79.102
1628114550.547,-129.883,-28.320,-31.738,-87.891
1628114550.551,12.695,-20.996,-18.066,-5.371
1628114550.555,91.309,-19.043,-21.973,32.227
1628114550.559,-42.480,-32.715,-41.016,-39.062
1628114550.562,-132.812,-40.527,-31.250,-81.055
1628114550.566,-23.926,-32.227,-20.508,-13.672
1628114550.570,85.938,-27.832,-16.113,37.109
1628114550.574,-19.531,-47.363,-29.297,-37.598
1628114550.578,-125.488,-39.551,-23.438,-84.473
1628114550.581,19.043,-34.668,-62.988,-3.906
1628114550.585,-143.555,-40.039,-66.406,-89.355
1628114550.589,-111.816,-28.320,-30.273,-75.195
1628114550.593,46.387,-20.020,-9.766,14.648
1628114550.597,63.965,-18.066,-8.789,19.531
1628114550.600,-90.332,-44.434,-13.184,-70.312
1628114550.604,-144.043,-39.551,-44.922,-95.703
1628114550.608,-8.301,-14.160,-47.363,-17.578
1628114550.612,60.059,-27.344,-31.250,1.953
1628114550.616,-56.152,-27.832,-25.391,-63.965
1628114550.629,-141.602,-28.809,-10.742,-92.285
1628114550.633,-32.227,-37.109,-24.902,-25.391
1628114550.637,79.590,-44.434,-48.828,31.250
1628114550.641,-0.488,-48.340,-40.039,-20.508
1628114550.645,-129.883,-32.715,-34.668,-83.496
1628114550.649,-75.195,-19.531,-41.992,-41.504
1628114550.653,72.266,-16.113,-27.344,34.180
1628114550.656,47.852,-29.297,-17.578,12.207
1628114550.660,-114.746,-44.922,-26.367,-67.383
1628114550.664,-123.535,-34.668,-27.344,-72.754
1628114550.668,27.832,-29.785,-20.508,4.883
1628114550.672,60.547,-40.527,-24.902,20.508
1628114550.668,-75.195,-32.227,-39.062,-68.359
1628114550.672,-150.879,-33.203,-42.969,-97.656
1628114550.676,-19.531,-33.691,-25.879,-13.184
1628114550.680,76.660,-40.039,-12.695,31.250
1628114550.684,-34.668,-57.617,-15.137,-35.645
1628114550.688,-140.625,-58.594,-21.973,-86.914
1628114550.692,-48.828,-41.016,-26.367,-34.668
1628114550.695,95.703,-15.625,-14.160,45.898
1628114550.699,29.785,-9.277,-13.672,13.672
1628114550.703,-133.789,-29.297,-43.457,-77.148
1628114550.707,-108.398,-36.621,-52.734,-63.477
1628114550.711,44.434,-29.297,-31.250,16.113
1628114550.725,37.598,-40.039,-17.090,0.977
1628114550.729,-107.422,-24.902,-22.949,-75.195
1628114550.733,-109.863,-16.602,-39.062,-67.383
1628114550.737,17.578,-44.434,-46.875,4.883
1628114550.741,78.613,-43.457,-27.832,36.133
1628114550.745,-40.039,-33.691,-27.344,-33.203
1628114550.749,-136.719,-41.016,-37.109,-83.984
1628114550.752,-34.180,-40.039,-29.785,-30.762
1628114550.756,48.340,-50.781,-42.480,3.418
1628114550.760,-48.340,-49.316,-57.617,-47.363
1628114550.764,-142.090,-24.414,-34.668,-83.984
1628114550.768,-45.898,-16.113,-12.207,-22.949
1628114550.760,67.871,-33.203,-35.156,29.785
1628114550.764,1.465,-35.156,-49.316,-17.090
1628114550.768,-120.605,-31.250,-23.926,-71.777
1628114550.772,-96.191,-38.574,-10.742,-49.805
1628114550.776,29.785,-31.250,-24.902,7.324
1628114550.780,43.457,-22.949,-31.250,0.488
1628114550.784,-103.516,-31.250,-31.250,-77.637
1628114550.787,-139.160,-45.898,-25.879,-81.055
1628114550.791,0.488,-25.391,-24.414,1.465
1628114550.795,74.707,-26.855,-21.973,36.133
1628114550.799,-37.109,-55.664,-30.273,-22.949
1628114550.803,-131.836,-34.668,-33.203,-65.918
1628114550.817,-37.109,-19.531,-22.949,-9.277
1628114550.821,77.148,-13.184,-21.973,49.316
1628114550.825,-11.230,-20.508,-20.996,-18.555
1628114550.829,-152.344,-33.203,-18.066,-93.750
1628114550.833,-87.402,-27.344,-18.066,-51.270
1628114550.837,57.617,-25.879,-20.996,22.461
1628114550.841,23.438,-31.738,-45.410,0.488
1628114550.844,-129.883,-53.711,-56.641,-80.078
1628114550.848,-123.535,-68.848,-34.668,-72.266
1628114550.852,28.320,-63.477,-28.809,10.254
1628114550.856,51.270,-50.781,-26.855,10.742
1628114550.860,-94.727,-33.203,-18.066,-75.195
1628114550.873,-142.090,-27.344,-7.324,-85.938
1628114550.877,-1.953,-18.555,-13.672,-9.277
1628114550.881,92.773,-6.836,-19.043,38.574
1628114550.885,-7.324,4.395,-14.160,-14.160
1628114550.889,-125.000,-16.113,-23.926,-76.660
1628114550.893,-54.199,-36.133,-32.227,-33.203
1628114550.897,68.359,-27.832,-30.273,25.391
1628114550.900,-10.742,-43.457,-31.250,-23.926
1628114550.904,-162.598,-37.109,-47.363,-95.703
1628114550.908,-109.375,-37.109,-40.527,-58.594
1628114550.912,66.895,-56.641,-11.719,33.691
1628114550.916,46.387,-49.805,-14.160,11.230
1628114550.911,-124.512,-31.250,-21.973,-89.844
1628114550.915,-116.699,-2.930,-14.648,-75.195
1628114550.919,39.062,-10.254,-15.625,17.090
1628114550.923,80.566,-19.043,-34.668,30.273
1628114550.927,-57.617,-25.879,-37.598,-51.270
1628114550.931,-130.859,-43.457,-21.973,-83.984
1628114550.935,-13.184,-42.969,-26.367,-24.414
1628114550.938,66.895,-43.457,-39.551,3.418
1628114550.942,-35.645,-36.621,-36.133,-60.059
1628114550.946,-141.602,-50.293,-27.832,-109.375
1628114550.950,-53.711,-61.035,-20.020,-51.270
1628114550.954,84.961,-43.945,-45.898,29.785
1628114550.949,20.020,-42.969,-56.152,-1.465
1628114550.953,-123.535,-51.758,-33.203,-79.102
1628114550.957,-79.102,-37.598,-27.344,-43.457
1628114550.961,67.383,-16.113,-29.785,45.410
1628114550.965,67.871,-18.555,-21.973,29.297
1628114550.969,-87.402,-27.344,-20.508,-70.801
1628114550.973,-133.301,-32.227,-32.227,-97.168
1628114550.976,12.695,-30.762,-30.762,-23.438
1628114550.980,87.891,-15.137,-34.180,13.672
1628114550.984,-48.340,-27.344,-49.316,-59.570
1628114550.988,-125.000,-36.621,-39.062,-90.820
1628114550.992,1.465,-24.414,-20.508,-9.766
1628114551.005,114.258,-25.879,-33.203,48.340
1628114551.009,11.230,-24.414,-43.945,-20.996
1628114551.013,-111.328,-25.879,-42.969,-86.914
1628114551.017,-42.480,-40.039,-51.270,-37.598
1628114551.021,81.055,-54.199,-49.316,30.273
1628114551.025,57.617,-32.715,-28.809,15.625
1628114551.029,-104.492,-12.695,-31.250,-76.660
1628114551.032,-133.301,-40.527,-43.457,-86.914
1628114551.036,22.949,-38.086,-32.227,-0.977
1628114551.040,67.871,-31.738,-19.043,12.207
1628114551.044,-80.078,-44.922,-24.414,-64.941
1628114551.048,-125.488,-38.574,-22.461,-67.383
1628114551.042,11.230,-38.574,-16.113,15.137
1628114551.046,75.684,-41.016,-27.832,33.203
1628114551.050,-39.551,-44.922,-28.320,-41.016
1628114551.054,-117.188,-31.738,-28.320,-75.195
1628114551.058,-12.695,-25.391,-42.480,-6.836
1628114551.062,104.492,-24.414,-31.738,65.918
1628114551.066,9.766,-20.996,-22.461,5.371
1628114551.069,-155.762,-54.199,-36.621,-95.215
1628114551.073,-106.934,-45.898,-37.109,-65.918
1628114551.077,38.574,-29.785,-31.250,5.371
1628114551.081,14.160,-37.109,-23.926,-13.672
1628114551.085,-108.887,-30.273,-25.879,-74.707
1628114551.098,-114.746,-37.598,-31.250,-69.824
1628114551.102,20.996,-35.645,-35.645,16.113
1628114551.106,82.031,-17.578,-45.898,39.551
1628114551.110,-73.730,-44.434,-51.758,-60.059
1628114551.114,-152.832,-67.383,-32.715,-96.191
1628114551.118,-15.137,-33.691,-6.836,-11.719
1628114551.122,78.125,-4.883,-15.625,40.527
1628114551.125,-47.363,-36.133,-31.250,-35.645
1628114551.129,-159.668,-52.734,-34.180,-93.750
1628114551.133,-62.012,-42.969,-31.250,-31.250
1628114551.137,68.359,-26.367,-20.508,37.598
1628114551.141,-5.371,-18.555,-16.113,-14.648
1628114551.135,-149.902,-38.086,-22.461,-93.262
1628114551.139,-108.398,-38.574,-37.598,-67.871
1628114551.143,44.922,-26.855,-27.832,18.555
1628114551.147,40.527,-16.602,-25.879,11.719
1628114551.151,-120.117,-29.297,-58.105,-87.891
1628114551.155,-145.996,-46.875,-57.617,-85.449
1628114551.159,22.949,-44.922,-44.922,6.348
1628114551.162,91.309,-36.621,-27.832,32.715
1628114551.166,-54.199,-18.066,-13.672,-49.316
1628114551.170,-150.879,-30.762,-34.180,-105.469
1628114551.174,-46.875,-61.523,-41.016,-46.875
1628114551.178,60.547,-50.293,-26.855,11.230
1628114551.192,-24.902,-25.391,-20.020,-32.715
1628114551.196,-140.137,-9.766,-18.066,-94.238
1628114551.200,-67.871,-22.461,-20.508,-56.152
1628114551.204,64.941,-32.715,-34.668,13.672
1628114551.208,22.949,-24.902,-41.992,-18.066
1628114551.212,-124.023,-23.438,-40.527,-95.703
1628114551.216,-113.281,-19.531,-37.109,-74.707
1628114551.219,39.551,-20.020,-15.137,15.137
1628114551.223,46.387,-28.320,-15.137,4.883
1628114551.227,-108.887,-56.641,-33.691,-89.844
1628114551.231,-153.809,-63.965,-34.668,-108.398
1628114551.235,-8.789,-39.551,-34.668,-18.066
1628114551.248,87.402,-32.227,-51.270,22.949
1628114551.252,-63.477,-41.992,-64.941,-70.312
1628114551.256,-160.645,-33.691,-43.457,-115.723
1628114551.260,-28.809,-13.184,-20.996,-31.738
1628114551.264,71.289,-17.578,-18.066,14.648
1628114551.268,-12.207,-23.926,-32.715,-45.898
1628114551.272,-133.301,-31.738,-37.109,-99.609
1628114551.275,-83.496,-41.992,-24.902,-62.988
1628114551.279,61.035,-12.695,-21.973,8.301
1628114551.283,20.020,-12.207,-31.738,-23.438
1628114551.287,-126.465,-32.715,-36.621,-93.750
1628114551.291,-97.168,-33.691,-27.832,-62.988
1628114551.287,47.363,-36.133,-27.344,14.648
1628114551.291,56.152,-47.852,-45.898,6.836
1628114551.295,-90.820,-47.363,-46.387,-72.266
1628114551.299,-143.555,-17.578,-52.246,-89.844
1628114551.303,-5.859,-18.066,-55.176,-16.113
1628114551.307,89.844,-29.297,-33.203,34.180
1628114551.311,-27.832,-27.832,-25.879,-27.832
1628114551.314,-135.254,-20.996,-25.879,-79.590
1628114551.318,-34.668,-21.484,-18.066,-26.367
1628114551.322,82.520,-24.414,-6.836,33.691
1628114551.326,-11.230,-39.551,-18.066,-19.531
1628114551.330,-163.086,-70.801,-38.574,-101.074
1628114551.323,-99.609,-52.734,-34.180,-55.664
1628114551.327,46.875,-23.438,-25.391,18.555
1628114551.331,17.090,-20.020,-27.344,-14.648
1628114551.335,-125.488,-33.691,-31.250,-84.961
1628114551.339,-140.625,-54.688,-37.598,-76.172
1628114551.343,7.812,-37.598,-39.551,-0.977
1628114551.347,52.734,-24.902,-38.574,5.859
1628114551.350,-73.242,-19.043,-20.508,-67.871
1628114551.354,-123.047,-7.324,-5.371,-77.637
1628114551.358,-6.348,-22.949,-16.602,-11.719
1628114551.362,78.613,-27.832,-20.508,17.090
1628114551.366,-37.598,-36.133,-22.949,-49.805
1628114551.379,-149.414,-52.246,-27.832,-101.074
1628114551.383,-74.707,-38.086,-57.617,-58.105
1628114551.387,53.711,-24.902,-65.430,6.348
1628114551.391,0.000,-41.016,-45.410,-30.762
1628114551.395,-136.230,-50.293,-29.297,-100.098
1628114551.399,-90.820,-44.922,-12.207,-62.988
1628114551.403,45.898,-33.203,-28.320,10.254
1628114551.406,35.156,-30.762,-27.344,-0.488
1628114551.410,-110.352,-33.691,-15.625,-72.266
1628114551.414,-139.648,-28.320,-27.832,-83.984
1628114551.418,4.883,-30.273,-30.273,-13.672
1628114551.422,73.730,-22.461,-29.297,20.996
1628114551.418,-56.152,-36.133,-48.340,-47.363
1628114551.422,-145.996,-47.852,-64.453,-97.168
1628114551.426,-25.391,-33.203,-40.527,-23.926
1628114551.430,75.684,-22.949,-12.695,29.785
1628114551.434,-32.715,-35.156,-17.090,-44.922
1628114551.438,-132.324,-28.809,-16.602,-95.703
1628114551.442,-48.340,-15.625,-7.324,-34.180
1628114551.445,72.754,-24.902,-15.137,28.320
1628114551.449,14.648,-12.695,-33.691,-17.578
1628114551.453,-136.230,-22.949,-43.457,-92.773
1628114551.457,-112.793,-37.109,-45.898,-63.965
1628114551.461,37.598,-35.645,-30.273,16.113
1628114551.477,51.758,-44.434,-11.230,7.324
1628114551.481,-76.660,-36.133,-5.859,-60.059
1628114551.485,-115.234,-29.297,-14.160,-71.289
1628114551.489,0.000,-27.832,-16.602,-2.930
1628114551.493,66.895,-38.574,-18.066,24.902
1628114551.497,-45.410,-37.598,-9.277,-42.480
1628114551.501,-139.160,1.465,-5.859,-78.125
1628114551.504,-43.945,-7.324,-32.227,-22.461
1628114551.508,67.871,-41.992,-47.363,29.297
1628114551.512,-14.160,-60.547,-43.945,-24.414
1628114551.516,-140.137,-55.176,-47.852,-93.262
1628114551.520,-70.801,-20.996,-24.414,-40.527
1628114551.511,73.730,-30.762,-1.465,43.457
1628114551.515,29.297,-40.527,-11.230,11.719
1628114551.519,-111.816,-23.926,-18.066,-73.730
1628114551.523,-104.492,-22.461,-26.367,-66.895
1628114551.527,49.316,-30.762,-8.789,18.555
1628114551.531,85.449,-32.227,0.000,30.762
1628114551.535,-33.691,-24.414,-16.113,-36.133
1628114551.538,-114.258,-33.691,-42.969,-75.684
1628114551.542,-33.691,-34.180,-59.570,-38.086
1628114551.546,58.594,-29.785,-49.805,2.441
1628114551.550,-45.898,-44.434,-40.039,-50.293
1628114551.554,-145.996,-47.363,-47.363,-96.680
1628114551.567,-40.527,-28.809,-41.992,-37.109
1628114551.571,84.473,-4.883,-12.695,32.227
1628114551.575,9.766,-10.742,-16.602,-20.020
1628114551.579,-123.535,-23.438,-20.996,-85.449
1628114551.583,-83.984,-30.273,-5.371,-50.293
1628114551.587,56.152,-42.480,-18.066,23.438
1628114551.591,44.922,-22.949,-23.926,16.113
1628114551.594,-99.121,-18.066,-21.973,-62.500
1628114551.598,-117.188,-28.320,-25.391,-61.523
1628114551.602,13.672,-31.738,-32.715,14.648
1628114551.606,59.082,-59.570,-41.016,19.043
1628114551.610,-72.754,-63.965,-32.715,-59.082
1628114551.605,-127.441,-28.809,-32.227,-70.312
1628114551.609,-0.977,-18.066,-37.598,12.207
1628114551.613,77.637,-35.645,-41.504,34.668
1628114551.617,-40.527,-37.109,-41.992,-45.898
1628114551.621,-131.836,-27.832,-25.879,-82.520
1628114551.625,-24.902,-2.930,-22.949,-18.066
1628114551.629,101.562,5.859,-21.484,46.387
1628114551.632,31.250,-20.996,-16.602,3.418
1628114551.636,-121.094,-16.113,-26.367,-77.148
1628114551.640,-99.121,-19.043,-39.551,-58.594
1628114551.644,33.691,-71.777,-34.668,8.301
1628114551.648,34.180,-75.684,-18.066,8.301
1628114551.662,-98.633,-30.273,-31.738,-52.734
1628114551.666,-130.859,-27.344,-45.410,-57.617
1628114551.670,14.648,-41.016,-35.645,17.090
1628114551.674,77.637,-26.855,-34.668,30.273
1628114551.678,-58.594,-35.645,-28.809,-50.293
1628114551.682,-136.230,-40.039,-25.391,-82.520
1628114551.686,-28.809,-16.113,-29.785,-16.113
1628114551.689,82.031,-21.973,-26.367,41.016
1628114551.693,-2.930,-34.180,-16.602,-11.230
1628114551.697,-125.488,-35.645,-14.648,-68.359
1628114551.701,-74.707,-41.504,-36.621,-38.574
1628114551.705,56.641,-41.016,-41.016,18.066
1628114551.701,26.855,-46.387,-29.785,-6.348
1628114551.705,-124.512,-44.922,-43.457,-88.867
1628114551.709,-112.305,-34.668,-35.156,-69.336
1628114551.713,34.668,-14.160,-27.832,13.184
1628114551.717,43.457,-6.836,-34.668,8.789
1628114551.721,-88.379,-23.926,-33.691,-59.570
1628114551.725,-117.188,-37.598,-34.668,-73.242
1628114551.728,4.395,-58.105,-33.691,-10.742
1628114551.732,69.336,-24.902,-54.199,10.254
1628114551.736,-52.734,-9.277,-66.895,-56.152
1628114551.740,-142.090,-39.551,-33.691,-99.609
1628114551.744,-36.621,-24.902,-11.719,-41.016
1628114551.754,74.219,-11.719,-23.926,17.578
1628114551.758,-8.789,-22.949,-32.227,-35.645
1628114551.762,-130.859,-35.645,-33.691,-96.191
1628114551.766,-91.797,-25.391,-30.762,-69.824
1628114551.770,44.434,-17.090,-11.230,5.371
1628114551.774,24.902,-33.691,-18.066,-11.230
1628114551.778,-127.930,-12.207,-47.363,-93.262
1628114551.781,-125.488,-32.227,-51.758,-85.938
1628114551.785,4.883,-57.617,-52.734,-17.090
1628114551.789,38.086,-51.270,-50.781,-9.766
1628114551.793,-80.566,-48.828,-49.805,-80.078
1628114551.797,-145.508,-26.367,-48.340,-102.051
1628114551.792,-7.324,-34.180,-29.785,-17.090
1628114551.796,96.680,-46.875,-11.230,33.691
1628114551.800,-30.273,-36.621,-18.066,-48.828
1628114551.804,-143.066,-15.625,-46.387,-108.887
1628114551.808,-48.828,-23.926,-51.758,-45.898
1628114551.812,79.590,-47.363,-18.066,24.414
1628114551.816,1.465,-40.039,-23.926,-27.344
1628114551.819,-134.766,-36.133,-34.180,-93.262
1628114551.823,-98.633,-9.277,-34.668,-63.477
1628114551.827,25.879,2.441,-46.875,-4.395
1628114551.831,39.551,-18.555,-26.367,-0.488
1628114551.835,-95.215,-33.203,-21.973,-80.078
1628114551.848,-118.652,-63.477,-33.691,-87.891
1628114551.852,37.109,-37.109,-21.484,16.113
1628114551.856,92.773,-17.090,-12.207,47.363
1628114551.860,-44.922,-36.133,-17.578,-39.551
1628114551.864,-128.906,-43.457,-29.297,-85.938
1628114551.868,-19.531,-26.855,-39.062,-23.438
1628114551.872,84.961,-26.855,-30.273,28.809
1628114551.875,-34.668,-64.453,-45.410,-40.039
1628114551.879,-150.879,-50.781,-67.871,-95.215
1628114551.883,-52.246,-20.020,-40.527,-25.391
1628114551.887,75.195,-11.230,-18.066,45.410
1628114551.891,22.949,-1.465,-24.902,0.488
1628114551.887,-112.305,-29.785,-20.020,-71.289
1628114551.891,-77.637,-53.711,0.000,-36.621
1628114551.895,57.129,-61.523,-2.930,38.574
1628114551.899,51.758,-43.457,-27.832,23.926
1628114551.903,-88.379,-14.160,-27.344,-57.129
1628114551.907,-117.676,-30.273,-13.184,-62.500
1628114551.911,15.137,-46.387,-21.484,4.883
1628114551.914,76.172,-37.109,-35.156,32.227
1628114551.918,-41.992,-28.809,-38.574,-33.203
1628114551.922,-137.207,-32.715,-24.902,-81.543
1628114551.926,-31.738,-40.039,-20.508,-19.531
1628114551.930,80.566,-35.156,-29.785,34.180
1628114551.943,-4.883,-28.320,-24.414,-15.137
1628114551.947,-118.652,-25.391,-23.926,-66.895
1628114551.951,-47.363,-24.414,-12.207,-21.973
1628114551.955,87.891,-35.645,-1.953,50.293
1628114551.959,23.926,-45.898,-25.879,3.906
1628114551.963,-134.766,-37.598,-40.039,-87.402
1628114551.967,-124.512,-30.273,-34.180,-72.754
1628114551.970,27.832,-27.832,-33.203,4.883
1628114551.974,54.199,-36.621,-45.410,1.953
1628114551.978,-101.562,-39.551,-49.316,-83.984
1628114551.982,-138.184,-35.645,-47.852,-88.379
1628114551.986,15.625,-38.086,-30.762,0.000
1628114551.979,109.863,-20.996,-0.488,45.898
1628114551.983,-35.645,-14.160,-9.277,-36.133
1628114551.987,-163.086,-33.203,-35.156,-109.863
1628114551.991,-36.133,-22.949,-29.297,-38.574
1628114551.995,79.590,-19.531,-23.438,27.832
1628114551.999,-8.301,-33.691,-31.738,-29.297
1628114552.003,-143.555,-47.363,-37.109,-103.516
1628114552.006,-109.863,-46.387,-53.711,-81.055
1628114552.010,32.227,-45.410,-73.242,-15.625
1628114552.014,26.367,-58.105,-70.312,-28.320
1628114552.018,-105.469,-41.992,-51.270,-91.309
1628114552.022,-104.492,-36.133,-30.762,-76.660
1628114552.054,24.902,-37.109,-13.184,3.906
1628114552.058,44.434,-27.344,-18.066,1.465
1628114552.062,-72.754,-15.137,-27.832,-79.590
1628114552.066,-135.254,-32.227,-25.879,-102.051
1628114552.070,-12.207,-29.297,-15.625,-23.438
1628114552.074,85.938,-13.672,-18.066,28.809
1628114552.078,-28.809,-20.508,-41.016,-46.387
1628114552.081,-146.484,-39.551,-50.293,-112.305
1628114552.085,-60.547,-30.762,-41.504,-49.805
1628114552.089,67.871,-9.766,-29.785,16.602
1628114552.093,18.066,-20.508,-32.227,-16.602
1628114552.097,-125.488,-57.129,-38.086,-91.309
1628114552.074,-104.004,-69.824,-14.160,-67.383
1628114552.078,32.715,-34.668,-14.648,13.184
1628114552.082,21.973,-12.207,-24.902,-4.395
1628114552.086,-119.629,-15.625,-30.273,-86.426
1628114552.090,-130.859,-21.973,-30.273,-83.496
1628114552.094,16.113,-34.668,-20.508,0.000
1628114552.098,72.266,-30.273,-38.086,25.391
1628114552.101,-69.336,-38.574,-56.641,-58.105
1628114552.105,-147.461,-44.434,-34.668,-89.844
1628114552.109,-18.555,-25.879,-4.395,-2.930
1628114552.113,73.730,-39.551,-15.625,36.621
1628114552.117,-26.367,-47.363,-26.367,-29.785
1628114552.167,-140.625,-41.016,-12.207,-74.219
1628114552.171,-73.730,-38.574,-12.695,-30.273
1628114552.175,54.688,-35.156,-24.414,20.996
1628114552.179,8.789,-46.875,-38.574,-6.348
1628114552.183,-127.441,-43.457,-50.293,-78.613
1628114552.187,-111.816,-19.531,-38.086,-78.613
1628114552.191,31.250,-8.301,-31.250,3.418
1628114552.194,41.992,-26.367,-34.668,2.441
1628114552.198,-118.652,-44.922,-40.039,-97.656
1628114552.202,-147.949,-30.762,-25.879,-100.586
1628114552.206,-6.348,-17.090,-41.016,-16.113
1628114552.210,57.617,-22.461,-72.266,6.836
1628114552.189,-58.105,-28.809,-55.176,-68.359
1628114552.193,-146.484,-21.973,-33.691,-111.816
1628114552.197,-51.270,-26.367,-37.598,-52.246
1628114552.201,58.105,-48.828,-50.781,2.930
1628114552.205,-7.812,-40.527,-41.504,-37.598
1628114552.209,-123.047,-15.137,-29.297,-95.703
1628114552.213,-70.801,-15.137,-35.645,-63.477
1628114552.216,51.270,-16.113,-35.645,-3.418
1628114552.220,26.855,-30.273,-34.668,-20.996
1628114552.224,-115.234,-44.922,-50.293,-86.426
1628114552.228,-111.816,-39.062,-39.062,-77.148
1628114552.232,42.969,-44.434,-12.207,1.465
1628114552.242,67.871,-46.875,-24.902,12.695
1628114552.246,-81.543,-37.598,-44.922,-74.219
1628114552.250,-126.953,-4.883,-36.621,-90.820
1628114552.254,1.953,-1.953,-47.852,-14.160
1628114552.258,76.660,-16.602,-47.363,22.461
1628114552.262,-37.109,-15.625,-25.391,-32.715
1628114552.266,-132.324,-32.227,-42.969,-91.309
1628114552.269,-37.598,-36.133,-45.898,-45.410
1628114552.273,74.707,-17.090,-35.645,26.367
1628114552.277,1.953,-23.926,-35.645,-18.555
1628114552.281,-118.164,-23.926,-30.273,-82.520
1628114552.285,-62.988,-2.441,-20.508,-40.039
1628114552.262,74.707,-3.418,-13.672,36.621
1628114552.266,48.340,-14.160,-27.344,19.043
1628114552.270,-103.516,-32.227,-33.691,-64.941
1628114552.274,-125.000,-51.270,-33.691,-70.801
1628114552.278,24.414,-42.969,-24.902,14.160
1628114552.282,90.332,-24.902,-10.254,34.180
1628114552.286,-56.152,-24.414,-11.719,-57.617
1628114552.289,-141.602,-41.504,-19.043,-91.309
1628114552.293,-21.973,-17.090,-28.320,-23.438
1628114552.297,57.617,-4.395,-37.109,13.672
1628114552.301,-37.109,-32.227,-31.250,-45.410
1628114552.305,-137.207,-34.668,-28.809,-93.750
1628114552.317,-73.242,-62.500,-45.898,-49.316
1628114552.321,55.664,-34.180,-51.270,17.090
1628114552.325,8.789,-1.953,-40.527,-10.742
1628114552.329,-144.043,-25.391,-33.691,-86.914
1628114552.333,-116.211,-21.973,-21.973,-62.500
1628114552.337,41.992,-19.043,-5.859,20.996
1628114552.341,63.477,0.488,-7.324,20.996
1628114552.344,-91.309,-25.879,-29.785,-66.895
1628114552.348,-137.695,-46.387,-34.668,-92.285
1628114552.352,-1.465,-43.945,-18.555,-5.371
1628114552.356,70.312,-31.738,-11.719,34.668
1628114552.360,-41.504,-3.418,-30.762,-41.992
1628114552.373,-126.465,-33.691,-26.367,-76.660
1628114552.377,-17.578,-43.457,-7.812,1.953
1628114552.381,85.449,-34.180,-13.184,54.199
1628114552.385,-25.391,-12.695,-32.715,-20.508
1628114552.389,-150.879,-2.930,-38.574,-83.008
1628114552.393,-69.336,-28.320,-25.391,-31.250
1628114552.397,68.848,-21.973,-18.066,35.156
1628114552.400,22.461,-44.434,-24.902,2.441
1628114552.404,-122.070,-23.438,-35.645,-76.172
1628114552.408,-113.770,-17.090,-36.621,-70.312
1628114552.412,32.227,-47.852,-21.484,10.254
1628114552.416,66.895,-16.113,-8.301,26.855
1628114552.429,-76.172,-27.832,-16.602,-63.965
1628114552.433,-135.254,-30.762,-23.926,-92.773
1628114552.437,-2.930,-22.949,-29.297,-10.254
1628114552.441,73.730,-26.367,-34.180,28.320
1628114552.445,-39.551,-33.691,-21.484,-38.574
1628114552.449,-136.230,-61.035,-28.809,-87.402
1628114552.453,-33.203,-49.805,-41.504,-24.902
1628114552.456,81.055,-35.156,-33.691,34.668
1628114552.460,-3.906,-47.852,-35.645,-25.879
1628114552.464,-123.535,-45.410,-26.855,-83.496
1628114552.468,-75.195,-36.621,-22.461,-48.340
1628114552.472,42.480,-18.555,-40.039,9.766
1628114552.449,23.926,-32.227,-52.734,-1.465
1628114552.453,-116.699,-45.410,-42.480,-79.590
1628114552.457,-119.141,-46.875,-22.461,-73.730
1628114552.461,29.297,-38.574,-22.949,0.000
1628114552.465,65.430,-8.789,-30.273,7.812
1628114552.469,-54.688,-15.137,-26.367,-57.129
1628114552.473,-114.258,-38.086,-27.344,-81.055
1628114552.476,-5.859,-42.969,-35.156,-20.996
1628114552.480,78.125,-37.109,-31.738,23.438
1628114552.484,-24.902,-28.809,-16.602,-36.621
1628114552.488,-138.672,-37.598,-15.625,-95.215
1628114552.492,-53.711,-56.641,-30.762,-41.992
1628114552.505,84.473,-40.527,-31.250,30.273
1628114552.509,20.020,-18.555,-31.250,-5.859
1628114552.513,-126.465,-27.344,-40.527,-90.820
1628114552.517,-85.938,-27.344,-25.879,-58.105
1628114552.521,55.664,-20.996,-18.555,29.785
1628114552.525,57.617,-27.832,-25.391,19.043
1628114552.529,-77.148,-40.039,-31.738,-48.828
1628114552.532,-110.352,-50.781,-29.785,-57.129
1628114552.536,9.766,-46.875,-28.809,2.930
1628114552.540,53.223,-47.363,-40.039,13.184
1628114552.544,-66.406,-41.504,-39.062,-51.758
1628114552.548,-142.578,-32.227,-31.738,-85.938
1628114552.542,-19.043,-37.598,-23.926,-18.555
1628114552.546,97.168,-35.156,-7.324,39.551
1628114552.550,-12.695,-23.438,-17.090,-29.785
1628114552.554,-137.695,-31.738,-34.180,-99.609
1628114552.558,-61.035,-33.691,-20.996,-46.875
1628114552.562,68.359,-20.996,-14.648,31.250
1628114552.566,33.203,-25.391,-27.344,2.441
1628114552.569,-117.188,-27.344,-29.297,-78.613
1628114552.573,-116.699,-42.480,-33.691,-70.312
1628114552.577,24.902,-42.480,-28.320,2.441
1628114552.581,36.133,-26.855,-17.578,-0.977
1628114552.585,-109.863,-38.086,-34.180,-85.938
1628114552.598,-149.414,-46.875,-47.363,-107.910
1628114552.602,-2.930,-33.691,-30.273,-22.461
1628114552.606,76.172,-27.344,-28.809,17.090
1628114552.610,-59.570,-35.156,-42.969,-56.152
1628114552.614,-141.602,-29.785,-31.738,-92.773
1628114552.618,-15.137,-21.973,-22.949,-16.602
1628114552.622,99.609,-13.672,-32.715,46.875
1628114552.625,16.113,-19.043,-41.016,-8.301
1628114552.629,-125.000,-44.922,-33.691,-81.055
1628114552.633,-71.289,-48.340,-22.949,-52.246
1628114552.637,62.988,-38.574,-36.133,6.348
1628114552.641,26.855,-20.996,-35.156,-15.137
1628114552.637,-109.375,-15.137,-17.578,-83.008
1628114552.641,-116.699,-34.180,-48.340,-82.031
1628114552.645,12.695,-49.316,-59.570,-8.789
1628114552.649,65.918,-44.434,-15.625,28.320
1628114552.653,-56.152,-21.484,-18.555,-51.270
1628114552.657,-131.348,-15.137,-38.086,-99.609
1628114552.661,-17.578,-18.066,-30.762,-27.832
1628114552.664,75.195,-23.926,-14.648,16.113
1628114552.668,-37.598,-46.875,-21.973,-50.781
1628114552.672,-160.645,-49.805,-40.039,-109.375
1628114552.676,-72.754,-28.809,-37.109,-56.641
1628114552.680,62.500,-20.020,-26.855,11.230
1628114552.693,-14.160,-32.715,-41.016,-33.203
1628114552.697,-144.043,-39.062,-39.551,-94.238
1628114552.701,-84.473,-26.367,-36.621,-53.223
1628114552.705,64.453,-8.789,-49.805,29.297
1628114552.709,52.246,-15.625,-40.039,20.508
1628114552.713,-98.145,-33.203,-28.320,-69.336
1628114552.717,-123.047,-31.738,-24.902,-82.031
1628114552.720,15.137,-26.367,-13.184,-2.441
1628114552.724,65.918,-24.902,-23.926,13.184
1628114552.728,-76.172,-51.758,-30.273,-64.941
1628114552.732,-166.992,-38.574,-22.461,-110.840
1628114552.736,-77.637,7.812,-22.461,-62.500
1628114552.729,24.414,-13.184,-19.043,-8.789
1628114552.733,-19.531,-42.969,-20.508,-48.340
1628114552.737,-115.234,-53.711,-25.391,-94.238
1628114552.741,-69.336,-39.062,-33.691,-55.664
1628114552.745,57.129,-21.484,-36.133,11.230
1628114552.749,54.199,-12.207,-35.156,13.184
1628114552.753,-71.777,-19.531,-35.156,-47.363
1628114552.756,-84.961,-48.828,-36.621,-54.199
1628114552.760,52.246,-15.137,-23.926,20.996
1628114552.764,67.871,2.930,-12.207,20.508
1628114552.768,-77.637,-43.457,-29.785,-55.176
1628114552.772,-130.371,-62.988,-37.598,-75.684
1628114552.785,-10.742,-38.574,-19.531,-9.277
1628114552.789,70.801,-16.113,-33.203,20.996
1628114552.793,-37.598,-41.504,-45.898,-56.641
1628114552.797,-128.906,-50.293,-25.879,-96.680
1628114552.801,-16.113,-22.949,-28.320,-19.531
1628114552.805,96.680,-13.184,-32.227,38.574
1628114552.809,14.160,-17.578,-21.973,-14.648
1628114552.812,-116.211,-37.109,-30.273,-83.008
1628114552.816,-77.148,-46.387,-46.387,-50.781
1628114552.820,48.340,-49.805,-37.109,19.043
1628114552.824,17.090,-48.828,-26.855,-8.789
1628114552.828,-110.840,-22.949,-48.340,-76.660
1628114552.823,-96.680,-14.648,-51.270,-57.129
1628114552.827,31.738,-34.180,-27.832,10.254
1628114552.831,52.734,-38.086,-21.484,18.066
1628114552.835,-64.453,-35.156,-15.625,-43.457
1628114552.839,-114.746,-37.598,-29.297,-70.801
1628114552.843,-11.230,-34.668,-52.246,-10.742
1628114552.847,69.336,-23.926,-40.527,22.461
1628114552.850,-33.203,-26.367,-17.578,-40.527
1628114552.854,-136.230,-38.574,-22.461,-90.820
1628114552.858,-59.082,-35.156,-40.039,-41.992
1628114552.862,52.246,-31.250,-42.480,13.672
1628114552.866,-7.324,-28.809,-49.316,-28.320
1628114552.880,-119.141,-25.391,-48.828,-84.961
1628114552.884,-73.730,-18.066,-24.414,-47.852
1628114552.888,54.688,-19.043,-2.441,17.578
1628114552.892,50.293,-50.293,-5.371,0.977
1628114552.896,-78.125,-65.918,-26.367,-63.965
1628114552.900,-98.145,-43.457,-45.898,-73.242
1628114552.904,30.762,-26.367,-44.434,-3.418
1628114552.907,77.148,-30.762,-20.996,20.020
1628114552.911,-60.547,-26.367,-28.320,-63.477
1628114552.915,-131.348,-14.648,-36.133,-95.215
1628114552.919,-8.789,-17.578,-40.527,-22.461
1628114552.923,74.219,-22.949,-42.480,16.602
1628114552.919,-30.762,-31.250,-38.086,-44.434
1628114552.923,-126.953,-39.062,-37.598,-85.938
1628114552.927,-34.668,-22.949,-26.855,-17.578
1628114552.931,86.914,-42.969,-26.367,34.668
1628114552.935,7.324,-68.848,-35.645,-22.949
1628114552.939,-118.164,-37.598,-45.898,-73.730
1628114552.943,-73.730,-32.715,-53.223,-49.316
1628114552.946,56.152,-43.457,-35.156,7.324
1628114552.950,31.738,-38.574,-20.020,-7.324
1628114552.954,-118.652,-29.297,-27.832,-92.773
1628114552.958,-116.699,-35.156,-16.113,-78.613
1628114552.962,27.832,-41.992,-10.254,5.371
1628114552.973,58.105,-33.203,-28.809,10.742
1628114552.977,-59.570,-10.742,-22.949,-48.340
1628114552.981,-114.746,-14.648,-28.320,-63.477
1628114552.985,-20.996,-35.645,-46.387,-4.395
1628114552.989,71.289,-44.922,-35.156,35.645
1628114552.993,-21.484,-47.852,-37.109,-27.344
1628114552.997,-129.395,-22.949,-41.992,-78.613
1628114553.000,-43.945,-8.301,-24.902,-23.438
1628114553.004,71.777,-29.785,-16.113,34.180
1628114553.008,-5.859,-54.688,-24.902,-14.648
1628114553.012,-132.324,-44.922,-35.645,-84.473
1628114553.016,-91.797,-27.832,-29.297,-61.035
1628114553.011,52.734,-20.996,-9.766,21.484
1628114553.015,62.012,-20.020,-12.207,20.996
1628114553.019,-86.914,-28.809,-13.184,-63.965
1628114553.023,-127.441,-28.320,-26.855,-79.102
1628114553.027,2.441,-23.438,-45.898,0.000
1628114553.031,75.195,-21.484,-24.414,35.645
1628114553.035,-50.293,-13.672,-14.160,-51.270
1628114553.038,-144.043,-17.090,-17.090,-97.168
1628114553.042,-45.898,-33.691,-21.484,-36.133
1628114553.046,57.129,-41.016,-33.691,12.695
1628114553.050,-14.160,-26.855,-30.273,-29.297
1628114553.054,-121.582,-28.320,-27.832,-77.637
1628114553.067,-51.270,-48.828,-17.578,-27.344
1628114553.071,70.312,-40.527,-22.949,36.621
1628114553.075,15.625,-38.574,-36.133,-9.277
1628114553.079,-130.371,-41.992,-53.223,-87.891
1628114553.083,-115.234,-23.438,-68.359,-72.266
1628114553.087,44.434,-5.859,-20.996,17.090
1628114553.091,72.266,11.719,0.977,37.109
1628114553.094,-82.520,-20.020,-21.973,-52.246
1628114553.098,-139.648,-44.922,-27.832,-84.961
1628114553.102,-8.789,-38.086,-18.555,-12.695
1628114553.106,72.266,-18.555,-16.113,30.273
1628114553.110,-45.898,-2.441,-21.973,-36.133
1628114553.125,-145.996,-34.180,-30.762,-91.797
1628114553.129,-38.574,-35.645,-33.203,-26.367
1628114553.133,92.773,-16.113,-18.066,44.434
1628114553.137,17.090,-26.367,-30.273,-6.836
1628114553.141,-133.789,-58.105,-52.734,-89.844
1628114553.145,-88.867,-58.594,-38.574,-65.918
1628114553.149,58.594,-28.320,-31.738,10.742
1628114553.152,46.875,-16.602,-24.902,2.441
1628114553.156,-95.215,-21.484,-24.414,-73.730
1628114553.160,-126.465,-37.598,-38.086,-93.750
1628114553.164,13.184,-32.715,-20.020,-8.301
1628114553.168,68.848,-34.180,-14.160,29.297
1628114553.162,-68.359,-46.875,-20.508,-56.641
1628114553.166,-149.902,-47.852,-31.738,-100.098
1628114553.170,-30.762,-45.410,-37.109,-30.762
1628114553.174,70.312,-51.270,-28.809,25.879
1628114553.178,-20.996,-55.664,-41.992,-21.973
1628114553.182,-130.371,-39.062,-57.617,-82.031
1628114553.186,-42.969,-17.578,-35.645,-29.785
1628114553.189,72.754,-26.367,-18.066,21.484
1628114553.193,-1.465,-45.898,-14.648,-29.297
1628114553.197,-126.465,-37.598,-17.578,-91.309
1628114553.201,-78.125,-20.508,-22.949,-55.176
1628114553.205,51.270,-26.855,-29.785,16.602
1628114553.198,42.480,-38.574,-29.785,0.000
1628114553.202,-96.680,-32.227,-25.391,-64.453
1628114553.206,-122.559,-21.484,-28.809,-65.430
1628114553.210,9.766,-32.227,-35.156,-5.859
1628114553.214,58.594,-41.016,-40.039,4.395
1628114553.218,-63.477,-41.504,-35.645,-64.453
1628114553.222,-133.789,-51.758,-40.039,-88.867
1628114553.225,3.418,-45.898,-23.438,-0.977
1628114553.229,110.840,-13.184,-9.277,61.035
1628114553.233,-7.324,-6.348,-19.043,-13.672
1628114553.237,-139.648,-35.645,-29.297,-84.473
1628114553.241,-61.035,-44.434,-36.133,-36.621
1628114553.255,83.008,-40.039,-25.879,39.062
1628114553.259,11.719,-43.457,-40.527,-13.184
1628114553.263,-136.719,-48.828,-61.035,-97.656
1628114553.267,-101.074,-41.016,-41.992,-63.965
1628114553.271,32.227,-49.805,-26.855,7.324
1628114553.275,46.875,-53.223,-32.715,5.371
1628114553.279,-87.891,-53.711,-37.109,-59.082
1628114553.282,-128.906,-46.875,-28.320,-74.707
1628114553.286,-3.418,-37.109,-16.113,-14.648
1628114553.290,59.082,-29.785,-4.395,15.137
1628114553.294,-47.852,-23.438,-4.883,-37.598
1628114553.298,-136.230,-44.434,-9.766,-74.219
1628114553.292,-44.922,-57.617,-21.973,-22.461
1628114553.296,58.594,-43.457,-47.363,20.996
1628114553.300,-37.598,-31.250,-52.734,-40.039
1628114553.304,-154.297,-35.156,-30.762,-97.656
1628114553.308,-79.590,-41.016,-17.090,-50.293
1628114553.312,50.293,-44.922,-21.973,13.184
1628114553.316,21.484,-55.176,-41.504,-14.648
1628114553.319,-124.512,-63.965,-43.457,-90.332
1628114553.323,-125.488,-37.109,-29.297,-73.242
1628114553.327,36.133,-2.441,-18.555,14.160
1628114553.331,69.824,-9.766,-15.137,21.973
1628114553.335,-70.801,-27.344,-27.344,-56.641
1628114553.348,-104.980,-10.742,-17.578,-58.594
1628114553.352,22.949,-6.348,-6.836,17.090
1628114553.356,67.871,-38.574,-23.438,24.414
1628114553.360,-55.664,-43.457,-25.879,-47.852
1628114553.364,-147.949,-38.574,-23.926,-96.191
1628114553.368,-42.969,-28.809,-27.832,-35.645
1628114553.372,79.102,-28.809,-36.133,29.785
1628114553.375,11.230,-29.785,-31.250,-19.043
1628114553.379,-113.770,-21.973,-32.715,-78.125
1628114553.383,-83.984,-39.062,-43.945,-48.828
1628114553.387,57.129,-42.480,-29.785,19.531
1628114553.391,35.645,-39.551,-24.902,-9.277
1628114553.405,-118.164,-39.551,-35.645,-86.914
1628114553.409,-123.047,-38.086,-35.645,-75.195
1628114553.413,26.367,-36.621,-29.785,5.859
1628114553.417,79.590,-27.832,-33.203,25.391
1628114553.421,-57.617,-38.086,-26.367,-47.852
1628114553.425,-126.953,-44.922,-11.719,-74.707
1628114553.429,2.930,-24.414,-12.695,-2.441
1628114553.432,92.773,-7.324,-21.973,40.527
1628114553.436,-36.621,-28.809,-45.410,-39.551
1628114553.440,-155.273,-26.367,-57.129,-102.051
1628114553.444,-53.711,-11.719,-34.668,-38.574
1628114553.448,71.289,-31.250,-27.832,26.855
1628114553.461,16.113,-30.762,-33.691,-13.672
1628114553.465,-107.422,-29.785,-24.414,-76.172
1628114553.469,-83.984,-34.180,-25.391,-57.129
1628114553.473,47.852,-20.996,-32.715,15.137
1628114553.477,57.129,-11.719,-33.691,5.371
1628114553.481,-72.266,-11.230,-10.254,-52.734
1628114553.485,-97.656,-17.090,3.418,-40.527
1628114553.488,16.602,-27.344,-8.789,16.602
1628114553.492,59.082,-28.320,-21.973,20.996
1628114553.496,-85.938,-40.039,-34.668,-60.547
1628114553.500,-152.832,-43.945,-32.715,-86.426
1628114553.504,-23.438,-30.273,-26.367,-15.625
1628114553.480,73.242,-29.785,-34.180,28.809
1628114553.484,-19.043,-26.855,-39.551,-24.902
1628114553.488,-146.484,-35.156,-37.598,-81.543
1628114553.492,-69.824,-36.621,-29.297,-36.621
1628114553.496,79.102,-18.066,-24.902,30.273
1628114553.500,23.438,-28.320,-32.715,-14.648
1628114553.504,-145.508,-50.781,-41.016,-109.863
1628114553.507,-120.117,-38.574,-33.203,-90.332
1628114553.511,33.203,-7.324,-35.156,-6.836
1628114553.515,34.180,1.465,-36.133,-11.719
1628114553.519,-106.934,-20.508,-31.250,-80.078
1628114553.523,-123.535,-24.414,-40.527,-79.590
1628114553.537,9.277,-20.508,-40.039,-10.254
1628114553.541,81.055,-21.484,-28.809,21.973
1628114553.545,-32.227,-36.133,-14.648,-44.434
1628114553.549,-133.789,-61.035,-13.184,-87.402
1628114553.553,-36.621,-49.805,-4.883,-21.973
1628114553.557,77.148,-9.766,-4.395,39.062
1628114553.561,-11.719,-0.977,-30.762,-20.020
1628114553.564,-157.715,-27.344,-41.016,-104.980
1628114553.568,-102.539,-37.109,-29.785,-60.059
1628114553.572,41.016,-26.855,-28.809,15.137
1628114553.576,7.812,-45.410,-44.434,-17.090
1628114553.580,-144.043,-69.824,-60.547,-97.656
1628114553.573,-126.465,-46.387,-40.039,-83.008
1628114553.577,36.133,-20.996,-17.090,-1.953
1628114553.581,65.430,-33.203,-15.137,12.207
1628114553.585,-97.656,-56.152,-24.414,-81.055
1628114553.589,-149.902,-34.668,-17.578,-104.980
1628114553.593,-2.930,-4.883,-10.742,-12.207
1628114553.597,70.801,-28.809,-27.344,23.438
1628114553.600,-42.969,-54.199,-39.062,-49.805
1628114553.604,-141.602,-33.203,-33.691,-98.633
1628114553.608,-33.691,4.395,-19.531,-25.879
1628114553.612,94.727,7.812,-35.645,41.504
1628114553.616,2.441,-20.508,-57.129,-25.391
1628114553.629,-136.719,-32.227,-42.480,-102.051
1628114553.633,-109.863,-56.641,-36.133,-80.078
1628114553.637,26.367,-63.965,-27.832,-1.953
1628114553.641,35.645,-45.410,-12.695,-0.977
1628114553.645,-105.957,-38.086,-15.137,-76.660
1628114553.649,-124.023,-28.320,-18.555,-81.543
1628114553.653,15.137,-30.273,-20.996,-7.324
1628114553.656,58.594,-26.855,-35.645,9.766
1628114553.660,-82.031,-15.625,-43.457,-68.359
1628114553.664,-134.766,-11.230,-30.273,-85.938
1628114553.668,-16.602,-21.484,-35.156,-19.531
1628114553.672,46.387,-34.180,-44.434,4.395
1628114553.668,-54.688,-36.621,-26.855,-54.199
1628114553.672,-145.020,-39.062,-13.672,-94.727
1628114553.676,-63.477,-41.992,-26.855,-43.945
1628114553.680,64.941,-50.293,-34.668,19.531
1628114553.684,21.484,-49.805,-33.691,-8.789
1628114553.688,-120.117,-39.551,-43.457,-76.660
1628114553.692,-94.727,-36.133,-47.852,-56.641
1628114553.695,52.246,-26.855,-39.062,21.484
1628114553.699,65.430,-37.598,-18.555,24.902
1628114553.703,-77.637,-47.852,-17.090,-56.641
1628114553.707,-123.535,-31.250,-27.832,-75.195
1628114553.711,-5.859,-21.484,-27.344,-9.277
1628114553.723,51.758,-20.996,-26.855,17.090
1628114553.727,-72.266,-35.645,-28.320,-65.430
1628114553.731,-154.785,-35.645,-43.457,-115.723
1628114553.735,-18.555,-7.324,-27.344,-27.344
1628114553.739,85.938,-7.812,-11.230,29.297
1628114553.743,-13.672,-25.391,-23.926,-23.926
1628114553.747,-134.277,-54.688,-35.156,-79.102
1628114553.750,-81.543,-64.453,-50.781,-48.340
1628114553.754,53.711,-39.062,-47.363,20.508
1628114553.758,42.480,-21.484,-23.438,2.441
1628114553.762,-111.328,-29.297,-27.832,-90.820
1628114553.766,-121.582,-48.828,-32.715,-83.984
1628114553.760,29.785,-29.297,-16.113,11.719
1628114553.764,51.270,-17.578,-19.531,16.113
1628114553.768,-96.680,-43.457,-38.086,-69.824
1628114553.772,-151.855,-53.223,-40.527,-90.332
1628114553.776,-3.418,-29.297,-23.926,-3.906
1628114553.780,85.938,-17.090,-18.555,37.109
1628114553.784,-41.504,-36.621,-32.715,-37.109
1628114553.787,-142.578,-40.039,-42.969,-87.891
1628114553.791,-46.387,-31.250,-40.527,-24.902
1628114553.795,91.797,-23.438,-20.508,48.340
1628114553.799,42.480,-4.883,-0.488,10.254
1628114553.803,-113.281,-12.695,-18.066,-78.613
1628114553.816,-83.496,-11.719,-35.645,-59.082
1628114553.820,67.383,-11.230,-21.973,20.508
1628114553.824,55.176,-21.484,-12.695,1.953
1628114553.828,-97.168,-27.344,-27.832,-82.520
1628114553.832,-124.512,-41.504,-57.617,-82.520
1628114553.836,23.438,-27.832,-44.434,3.418
1628114553.840,71.777,-9.766,-25.391,19.043
1628114553.843,-61.523,-26.855,-23.926,-53.223
1628114553.847,-109.375,-23.926,-9.277,-60.547
1628114553.851,14.648,-20.508,-3.906,16.113
1628114553.855,97.168,-70.312,-12.207,50.781
1628114553.859,-17.090,-69.824,-34.180,-24.902
1628114553.855,-148.926,-23.926,-53.223,-93.262
1628114553.859,-64.941,-11.719,-33.691,-34.668
1628114553.863,86.426,-13.672,-8.789,45.898
1628114553.867,21.484,-38.574,-9.766,-6.836
1628114553.871,-132.324,-47.363,-30.273,-94.238
1628114553.875,-103.516,-28.809,-42.969,-68.848
1628114553.879,68.359,-11.230,-12.695,27.344
1628114553.882,50.781,-27.344,-15.137,3.906
1628114553.886,-126.465,-72.266,-31.738,-100.098
1628114553.890,-125.000,-76.172,-19.531,-78.125
1628114553.894,16.602,-58.105,-24.902,2.441
1628114553.898,51.758,-45.410,-35.156,6.836
1628114553.910,-67.871,-26.367,-32.715,-62.500
1628114553.914,-129.395,-18.066,-25.879,-87.402
1628114553.918,-20.996,-7.324,-19.531,-24.414
1628114553.922,76.660,-11.719,-17.578,19.531
1628114553.926,-18.555,-15.137,-33.203,-39.062
1628114553.930,-144.043,-29.785,-36.133,-92.773
1628114553.934,-65.918,-75.195,-27.344,-26.855
1628114553.937,69.336,-45.898,-30.273,38.086
1628114553.941,10.742,-19.531,-26.367,-11.230
1628114553.945,-142.090,-38.086,-34.668,-90.332
1628114553.949,-117.676,-55.664,-58.105,-67.383
1628114553.953,25.391,-85.449,-56.641,9.766
1628114553.948,45.410,-55.664,-41.992,11.719
1628114553.952,-94.727,-30.273,-26.855,-59.082
1628114553.956,-136.230,-17.090,-22.949,-81.055
1628114553.960,1.953,-16.602,-41.504,-19.531
1628114553.964,71.777,-15.137,-44.922,14.648
1628114553.968,-48.828,9.277,-31.250,-46.387
1628114553.972,-143.555,-3.418,-35.645,-86.914
1628114553.975,-44.922,-28.320,-36.133,-29.297
1628114553.979,66.895,-57.617,-49.316,22.461
1628114553.983,-13.672,-62.988,-53.223,-28.809
1628114553.987,-128.906,-28.320,-21.484,-84.473
1628114553.991,-81.055,-21.484,-17.578,-58.594
1628114554.004,52.734,-28.809,-37.109,12.207
1628114554.008,22.461,-42.480,-55.664,-4.883
1628114554.012,-126.953,-39.551,-59.570,-92.285
1628114554.016,-108.887,-1.465,-27.344,-69.824
1628114554.020,36.621,3.906,-0.977,15.137
1628114554.024,45.898,-17.578,-11.719,6.348
1628114554.028,-96.191,-45.410,-23.926,-73.730
1628114554.031,-126.465,-40.039,-17.090,-80.078
1628114554.035,-6.836,-20.020,-20.996,-11.719
1628114554.039,58.105,-13.672,-28.809,15.137
1628114554.043,-39.062,-25.391,-18.555,-45.898
1628114554.047,-138.184,-59.082,-22.461,-101.074
1628114554.042,-49.316,-60.059,-39.551,-49.316
1628114554.046,68.359,-48.828,-53.711,15.625
1628114554.050,-10.742,-29.297,-43.457,-26.367
1628114554.054,-137.207,-17.578,-24.902,-87.402
1628114554.058,-102.539,-26.367,-40.039,-57.617
1628114554.062,53.711,-16.113,-34.180,19.043
1628114554.066,59.570,-13.184,-21.484,0.488
1628114554.069,-98.633,-21.973,-39.551,-85.449
1628114554.073,-110.840,-38.574,-51.758,-73.242
1628114554.077,38.086,-36.133,-42.969,24.902
1628114554.081,79.590,-9.277,-29.785,38.574
1628114554.085,-74.219,-20.020,-31.738,-65.918
1628114554.098,-142.090,-34.668,-27.832,-92.285
1628114554.102,-15.625,-56.641,-25.391,-15.137
1628114554.106,70.312,-45.410,-41.016,19.043
1628114554.110,-22.949,-9.277,-41.992,-36.133
1628114554.114,-124.023,0.488,-30.273,-82.031
1628114554.118,-43.945,-3.906,-21.484,-38.574
1628114554.122,80.566,-30.762,-11.230,27.344
1628114554.125,11.719,-41.504,-32.227,-13.672
1628114554.129,-115.234,-17.578,-26.367,-75.195
1628114554.133,-81.055,-14.648,-10.254,-42.969
1628114554.137,47.363,-23.438,-18.555,23.926
1628114554.141,44.922,-28.320,-18.555,9.277
1628114554.155,-100.586,-33.691,-23.926,-81.055
1628114554.159,-144.043,-31.250,-31.738,-98.633
1628114554.163,1.465,-11.230,-29.297,-14.160
1628114554.167,72.266,-29.785,-18.066,14.160
1628114554.171,-60.547,-39.551,-16.113,-60.547
1628114554.175,-142.578,-19.043,-25.391,-91.797
1628114554.179,-18.555,-6.836,-28.809,-13.184
1628114554.182,89.844,-14.648,-17.090,43.457
1628114554.186,-28.809,-47.363,-23.438,-28.809
1628114554.190,-158.203,-50.293,-40.039,-99.609
1628114554.194,-64.453,-34.668,-22.461,-39.551
1628114554.198,64.941,-39.062,-17.578,26.367
1628114554.192,4.883,-43.457,-36.621,-20.996
1628114554.196,-132.324,-29.297,-41.504,-93.262
1628114554.200,-99.121,-20.996,-28.809,-58.594
1628114554.204,55.664,-22.949,-16.602,34.180
1628114554.208,59.082,-21.973,-35.645,23.926
1628114554.212,-83.496,-6.348,-26.367,-54.199
1628114554.216,-133.301,-12.207,-15.137,-78.125
1628114554.219,-17.578,-37.598,-33.691,-20.020
1628114554.223,53.223,-43.945,-43.457,4.395
1628114554.227,-62.500,-47.363,-39.062,-64.941
1628114554.231,-138.672,-50.781,-41.504,-92.773
1628114554.235,-31.738,-50.781,-57.129,-29.297
1628114554.229,80.078,-29.297,-42.969,25.879
1628114554.233,-3.906,-16.113,-20.020,-24.414
1628114554.237,-134.766,-17.090,-20.508,-83.984
1628114554.241,-63.965,-24.414,-32.715,-34.668
1628114554.245,83.008,-37.598,-42.480,39.062
1628114554.249,50.781,-29.297,-33.203,12.207
1628114554.253,-103.027,-38.086,-21.484,-79.590
1628114554.256,-114.746,-33.203,-14.648,-88.379
1628114554.260,8.789,-22.461,-22.949,-20.508
1628114554.264,41.016,-36.621,-36.133,-4.883
1628114554.268,-78.613,-34.180,-35.156,-67.383
1628114554.272,-129.883,-25.391,-36.621,-89.355
1628114554.285,-6.348,-32.227,-29.785,-11.230
1628114554.289,72.266,-36.621,-39.551,27.832
1628114554.293,-30.273,-18.066,-51.270,-38.086
1628114554.297,-118.164,-10.254,-29.297,-78.613
1628114554.301,-34.668,-23.926,-6.348,-21.973
1628114554.305,79.590,-27.344,-1.953,42.969
1628114554.309,7.324,-53.223,-11.719,1.465
1628114554.312,-140.137,-50.293,-22.461,-71.777
1628114554.316,-89.844,-17.578,-39.062,-39.551
1628114554.320,62.988,-20.996,-46.387,29.297
1628114554.324,46.875,-41.504,-38.086,10.254
1628114554.328,-121.094,-57.129,-41.504,-87.891
1628114554.323,-152.832,-43.457,-31.250,-99.609
1628114554.327,-0.977,-28.809,-29.297,-8.789
1628114554.331,65.430,-19.531,-30.762,19.531
1628114554.335,-63.965,-48.828,-24.902,-45.898
1628114554.339,-125.488,-83.008,-30.762,-71.289
1628114554.343,-9.766,-51.758,-26.855,-2.441
1628114554.347,77.148,-15.137,-24.414,43.945
1628114554.350,-30.762,-28.320,-26.855,-31.250
1628114554.354,-134.766,-44.434,-42.480,-82.520
1628114554.358,-38.574,-39.062,-44.434,-14.648
1628114554.362,86.914,-38.574,-16.602,53.223
1628114554.366,30.762,-37.598,-18.555,5.859
1628114554.379,-129.883,-31.250,-37.598,-83.008
1628114554.383,-108.887,-28.809,-39.551,-62.012
1628114554.387,50.781,-17.090,-29.297,17.090
1628114554.391,50.293,-12.695,-29.297,6.836
1628114554.395,-95.703,-29.297,-30.273,-68.359
1628114554.399,-123.535,-28.809,-22.461,-67.383
1628114554.403,20.996,-49.316,-24.414,18.066
1628114554.406,93.750,-56.152,-25.391,43.945
1628114554.410,-52.246,-32.227,-25.879,-41.504
1628114554.414,-139.648,-13.184,-32.227,-83.496
1628114554.418,-29.785,-1.953,-40.527,-20.508
1628114554.422,63.965,-25.879,-31.250,16.602
1628114554.419,-20.020,-55.664,-16.602,-36.621
1628114554.423,-131.348,-23.926,-20.508,-79.590
1628114554.427,-57.129,-0.977,-20.996,-35.645
1628114554.431,63.477,-17.090,-30.762,15.625
1628114554.435,6.348,-31.250,-37.109,-27.344
1628114554.439,-127.441,-39.062,-35.156,-92.285
1628114554.443,-100.098,-43.945,-29.297,-56.641
1628114554.446,57.617,-34.180,-6.348,33.203
1628114554.450,51.270,-32.227,-25.879,20.996
1628114554.454,-104.492,-48.340,-50.293,-67.383
1628114554.458,-124.023,-31.250,-35.156,-68.848
1628114554.462,18.555,-17.578,-19.531,10.254
1628114554.473,108.398,-15.137,0.000,51.758
1628114554.477,-35.156,-18.555,-11.719,-31.738
1628114554.481,-158.691,-36.133,-33.203,-104.492
1628114554.485,-43.945,-35.645,-33.203,-33.691
1628114554.489,83.496,-22.461,-28.809,35.156
1628114554.493,12.207,-32.227,-17.090,-11.719
1628114554.497,-126.465,-37.598,-22.461,-83.496
1628114554.500,-88.867,-26.367,-27.344,-53.711
1628114554.504,58.594,-12.207,-19.531,34.668
1628114554.508,47.852,-17.090,-23.926,17.090
1628114554.512,-102.051,-23.438,-35.645,-74.707
1628114554.516,-120.117,-14.160,-36.621,-63.477
1628114554.510,41.504,-18.066,-36.133,23.438
1628114554.514,90.820,-15.137,-37.109,39.062
1628114554.518,-60.059,-19.531,-29.297,-39.062
1628114554.522,-138.672,-51.758,-28.320,-82.520
1628114554.526,-16.602,-45.410,-20.020,-16.113
1628114554.530,80.566,-12.207,-16.113,35.156
1628114554.534,-44.434,-29.785,-32.715,-36.133
1628114554.537,-147.461,-38.086,-44.434,-86.426
1628114554.541,-37.598,-14.648,-31.250,-15.625
1628114554.545,84.473,-19.043,-14.160,43.457
1628114554.549,19.043,-31.738,-17.578,-5.859
1628114554.553,-122.559,-38.086,-21.484,-81.055
1628114554.567,-94.238,-56.152,-16.602,-46.387
1628114554.571,41.992,-53.711,-26.855,30.273
1628114554.575,27.832,-37.109,-39.062,-5.859
1628114554.579,-124.023,-29.297,-41.504,-90.332
1628114554.583,-135.742,-35.645,-43.457,-82.031
1628114554.587,7.324,-44.434,-36.133,4.395
1628114554.591,71.289,-21.973,-36.133,33.691
1628114554.594,-57.129,-10.254,-50.293,-54.688
1628114554.598,-126.953,-11.719,-43.457,-78.613
1628114554.602,25.391,-8.789,-21.973,29.297
1628114554.606,118.164,-21.484,-21.484,68.848
1628114554.610,-21.973,-24.902,-38.574,-27.832
1628114554.605,-142.090,-40.039,-34.668,-97.168
1628114554.609,-63.477,-33.203,-22.461,-40.527
1628114554.613,86.426,-9.277,-18.555,43.457
1628114554.617,40.039,-19.043,-23.438,-0.488
1628114554.621,-120.117,-26.855,-39.551,-89.355
1628114554.625,-104.980,-22.461,-41.016,-74.707
1628114554.629,46.875,-9.277,-34.180,5.371
1628114554.632,76.172,-0.488,-30.762,26.855
1628114554.636,-61.035,-11.719,-22.949,-33.691
1628114554.640,-106.934,-36.621,-23.438,-61.523
1628114554.644,25.391,-50.293,-24.902,10.742
1628114554.648,72.754,-50.781,-28.809,26.367
1628114554.661,-72.754,-40.039,-30.762,-66.895
1628114554.665,-157.715,-35.156,-35.645,-100.098
1628114554.669,-35.645,-23.926,-34.668,-27.832
1628114554.673,77.637,-13.672,-31.250,22.461
1628114554.677,-10.742,-8.301,-38.574,-26.367
1628114554.681,-127.441,-8.789,-30.273,-83.496
1628114554.685,-72.266,-59.082,-28.320,-50.781
1628114554.688,75.684,-46.387,-25.879,35.156
1628114554.692,47.852,-30.273,-20.996,13.184
1628114554.696,-114.746,-50.781,-27.832,-85.449
1628114554.700,-114.258,-36.133,-36.133,-74.707
1628114554.704,35.645,-35.156,-45.410,6.836
1628114554.698,53.711,-33.691,-54.199,5.371
1628114554.702,-95.215,-27.344,-52.246,-80.566
1628114554.706,-149.902,-24.414,-52.734,-104.980
1628114554.710,-18.066,-24.414,-52.246,-28.809
1628114554.714,63.477,-29.785,-53.711,15.625
1628114554.718,-40.039,-47.363,-47.363,-39.551
1628114554.722,-124.512,-43.945,-20.996,-73.730
1628114554.725,-30.762,-18.555,-12.695,-11.719
1628114554.729,88.379,0.977,-20.508,46.875
1628114554.733,2.441,-7.812,-26.855,-16.113
1628114554.737,-145.996,-28.320,-28.320,-98.633
1628114554.741,-105.957,-32.227,-37.598,-66.406
1628114554.754,32.227,-38.086,-41.016,7.324
1628114554.758,20.996,-43.945,-36.133,-8.789
1628114554.762,-111.328,-38.086,-45.410,-80.078
1628114554.766,-111.816,-13.672,-41.016,-71.289
1628114554.770,27.832,-19.043,-31.250,-3.906
1628114554.774,79.102,-25.879,-19.043,15.137
1628114554.778,-47.363,-2.930,-19.043,-47.363
1628114554.781,-122.559,-22.949,-25.879,-77.148
1628114554.785,-15.137,-60.059,-35.645,-26.855
1628114554.789,75.684,-46.875,-42.969,9.277
1628114554.793,-27.832,-25.879,-49.805,-51.758
1628114554.797,-154.297,-38.574,-49.316,-111.816
1628114554.792,-63.477,-29.297,-33.691,-48.340
1628114554.796,79.102,-15.625,-34.180,24.902
1628114554.800,34.668,-25.391,-28.809,-0.488
1628114554.804,-109.375,-18.066,-27.832,-74.219
1628114554.808,-108.398,-18.066,-27.832,-74.707
1628114554.812,34.668,-24.414,-26.367,-0.977
1628114554.816,56.152,-22.949,-31.250,0.488
1628114554.819,-86.426,-33.203,-22.949,-67.383
1628114554.823,-125.977,-56.641,-20.996,-74.707
1628114554.827,18.066,-50.293,-30.762,-7.812
1628114554.831,78.125,-31.738,-46.875,18.066
1628114554.835,-60.059,-36.621,-56.641,-62.012
1628114554.866,-136.230,-46.875,-37.598,-83.984
1628114554.870,-22.461,-43.457,-28.809,-2.441
1628114554.874,87.402,-28.320,-40.039,40.527
1628114554.878,0.488,-15.625,-36.621,-19.531
1628114554.882,-137.207,-19.531,-29.785,-88.379
1628114554.886,-67.383,-46.387,-25.879,-38.574
1628114554.890,86.426,-57.617,-15.137,48.340
1628114554.893,49.805,-30.762,-12.695,17.578
1628114554.897,-115.234,-23.926,-32.715,-77.148
1628114554.901,-132.812,-19.043,-41.016,-69.336
1628114554.905,16.113,-14.160,-32.227,7.324
1628114554.909,53.711,-31.738,-37.109,2.441
1628114554.888,-90.820,-44.922,-30.762,-72.754
1628114554.892,-126.953,-44.434,-17.578,-83.984
1628114554.896,2.441,-36.621,-20.996,-14.648
1628114554.900,62.988,-39.062,-42.480,8.301
1628114554.904,-68.848,-49.805,-55.664,-73.730
1628114554.908,-163.574,-55.176,-42.480,-123.535
1628114554.912,-57.129,-45.898,-28.320,-50.781
1628114554.915,73.730,-45.410,-26.855,18.066
1628114554.919,6.348,-45.410,-22.461,-36.133
1628114554.923,-128.418,-35.645,-24.414,-101.074
1628114554.927,-75.684,-36.133,-30.762,-55.664
1628114554.931,87.402,-26.855,-13.672,34.668
1628114554.942,61.035,-5.859,-15.625,20.996
1628114554.946,-112.305,-6.836,-24.414,-80.078
1628114554.950,-122.559,-17.578,-20.508,-86.426
1628114554.954,24.414,-12.207,-20.508,-1.953
1628114554.958,63.477,-20.508,-35.156,3.906
1628114554.962,-76.172,-39.062,-44.434,-66.406
1628114554.966,-147.461,-11.719,-40.039,-91.797
1628114554.969,-35.156,-17.090,-34.668,-30.762
1628114554.973,77.148,-42.480,-11.230,31.738
1628114554.977,3.418,-29.785,-1.465,-5.371
1628114554.981,-127.441,-31.250,-24.902,-76.660
1628114554.985,-70.801,-37.598,-29.785,-44.922
1628114554.979,62.988,-34.668,-14.160,22.949
1628114554.983,12.695,-35.645,-10.742,-15.625
1628114554.987,-120.117,-40.039,-21.973,-88.867
1628114554.991,-107.910,-40.527,-27.344,-78.125
1628114554.995,16.113,-28.809,-29.297,-6.836
1628114554.999,24.902,-33.203,-47.852,-1.465
1628114555.003,-79.102,-45.410,-47.363,-64.453
1628114555.006,-103.516,-37.109,-21.484,-73.242
1628114555.010,-21.973,-43.457,-40.527,-28.809
1628114555.014,42.480,-36.133,-59.570,-4.883
1628114555.018,-38.086,-15.137,-43.457,-48.828
1628114555.022,-121.582,-26.367,-23.926,-82.520
1628114555.036,-30.762,-20.020,-11.719,-26.367
1628114555.040,58.594,-21.484,-19.531,15.625
1628114555.044,-12.207,-44.434,-22.949,-26.855
1628114555.048,-103.027,-42.480,-19.531,-68.359
1628114555.052,-58.105,-34.668,-14.648,-35.156
1628114555.056,49.805,-32.227,-19.531,15.137
1628114555.060,40.039,-29.297,-31.250,3.418
1628114555.063,-77.148,-24.902,-37.598,-53.223
1628114555.067,-96.680,-22.461,-44.434,-59.082
1628114555.071,25.391,-13.184,-28.320,8.301
1628114555.075,48.828,-24.902,-14.160,16.602
1628114555.079,-67.383,-52.734,-24.414,-43.457
1628114555.073,-103.027,-31.250,-22.461,-51.270
1628114555.077,-5.859,-20.996,-19.531,-8.301
1628114555.081,64.453,-12.695,-10.254,23.926
1628114555.085,-47.852,-22.949,-28.809,-41.504
1628114555.089,-157.227,-38.086,-57.129,-101.074
1628114555.093,-58.105,-19.531,-54.688,-48.340
1628114555.097,77.637,-10.254,-40.039,24.414
1628114555.100,3.418,-19.043,-31.250,-10.742
1628114555.104,-144.531,-59.570,-41.992,-94.238
1628114555.108,-98.633,-51.270,-39.062,-60.059
1628114555.112,42.480,-15.625,-34.180,22.949
1628114555.116,27.832,-32.227,-28.809,1.953
1628114555.129,-109.375,-41.992,-24.902,-79.590
1628114555.133,-119.629,-20.508,-34.180,-74.707
1628114555.137,26.855,-10.742,-21.484,11.719
1628114555.141,51.270,-28.809,-23.926,14.160
1628114555.145,-92.285,-38.574,-46.875,-70.801
1628114555.149,-145.020,-35.156,-54.199,-90.332
1628114555.153,-31.738,-34.668,-40.527,-21.484
1628114555.156,65.430,-29.785,-20.020,34.668
1628114555.160,-20.996,-35.645,-19.531,-24.414
1628114555.164,-119.629,-43.457,-24.902,-77.148
1628114555.168,-71.289,-41.992,-31.738,-37.598
1628114555.172,37.598,-37.598,-31.738,18.555
1628114555.168,26.367,-21.484,-16.113,4.883
1628114555.172,-90.820,-17.090,-16.602,-54.199
1628114555.176,-67.383,-18.555,-24.414,-42.969
1628114555.180,48.340,-36.133,-15.625,21.484
1628114555.184,37.109,-48.340,-15.625,18.066
1628114555.188,-71.289,-38.086,-31.738,-47.363
1628114555.192,-86.426,-29.785,-41.016,-50.781
1628114555.195,25.879,-31.738,-22.461,13.184
1628114555.199,83.984,-45.410,-16.113,37.109
1628114555.203,-24.902,-49.316,-50.293,-31.250
1628114555.207,-112.793,-39.551,-57.129,-79.102
1628114555.211,-26.367,-26.855,-40.527,-27.832
1628114555.223,73.730,-21.484,-32.715,29.297
1628114555.227,8.301,-30.273,-18.555,1.953
1628114555.231,-90.332,-25.879,-14.160,-53.711
1628114555.235,-59.082,-17.578,-22.461,-39.551
1628114555.239,56.641,-0.977,-15.137,25.391
1628114555.243,38.574,1.953,-20.508,8.789
1628114555.247,-83.984,-28.809,-39.551,-64.453
1628114555.250,-76.172,-31.250,-31.250,-56.641
1628114555.254,28.809,-23.926,-34.668,3.906
1628114555.258,64.453,-16.602,-33.691,18.066
1628114555.262,-41.992,-45.898,-23.926,-39.551
1628114555.266,-123.047,-83.984,-52.734,-74.219
1628114555.260,-24.414,-48.340,-70.312,-22.949
1628114555.264,57.617,-14.160,-46.875,11.719
1628114555.268,-21.484,-9.766,-21.484,-34.668
1628114555.272,-122.070,-26.855,-39.551,-86.426
1628114555.276,-62.988,-35.645,-51.270,-54.688
1628114555.280,43.457,-26.855,-26.855,9.766
1628114555.284,6.836,-33.691,-18.555,-0.488
1628114555.287,-88.867,-19.043,-21.484,-50.781
1628114555.291,-83.984,-40.527,-35.156,-52.246
1628114555.295,8.301,-71.289,-37.109,-8.789
1628114555.299,2.930,-48.828,-31.738,-17.578
1628114555.303,-104.492,-47.363,-30.273,-65.918
1628114555.316,-109.863,-50.293,-21.484,-49.316
1628114555.320,8.301,-43.457,-31.738,5.371
1628114555.324,59.082,-32.227,-32.715,28.320
1628114555.328,-55.176,-34.180,-27.832,-37.109
1628114555.332,-123.047,-44.434,-21.484,-82.031
1628114555.336,-31.738,-26.855,-15.137,-21.484
1628114555.340,44.434,-24.902,-32.715,9.277
1628114555.343,-52.734,-48.340,-76.172,-63.965
1628114555.347,-136.230,-26.855,-71.777,-95.215
1628114555.351,-57.129,-34.668,-34.180,-37.598
1628114555.355,40.527,-52.246,-28.320,4.883
1628114555.359,2.930,-13.184,-31.738,-25.879
1628114555.356,-105.469,-20.020,-22.461,-83.008
1628114555.360,-89.844,-38.574,-18.066,-55.176
1628114555.364,30.273,-16.113,-30.762,16.113
1628114555.368,37.109,-14.160,-45.410,2.441
1628114555.372,-74.219,-27.832,-33.203,-49.805
1628114555.376,-108.398,-28.320,-27.344,-55.176
1628114555.380,-19.043,-27.832,-25.879,-11.230
1628114555.383,35.645,-34.180,-16.602,17.578
1628114555.387,-57.617,-39.551,-29.785,-39.551
1628114555.391,-133.301,-35.156,-26.367,-69.824
1628114555.395,-53.711,-35.156,-22.949,-23.438
1628114555.399,41.016,-38.086,-41.504,12.207
1628114555.412,-19.043,-32.227,-44.434,-22.461
1628114555.416,-122.559,-38.086,-51.758,-69.336
1628114555.420,-89.844,-46.387,-50.293,-46.875
1628114555.424,30.273,-31.738,-19.531,12.207
1628114555.428,20.996,-33.691,-8.301,-2.441
1628114555.432,-95.703,-46.875,-23.926,-62.012
1628114555.436,-107.422,-28.809,-41.016,-60.547
1628114555.439,5.371,-22.461,-29.297,-2.930
1628114555.443,26.367,-28.809,-25.391,-5.371
1628114555.447,-76.660,-34.180,-41.504,-67.871
1628114555.451,-115.723,-49.316,-37.598,-73.730
1628114555.455,-33.691,-31.738,-20.508,-20.508
1628114555.448,49.805,-14.160,-28.809,10.742
1628114555.452,-25.391,-18.555,-40.039,-35.156
1628114555.456,-109.375,-35.645,-19.043,-72.754
1628114555.460,-64.941,-43.945,-22.461,-57.129
1628114555.464,19.531,-35.156,-38.086,-16.113
1628114555.468,-15.625,-46.875,-43.457,-38.086
1628114555.472,-120.605,-45.410,-40.527,-95.703
1628114555.475,-80.078,-37.109,-35.156,-66.895
1628114555.479,34.180,-19.531,-48.828,-7.812
1628114555.483,28.809,-10.742,-41.504,-13.672
1628114555.487,-66.895,-31.250,-21.484,-53.711
1628114555.491,-81.055,-40.527,-11.719,-56.641
1628114555.504,14.160,-39.062,-25.879,-14.160
1628114555.508,29.297,-39.062,-47.363,0.977
1628114555.512,-76.172,-49.316,-38.574,-55.664
1628114555.516,-125.977,-49.316,-30.273,-86.426
1628114555.520,-35.156,-49.805,-41.504,-27.344
1628114555.524,66.406,-44.434,-39.062,27.832
1628114555.528,-2.930,-47.363,-32.715,-16.602
1628114555.531,-126.465,-56.152,-43.457,-86.914
1628114555.535,-78.613,-38.086,-23.926,-62.012
1628114555.539,32.715,-33.691,-13.184,-1.953
1628114555.543,-17.578,-49.805,-36.133,-34.180
1628114555.547,-125.488,-24.902,-48.828,-83.008
1628114555.542,-91.797,-2.441,-29.785,-47.852
1628114555.546,11.719,-24.414,-31.250,6.348
1628114555.550,17.090,-40.527,-33.691,-0.488
1628114555.554,-84.961,-35.645,-36.621,-51.270
1628114555.558,-100.098,-31.738,-42.480,-57.129
1628114555.562,18.066,-20.996,-15.137,6.836
1628114555.566,82.520,-21.484,-9.277,35.156
1628114555.569,-15.625,-49.316,-38.086,-33.691
1628114555.573,-104.492,-29.297,-45.898,-79.590
1628114555.577,-31.250,-3.418,-18.555,-29.297
1628114555.581,56.152,-18.555,-4.883,12.695
1628114555.585,-8.301,-47.852,-22.949,-25.879
1628114555.598,-114.258,-62.988,-46.387,-74.219
1628114555.602,-82.520,-31.738,-36.133,-56.641
1628114555.606,19.043,-26.367,-34.180,-12.695
1628114555.610,-1.953,-44.434,-56.641,-26.855
1628114555.614,-115.234,-38.086,-48.828,-75.684
1628114555.618,-105.469,-29.297,-27.344,-68.848
1628114555.622,20.020,-14.648,-9.766,-3.906
1628114555.625,48.340,-17.578,-18.555,15.625
1628114555.629,-73.730,-51.270,-51.270,-57.617
1628114555.633,-131.836,-61.035,-36.621,-91.797
1628114555.637,-32.227,-38.574,-25.879,-37.598
1628114555.641,23.926,-41.016,-49.805,-9.766
1628114555.637,-68.359,-50.293,-47.852,-56.641
1628114555.641,-127.930,-48.828,-34.668,-78.613
1628114555.645,-43.945,-41.992,-30.273,-22.949
1628114555.649,35.645,-48.340,-23.438,16.113
1628114555.653,-22.461,-46.387,-21.973,-28.320
1628114555.657,-128.418,-19.043,-34.180,-84.473
1628114555.661,-87.891,-12.695,-36.133,-61.523
1628114555.664,38.574,-23.926,-23.926,8.789
1628114555.668,41.504,-1.465,-27.832,20.020
1628114555.672,-74.707,-6.836,-46.387,-44.922
1628114555.676,-106.445,-41.016,-45.898,-66.406
1628114555.680,-2.441,-29.785,-37.598,-12.695
1628114555.692,46.875,-31.738,-30.273,15.137
1628114555.696,-41.504,-40.039,-17.578,-25.879
1628114555.700,-106.445,-51.758,-25.879,-62.500
1628114555.704,-17.578,-44.922,-33.691,-17.578
1628114555.708,67.383,-21.973,-39.062,23.926
1628114555.712,-7.324,-16.113,-47.852,-22.461
1628114555.716,-99.609,-23.926,-41.504,-72.266
1628114555.719,-49.316,-28.320,-30.762,-34.180
1628114555.723,75.195,-13.672,-13.672,27.832
1628114555.727,60.059,2.441,5.859,15.625
1628114555.731,-53.223,-12.207,-8.789,-39.062
1628114555.735,-67.871,-58.105,-41.992,-53.711
1628114555.729,7.812,-60.547,-48.828,-19.043
1628114555.733,0.488,-40.527,-34.668,-24.414
1628114555.737,-90.820,-40.527,-14.160,-69.336
1628114555.741,-110.352,-39.062,-22.949,-72.266
1628114555.745,-10.254,-22.949,-34.180,-12.695
1628114555.749,39.062,-25.391,-44.434,4.883
1628114555.753,-56.152,-32.227,-45.898,-49.805
1628114555.756,-116.211,-15.625,-26.367,-75.684
1628114555.760,-24.414,-42.969,-28.809,-25.391
1628114555.764,63.965,-54.199,-37.109,12.207
1628114555.768,3.906,-19.531,-34.180,-24.902
1628114555.772,-98.633,-27.344,-34.668,-80.566
1628114555.786,-63.477,-39.062,-34.180,-54.199
1628114555.790,41.016,-45.410,-44.922,0.488
1628114555.794,-2.441,-62.988,-53.223,-33.203
1628114555.798,-97.656,-58.105,-33.203,-77.148
1628114555.802,-54.688,-15.137,-6.836,-42.969
1628114555.806,36.133,0.000,-26.855,-0.977
1628114555.810,33.203,-22.949,-49.805,-10.742
1628114555.813,-65.918,-27.344,-37.598,-58.105
1628114555.817,-93.262,-22.461,-29.297,-66.895
1628114555.821,15.137,-21.973,-25.879,-5.859
1628114555.825,74.219,-32.715,-13.672,17.578
1628114555.829,-32.715,-40.039,-32.715,-48.340
1628114555.823,-111.816,-11.230,-45.410,-85.449
1628114555.827,-22.461,-11.230,-30.273,-34.668
1628114555.831,60.059,-33.203,-43.945,5.371
1628114555.835,-7.812,-42.480,-47.852,-34.180
1628114555.839,-105.469,-25.879,-30.273,-75.684
1628114555.843,-54.688,1.465,-32.715,-49.316
1628114555.847,56.152,4.395,-36.621,0.000
1628114555.850,30.762,-9.766,-35.156,-14.648
1628114555.854,-83.984,-42.969,-32.227,-65.918
1628114555.858,-99.121,-58.594,-32.227,-70.312
1628114555.862,16.602,-21.973,-28.320,-14.648
1628114555.866,50.293,-21.484,-30.273,-5.371
1628114555.879,-51.270,-30.273,-33.691,-61.035
1628114555.883,-99.609,-22.949,-24.902,-68.848
1628114555.887,-3.418,-7.324,-27.832,-12.695
1628114555.891,61.035,-17.578,-25.879,21.973
1628114555.895,-27.344,-23.926,-20.508,-20.020
1628114555.899,-102.051,-19.531,-39.062,-59.570
1628114555.903,-33.691,-16.113,-44.922,-19.043
1628114555.906,67.383,-10.254,-17.578,41.992
1628114555.910,22.461,-17.578,-13.672,16.602
1628114555.914,-78.613,-29.785,-42.969,-47.852
1628114555.918,-56.152,-40.039,-32.715,-31.250
1628114555.922,42.480,-39.062,-26.855,21.484
1628114555.917,21.973,-32.715,-32.227,0.000
1628114555.921,-100.586,-34.180,-24.902,-66.895
1628114555.925,-93.750,-14.648,-17.090,-50.781
1628114555.929,9.277,-21.973,-30.273,1.465
1628114555.933,35.156,-43.457,-47.363,3.418
1628114555.937,-41.016,-41.016,-25.879,-34.180
1628114555.941,-93.750,-27.832,-7.324,-50.293
1628114555.944,-9.277,-12.207,-13.184,1.465
1628114555.948,66.406,-25.391,-23.926,32.715
1628114555.952,-24.414,-40.039,-30.762,-23.926
1628114555.956,-109.863,-42.969,-37.598,-67.871
1628114555.960,-49.805,-50.293,-48.828,-33.691
1628114555.974,56.641,-38.574,-36.133,23.438
1628114555.978,22.461,-40.039,-24.414,-5.371
1628114555.982,-85.938,-33.203,-25.879,-64.941
1628114555.986,-64.941,-23.926,-22.461,-46.875
1628114555.990,41.992,-23.438,-24.414,9.766
1628114555.994,46.875,-32.227,-33.203,5.859
1628114555.998,-51.758,-49.316,-28.809,-43.945
1628114556.001,-84.961,-35.645,-21.973,-53.223
1628114556.005,-0.488,-15.625,-26.855,-11.719
1628114556.009,49.316,-12.207,-24.902,8.789
1628114556.013,-46.387,-30.762,-38.086,-50.781
1628114556.017,-134.277,-60.059,-63.477,-90.332
1628114556.011,-49.316,-28.809,-47.363,-37.598
1628114556.015,36.133,-9.277,-21.484,5.859
1628114556.019,-32.715,-34.668,-21.484,-35.156
1628114556.023,-111.816,-35.645,-43.945,-77.148
1628114556.027,-66.406,-20.508,-50.293,-49.316
1628114556.031,48.828,-12.207,-34.180,1.953
1628114556.035,29.297,-13.672,-30.762,-10.254
1628114556.038,-88.867,-21.973,-25.879,-68.359
1628114556.042,-96.191,-56.152,-34.668,-69.336
1628114556.046,4.883,-49.805,-38.086,-24.414
1628114556.050,13.184,-9.766,-31.738,-26.855
1628114556.054,-98.633,-28.320,-48.340,-70.801
1628114556.067,-124.023,-22.461,-52.734,-72.266
1628114556.071,-23.926,-20.508,-35.645,-28.320
1628114556.075,39.551,-23.438,-14.648,-5.371
1628114556.079,-41.992,-36.133,-11.230,-43.457
1628114556.083,-121.094,-44.434,-23.926,-69.824
1628114556.087,-39.551,-9.277,-27.344,-20.508
1628114556.091,52.246,8.789,-32.715,24.902
1628114556.094,-30.762,-10.254,-43.945,-24.902
1628114556.098,-143.555,-33.203,-37.109,-86.426
1628114556.102,-99.121,-46.387,-20.508,-59.082
1628114556.106,9.766,-55.664,-20.508,-6.348
1628114556.110,-3.906,-53.711,-31.738,-20.020
1628114556.106,-100.586,-43.457,-35.156,-70.312
1628114556.110,-94.727,-27.832,-30.762,-62.988
1628114556.114,30.762,-2.441,-21.973,10.742
1628114556.118,57.129,-19.531,-20.508,22.949
1628114556.122,-52.246,-56.152,-26.367,-39.062
1628114556.126,-102.051,-48.340,-38.574,-69.336
1628114556.130,-9.766,-20.020,-41.992,-27.344
1628114556.133,74.219,-12.207,-16.113,16.602
1628114556.137,-25.879,-25.879,-18.555,-33.203
1628114556.141,-114.746,-20.996,-29.297,-78.125
1628114556.145,-20.996,-16.113,-25.879,-28.809
1628114556.149,67.871,-27.344,-21.973,18.555
1628114556.162,26.855,-18.066,-14.160,-3.906
1628114556.166,-76.660,-21.484,-28.320,-56.641
1628114556.170,-70.312,-34.180,-42.480,-57.129
1628114556.174,40.039,-21.484,-37.109,-0.977
1628114556.178,32.715,-16.113,-28.809,1.953
1628114556.182,-74.219,-24.414,-30.273,-48.340
1628114556.186,-79.590,-44.922,-23.926,-33.691
1628114556.189,9.766,-53.711,-29.297,20.020
1628114556.193,34.668,-33.203,-22.949,15.137
1628114556.197,-48.828,-14.160,-5.859,-28.809
1628114556.201,-110.840,-20.020,-14.648,-56.641
1628114556.205,-45.410,-49.316,-23.438,-20.508
1628114556.198,44.922,-36.621,-24.414,20.508
1628114556.202,-40.039,-34.180,-33.691,-35.645
1628114556.206,-140.625,-52.246,-42.480,-84.473
1628114556.210,-64.453,-47.363,-48.828,-40.527
1628114556.214,46.875,-41.016,-35.645,16.602
1628114556.218,15.137,-36.621,-26.367,3.906
1628114556.222,-89.844,-45.410,-24.414,-43.945
1628114556.225,-80.078,-36.133,-18.555,-38.574
1628114556.229,22.949,-61.523,-24.902,10.742
1628114556.233,22.949,-89.844,-32.715,1.953
1628114556.237,-65.430,-30.762,-23.926,-50.293
1628114556.241,-91.797,-6.348,-21.484,-63.965
1628114556.254,-20.020,-17.090,-47.363,-28.809
1628114556.258,27.344,-40.527,-56.152,-9.277
1628114556.262,-59.570,-44.434,-51.270,-60.059
1628114556.266,-126.465,-29.785,-47.852,-88.379
1628114556.270,-37.109,-33.691,-22.949,-24.414
1628114556.274,71.777,-26.855,-7.324,33.691
1628114556.278,-2.930,-24.414,-40.527,-12.695
1628114556.281,-110.840,-18.555,-44.434,-71.289
1628114556.285,-69.824,-12.695,-26.367,-51.270
1628114556.289,30.273,-14.648,-21.973,5.859
1628114556.293,16.113,-26.367,-20.996,-1.465
1628114556.297,-88.379,-53.711,-23.926,-56.152
1628114556.292,-99.121,-48.828,-31.738,-59.082
1628114556.296,-10.742,-39.062,-51.758,-17.578
1628114556.300,19.531,-20.020,-34.180,-5.371
1628114556.304,-77.148,-12.207,-18.555,-51.758
1628114556.308,-131.836,-28.809,-36.133,-80.566
1628114556.312,-31.250,-30.762,-39.062,-26.855
1628114556.316,40.527,-21.484,-34.668,3.906
1628114556.319,-56.641,-14.160,-38.086,-53.223
1628114556.323,-136.230,-34.180,-42.480,-88.379
1628114556.327,-39.551,-33.691,-23.438,-27.344
1628114556.331,69.824,-13.672,-7.812,29.785
1628114556.335,-9.766,-39.062,-28.320,-15.137
1628114556.348,-130.859,-57.129,-33.203,-76.660
1628114556.352,-106.445,-61.523,-36.133,-73.242
1628114556.356,16.602,-45.410,-22.461,-7.324
1628114556.360,19.043,-20.508,-21.484,-5.859
1628114556.364,-96.680,-23.438,-41.016,-76.660
1628114556.368,-120.117,-44.922,-48.828,-80.566
1628114556.372,-13.672,-35.156,-55.664,-22.461
1628114556.375,23.438,-13.672,-50.781,-19.043
1628114556.379,-84.961,-26.855,-38.086,-81.055
1628114556.383,-125.977,-41.016,-36.621,-92.285
1628114556.387,-16.113,-22.949,-30.273,-18.555
1628114556.391,46.387,-4.395,-26.367,14.160
1628114556.387,-50.293,-25.391,-37.109,-49.316
1628114556.391,-135.254,-40.039,-33.691,-95.215
1628114556.395,-69.824,-44.922,-15.137,-49.805
1628114556.399,13.184,-51.270,-22.461,-7.324
1628114556.403,-28.320,-48.340,-43.945,-32.715
1628114556.407,-103.027,-52.246,-36.621,-63.965
1628114556.411,-85.449,-52.734,-27.344,-48.828
1628114556.414,18.066,-19.043,-36.133,-0.977
1628114556.418,27.344,-3.418,-52.734,-1.465
1628114556.422,-61.035,-16.113,-46.875,-33.203
1628114556.426,-75.684,-30.762,-22.949,-41.504
1628114556.430,1.465,-26.855,-19.531,-12.207
1628114556.443,41.504,-20.508,-21.973,3.906
1628114556.447,-59.082,-41.016,-22.949,-45.410
1628114556.451,-123.047,-31.738,-33.691,-70.312
1628114556.455,-24.414,-6.836,-45.410,-20.020
1628114556.459,56.641,-16.602,-45.410,20.996
1628114556.463,-8.301,-23.438,-39.062,-8.301
1628114556.467,-94.238,-31.250,-41.504,-56.641
1628114556.470,-36.621,-23.438,-19.531,-20.508
1628114556.474,62.500,-7.324,-12.695,24.414
1628114556.478,11.230,-26.367,-30.762,-15.625
1628114556.482,-87.891,-40.527,-29.785,-58.594
1628114556.486,-83.008,-53.711,-36.621,-50.293
1628114556.479,22.949,-30.762,-25.391,1.953
1628114556.483,40.039,-25.391,-29.297,5.371
1628114556.487,-64.941,-44.922,-34.180,-45.410
1628114556.491,-83.496,-29.297,-14.160,-47.852
1628114556.495,5.371,-14.160,-23.438,-6.348
1628114556.499,55.176,-20.508,-31.738,17.578
1628114556.503,-41.992,-28.809,-45.410,-38.086
1628114556.506,-119.629,-35.645,-41.992,-80.078
1628114556.510,-25.391,-15.625,-33.691,-21.484
1628114556.514,83.008,-10.254,-37.598,30.273
1628114556.518,-0.488,-43.457,-34.668,-18.066
1628114556.522,-129.883,-55.176,-28.809,-85.449
1628114556.537,-67.383,-36.621,-16.602,-53.711
1628114556.541,43.945,-19.531,-31.250,3.906
1628114556.545,10.742,-24.414,-45.898,-19.043
1628114556.549,-79.590,-27.344,-42.480,-62.500
1628114556.553,-64.941,-12.695,-30.273,-44.922
1628114556.557,24.414,-17.578,-43.457,-6.348
1628114556.561,31.250,-55.176,-75.684,-14.160
1628114556.564,-82.031,-67.383,-66.895,-76.660
1628114556.568,-127.930,-52.246,-41.016,-99.609
1628114556.572,-28.320,-50.293,-28.320,-39.551
1628114556.576,45.898,-37.598,-25.391,6.348
1628114556.580,-29.785,-25.391,-24.902,-26.367
1628114556.573,-96.191,-22.461,-32.715,-61.523
1628114556.577,-50.781,-26.367,-56.641,-42.969
1628114556.581,36.133,-36.133,-53.223,-3.418
1628114556.585,-0.977,-27.344,-34.668,-30.273
1628114556.589,-105.957,-15.625,-35.156,-79.102
1628114556.593,-67.871,-17.578,-38.574,-53.223
1628114556.597,40.527,-21.484,-31.250,-3.418
1628114556.600,26.367,-23.926,-18.066,-6.836
1628114556.604,-85.938,-55.176,-27.344,-63.965
1628114556.608,-113.770,-79.590,-47.363,-78.613
1628114556.612,-3.906,-49.316,-48.828,-14.648
1628114556.616,48.340,-40.527,-59.570,8.301
1628114556.630,-38.086,-44.922,-48.340,-35.156
1628114556.634,-93.262,-45.410,-12.695,-51.270
1628114556.638,-10.742,-30.273,-3.906,-5.859
1628114556.642,59.082,-27.832,-22.461,15.625
1628114556.646,-21.484,-36.621,-22.949,-28.320
1628114556.650,-110.840,-26.855,-9.277,-73.730
1628114556.654,-62.988,-32.715,-20.508,-59.570
1628114556.657,43.457,-36.133,-22.461,-1.953
1628114556.661,13.672,-34.180,-20.996,-15.137
1628114556.665,-101.074,-40.039,-47.363,-78.125
1628114556.669,-91.309,-36.133,-64.941,-65.430
1628114556.673,19.043,-27.832,-52.734,-6.348
1628114556.678,29.297,-36.621,-35.645,-19.531
1628114556.682,-79.590,-49.805,-37.109,-75.684
1628114556.686,-102.051,-47.363,-32.227,-70.801
1628114556.690,-6.836,-44.434,-28.320,-26.367
1628114556.694,16.113,-34.668,-35.645,-14.160
1628114556.698,-62.012,-9.766,-29.785,-48.340
1628114556.702,-108.398,-23.438,-29.785,-77.148
1628114556.705,-28.809,-36.133,-21.973,-30.762
1628114556.709,58.105,-41.016,-21.484,18.066
1628114556.713,-9.277,-45.898,-16.113,-6.348
1628114556.717,-93.262,-28.320,-20.020,-37.598
1628114556.721,-63.477,-34.180,-49.805,-26.855
1628114556.726,21.973,-37.109,-45.898,6.836
1628114556.730,7.324,-29.785,-31.738,-10.254
1628114556.734,-98.633,-31.250,-29.785,-68.359
1628114556.738,-90.332,-49.805,-23.438,-54.199
1628114556.742,38.086,-40.527,-7.324,19.531
1628114556.746,61.523,-3.906,-18.555,25.391
1628114556.750,-62.500,-22.461,-43.457,-42.969
1628114556.753,-105.469,-38.086,-25.879,-60.059
1628114556.757,-18.066,-24.902,-12.695,-10.254
1628114556.761,45.410,-19.043,-10.254,21.484
1628114556.765,-26.367,-29.297,-18.555,-24.414
1628114556.769,-120.117,-58.594,-46.387,-76.172
1628114556.766,-48.340,-64.941,-41.992,-30.762
1628114556.770,43.945,-52.246,-40.039,11.230
1628114556.774,-5.859,-25.391,-37.598,-22.949
1628114556.778,-97.656,-13.672,-14.648,-60.059
1628114556.782,-75.195,-21.973,-16.602,-45.898
1628114556.786,52.246,-1.465,-20.020,30.273
1628114556.790,50.781,4.883,-21.973,22.461
1628114556.793,-88.379,-20.996,-29.785,-68.848
1628114556.797,-96.191,-38.086,-27.832,-63.965
1628114556.801,31.250,-27.832,-17.578,1.465
1628114556.805,67.383,-17.090,-22.949,10.742
1628114556.809,-55.664,-30.273,-41.992,-48.340
1628114556.822,-109.375,-33.691,-33.203,-60.547
1628114556.826,-9.277,-43.457,-26.855,-9.766
1628114556.830,52.246,-41.504,-41.992,7.324
1628114556.834,-11.719,-22.949,-45.410,-24.902
1628114556.838,-99.121,-33.203,-34.668,-55.664
1628114556.842,-41.016,-37.109,-15.625,-22.461
1628114556.846,65.430,-48.828,-16.602,33.691
1628114556.849,12.695,-42.969,-21.484,2.930
1628114556.853,-88.379,0.000,-8.789,-53.711
1628114556.857,-63.965,14.648,-21.484,-35.645
1628114556.861,20.996,-12.207,-41.992,4.395
1628114556.865,0.977,-45.410,-39.551,-27.832
1628114556.856,-103.027,-39.062,-31.738,-86.426
1628114556.860,-119.141,-28.809,-30.762,-86.426
1628114556.864,-3.418,-29.297,-35.156,-33.691
1628114556.868,41.016,-58.105,-33.691,-13.672
1628114556.872,-72.266,-66.406,-32.227,-63.965
1628114556.876,-111.328,-23.438,-25.879,-82.031
1628114556.880,-10.254,-4.883,-17.578,-28.809
1628114556.883,72.754,3.418,-2.441,23.438
1628114556.887,2.930,-17.090,-12.695,-11.719
1628114556.891,-114.258,-52.734,-36.621,-80.078
1628114556.895,-70.801,-51.758,-41.504,-55.664
1628114556.899,26.367,-38.574,-47.363,-8.301
1628114556.912,-18.555,-27.832,-42.969,-41.992
1628114556.916,-125.977,-26.367,-35.645,-98.633
1628114556.920,-96.191,-25.879,-39.551,-72.266
1628114556.924,24.414,-18.066,-27.832,-2.441
1628114556.928,31.738,-20.996,-30.273,-3.906
1628114556.932,-70.312,-32.227,-47.363,-61.523
1628114556.936,-92.285,-12.695,-42.969,-56.641
1628114556.939,0.977,-3.418,-34.668,-1.953
1628114556.943,68.359,2.930,-15.625,26.855
1628114556.947,-10.254,8.301,-14.648,-18.066
1628114556.951,-102.051,-31.250,-42.480,-70.801
1628114556.955,-39.062,-61.035,-38.086,-36.621
1628114556.948,46.387,-56.152,-30.273,-5.371
1628114556.952,-19.043,-46.387,-26.367,-53.223
1628114556.956,-102.539,-21.973,-20.508,-89.844
1628114556.960,-50.293,-23.926,-33.203,-52.734
1628114556.964,41.992,-43.457,-36.133,-7.324
1628114556.968,20.020,-40.039,-23.926,-18.555
1628114556.972,-79.590,-28.809,-33.691,-66.895
1628114556.975,-70.312,-9.766,-38.086,-48.340
1628114556.979,36.133,-30.273,-29.785,8.301
1628114556.983,34.668,-54.199,-39.551,-2.930
1628114556.987,-68.848,-30.273,-28.809,-42.969
1628114556.991,-88.867,-17.578,-19.043,-48.340
1628114557.006,1.465,-22.949,-24.902,-1.953
1628114557.010,60.059,-33.203,-26.855,28.809
1628114557.014,-13.672,-26.855,-22.461,-10.254
1628114557.018,-101.562,-31.250,-25.879,-51.270
1628114557.022,-45.898,-42.969,-36.621,-17.090
1628114557.026,54.199,-32.715,-25.391,37.109
1628114557.030,1.953,-42.480,-14.648,2.441
1628114557.033,-94.727,-29.785,-5.859,-43.457
1628114557.037,-80.078,-20.996,-14.648,-39.551
1628114557.041,2.930,-20.508,-33.691,0.000
1628114557.045,-1.465,-18.066,-27.344,-5.859
1628114557.049,-101.074,-28.809,-27.344,-59.082
1628114557.061,-104.004,-16.602,-24.414,-49.316
1628114557.065,-3.418,-30.273,-41.016,-2.441
1628114557.069,33.203,-40.527,-55.176,9.766
1628114557.073,-65.918,-32.227,-37.598,-41.016
1628114557.077,-120.605,-44.434,-31.250,-70.312
1628114557.081,-19.531,-53.223,-37.598,-20.996
1628114557.085,70.312,-41.504,-26.367,27.832
1628114557.088,-3.906,-42.969,-22.949,-7.812
1628114557.092,-106.445,-44.434,-40.039,-66.406
1628114557.096,-55.176,-32.227,-45.898,-35.645
1628114557.100,54.199,-20.508,-36.133,24.414
1628114557.104,4.395,-27.344,-39.062,-13.672
1628114557.099,-108.887,-31.250,-44.434,-75.195
1628114557.103,-84.473,-44.922,-37.598,-48.828
1628114557.107,17.578,-60.059,-44.434,6.836
1628114557.111,18.555,-38.574,-49.805,-7.324
1628114557.115,-78.125,-24.414,-35.156,-58.594
1628114557.119,-84.961,-30.273,-24.414,-45.898
1628114557.123,41.992,-16.602,-13.184,22.461
1628114557.126,90.332,-1.953,-25.391,34.668
1628114557.130,-41.504,-37.598,-62.500,-41.992
1628114557.134,-126.465,-56.152,-75.195,-89.355
1628114557.138,-34.668,-28.320,-44.434,-34.180
1628114557.142,56.152,-7.324,-20.508,14.648
1628114557.139,-19.531,-20.996,-32.227,-33.691
1628114557.143,-118.164,-41.016,-34.180,-85.449
1628114557.147,-59.082,-36.621,-25.879,-43.945
1628114557.151,45.410,-46.387,-26.367,9.277
1628114557.155,5.859,-62.500,-35.156,-14.648
1628114557.159,-81.055,-42.969,-31.250,-43.945
1628114557.163,-56.152,-25.879,-23.926,-21.484
1628114557.166,33.203,-15.137,-37.598,14.648
1628114557.170,22.949,-20.020,-49.805,-6.836
1628114557.174,-72.266,-16.113,-37.109,-62.500
1628114557.178,-103.027,-22.949,-21.973,-64.941
1628114557.182,-16.602,-45.410,-34.180,-21.484
1628114557.192,50.293,-31.250,-42.969,4.883
1628114557.196,-46.387,-7.812,-30.273,-42.480
1628114557.200,-122.559,-11.230,-35.645,-81.543
1628114557.204,-29.297,-25.391,-37.598,-32.227
1628114557.208,72.266,-27.832,-30.273,23.926
1628114557.212,4.883,-36.621,-54.199,-18.555
1628114557.216,-110.840,-17.578,-53.711,-76.172
1628114557.219,-82.520,-20.020,-38.574,-53.711
1628114557.223,8.789,-43.945,-47.852,-19.043
1628114557.227,-15.137,-43.945,-50.781,-41.016
1628114557.231,-118.652,-48.828,-40.039,-87.891
1628114557.235,-106.445,-52.246,-22.949,-78.125
1628114557.229,12.207,-45.898,-18.066,-15.625
1628114557.233,41.016,-36.133,-20.996,-0.488
1628114557.237,-84.473,-50.781,-29.785,-72.266
1628114557.241,-141.113,-57.129,-35.645,-91.797
1628114557.245,-33.691,-28.809,-29.785,-22.949
1628114557.249,53.711,-22.949,-13.184,19.043
1628114557.253,-32.715,-50.293,-19.531,-35.156
1628114557.256,-146.973,-57.617,-47.363,-103.027
1628114557.260,-66.406,-39.062,-62.012,-61.523
1628114557.264,47.852,-31.738,-50.293,-3.906
1628114557.268,-17.090,-41.016,-30.762,-43.457
1628114557.272,-136.230,-47.363,-41.016,-94.727
1628114557.287,-85.449,-24.414,-40.039,-56.641
1628114557.291,50.781,-22.461,-31.738,5.859
1628114557.295,29.785,-44.434,-24.902,-4.883
1628114557.299,-97.656,-46.875,-15.625,-66.406
1628114557.303,-107.910,-41.504,-15.625,-75.195
1628114557.307,24.902,-33.691,-10.742,-2.441
1628114557.311,62.500,-69.336,-14.160,17.578
1628114557.314,-72.266,-69.336,-41.992,-57.129
1628114557.318,-128.418,-32.227,-48.340,-77.148
1628114557.322,-11.230,-12.695,-17.578,-17.578
1628114557.326,76.172,-12.207,-5.859,18.555
1628114557.330,-26.855,-47.852,-22.949,-32.227
1628114557.323,-120.117,-31.738,-23.926,-75.684
1628114557.327,-33.691,-18.555,-11.719,-21.973
1628114557.331,80.566,-38.086,-12.695,41.016
1628114557.335,20.020,-42.480,-30.273,-1.953
1628114557.339,-84.473,-6.348,-11.230,-47.363
1628114557.343,-46.387,-14.160,-1.465,-19.043
1628114557.347,44.434,-53.223,-35.645,14.648
1628114557.350,36.621,-46.387,-55.176,-0.488
1628114557.354,-70.801,-36.621,-47.852,-57.617
1628114557.358,-91.309,-13.672,-19.043,-52.246
1628114557.362,2.441,-6.348,-13.672,-9.766
1628114557.366,41.504,-18.555,-13.672,-3.906
1628114557.380,-63.965,-14.160,-4.883,-54.199
1628114557.384,-124.512,-42.480,-0.488,-77.637
1628114557.388,-29.785,-68.359,-14.648,-19.043
1628114557.392,54.688,-53.223,-24.414,22.949
1628114557.396,-29.297,-43.945,-25.391,-34.180
1628114557.400,-145.996,-33.691,-38.086,-95.703
1628114557.404,-82.520,-62.500,-52.734,-56.152
1628114557.407,23.926,-67.871,-61.035,0.977
1628114557.411,-7.812,-29.297,-33.691,-19.531
1628114557.415,-117.676,-23.926,-21.484,-77.637
1628114557.419,-118.164,-33.691,-41.992,-76.660
1628114557.423,-5.859,-36.621,-43.457,-21.973
1628114557.417,23.926,-28.320,-33.691,-11.230
1628114557.421,-76.660,-42.969,-40.527,-66.895
1628114557.425,-118.652,-38.574,-36.621,-84.961
1628114557.429,-13.672,-23.926,-40.039,-21.973
1628114557.433,43.457,-40.039,-62.012,7.324
1628114557.437,-35.156,-25.879,-41.992,-26.855
1628114557.441,-96.680,-19.043,-14.648,-51.270
1628114557.444,-32.715,-43.457,-26.367,-21.973
1628114557.448,25.879,-30.273,-54.199,-6.348
1628114557.452,-13.184,-7.324,-40.527,-25.391
1628114557.456,-83.984,-36.621,-19.043,-53.711
1628114557.460,-58.594,-43.457,-28.809,-35.156
1628114557.492,55.664,-25.879,-30.762,20.020
1628114557.496,31.250,-23.438,-28.809,0.977
1628114557.500,-89.355,-26.367,-35.645,-54.199
1628114557.504,-85.449,-40.039,-34.180,-47.852
1628114557.508,34.668,-34.180,-39.062,10.742
1628114557.512,59.082,-45.410,-45.410,10.742
1628114557.516,-44.922,-31.250,-34.668,-42.969
1628114557.519,-65.918,4.883,-18.066,-37.598
1628114557.523,19.043,-4.395,-41.504,12.207
1628114557.527,60.059,-15.625,-64.941,21.484
1628114557.531,-27.832,-22.461,-42.480,-36.133
1628114557.535,-107.910,-33.691,-22.949,-72.754
1628114557.513,-35.156,-42.480,-10.742,-25.879
1628114557.517,48.828,-49.316,-24.414,10.742
1628114557.521,-2.441,-38.086,-33.691,-23.926
1628114557.525,-109.375,-14.648,-28.320,-79.590
1628114557.529,-86.426,-19.531,-38.086,-64.453
1628114557.533,45.898,-39.551,-54.199,9.766
1628114557.537,68.848,-29.785,-37.598,24.414
1628114557.540,-35.645,-4.883,-10.742,-38.574
1628114557.544,-81.543,-14.648,-30.762,-72.266
1628114557.548,3.418,-40.527,-36.621,-30.762
1628114557.552,39.062,-49.316,-26.367,-17.090
1628114557.556,-71.777,-40.039,-37.109,-76.660
1628114557.567,-118.652,-13.672,-37.598,-95.703
1628114557.571,-13.672,-4.395,-39.062,-26.855
1628114557.575,53.711,-20.508,-45.898,17.090
1628114557.579,-35.156,-37.109,-49.316,-39.062
1628114557.583,-128.418,-38.574,-43.457,-87.402
1628114557.587,-61.035,-26.367,-20.996,-42.969
1628114557.591,38.574,-53.223,-20.508,9.766
1628114557.594,-3.906,-65.430,-24.414,-13.672
1628114557.598,-93.262,-48.340,-29.785,-58.105
1628114557.602,-89.844,-42.969,-43.457,-45.410
1628114557.606,19.043,-29.785,-38.086,7.324
1628114557.610,20.508,-41.016,-41.504,-11.230
1628114557.623,-96.191,-32.715,-42.969,-74.707
1628114557.627,-100.586,-11.719,-31.738,-55.176
1628114557.631,14.160,-13.184,-28.320,13.672
1628114557.635,51.270,-20.020,-36.621,20.996
1628114557.639,-50.293,-34.668,-38.574,-37.598
1628114557.643,-125.977,-44.922,-47.363,-81.543
1628114557.647,-53.711,-35.156,-56.152,-43.945
1628114557.650,52.734,-20.996,-39.551,11.230
1628114557.654,-6.836,-16.602,-34.180,-23.926
1628114557.658,-114.746,-26.367,-34.668,-74.707
1628114557.662,-59.570,-36.133,-30.273,-41.992
1628114557.666,59.570,-30.273,-34.668,25.391
1628114557.662,18.066,-30.273,-41.016,-5.371
1628114557.666,-108.887,-30.762,-33.203,-83.496
1628114557.670,-93.750,-12.695,-18.555,-61.035
1628114557.674,19.531,-13.672,-25.879,-4.883
1628114557.678,40.039,-21.484,-23.926,-0.488
1628114557.682,-59.570,-20.996,-20.020,-44.434
1628114557.686,-97.656,-23.438,-26.855,-53.711
1628114557.689,0.977,-31.250,-23.438,0.000
1628114557.693,52.734,-42.969,-31.738,11.230
1628114557.697,-44.922,-58.594,-49.316,-51.758
1628114557.701,-112.793,-58.105,-38.574,-75.195
1628114557.705,-35.156,-18.066,-25.391,-29.785
1628114557.698,42.969,-3.906,-47.852,-0.977
1628114557.702,5.859,-2.441,-49.805,-25.391
1628114557.706,-91.797,-6.348,-30.762,-80.566
1628114557.710,-89.844,-20.996,-34.668,-73.730
1628114557.714,14.648,-13.184,-27.832,-9.766
1628114557.718,23.926,-19.531,-19.531,-8.301
1628114557.722,-85.938,-40.527,-38.086,-75.684
1628114557.725,-110.840,-57.129,-38.086,-91.309
1628114557.729,-5.371,-40.039,-37.598,-33.203
1628114557.733,34.180,-38.574,-40.039,-17.090
1628114557.737,-66.895,-53.223,-22.461,-60.547
1628114557.741,-127.441,-50.293,-26.367,-91.309
1628114557.756,-36.133,-35.645,-41.992,-41.992
1628114557.760,48.340,-27.832,-49.805,11.230
1628114557.764,-1.465,-18.555,-18.555,-9.766
1628114557.768,-75.195,-18.555,1.953,-35.645
1628114557.772,-54.688,-42.969,-25.391,-28.809
1628114557.776,28.320,-27.344,-41.016,5.371
1628114557.780,0.000,-12.207,-41.016,-16.602
1628114557.783,-112.305,-21.973,-25.879,-69.336
1628114557.787,-73.730,-25.879,-14.648,-42.480
1628114557.791,41.504,-26.855,-22.949,7.324
1628114557.795,23.438,-40.039,-34.180,-15.137
1628114557.799,-75.195,-45.898,-34.180,-64.453
1628114557.792,-80.078,-33.691,-33.691,-59.570
1628114557.796,8.789,-33.691,-49.805,-17.090
1628114557.800,64.453,-25.879,-34.668,9.277
1628114557.804,-30.273,-33.691,-26.367,-38.574
1628114557.808,-109.863,-42.969,-41.992,-80.566
1628114557.812,1.465,-15.625,-24.902,-15.137
1628114557.816,82.031,-21.973,-25.879,26.367
1628114557.819,-15.625,-41.016,-36.133,-35.156
1628114557.823,-124.023,-33.691,-31.250,-90.820
1628114557.827,-67.871,-26.367,-37.598,-54.199
1628114557.831,44.922,-14.160,-40.039,11.719
1628114557.835,5.859,-30.273,-54.199,-20.996
1628114557.852,-99.121,-49.805,-63.965,-79.590
1628114557.856,-75.684,-28.320,-38.574,-49.805
1628114557.860,41.992,-17.090,-20.996,12.695
1628114557.864,57.617,-28.809,-14.160,23.438
1628114557.868,-71.289,-40.039,-24.902,-47.852
1628114557.872,-119.629,-40.527,-47.363,-83.008
1628114557.876,-8.789,-12.207,-32.715,-18.066
1628114557.879,46.387,-4.883,-24.414,13.672
1628114557.883,-51.270,-33.203,-37.598,-50.781
1628114557.887,-110.352,-36.133,-26.855,-75.195
1628114557.891,-23.926,-20.020,-10.254,-17.090
1628114557.895,49.316,-8.789,-36.621,14.648
1628114557.888,-15.137,-30.273,-42.480,-14.648
1628114557.892,-96.680,-46.875,-25.391,-45.410
1628114557.896,-55.176,-70.801,-26.855,-20.996
1628114557.900,32.715,-47.852,-26.855,20.020
1628114557.904,5.859,-9.277,-29.297,-10.742
1628114557.908,-99.121,-36.133,-41.016,-62.012
1628114557.912,-111.328,-47.852,-57.617,-54.199
1628114557.915,-1.953,-49.805,-49.805,-3.906
1628114557.919,36.133,-29.297,-40.527,3.906
1628114557.923,-77.148,-17.578,-28.809,-50.781
1628114557.927,-102.051,-28.809,-8.789,-52.734
1628114557.931,-0.977,-29.785,-8.301,-2.930
1628114557.942,41.504,-36.133,-20.020,10.742
1628114557.946,-34.180,-51.270,-25.879,-32.227
1628114557.950,-117.676,-54.199,-39.551,-74.219
1628114557.954,-70.312,-47.852,-47.363,-45.410
1628114557.958,21.484,-40.039,-30.273,10.254
1628114557.962,-36.133,-38.574,-37.109,-22.461
1628114557.966,-126.465,-7.324,-38.086,-65.918
1628114557.969,-75.684,-9.277,-26.367,-33.691
1628114557.973,21.484,-55.664,-29.297,8.301
1628114557.977,-0.977,-75.684,-35.645,-19.043
1628114557.981,-104.004,-59.082,-24.414,-66.895
1628114557.985,-112.793,-20.996,-30.762,-56.152
1628114557.980,-1.953,-27.344,-47.363,2.930
1628114557.984,56.641,-24.414,-26.367,37.109
1628114557.988,-54.199,-39.551,-9.766,-24.414
1628114557.992,-128.418,-50.293,-13.184,-76.660
1628114557.996,-29.785,-41.504,-8.301,-26.367
1628114558.000,59.570,-49.805,-20.508,16.113
1628114558.004,-32.227,-42.969,-55.176,-40.527
1628114558.007,-128.906,-41.016,-44.922,-87.402
1628114558.011,-58.594,-18.066,-30.273,-47.852
1628114558.015,34.180,-8.301,-43.457,3.418
1628114558.019,-12.695,-34.180,-34.180,-22.949
1628114558.023,-126.465,-41.016,-21.484,-79.590
1628114558.038,-83.496,-36.621,-17.090,-37.598
1628114558.042,25.391,-31.250,-41.992,18.066
1628114558.046,5.859,-42.480,-37.598,-4.395
1628114558.050,-101.562,-54.688,-14.160,-55.176
1628114558.054,-121.094,-52.734,-30.762,-56.152
1628114558.058,-11.719,-47.852,-37.109,0.488
1628114558.062,51.758,15.137,-38.574,24.902
1628114558.065,-51.758,-10.254,-40.039,-42.480
1628114558.069,-134.766,-83.008,-27.832,-88.867
1628114558.073,-48.828,-60.547,-32.715,-41.504
1628114558.077,42.480,-39.551,-38.086,0.488
1628114558.081,-9.277,-29.297,-39.062,-34.180
1628114558.073,-108.398,-36.133,-36.133,-80.078
1628114558.077,-63.477,-46.875,-36.133,-52.734
1628114558.081,54.688,-43.457,-39.551,-0.977
1628114558.085,24.414,-15.137,-50.781,-20.996
1628114558.089,-94.727,-0.977,-67.871,-81.055
1628114558.093,-92.285,-23.926,-47.852,-68.848
1628114558.097,17.090,-32.227,-35.156,-9.766
1628114558.100,62.988,-20.508,-26.855,5.371
1628114558.104,-48.828,-2.441,-30.273,-59.082
1628114558.108,-113.281,-5.859,-55.664,-86.914
1628114558.112,-0.977,-35.156,-42.480,-11.230
1628114558.116,65.918,-37.109,-23.926,29.297
1628114558.131,-11.230,-38.086,-10.742,-22.461
1628114558.135,-100.098,-29.785,-12.695,-68.359
1628114558.139,-37.109,-24.902,-32.227,-17.578
1628114558.143,70.312,-38.086,-32.715,26.855
1628114558.147,-18.555,-55.664,-33.203,-40.039
1628114558.151,-130.371,-44.922,-36.621,-92.773
1628114558.155,-58.594,1.465,-41.016,-49.805
1628114558.158,61.035,11.719,-20.508,21.484
1628114558.162,35.645,3.906,-7.812,5.859
1628114558.166,-102.051,-17.090,-22.461,-73.730
1628114558.170,-101.562,-18.555,-26.367,-62.012
1628114558.174,27.832,5.371,-34.180,7.812
1628114558.167,21.973,-48.340,-62.500,-8.301
1628114558.171,-107.910,-85.449,-75.195,-85.449
1628114558.175,-123.047,-59.082,-41.992,-76.172
1628114558.179,-10.254,-36.133,-24.902,-6.836
1628114558.183,64.941,-20.508,-25.391,28.809
1628114558.187,-18.555,-27.344,-32.227,-20.020
1628114558.191,-117.188,-30.762,-43.457,-72.754
1628114558.194,-50.781,-25.879,-40.527,-37.109
1628114558.198,45.410,1.465,-34.668,6.348
1628114558.202,-4.883,8.789,-24.414,-31.738
1628114558.206,-95.215,-27.832,-11.719,-65.430
1628114558.210,-59.570,-28.809,-9.277,-34.180
1628114558.223,54.199,-42.969,-10.254,14.160
1628114558.227,36.133,-30.762,-28.320,-8.301
1628114558.231,-74.707,-9.766,-36.133,-63.477
1628114558.235,-92.773,-32.715,-26.855,-62.012
1628114558.239,0.977,-42.480,-32.715,-17.090
1628114558.243,55.176,-30.762,-40.527,4.883
1628114558.247,-35.645,13.184,-37.598,-42.969
1628114558.250,-104.980,-0.977,-28.320,-72.266
1628114558.254,-22.949,-40.039,-16.602,-20.996
1628114558.258,72.754,-27.344,-35.645,21.484
1628114558.262,8.789,-38.086,-49.805,-19.531
1628114558.266,-110.352,-38.086,-27.832,-78.125
1628114558.261,-59.082,-32.227,-17.578,-47.852
1628114558.265,45.898,-33.203,-24.902,2.930
1628114558.269,1.953,-36.133,-23.926,-25.391
1628114558.273,-101.562,-31.738,-25.879,-72.754
1628114558.277,-72.266,-21.484,-29.785,-43.945
1628114558.281,27.832,-42.480,-34.668,8.789
1628114558.285,30.762,-41.504,-39.062,-1.953
1628114558.288,-67.383,-44.922,-34.668,-48.828
1628114558.292,-115.234,-26.855,-34.180,-65.430
1628114558.296,-18.066,-15.137,-32.715,-21.484
1628114558.300,58.594,-29.785,-23.926,13.672
1628114558.304,-31.738,-17.578,-22.461,-35.645
1628114558.317,-119.629,-34.180,-33.203,-74.707
1628114558.321,-41.016,-14.648,-37.598,-22.949
1628114558.325,57.129,-10.742,-36.133,24.902
1628114558.329,6.836,-35.156,-23.438,-2.930
1628114558.333,-80.078,-49.805,-23.926,-48.828
1628114558.337,-37.598,-55.176,-14.160,-20.996
1628114558.341,69.336,14.160,-3.418,31.250
1628114558.344,17.090,-1.953,-30.762,-19.531
1628114558.348,-121.582,-56.641,-52.734,-97.656
1628114558.352,-111.328,-40.527,-50.293,-81.055
1628114558.356,6.836,-26.855,-35.156,-10.254
1628114558.360,34.180,-1.465,-25.391,-1.953
1628114558.356,-62.988,-30.762,-19.043,-56.152
1628114558.360,-114.258,-58.105,-26.855,-77.148
1628114558.364,-22.949,-70.801,-49.316,-28.809
1628114558.368,55.664,-33.203,-43.945,14.648
1628114558.372,-22.949,1.953,-37.598,-24.414
1628114558.376,-121.094,-40.039,-28.809,-73.730
1628114558.380,-62.500,-54.688,-31.738,-49.316
1628114558.383,35.156,-73.242,-34.668,-11.230
1628114558.387,-0.488,-11.230,-32.227,-20.996
1628114558.391,-96.680,24.902,-41.504,-63.477
1628114558.395,-89.844,-53.223,-38.086,-65.918
1628114558.399,18.066,-53.711,-20.020,-13.184
1628114558.412,22.949,-40.527,-11.230,-6.836
1628114558.416,-82.031,-41.992,-29.785,-57.617
1628114558.420,-83.984,-27.832,-30.273,-48.340
1628114558.424,27.344,-35.156,-6.348,13.184
1628114558.428,55.176,-52.734,-8.789,19.043
1628114558.432,-65.430,-52.734,-29.785,-45.898
1628114558.436,-129.395,-6.836,-46.875,-79.102
1628114558.439,-34.668,-12.695,-47.852,-28.320
1628114558.443,43.457,-58.594,-19.531,14.160
1628114558.447,-29.785,-52.734,-10.254,-31.250
1628114558.451,-111.816,-29.297,-27.344,-69.824
1628114558.455,-42.969,1.953,-21.973,-22.949
1628114558.449,57.617,-25.391,-15.625,25.391
1628114558.453,-1.953,-57.129,-22.461,-16.113
1628114558.457,-116.211,-52.246,-30.762,-74.707
1628114558.461,-107.422,-46.387,-53.711,-68.359
1628114558.465,-4.883,-49.805,-53.711,-30.273
1628114558.469,6.836,-53.223,-25.879,-21.973
1628114558.473,-93.750,-48.340,-29.785,-71.777
1628114558.476,-107.422,-50.293,-41.992,-72.754
1628114558.480,1.953,-42.969,-30.762,-2.930
1628114558.484,41.992,-42.480,-33.203,13.184
1628114558.488,-61.523,-51.758,-30.762,-39.551
1628114558.492,-132.324,-50.781,-20.996,-74.707
1628114558.504,-71.289,-53.711,-18.555,-46.875
1628114558.508,14.160,-19.043,-30.273,-10.742
1628114558.512,-42.480,-8.301,-37.598,-52.734
1628114558.516,-136.719,-48.340,-36.621,-99.121
1628114558.520,-70.801,-50.781,-35.645,-48.340
1628114558.524,50.293,-50.781,-21.973,22.461
1628114558.528,5.859,-26.367,-27.832,-15.625
1628114558.531,-121.582,-28.320,-39.062,-88.379
1628114558.535,-90.820,-43.945,-28.320,-55.176
1628114558.539,34.180,-32.715,-13.184,19.531
1628114558.543,33.203,-14.648,-5.371,6.836
1628114558.547,-94.727,3.418,-15.137,-74.219
1628114558.542,-129.883,-21.973,-25.879,-86.914
1628114558.546,-23.926,-52.246,-38.086,-21.484
1628114558.550,18.555,-70.312,-41.016,-9.277
1628114558.554,-83.984,-46.387,-33.203,-71.777
1628114558.558,-158.203,-22.461,-31.738,-93.750
1628114558.562,-45.410,-28.809,-27.832,-24.414
1628114558.566,61.035,-24.902,-23.926,28.320
1628114558.569,-18.066,-46.387,-22.461,-19.043
1628114558.573,-139.160,-18.066,-42.480,-85.449
1628114558.577,-89.844,11.719,-35.156,-50.781
1628114558.581,52.734,-27.344,-2.930,34.668
1628114558.585,25.879,-46.875,-20.020,15.625
1628114558.598,-103.516,-65.430,-40.527,-58.594
1628114558.602,-100.586,-36.621,-37.598,-45.898
1628114558.606,6.836,-16.602,-32.227,-5.371
1628114558.610,29.785,-37.598,-28.320,-13.184
1628114558.614,-67.871,-33.203,-33.203,-59.082
1628114558.618,-115.723,-39.551,-29.785,-73.242
1628114558.622,-19.043,-44.434,-8.789,-22.949
1628114558.625,40.527,-52.246,-16.602,0.488
1628114558.629,-44.922,-69.824,-41.504,-48.828
1628114558.633,-115.723,-62.012,-39.062,-78.613
1628114558.637,-52.246,-50.781,-30.762,-31.250
1628114558.641,46.875,-30.762,-42.480,13.672
1628114558.636,-1.465,-20.020,-28.809,-26.367
1628114558.640,-127.930,-31.738,-1.953,-83.496
1628114558.644,-97.656,-56.152,-4.883,-58.105
1628114558.648,25.879,-50.293,-42.480,4.395
1628114558.652,24.414,-20.020,-45.410,-1.465
1628114558.656,-78.125,-29.297,-8.301,-50.781
1628114558.660,-91.797,-41.992,0.000,-51.758
1628114558.663,25.879,-58.105,-6.836,14.648
1628114558.667,54.688,-29.297,-37.109,24.414
1628114558.671,-68.848,-1.953,-56.152,-56.641
1628114558.675,-125.000,-42.480,-38.086,-86.426
1628114558.679,-15.137,-49.805,-30.762,-12.695
1628114558.692,76.172,-34.668,-21.973,37.598
1628114558.696,-12.207,-41.992,-8.301,-14.160
1628114558.700,-107.422,-43.457,-7.324,-58.105
1628114558.704,-48.340,-37.109,-33.203,-31.250
1628114558.708,62.012,-38.086,-45.898,22.949
1628114558.712,41.016,-36.133,-23.438,5.371
1628114558.716,-92.773,-12.207,-26.367,-66.406
1628114558.719,-69.824,-17.578,-21.973,-42.969
1628114558.723,63.965,-58.105,-7.324,31.738
1628114558.727,51.758,-61.523,-24.414,20.508
1628114558.731,-79.102,-28.320,-51.270,-54.688
1628114558.735,-115.723,25.391,-52.734,-68.359
1628114558.733,13.672,18.555,-32.715,9.277
1628114558.737,79.590,-9.277,-20.020,43.457
1628114558.741,-43.457,-26.367,-17.090,-27.832
1628114558.745,-140.137,-32.227,-35.156,-87.891
1628114558.749,-39.551,-18.555,-38.086,-35.645
1628114558.753,69.336,-58.105,-13.184,24.414
1628114558.757,-4.395,-79.102,-9.766,-16.602
1628114558.760,-119.629,-57.617,-27.344,-74.707
1628114558.764,-92.285,-19.043,-54.688,-58.594
1628114558.768,27.832,-9.766,-68.848,-5.859
1628114558.772,29.785,-36.621,-42.969,-4.883
1628114558.776,-78.125,-25.879,-35.645,-50.293
1628114558.786,-79.102,-12.695,-45.898,-46.875
1628114558.790,30.273,-15.137,-24.902,11.230
1628114558.794,26.855,-39.551,-26.367,0.000
1628114558.798,-86.426,-39.551,-29.785,-62.500
1628114558.802,-117.188,-43.457,-29.297,-71.777
1628114558.806,-7.324,-55.176,-41.504,-6.836
1628114558.810,65.918,20.508,-45.898,28.809
1628114558.813,-43.457,1.953,-39.551,-30.273
1628114558.817,-151.367,-62.988,-40.039,-80.566
1628114558.821,-54.688,-47.363,-36.621,-32.227
1628114558.825,62.012,-30.273,-37.598,26.367
1628114558.829,-0.488,35.156,-36.133,-19.043
1628114558.843,-117.676,-16.113,-25.879,-85.938
1628114558.847,-91.797,-71.289,-21.484,-57.129
1628114558.851,37.598,-46.387,-19.043,7.812
1628114558.855,27.832,7.812,-21.484,-4.395
1628114558.859,-105.469,26.855,-29.297,-72.266
1628114558.863,-111.328,-54.688,-27.344,-68.848
1628114558.867,7.324,-64.941,-25.879,-4.395
1628114558.870,36.133,-75.195,-38.086,5.859
1628114558.874,-66.895,3.906,-37.598,-52.246
1628114558.878,-116.699,62.012,-18.555,-76.172
1628114558.882,-3.418,-28.809,-3.906,-5.371
1628114558.886,77.637,-32.227,-2.930,31.738
1628114558.881,-8.789,-33.691,-16.113,-16.113
1628114558.885,-95.703,-43.945,-25.391,-50.293
1628114558.889,-45.410,-42.480,-17.090,-20.508
1628114558.893,53.223,-44.922,-17.090,24.414
1628114558.897,9.277,-55.176,-20.996,-8.301
1628114558.901,-104.980,-56.152,-27.832,-69.336
1628114558.905,-70.312,-19.043,-24.902,-38.574
1628114558.908,47.852,-14.648,-4.395,30.273
1628114558.912,29.297,-38.086,-6.836,12.695
1628114558.916,-86.426,-60.547,-29.297,-64.453
1628114558.920,-107.422,-60.059,-38.574,-72.754
1628114558.924,1.953,1.465,-39.062,-8.789
1628114558.917,58.105,-20.020,-37.598,11.719
1628114558.921,-59.082,-71.289,-37.109,-53.223
1628114558.925,-127.441,-63.965,-30.273,-74.219
1628114558.929,-27.832,-16.113,-21.973,-11.230
1628114558.933,54.199,23.926,-23.926,15.137
1628114558.937,-29.785,-20.508,-29.785,-35.156
1628114558.941,-133.789,-52.734,-31.250,-74.707
1628114558.944,-80.078,-65.430,-43.945,-42.969
1628114558.948,27.344,-33.203,-61.523,3.418
1628114558.952,-20.508,-22.461,-59.082,-34.180
1628114558.956,-129.395,-56.641,-48.340,-94.727
1628114558.960,-100.098,-49.805,-29.297,-75.195
1628114558.973,18.555,-39.062,-14.648,-5.371
1628114558.977,16.113,-33.691,-41.504,-9.766
1628114558.981,-106.445,-65.430,-84.473,-81.055
1628114558.985,-127.930,-62.988,-61.523,-85.449
1628114558.989,-8.301,-40.039,-9.277,-19.531
1628114558.993,40.039,-66.406,-7.812,0.977
1628114558.997,-70.801,-36.133,-38.086,-68.848
1628114559.000,-136.230,-27.832,-44.434,-106.445
1628114559.004,-44.922,-50.781,-29.297,-52.734
1628114559.008,50.781,-36.621,-25.391,-3.418
1628114559.012,-13.672,-33.691,-40.527,-44.434
1628114559.016,-108.398,-32.715,-58.105,-82.520
1628114559.015,-42.480,-56.152,-44.434,-34.180
1628114559.019,90.820,-40.527,-16.602,34.668
1628114559.023,57.129,-21.484,-26.855,12.695
1628114559.027,-97.656,-25.879,-42.480,-75.684
1628114559.031,-104.004,9.277,-36.621,-79.590
1628114559.035,6.836,-9.766,-40.039,-18.555
1628114559.039,38.574,-41.504,-51.270,-19.531
1628114559.042,-66.895,-61.035,-54.199,-77.637
1628114559.046,-109.863,-45.898,-41.504,-83.496
1628114559.050,9.766,-24.414,-26.367,-14.648
1628114559.054,94.238,-28.320,-25.879,36.133
1628114559.058,-8.789,-15.137,-39.551,-21.484
1628114559.067,-126.953,-15.137,-37.109,-95.215
1628114559.071,-70.312,-18.066,-49.805,-67.871
1628114559.075,25.879,-37.109,-42.480,-14.648
1628114559.079,-23.438,-46.387,-15.625,-42.969
1628114559.083,-125.977,-47.852,-26.855,-94.727
1628114559.087,-80.566,-49.316,-38.574,-60.059
1628114559.091,43.945,-12.695,-41.016,2.441
1628114559.094,18.066,-19.043,-28.809,-16.113
1628114559.098,-107.422,-47.363,-16.602,-72.266
1628114559.102,-121.582,-58.594,-31.250,-68.848
1628114559.106,11.719,-63.477,-34.668,-7.812
1628114559.110,60.547,-36.133,-33.691,7.324
1628114559.105,-59.570,-22.949,-23.926,-48.340
1628114559.109,-106.934,-19.531,-9.766,-64.453
1628114559.113,-5.859,-28.320,-25.391,-7.812
1628114559.117,61.035,-42.969,-39.551,16.602
1628114559.121,-35.156,-41.016,-38.574,-41.992
1628114559.125,-138.184,-45.898,-42.480,-90.332
1628114559.129,-45.410,-43.457,-34.180,-38.574
1628114559.132,88.867,-46.875,-15.625,41.016
1628114559.136,10.742,-48.828,-32.715,-9.766
1628114559.140,-123.047,-36.621,-43.945,-83.984
1628114559.144,-79.590,-37.598,-27.344,-47.852
1628114559.148,56.152,-59.082,-16.113,24.902
1628114559.161,53.711,-60.547,-24.414,22.949
1628114559.165,-89.355,-16.602,-29.297,-48.340
1628114559.169,-145.020,-20.996,-30.273,-83.008
1628114559.173,-17.578,-30.762,-20.996,-13.672
1628114559.177,51.270,-34.180,-13.184,25.879
1628114559.181,-41.504,-64.453,-15.137,-23.926
1628114559.185,-102.051,-28.320,-19.043,-47.363
1628114559.188,-22.949,-12.207,-25.391,-2.930
1628114559.192,68.848,-34.668,-16.602,36.133
1628114559.196,2.441,-27.344,-16.113,-13.672
1628114559.200,-96.191,-21.973,-17.090,-62.500
1628114559.204,-39.551,-7.324,-15.625,-29.785
1628114559.198,76.660,-21.973,-30.762,24.902
1628114559.202,30.273,-32.715,-40.039,-2.930
1628114559.206,-82.520,-33.691,-23.438,-58.594
1628114559.210,-57.617,-23.438,-10.742,-36.621
1628114559.214,36.621,-25.391,-24.414,7.324
1628114559.218,42.969,-39.551,-33.691,4.395
1628114559.222,-66.406,-24.414,-28.809,-45.898
1628114559.225,-118.164,-38.574,-27.344,-69.824
1628114559.229,-4.395,-12.695,-20.508,-11.719
1628114559.233,66.895,23.926,-21.973,22.461
1628114559.237,-39.551,-19.531,-35.156,-35.645
1628114559.241,-118.164,-33.203,-40.527,-76.660
1628114559.254,-29.297,-37.598,-27.344,-22.461
1628114559.258,52.734,-30.273,-29.297,14.160
1628114559.262,-18.555,-22.461,-48.828,-34.180
1628114559.266,-125.977,-35.156,-47.363,-82.031
1628114559.270,-94.238,-40.527,-36.133,-64.941
1628114559.274,32.227,-36.621,-24.902,-1.953
1628114559.278,28.320,3.418,-41.992,-10.742
1628114559.281,-81.543,-3.418,-53.711,-70.312
1628114559.285,-91.309,-54.199,-42.480,-72.754
1628114559.289,0.977,-85.938,-57.617,-28.320
1628114559.293,44.922,-54.199,-44.434,7.324
1628114559.297,-45.410,-6.348,-29.297,-51.270
1628114559.292,-100.586,-29.785,-42.969,-94.238
1628114559.296,-9.766,-28.320,-40.039,-33.203
1628114559.300,72.754,-31.738,-21.484,8.789
1628114559.304,-12.207,-30.762,-21.484,-38.574
1628114559.308,-122.559,-11.719,-35.156,-88.867
1628114559.312,-64.453,-18.555,-37.109,-47.363
1628114559.316,49.805,-15.137,-31.738,9.277
1628114559.319,4.883,-25.391,-36.621,-19.531
1628114559.323,-109.375,-40.039,-55.176,-83.008
1628114559.327,-81.543,-41.016,-55.664,-69.336
1628114559.331,32.227,-39.062,-36.133,-0.977
1628114559.335,20.996,-31.250,-35.156,-7.812
1628114559.349,-70.801,-36.133,-36.621,-50.293
1628114559.353,-101.074,-28.320,-32.715,-48.340
1628114559.357,-17.090,-32.227,-25.879,-6.348
1628114559.361,59.570,-33.691,-0.977,30.762
1628114559.365,-40.039,-19.531,-22.461,-18.066
1628114559.369,-117.676,-30.762,-31.738,-55.664
1628114559.373,-19.043,20.508,-2.441,0.488
1628114559.376,68.848,30.762,-6.348,36.133
1628114559.380,-20.020,-32.715,-19.043,-21.973
1628114559.384,-131.348,-67.871,-34.180,-78.613
1628114559.388,-75.684,-57.129,-45.898,-41.504
1628114559.392,34.180,-11.719,-39.062,3.906
1628114559.387,0.488,-29.785,-30.762,-20.996
1628114559.391,-93.750,-47.852,-29.785,-63.965
1628114559.395,-77.637,-33.203,-14.160,-51.758
1628114559.399,20.508,-17.578,-20.508,2.441
1628114559.403,21.973,-20.996,-45.898,-7.812
1628114559.407,-78.613,-41.016,-42.480,-68.359
1628114559.411,-112.305,-50.781,-26.855,-70.312
1628114559.414,-5.371,-57.617,-1.465,-3.906
1628114559.418,67.383,-39.062,-2.930,16.602
1628114559.422,-60.059,-42.969,-37.598,-62.500
1628114559.426,-148.438,-61.523,-45.410,-99.609
1628114559.430,-63.965,-45.410,-38.574,-46.387
1628114559.442,18.555,-39.551,-44.922,-9.766
1628114559.446,-35.645,-31.250,-40.039,-40.527
1628114559.450,-130.859,-38.086,-25.879,-86.426
1628114559.454,-86.914,-59.570,-22.461,-61.523
1628114559.458,26.367,-57.129,-31.738,0.000
1628114559.462,-14.648,-47.363,-44.922,-27.832
1628114559.466,-128.906,-49.805,-44.434,-88.867
1628114559.469,-86.914,-48.340,-15.137,-55.176
1628114559.473,31.250,-58.105,-9.277,8.301
1628114559.477,19.043,-64.453,-48.340,-10.742
1628114559.481,-112.793,-52.734,-57.617,-85.938
1628114559.485,-145.020,-23.438,-41.504,-97.168
1628114559.479,-30.273,-28.809,-28.320,-29.785
1628114559.483,29.785,-49.316,-29.297,5.371
1628114559.487,-47.852,-40.527,-37.109,-39.551
1628114559.491,-125.488,-53.223,-37.109,-77.637
1628114559.495,-52.246,-61.035,-34.668,-33.203
1628114559.499,52.734,-28.809,-28.320,18.066
1628114559.503,-11.230,-17.578,-29.785,-20.508
1628114559.506,-106.445,-32.715,-25.391,-67.383
1628114559.510,-63.477,-44.434,-38.086,-36.621
1628114559.514,48.340,-31.250,-32.715,26.367
1628114559.518,35.156,-20.996,-22.461,10.742
1628114559.522,-95.215,-44.922,-32.715,-57.129
1628114559.537,-109.375,-71.289,-25.879,-59.082
1628114559.541,6.348,-44.922,-20.020,1.953
1628114559.545,61.523,-4.395,-16.113,35.645
1628114559.549,-52.734,-24.902,-27.832,-31.738
1628114559.553,-122.559,-37.598,-34.180,-66.406
1628114559.557,-7.324,-32.715,-24.414,5.859
1628114559.561,75.195,17.578,-23.926,42.480
1628114559.564,-22.461,7.812,-30.273,-23.438
1628114559.568,-122.559,-41.504,-28.320,-83.008
1628114559.572,-44.434,-43.945,-26.367,-40.039
1628114559.576,62.500,-52.734,-30.762,16.113
1628114559.580,8.789,-21.973,-27.344,-16.113
1628114559.574,-96.680,-22.461,-20.508,-67.871
1628114559.578,-65.918,-39.551,-18.066,-47.363
1628114559.582,65.430,-36.133,-18.555,24.902
1628114559.586,53.223,-10.742,-23.926,10.254
1628114559.590,-79.590,0.488,-17.090,-66.406
1628114559.594,-107.910,-31.250,-28.320,-68.359
1628114559.598,-8.301,-45.410,-46.875,-12.207
1628114559.601,43.457,-44.434,-28.320,10.742
1628114559.605,-64.941,-28.809,-31.738,-45.410
1628114559.609,-149.414,-17.578,-49.805,-84.473
1628114559.613,-57.617,-41.992,-37.109,-38.086
1628114559.617,48.828,-50.781,-23.926,11.719
1628114559.648,-1.465,-47.363,-27.344,-17.578
1628114559.652,-125.977,-53.711,-35.645,-83.008
1628114559.656,-66.895,-45.410,-33.691,-45.410
1628114559.660,68.848,-52.246,-32.227,28.809
1628114559.664,15.625,-49.316,-21.973,-2.441
1628114559.668,-104.004,-25.879,-15.625,-59.570
1628114559.672,-84.473,-18.066,-32.715,-42.480
1628114559.675,44.434,-28.809,-39.062,22.949
1628114559.679,50.293,-47.852,-33.691,21.484
1628114559.683,-81.543,-59.082,-29.297,-59.570
1628114559.687,-115.723,-36.133,-25.391,-72.266
1628114559.691,-9.766,10.742,-22.461,-8.301
1628114559.667,76.660,1.953,-16.602,39.062
1628114559.671,-20.020,-35.645,-25.391,-18.066
1628114559.675,-132.812,-62.012,-34.668,-83.984
1628114559.679,-59.082,-53.711,-48.340,-38.086
1628114559.683,47.852,-52.246,-54.688,18.555
1628114559.687,-7.324,-65.918,-34.668,-20.996
1628114559.691,-121.094,-51.270,-35.156,-84.961
1628114559.694,-81.055,-41.992,-34.668,-52.246
1628114559.698,23.438,-18.066,-20.020,3.906
1628114559.702,-2.930,-17.578,-23.438,-22.461
1628114559.706,-84.473,-39.062,-20.508,-54.199
1628114559.710,-87.402,-44.922,-19.531,-52.246
1628114559.723,-3.906,-56.641,-38.574,-23.926
1628114559.727,33.691,-28.809,-41.992,-5.859
1628114559.731,-62.500,-2.930,-42.969,-57.129
1628114559.735,-124.023,-37.109,-44.922,-87.891
1628114559.739,-34.668,-57.617,-38.574,-39.062
1628114559.743,47.852,-56.152,-35.156,-1.465
1628114559.747,-13.184,-11.719,-60.059,-33.203
1628114559.750,-97.168,3.906,-48.828,-69.824
1628114559.754,-48.828,-25.391,-17.090,-41.016
1628114559.758,44.922,-34.668,-22.461,3.418
1628114559.762,12.695,-21.484,-7.324,-15.625
1628114559.766,-137.207,-33.203,-25.879,-99.121
1628114559.760,-134.766,-68.359,-62.012,-100.586
1628114559.764,5.859,-62.012,-60.547,-20.508
1628114559.768,6.836,-47.852,-50.781,-19.531
1628114559.772,-91.309,-27.344,-28.320,-79.102
1628114559.776,-111.328,-17.090,-22.949,-79.590
1628114559.780,2.441,-46.875,-21.484,-5.371
1628114559.784,56.152,-39.551,-28.320,17.578
1628114559.787,-53.223,-29.297,-29.785,-36.621
1628114559.791,-128.906,-21.484,-25.879,-74.219
1628114559.795,-29.785,-15.625,-12.207,-25.879
1628114559.799,72.754,-36.133,-11.230,29.785
1628114559.803,-23.438,-45.898,-47.363,-33.203
1628114559.817,-132.324,-42.969,-57.129,-90.820
1628114559.821,-59.570,-39.551,-40.527,-35.645
1628114559.825,61.035,-18.555,-25.391,26.855
1628114559.829,34.180,-0.977,-7.324,7.812
1628114559.833,-85.938,-31.250,-10.742,-48.828
1628114559.837,-76.660,-36.133,-18.066,-42.480
1628114559.841,47.363,-8.789,-26.367,18.066
1628114559.844,44.434,-32.227,-40.039,10.742
1628114559.848,-79.590,-44.922,-11.230,-51.270
1628114559.852,-84.961,-25.879,4.883,-51.270
1628114559.856,16.602,-11.719,-15.137,2.441
1628114559.860,44.434,-0.488,-38.574,10.254
1628114559.855,-47.852,-27.832,-36.621,-40.039
1628114559.859,-119.629,-48.828,-19.531,-71.289
1628114559.863,-38.574,-34.180,-27.832,-23.926
1628114559.867,50.781,-15.137,-33.203,24.414
1628114559.871,-14.160,-30.762,-21.484,-14.648
1628114559.875,-104.492,-40.039,-3.906,-55.176
1628114559.879,-41.504,-34.668,-0.977,-9.277
1628114559.882,48.828,-49.805,-31.250,33.691
1628114559.886,-2.930,-30.762,-46.387,-3.906
1628114559.890,-124.512,-14.160,-38.574,-74.707
1628114559.894,-109.863,-20.508,-27.832,-61.035
1628114559.898,37.109,-10.254,-13.672,16.602
1628114559.910,55.664,-10.254,-11.230,18.555
1628114559.914,-53.223,-22.949,-22.949,-41.504
1628114559.918,-92.285,-43.945,-32.227,-62.500
1628114559.922,-17.578,-66.406,-32.715,-26.367
1628114559.926,58.105,-64.453,-36.621,8.301
1628114559.930,-29.297,-45.410,-59.570,-41.504
1628114559.934,-109.863,13.184,-61.035,-80.078
1628114559.937,-35.645,0.000,-40.527,-34.668
1628114559.941,53.223,-29.297,-28.809,5.859
1628114559.945,-7.324,-32.227,-51.270,-36.133
1628114559.949,-111.328,-53.711,-60.059,-86.426
1628114559.953,-63.477,-22.461,-34.668,-51.270
1628114559.948,43.457,-17.578,-21.973,0.000
1628114559.952,29.785,-25.879,-20.020,-11.719
1628114559.956,-81.543,-42.480,-29.297,-65.918
1628114559.960,-103.516,-42.969,-29.297,-73.242
1628114559.964,-6.348,-36.133,-20.020,-19.043
1628114559.968,27.832,-62.500,-36.133,0.000
1628114559.972,-56.152,-34.180,-37.109,-22.461
1628114559.975,-115.234,-39.062,-28.809,-47.852
1628114559.979,-37.109,-14.648,-35.156,-28.809
1628114559.983,41.016,26.367,-37.109,4.883
1628114559.987,-52.246,-23.438,-37.109,-50.781
1628114559.991,-131.836,-42.969,-23.926,-87.402
1628114560.004,-44.434,-59.570,-20.020,-27.832
1628114560.008,56.152,-39.551,-18.066,26.367
1628114560.012,-7.812,-20.996,-35.645,-24.414
1628114560.016,-121.094,-42.969,-41.992,-85.449
1628114560.020,-69.824,-50.781,-5.859,-40.527
1628114560.024,59.570,-34.180,-5.371,31.250
1628114560.028,34.668,-15.625,-48.340,-5.859
1628114560.031,-102.051,-28.320,-41.992,-81.543
1628114560.035,-119.141,-53.711,-32.715,-82.520
1628114560.039,0.488,-45.898,-56.641,-17.090
1628114560.043,58.105,-19.043,-41.992,10.254
1628114560.047,-36.133,2.930,-20.996,-38.574
1628114560.042,-111.816,-15.137,-26.855,-70.312
1628114560.046,-23.926,-31.738,-21.973,-18.066
1628114560.050,75.195,-41.016,-23.438,32.715
1628114560.054,-36.621,-46.387,-31.250,-38.086
1628114560.058,-156.738,-32.715,-25.391,-104.980
1628114560.062,-78.613,-37.598,-49.316,-66.406
1628114560.066,47.852,-34.668,-56.152,0.000
1628114560.069,4.883,-53.711,-22.461,-23.438
1628114560.073,-127.441,-18.555,-13.672,-90.820
1628114560.077,-88.867,21.484,-16.113,-58.105
1628114560.081,52.734,-43.457,-10.254,26.855
1628114560.085,14.160,-82.031,-31.250,-6.836
1628114560.098,-131.836,-54.199,-44.922,-88.379
1628114560.102,-125.488,-22.949,-36.621,-73.242
1628114560.106,10.742,-43.457,-46.875,1.465
1628114560.110,70.801,-26.855,-63.477,27.344
1628114560.114,-62.988,-20.020,-54.199,-55.176
1628114560.118,-161.133,-69.336,-48.828,-103.027
1628114560.122,-25.879,-10.742,-38.574,-23.926
1628114560.125,75.684,0.000,-26.367,6.836
1628114560.129,-35.156,-50.781,-29.297,-54.688
1628114560.133,-127.441,-31.738,-15.625,-85.938
1628114560.137,-34.668,-23.926,0.000,-23.438
1628114560.141,88.867,-21.973,-18.555,51.270
1628114560.156,11.719,-61.523,-53.711,-3.906
1628114560.160,-133.301,-47.852,-59.082,-89.355
1628114560.164,-105.957,-32.227,-32.715,-69.824
1628114560.168,34.180,16.113,-21.973,4.883
1628114560.172,42.480,37.598,-39.062,7.812
1628114560.176,-96.680,-48.340,-43.945,-61.523
1628114560.180,-132.812,-42.969,-34.180,-85.449
1628114560.183,-13.184,-46.875,-26.855,-29.297
1628114560.187,67.871,4.883,-26.855,8.301
1628114560.191,-30.273,47.363,-31.738,-53.711
1628114560.195,-131.836,-44.434,-46.387,-99.609
1628114560.199,-39.551,-70.801,-43.457,-29.297
1628114560.192,92.285,-56.641,-16.113,44.922
1628114560.196,5.859,-60.547,-26.855,-15.137
1628114560.200,-134.277,-51.758,-56.641,-91.797
1628114560.204,-74.707,-29.785,-56.152,-51.758
1628114560.208,58.594,-20.508,-36.133,28.809
1628114560.212,24.902,-26.367,-34.180,3.906
1628114560.216,-101.074,-31.738,-35.645,-66.895
1628114560.219,-94.238,-28.809,-37.109,-53.223
1628114560.223,40.039,-22.461,-40.527,17.090
1628114560.227,51.270,-47.852,-41.016,3.418
1628114560.231,-98.145,-50.781,-41.504,-79.102
1628114560.235,-113.281,10.254,-14.160,-61.523
1628114560.229,20.996,-31.250,-1.465,18.555
1628114560.233,56.641,-90.820,-30.762,19.531
1628114560.237,-60.547,-69.336,-41.504,-55.176
1628114560.241,-146.484,-5.859,-39.551,-96.191
1628114560.245,-59.570,39.551,-39.062,-40.527
1628114560.249,57.617,-10.742,-29.297,28.320
1628114560.253,1.465,-21.973,-51.758,-7.324
1628114560.256,-108.887,-28.809,-54.688,-69.336
1628114560.260,-83.008,-4.395,-33.203,-45.410
1628114560.264,55.176,-3.418,-15.137,27.344
1628114560.268,55.664,-67.383,-0.977,18.555
1628114560.272,-126.465,-73.730,-31.738,-91.309
1628114560.287,-157.715,-73.730,-52.734,-112.793
1628114560.291,-10.742,-6.836,-38.086,-32.715
1628114560.295,50.293,20.996,-28.320,-5.859
1628114560.299,-63.965,-27.832,-26.855,-62.988
1628114560.303,-129.883,-45.898,-32.715,-92.773
1628114560.307,0.977,-54.199,-20.508,-14.160
1628114560.311,85.449,26.855,-20.996,30.273
1628114560.314,-31.250,14.160,-48.340,-45.898
1628114560.318,-125.000,-83.984,-42.969,-86.914
1628114560.322,-46.875,-89.844,-49.805,-35.645
1628114560.326,63.965,-47.363,-56.152,19.531
1628114560.330,24.902,28.809,-24.902,-4.395
1628114560.326,-101.562,-14.648,-16.602,-71.289
1628114560.330,-77.637,-51.270,-22.949,-57.617
1628114560.334,57.129,-53.711,-16.113,13.672
1628114560.338,36.621,-29.297,-24.414,-10.742
1628114560.342,-104.004,15.625,-37.109,-90.332
1628114560.346,-109.863,-45.410,-30.273,-83.008
1628114560.350,24.902,-64.941,-38.574,-6.348
1628114560.353,65.918,-70.312,-50.293,13.184
1628114560.357,-61.035,7.812,-47.852,-52.246
1628114560.361,-121.582,49.805,-25.879,-66.895
1628114560.365,-5.371,-57.617,-13.184,2.930
1628114560.369,88.867,-43.945,-31.738,41.992
1628114560.380,-20.508,-19.531,-43.945,-31.738
1628114560.384,-142.578,-34.180,-23.438,-96.680
1628114560.388,-60.547,-50.293,-15.625,-46.387
1628114560.392,79.102,-57.617,-11.719,29.785
1628114560.396,22.461,-60.059,-12.695,-2.930
1628114560.400,-125.488,-70.312,-33.203,-91.309
1628114560.404,-90.332,32.715,-46.387,-71.289
1628114560.407,44.922,36.621,-48.340,-0.488
1628114560.411,33.203,-54.688,-54.688,-20.020
1628114560.415,-99.609,-65.918,-48.340,-88.867
1628114560.419,-131.348,-62.988,-45.898,-92.773
1628114560.423,-8.301,14.160,-41.504,-23.926
1628114560.417,69.336,-12.695,-22.461,19.531
1628114560.421,-63.477,-78.613,-43.945,-60.059
1628114560.425,-145.020,-64.941,-48.340,-104.980
1628114560.429,-26.855,-27.344,-25.879,-32.227
1628114560.433,77.637,-20.020,-19.531,29.297
1628114560.437,5.859,-61.523,-29.297,-12.695
1628114560.441,-124.023,-72.754,-53.711,-91.797
1628114560.444,-79.102,-71.289,-38.574,-58.105
1628114560.448,43.945,11.719,-29.297,8.301
1628114560.452,21.973,50.293,-35.156,-10.254
1628114560.456,-96.680,-51.270,-47.363,-77.637
1628114560.460,-104.980,-55.664,-58.105,-77.148
1628114560.474,25.879,-40.527,-34.668,-0.488
1628114560.478,65.918,-3.906,-32.227,10.254
1628114560.482,-71.777,-4.395,-45.410,-67.383
1628114560.486,-133.789,-58.594,-45.898,-96.680
1628114560.490,0.000,-52.246,-39.062,-17.578
1628114560.494,86.914,-70.312,-30.762,38.086
1628114560.498,-30.762,22.461,-21.973,-29.785
1628114560.501,-145.508,37.109,-36.621,-98.145
1628114560.505,-47.363,-45.410,-43.457,-39.062
1628114560.509,77.148,-29.785,-16.602,26.855
1628114560.513,-25.391,-28.809,-27.832,-49.316
1628114560.517,-146.973,-15.625,-36.621,-110.352
1628114560.511,-73.730,-39.062,-19.531,-46.387
1628114560.515,81.055,-35.156,-19.043,42.969
1628114560.519,50.781,-61.523,-46.875,2.441
1628114560.523,-117.188,-37.598,-46.387,-93.750
1628114560.527,-118.652,53.223,-38.086,-80.566
1628114560.531,25.391,-19.043,-45.898,-2.441
1628114560.535,57.617,-37.109,-40.527,5.371
1628114560.538,-79.102,-37.598,-30.762,-66.895
1628114560.542,-141.113,25.391,-23.926,-91.797
1628114560.546,-7.324,77.148,-29.297,-17.090
1628114560.550,93.262,-39.062,-37.598,38.574
1628114560.554,-6.836,-73.730,-35.645,-20.020
1628114560.569,-134.766,-84.473,-37.598,-91.797
1628114560.573,-70.312,-42.480,-46.387,-64.453
1628114560.577,61.035,-26.855,-50.293,-0.977
1628114560.581,1.953,-62.988,-60.059,-32.715
1628114560.585,-133.789,-58.105,-51.270,-89.355
1628114560.589,-79.590,-59.082,-32.227,-45.898
1628114560.593,67.383,28.320,-37.109,16.602
1628114560.596,62.988,44.922,-23.926,6.836
1628114560.600,-83.984,-37.109,-13.672,-68.848
1628114560.604,-113.770,-58.594,-16.113,-76.172
1628114560.608,22.949,-55.176,-23.438,0.977
1628114560.612,67.383,13.184,-39.062,11.719
1628114560.614,-12.695,-74.707,-45.410,-14.160
1628114560.618,85.449,-41.504,-43.457,36.133
1628114560.622,-23.926,-21.484,-40.527,-34.180
1628114560.626,-145.996,-61.523,-47.852,-104.980
1628114560.630,-71.777,-41.992,-32.715,-56.152
1628114560.633,73.730,-48.340,5.371,32.227
1628114560.637,29.297,38.086,0.977,3.906
1628114560.641,-127.930,78.613,-25.879,-88.379
1628114560.645,-125.977,-48.828,-31.738,-77.637
1628114560.649,17.090,-64.453,-32.715,4.395
1628114560.661,55.664,-54.199,-35.156,9.277
1628114560.665,-67.871,-25.391,-36.133,-59.082
1628114560.669,-107.422,-29.297,-32.715,-63.965
1628114560.673,25.879,-55.176,-33.203,15.625
1628114560.677,89.355,-56.152,-45.898,37.109
1628114560.681,-40.527,-77.148,-45.898,-37.109
1628114560.685,-123.535,16.602,-35.645,-77.148
1628114560.688,-15.625,27.344,-33.203,-15.137
