timestamps,TP9,AF7,AF8,TP10
1626.4662757120002,-528.32,-513.184,-730.4689999999999,-1000.0
1626.4662757160002,171.875,-468.75,-659.668,-926.758
1626.46627572,543.457,-456.055,-685.547,-792.48
1626.466275724,697.2660000000001,-479.98,-750.488,-908.691
1626.466275728,748.047,-494.14099999999996,-739.258,-996.0939999999999
1626.4662757320002,840.332,-470.215,-666.992,-791.992
1626.4662757360002,895.02,-440.918,-659.18,-614.746
1626.466275739,907.715,-444.824,-721.191,-741.211
1626.4662757429999,944.824,-477.051,-750.977,-904.785
1626.4662757470003,968.262,-479.004,-677.7339999999999,-752.93
1626.4662757510002,965.332,-446.777,-628.906,-581.055
1626.4662757550002,966.309,-442.38300000000004,-679.199,-653.809
1626.4662757550002,966.797,-469.23800000000006,-732.422,-869.1410000000001
1626.466275759,966.797,-465.332,-671.387,-841.797
1626.4662757629999,965.82,-429.199,-618.6519999999999,-640.625
1626.4662757670003,962.8910000000001,-425.781,-642.09,-720.703
1626.4662757710003,969.727,-444.336,-687.988,-939.941
1626.466275775,894.043,-446.777,-656.25,-1000.0
1626.466275779,748.047,-424.805,-589.355,-994.1410000000001
1626.4662757820001,608.398,-421.38699999999994,-600.0980000000001,-1000.0
1626.466275786,398.43800000000005,-443.35900000000004,-662.5980000000001,-1000.0
1626.46627579,231.93400000000003,-458.00800000000004,-659.668,-1000.0
1626.466275794,151.855,-439.941,-594.727,-1000.0
1626.466275798,113.77,-407.227,-574.219,-1000.0
1626.4662758,124.512,-410.645,-617.188,-1000.0
1626.466275804,175.293,-447.754,-654.297,-1000.0
1626.4662758079999,349.60900000000004,-438.477,-590.82,-1000.0
1626.466275812,481.934,-410.645,-550.293,-1000.0
1626.466275816,486.32800000000003,-414.06199999999995,-599.609,-1000.0
1626.46627582,446.777,-429.199,-650.391,-1000.0
1626.466275824,421.38699999999994,-429.199,-595.703,-1000.0
1626.4662758270001,413.086,-407.715,-547.363,-1000.0
1626.466275831,369.14099999999996,-395.996,-585.4490000000001,-1000.0
1626.466275835,281.738,-423.34,-646.484,-1000.0
1626.466275839,230.46900000000002,-451.66,-613.281,-1000.0
1626.466275843,239.74599999999998,-427.246,-541.992,-1000.0
1626.466275845,243.65200000000002,-398.43800000000005,-545.898,-1000.0
1626.4662758489999,216.797,-403.809,-600.586,-1000.0
1626.4662758529998,182.12900000000002,-425.293,-614.258,-1000.0
1626.466275857,199.707,-413.086,-556.641,-1000.0
1626.466275861,240.72299999999998,-377.441,-523.438,-1000.0
1626.466275865,276.855,-372.07,-551.27,-1000.0
1626.466275869,292.969,-396.973,-588.379,-1000.0
1626.4662758720003,327.637,-399.902,-533.691,-1000.0
1626.466275876,395.996,-365.23400000000004,-494.14099999999996,-1000.0
1626.46627588,464.844,-355.469,-533.691,-1000.0
1626.4662758839997,506.836,-381.836,-574.219,-1000.0
1626.4662758879997,571.289,-377.441,-521.484,-1000.0
1626.4662758910001,643.066,-350.098,-466.309,-1000.0
1626.466275895,705.078,-335.93800000000005,-481.934,-1000.0
1626.466275899,767.578,-345.215,-535.645,-1000.0
1626.4662759029998,833.4960000000001,-362.305,-528.32,-1000.0
1626.466275907,926.27,-342.773,-463.86699999999996,-1000.0
1626.466275911,969.727,-312.5,-445.801,-993.6519999999999
1626.4662759149999,965.332,-326.172,-501.465,-1000.0
1626.466275918,960.938,-358.88699999999994,-526.367,-993.6519999999999
1626.4662759220002,967.285,-347.168,-453.61300000000006,-726.074
1626.4662759260002,936.035,-327.637,-440.918,-553.2230000000001
1626.4662759300002,707.0310000000001,-332.031,-517.578,-816.895
1626.4662759340001,363.77,-361.32800000000003,-579.102,-1000.0
1626.466275937,-164.551,-375.977,-540.5269999999999,-994.6289999999999
1626.466275941,-769.043,-360.352,-494.14099999999996,-996.582
1626.466275945,-1000.0,-364.25800000000004,-543.457,-1000.0
1626.466275949,-989.7460000000001,-411.13300000000004,-635.742,-1000.0
1626.466275953,-997.559,-427.73400000000004,-616.6990000000001,-1000.0
1626.466275957,-1000.0,-408.691,-589.355,-1000.0
1626.466275961,-1000.0,-414.551,-642.09,-1000.0
1626.466275964,-1000.0,-455.566,-738.2810000000001,-1000.0
1626.466275968,-1000.0,-492.18800000000005,-785.1560000000001,-1000.0
1626.4662759720002,-1000.0,-500.0,-761.7189999999999,-1000.0
1626.4662759760001,-1000.0,-511.23,-813.477,-1000.0
1626.46627598,-1000.0,-555.664,-937.988,-1000.0
1626.466275995,-1000.0,-624.512,-1000.0,-1000.0
1626.466275999,-1000.0,-657.227,-997.559,-1000.0
1626.4662760029998,-1000.0,-676.27,-999.512,-1000.0
1626.4662760070003,-1000.0,-717.773,-1000.0,-1000.0
1626.4662760110002,-1000.0,-770.02,-1000.0,-1000.0
1626.4662760150002,-1000.0,-810.547,-1000.0,-1000.0
1626.4662760190001,-1000.0,-825.195,-1000.0,-1000.0
1626.466276022,-1000.0,-851.074,-1000.0,-1000.0
1626.466276026,-1000.0,-905.273,-1000.0,-1000.0
1626.46627603,-1000.0,-979.98,-1000.0,-1000.0
1626.466276034,-1000.0,-1000.0,-1000.0,-1000.0
1626.466276038,-1000.0,-981.934,-1000.0,-1000.0
1626.46627604,-999.023,-984.375,-1000.0,-1000.0
1626.4662760439999,-1000.0,-1000.0,-1000.0,-1000.0
1626.4662760479998,-978.0269999999999,-1000.0,-1000.0,-1000.0
1626.466276052,-924.316,-1000.0,-1000.0,-1000.0
1626.466276056,-860.84,-1000.0,-1000.0,-1000.0
1626.46627606,-809.57,-1000.0,-1000.0,-1000.0
1626.4662760639999,-773.926,-1000.0,-1000.0,-1000.0
1626.466276067,-699.707,-1000.0,-1000.0,-1000.0
1626.466276071,-601.0740000000001,-1000.0,-1000.0,-1000.0
1626.466276075,-511.23,-1000.0,-1000.0,-1000.0
1626.466276079,-475.586,-1000.0,-1000.0,-1000.0
1626.466276083,-514.16,-1000.0,-1000.0,-1000.0
1626.4662760850001,-614.746,-1000.0,-1000.0,-1000.0
1626.466276089,-790.5269999999999,-1000.0,-1000.0,-1000.0
1626.466276093,-955.566,-1000.0,-1000.0,-1000.0
1626.4662760970002,-1000.0,-1000.0,-1000.0,-1000.0
1626.4662761010002,-996.582,-1000.0,-1000.0,-1000.0
1626.466276105,-1000.0,-1000.0,-1000.0,-1000.0
1626.4662761089999,-1000.0,-1000.0,-1000.0,-1000.0
1626.4662761120003,-993.164,-1000.0,-1000.0,-1000.0
1626.4662761160002,-1000.0,-1000.0,-1000.0,-1000.0
1626.46627612,-929.688,-1000.0,-1000.0,-1000.0
1626.466276124,-787.5980000000001,-1000.0,-1000.0,-1000.0
1626.466276128,-883.301,-1000.0,-1000.0,-1000.0
1626.46627613,-997.559,-1000.0,-1000.0,-1000.0
1626.4662761339998,-998.535,-1000.0,-1000.0,-1000.0
1626.4662761379998,-998.047,-1000.0,-1000.0,-1000.0
1626.4662761420002,-1000.0,-1000.0,-1000.0,-1000.0
1626.4662761460002,-1000.0,-1000.0,-1000.0,-1000.0
1626.46627615,-1000.0,-1000.0,-1000.0,-1000.0
1626.466276154,-1000.0,-1000.0,-1000.0,-1000.0
1626.466276157,-1000.0,-1000.0,-1000.0,-1000.0
1626.466276161,-1000.0,-1000.0,-1000.0,-1000.0
1626.466276165,-1000.0,-1000.0,-1000.0,-1000.0
1626.466276169,-1000.0,-1000.0,-1000.0,-1000.0
1626.4662761729999,-1000.0,-1000.0,-1000.0,-1000.0
1626.466276176,-1000.0,-1000.0,-1000.0,-1000.0
1626.46627618,-1000.0,-1000.0,-1000.0,-1000.0
1626.466276184,-1000.0,-1000.0,-1000.0,-1000.0
1626.466276188,-1000.0,-1000.0,-1000.0,-1000.0
1626.4662761920001,-1000.0,-1000.0,-1000.0,-1000.0
1626.466276196,-1000.0,-1000.0,-1000.0,-1000.0
1626.4662762,-1000.0,-1000.0,-1000.0,-1000.0
1626.4662762029998,-1000.0,-1000.0,-1000.0,-1000.0
1626.466276207,-1000.0,-1000.0,-1000.0,-1000.0
1626.466276211,-1000.0,-1000.0,-1000.0,-1000.0
1626.4662762149999,-1000.0,-1000.0,-1000.0,-1000.0
1626.4662762189998,-1000.0,-998.535,-1000.0,-1000.0
1626.46627622,-1000.0,-1000.0,-1000.0,-1000.0
1626.466276224,-1000.0,-981.445,-1000.0,-1000.0
1626.466276228,-1000.0,-943.3589999999999,-999.023,-1000.0
1626.4662762320002,-1000.0,-943.8480000000001,-998.047,-1000.0
1626.466276236,-1000.0,-953.613,-1000.0,-1000.0
1626.46627624,-1000.0,-918.457,-957.52,-1000.0
1626.466276244,-1000.0,-881.3480000000001,-902.832,-990.7230000000001
1626.4662762470002,-1000.0,-902.3439999999999,-936.523,-1000.0
1626.4662762510002,-1000.0,-917.48,-962.8910000000001,-916.0160000000001
1626.4662762550001,-1000.0,-894.5310000000001,-880.8589999999999,-661.133
1626.4662762589999,-1000.0,-855.957,-803.2230000000001,-453.125
1626.4662762629998,-1000.0,-841.309,-820.801,-475.586
1626.466276265,-1000.0,-852.539,-866.211,-365.23400000000004
1626.466276269,-1000.0,-846.68,-821.7769999999999,-315.43
1626.4662762729997,-1000.0,-828.125,-745.117,-612.793
1626.4662762770001,-1000.0,-794.922,-729.0039999999999,-201.66
1626.466276281,-1000.0,-790.039,-770.9960000000001,312.012
1626.466276285,-1000.0,-782.715,-760.2539999999999,515.625
1626.466276289,-1000.0,-805.176,-670.898,562.012
1626.466276292,-1000.0,-792.9689999999999,-621.582,411.621
1626.466276296,-1000.0,-729.492,-632.812,410.156
1626.4662763,-1000.0,-751.953,-631.836,329.102
1626.4662763039998,-1000.0,-757.812,-543.457,-102.051
1626.4662763079998,-1000.0,-729.98,-498.04699999999997,-799.805
1626.46627631,-1000.0,-702.637,-517.578,-1000.0
1626.466276314,-1000.0,-703.613,-539.5509999999999,-978.0269999999999
1626.466276318,-1000.0,-700.684,-492.676,-1000.0
1626.466276322,-1000.0,-662.5980000000001,-442.38300000000004,-1000.0
1626.466276326,-1000.0,-634.766,-450.195,-1000.0
1626.46627633,-996.0939999999999,-643.555,-490.23400000000004,-1000.0
1626.466276334,-1000.0,-647.9490000000001,-470.70300000000003,-1000.0
1626.4662763370002,-976.074,-615.7230000000001,-414.06199999999995,-1000.0
1626.4662763410001,-831.055,-583.984,-410.156,-995.605
1626.466276345,-568.359,-594.727,-457.031,-1000.0
1626.466276349,-257.324,-606.934,-461.914,-1000.0
1626.466276353,222.65599999999998,-570.312,-401.855,-785.1560000000001
1626.4662763699998,578.613,-534.668,-384.277,-834.961
1626.4662763739998,802.7339999999999,-540.5269999999999,-423.34,-993.164
1626.4662763779997,859.375,-565.43,-455.566,-652.832
1626.4662763820002,742.676,-544.922,-411.621,-345.70300000000003
1626.4662763860001,880.8589999999999,-505.85900000000004,-374.023,-473.145
1626.46627639,927.2460000000001,-503.906,-410.156,-844.238
1626.466276394,952.637,-524.414,-474.60900000000004,-712.8910000000001
1626.466276397,862.305,-534.668,-450.684,-617.188
1626.466276401,286.621,-512.207,-401.36699999999996,-812.5
1626.466276405,-339.844,-507.324,-427.246,-808.105
1626.4662764089999,-348.63300000000004,-516.602,-498.535,-636.719
1626.4662764129998,-587.891,-523.438,-493.164,-453.61300000000006
1626.466276416,-1000.0,-509.76599999999996,-439.941,-265.137
1626.46627642,-963.867,-474.60900000000004,-448.73,-142.09
1626.466276424,-1000.0,-479.98,-505.85900000000004,-16.113
1626.466276428,-811.523,-517.09,-531.25,79.102
1626.466276432,252.93,-493.164,-480.469,115.234
1626.466276436,973.633,-437.01199999999994,-467.285,20.02
1626.46627644,947.2660000000001,-435.54699999999997,-525.879,-22.949
1626.4662764429997,953.613,-472.656,-574.707,-23.438000000000002
1626.466276447,970.215,-479.49199999999996,-538.5740000000001,-17.578
1626.4662764509999,966.309,-459.473,-509.277,143.555
1626.4662764549998,966.309,-442.871,-542.48,486.32800000000003
1626.4662764589998,966.309,-451.66,-601.0740000000001,828.125
1626.466276461,966.309,-461.426,-583.496,972.6560000000001
1626.466276465,966.309,-443.848,-534.668,959.4730000000001
1626.466276469,966.309,-428.223,-543.457,965.82
1626.4662764729999,966.309,-445.801,-604.492,967.773
1626.4662764770003,966.309,-466.309,-619.141,969.238
1626.466276481,966.309,-449.219,-557.129,954.102
1626.466276485,966.309,-437.98800000000006,-543.945,981.445
1626.466276488,966.309,-451.66,-603.516,910.1560000000001
1626.4662764920001,966.309,-488.281,-632.3240000000001,588.379
1626.466276496,966.309,-500.48800000000006,-573.242,462.402
1626.4662765,966.309,-472.168,-543.457,543.945
1626.466276504,966.309,-470.70300000000003,-586.4259999999999,547.363
1626.4662765050002,966.309,-494.629,-641.113,612.793
1626.4662765089997,966.309,-498.535,-607.91,709.961
1626.4662765129997,966.309,-479.98,-573.242,637.207
1626.466276517,966.309,-477.051,-611.816,663.086
1626.466276521,966.309,-497.559,-668.945,890.137
1626.466276525,966.309,-505.371,-656.738,974.1210000000001
1626.466276529,966.309,-502.93,-604.492,960.938
1626.4662765320002,966.309,-499.023,-612.305,966.309
1626.4662765360001,966.309,-507.324,-680.664,967.285
1626.4662765399999,966.309,-537.109,-689.453,966.797
1626.4662765439998,966.309,-529.785,-625.977,966.797
1626.4662765479998,966.309,-499.023,-608.398,967.773
1626.4662765510002,966.309,-501.465,-665.5269999999999,963.3789999999999
1626.4662765550001,966.309,-524.9019999999999,-699.707,963.867
1626.466276559,966.309,-520.02,-636.23,983.398
1626.466276563,966.309,-494.14099999999996,-599.121,791.5039999999999
1626.4662765670002,966.309,-483.398,-639.648,752.93
1626.4662765710002,966.309,-493.652,-685.547,929.688
1626.466276575,966.309,-494.14099999999996,-635.742,944.824
1626.466276578,966.309,-481.445,-585.4490000000001,964.355
1626.466276582,966.309,-472.656,-599.609,967.773
1626.466276586,966.309,-483.88699999999994,-642.578,966.309
1626.46627659,966.309,-496.094,-618.6519999999999,967.285
1626.466276594,966.309,-464.355,-540.039,961.914
1626.466276595,966.309,-439.45300000000003,-538.5740000000001,975.586
1626.466276599,966.309,-452.63699999999994,-586.914,903.32
1626.4662766029999,966.309,-466.79699999999997,-586.4259999999999,720.215
1626.466276607,966.309,-448.24199999999996,-510.74199999999996,616.6990000000001
1626.466276611,966.309,-419.434,-464.844,270.996
1626.466276615,966.309,-416.504,-501.95300000000003,-464.844
1626.466276619,966.309,-440.918,-541.992,-909.18
1626.4662766220001,966.309,-435.059,-478.51599999999996,-967.285
1626.466276626,966.309,-380.85900000000004,-420.41,-972.6560000000001
1626.46627663,966.309,-354.98,-437.5,-1000.0
1626.4662766339998,966.309,-367.18800000000005,-479.98,-808.105
1626.4662766379997,966.309,-362.793,-435.54699999999997,-14.16
1626.4662766400002,966.309,-313.47700000000003,-360.352,620.605
1626.4662766440001,966.309,-279.297,-363.281,952.148
1626.4662766479998,966.309,-300.293,-424.316,342.285
1626.4662766520003,966.309,-321.777,-409.18,-868.164
1626.4662766560002,966.309,-279.297,-324.707,-435.059
1626.4662766600002,966.309,-222.168,-303.223,620.605
1626.4662766640001,966.309,-233.887,-366.211,956.055
1626.466276667,966.309,-264.16,-391.11300000000006,842.773
1626.466276671,966.309,-241.699,-306.64099999999996,662.1089999999999
1626.466276675,966.309,-231.445,-277.344,46.387
1626.466276679,966.309,-245.11700000000002,-325.195,-870.117
1626.466276683,966.309,-255.859,-369.14099999999996,-259.76599999999996
1626.466276685,966.309,-237.793,-320.801,795.41
1626.4662766889999,966.309,-200.68400000000003,-258.301,-995.605
1626.4662766929998,965.82,-190.918,-281.738,803.2230000000001
1626.466276697,965.82,-223.145,-346.191,600.586
1626.466276701,966.309,-229.49200000000002,-309.57,894.5310000000001
1626.466276705,966.309,-200.68400000000003,-244.141,724.1210000000001
1626.4662767089999,967.285,-190.43,-263.184,570.312
1626.466276712,967.285,-217.773,-327.14799999999997,818.3589999999999
1626.466276716,910.645,-254.88299999999998,-331.055,754.883
1626.46627672,-925.293,-240.72299999999998,-263.672,822.2660000000001
1626.466276724,316.406,-226.562,-243.65200000000002,937.012
1626.466276728,-941.4060000000001,-248.047,-297.363,958.008
1626.466276745,-1000.0,-272.461,-325.684,967.285
1626.466276749,-966.309,-266.113,-256.836,965.82
1626.4662767529999,-1000.0,-243.16400000000002,-234.375,967.285
1626.4662767570003,-1000.0,-244.141,-283.691,966.797
1626.4662767610002,-991.211,-267.09,-318.848,967.285
1626.4662767650002,-1000.0,-266.60200000000003,-275.879,966.797
1626.4662767690002,-913.574,-251.953,-237.793,966.797
1626.4662767720001,-603.516,-247.55900000000003,-251.953,966.797
1626.466276776,-321.289,-255.859,-301.27,967.285
1626.46627678,308.594,-315.43,-296.387,966.797
1626.466276784,923.828,-310.547,-230.957,966.797
1626.466276788,965.82,-255.859,-224.12099999999998,966.797
1626.46627679,951.66,-273.438,-287.598,966.797
1626.466276794,969.238,-291.992,-291.992,966.797
1626.4662767979999,966.309,-280.762,-226.562,966.797
1626.466276802,965.82,-263.184,-221.19099999999997,966.797
1626.466276806,966.309,-265.137,-277.344,967.285
1626.46627681,966.309,-286.133,-304.199,966.797
1626.466276814,966.309,-292.969,-246.09400000000002,966.797
1626.466276817,966.309,-274.902,-209.47299999999998,966.797
1626.466276821,966.309,-275.39099999999996,-249.023,966.797
1626.466276825,965.82,-310.059,-306.152,966.797
1626.466276829,966.309,-314.453,-264.16,966.797
1626.466276833,966.309,-283.203,-204.59,966.797
1626.4662768350001,966.309,-279.785,-227.53900000000002,966.797
1626.4662768389999,966.309,-307.617,-286.621,966.797
1626.4662768429998,966.309,-318.848,-273.926,966.797
1626.466276847,966.309,-296.387,-206.055,966.797
1626.466276851,966.309,-276.367,-204.102,966.797
1626.466276855,966.309,-284.18,-267.09,966.797
1626.466276859,966.309,-312.012,-292.48,966.797
1626.4662768620003,966.309,-309.082,-230.46900000000002,966.797
1626.4662768660003,966.309,-284.18,-205.56599999999997,966.797
1626.4662768699998,966.309,-295.89799999999997,-253.90599999999998,966.797
1626.4662768739997,966.309,-320.801,-293.945,966.797
1626.4662768779997,966.309,-314.941,-250.0,966.797
1626.466276881,966.309,-286.621,-208.49599999999998,966.797
1626.466276885,966.309,-278.32,-232.422,966.797
1626.466276889,966.309,-290.039,-285.156,966.797
1626.466276893,966.309,-296.387,-262.207,966.797
1626.4662768970002,966.309,-283.203,-204.59,966.797
1626.4662769010001,966.309,-256.836,-208.49599999999998,966.797
1626.4662769049999,966.309,-263.672,-260.254,966.797
1626.466276908,966.309,-300.781,-267.578,966.797
1626.4662769120002,966.309,-289.551,-214.355,966.797
1626.4662769160002,966.309,-260.742,-201.66,966.797
1626.4662769200002,966.309,-270.508,-244.141,966.797
1626.466276924,966.309,-297.85200000000003,-263.672,966.797
1626.466276926,966.309,-285.156,-211.91400000000002,966.797
1626.46627693,966.309,-266.60200000000003,-190.918,966.797
1626.466276934,966.309,-266.60200000000003,-231.93400000000003,966.797
1626.466276938,966.309,-294.434,-260.742,966.797
1626.4662769420001,966.309,-296.875,-214.355,966.797
1626.466276946,965.82,-256.348,-179.199,966.797
1626.46627695,966.309,-235.352,-193.84799999999998,966.797
1626.4662769529998,966.309,-263.672,-240.234,966.797
1626.466276957,966.309,-296.387,-229.98,966.797
1626.466276961,966.309,-270.508,-165.52700000000002,966.797
1626.466276965,966.309,-240.234,-165.03900000000002,966.797
1626.4662769689999,966.309,-256.836,-227.53900000000002,966.797
1626.4662769709998,966.309,-281.25,-242.188,966.797
1626.4662769749998,966.309,-273.438,-181.15200000000002,966.797
1626.4662769789998,965.82,-252.93,-156.25,966.797
1626.4662769829997,966.309,-248.047,-203.125,966.797
1626.4662769870001,966.309,-267.09,-223.63299999999998,966.797
1626.466276991,965.82,-254.395,-171.875,966.797
1626.4662769949998,966.309,-229.98,-157.227,966.797
1626.466276998,966.309,-243.16400000000002,-194.824,966.797
1626.4662770020002,966.309,-258.301,-223.63299999999998,966.797
1626.4662770060002,965.82,-254.395,-189.94099999999997,967.285
1626.4662770099999,966.309,-234.863,-149.90200000000002,966.797
1626.4662770139998,966.309,-224.12099999999998,-169.922,966.797
1626.466277015,966.309,-244.141,-220.215,966.797
1626.466277019,966.309,-256.348,-200.68400000000003,967.285
1626.4662770229997,966.309,-233.887,-145.996,966.797
1626.4662770270002,966.309,-216.30900000000003,-145.50799999999998,966.797
1626.4662770310001,966.309,-224.609,-189.453,966.797
1626.466277035,966.309,-235.352,-198.73,966.797
1626.466277039,966.309,-236.81599999999997,-152.344,966.797
1626.466277042,966.309,-231.93400000000003,-136.719,966.797
1626.466277046,965.82,-224.609,-175.293,966.797
1626.46627705,966.309,-239.74599999999998,-203.125,966.797
1626.4662770539999,966.309,-239.74599999999998,-161.621,966.797
1626.4662770579998,966.309,-212.40200000000002,-133.30100000000002,966.797
1626.466277062,966.309,-204.102,-160.156,966.797
1626.466277066,966.309,-234.375,-202.637,966.797
1626.46627707,966.309,-254.395,-181.15200000000002,966.797
1626.466277074,966.309,-236.81599999999997,-144.531,966.797
1626.4662770779998,966.309,-217.773,-155.762,965.332
1626.466277082,966.309,-219.238,-197.266,970.703
1626.466277086,966.309,-239.25799999999998,-201.66,948.242
1626.466277089,966.309,-240.234,-140.625,918.945
1626.466277093,966.309,-214.84400000000002,-122.559,916.992
1626.466277097,966.309,-213.86700000000002,-174.805,880.8589999999999
1626.466277101,966.309,-243.16400000000002,-193.84799999999998,824.2189999999999
1626.466277105,966.309,-234.375,-135.254,808.105
1626.466277121,966.309,-204.59,-107.91,822.7539999999999
1626.466277125,966.309,-207.52,-153.809,799.316
1626.466277129,966.309,-234.375,-202.148,744.6289999999999
1626.466277133,964.355,-240.72299999999998,-161.13299999999998,698.73
1626.4662771370001,968.262,-212.891,-110.84,694.336
1626.466277141,955.566,-198.24200000000002,-145.996,697.2660000000001
1626.466277145,901.855,-223.145,-207.52,636.23
1626.4662771479998,862.305,-235.352,-168.457,596.68
1626.4662771520002,840.82,-215.332,-116.699,606.445
1626.4662771560002,804.199,-198.73,-138.672,598.145
1626.4662771600001,778.32,-210.938,-192.87099999999998,555.664
1626.466277164,757.812,-248.535,-197.75400000000002,513.184
1626.466277165,737.793,-233.887,-138.184,510.254
1626.466277169,727.051,-193.359,-121.094,523.438
1626.4662771729998,697.7539999999999,-199.21900000000002,-168.457,492.18800000000005
1626.466277177,672.363,-230.46900000000002,-194.33599999999998,445.801
1626.466277181,639.16,-219.238,-142.09,434.57
1626.4662771849999,617.188,-194.824,-121.094,456.055
1626.4662771889998,600.586,-201.172,-172.852,432.129
1626.4662771920002,577.148,-229.00400000000002,-213.86700000000002,386.719
1626.4662771960002,568.8480000000001,-231.93400000000003,-162.59799999999998,379.88300000000004
1626.4662772000001,534.18,-216.30900000000003,-116.699,389.16
1626.466277204,527.832,-200.195,-144.043,389.648
1626.4662772079998,537.109,-201.172,-194.33599999999998,348.63300000000004
1626.46627721,513.184,-219.238,-171.875,316.406
1626.466277214,494.14099999999996,-202.637,-117.18799999999999,328.125
1626.466277218,493.652,-183.105,-119.141,333.98400000000004
1626.4662772220001,488.77,-203.125,-172.363,301.758
1626.466277226,462.89099999999996,-222.168,-183.59400000000002,269.531
1626.46627723,458.98400000000004,-197.75400000000002,-124.512,282.715
1626.466277234,459.473,-179.688,-103.516,308.594
1626.4662772370002,440.43,-183.59400000000002,-147.94899999999998,293.457
1626.4662772410002,445.31199999999995,-204.102,-194.824,242.676
1626.466277245,434.082,-209.96099999999998,-151.36700000000002,230.46900000000002
1626.4662772489999,378.906,-187.5,-104.492,259.76599999999996
1626.4662772529998,486.32800000000003,-179.688,-140.137,247.07
1626.466277255,-142.578,-212.40200000000002,-195.801,197.266
1626.4662772589998,-1000.0,-229.98,-152.832,185.547
1626.4662772629997,-996.582,-201.172,-105.469,210.449
1626.4662772670001,-979.0039999999999,-189.453,-139.648,209.96099999999998
1626.466277271,-1000.0,-212.891,-187.012,176.27
1626.466277275,-1000.0,-212.40200000000002,-166.99200000000002,157.715
1626.466277279,-1000.0,-184.57,-112.305,185.05900000000003
1626.466277282,-1000.0,-184.082,-112.305,202.148
1626.466277286,-1000.0,-205.56599999999997,-163.086,168.457
1626.4662772899999,-1000.0,-223.63299999999998,-171.387,125.488
1626.4662772939998,-1000.0,-207.03099999999998,-110.352,131.836
1626.4662772979998,-1000.0,-182.12900000000002,-86.914,166.016
1626.4662773,-1000.0,-185.547,-135.254,119.62899999999999
1626.466277304,-1000.0,-212.891,-177.24599999999998,132.812
1626.466277308,-1000.0,-213.86700000000002,-126.465,21.973000000000003
1626.466277312,-1000.0,-193.84799999999998,-77.637,-728.5160000000001
1626.466277316,-1000.0,-187.012,-112.79299999999999,-1000.0
1626.46627732,-1000.0,-201.66,-171.387,-966.797
1626.466277324,-1000.0,-215.332,-141.602,-1000.0
1626.4662773270002,-1000.0,-205.078,-94.727,-1000.0
1626.4662773310001,-1000.0,-194.33599999999998,-106.934,-1000.0
1626.466277335,-1000.0,-200.68400000000003,-160.156,-1000.0
1626.466277339,-1000.0,-222.168,-162.59799999999998,-1000.0
1626.466277343,-1000.0,-205.56599999999997,-101.074,-1000.0
1626.466277345,-1000.0,-169.43400000000003,-84.961,-1000.0
1626.466277349,-1000.0,-171.875,-134.766,-1000.0
1626.466277353,-1000.0,-195.801,-152.832,-1000.0
1626.466277357,-1000.0,-186.035,-86.914,-1000.0
1626.466277361,-1000.0,-159.668,-64.941,-1000.0
1626.466277365,-1000.0,-152.832,-109.863,-1000.0
1626.466277369,-1000.0,-183.59400000000002,-144.531,-1000.0
1626.4662773720001,-1000.0,-200.68400000000003,-104.00399999999999,-1000.0
1626.466277376,-1000.0,-170.898,-70.801,-1000.0
1626.46627738,-1000.0,-154.297,-93.262,-1000.0
1626.4662773839998,-1000.0,-176.75799999999998,-133.30100000000002,-1000.0
1626.4662773879998,-1000.0,-190.918,-116.211,-1000.0
1626.4662773900002,-1000.0,-169.43400000000003,-64.453,-1000.0
1626.4662773940001,-1000.0,-153.32,-70.312,-1000.0
1626.4662773979999,-1000.0,-168.945,-126.465,-1000.0
1626.4662774020003,-1000.0,-192.38299999999998,-128.418,-1000.0
1626.4662774060002,-1000.0,-175.293,-75.684,-1000.0
1626.46627741,-1000.0,-142.09,-58.593999999999994,-1000.0
1626.466277414,-1000.0,-142.09,-106.934,-1000.0
1626.4662774170001,-1000.0,-174.31599999999997,-141.113,-1000.0
1626.466277421,-1000.0,-173.828,-79.59,-1000.0
1626.466277425,-1000.0,-158.203,-48.34,-1000.0
1626.466277429,-1000.0,-165.52700000000002,-96.191,-1000.0
1626.466277433,-1000.0,-186.523,-137.695,-1000.0
1626.466277435,-1000.0,-182.12900000000002,-89.844,-1000.0
1626.466277439,-1000.0,-148.438,-50.293,-1000.0
1626.4662774429999,-1000.0,-142.578,-81.055,-1000.0
1626.466277447,-1000.0,-169.43400000000003,-133.789,-1000.0
1626.466277451,-1000.0,-180.66400000000002,-122.559,-1000.0
1626.466277455,-1000.0,-156.738,-66.895,-1000.0
1626.466277459,-1000.0,-146.97299999999998,-76.66,-1000.0
1626.466277462,-1000.0,-168.945,-131.836,-1000.0
1626.466277466,-988.2810000000001,-181.15200000000002,-129.395,-1000.0
1626.46627747,-973.145,-178.22299999999998,-69.336,-1000.0
1626.466277474,-1000.0,-169.922,-65.43,-1000.0
1626.466277478,-102.539,-166.99200000000002,-121.58200000000001,-1000.0
1626.466277495,969.238,-183.105,-154.785,-1000.0
1626.466277499,958.008,-182.61700000000002,-104.00399999999999,-1000.0
1626.4662775029997,942.383,-162.59799999999998,-63.965,-1000.0
1626.4662775070003,972.6560000000001,-153.809,-94.727,-1000.0
1626.466277511,966.309,-175.293,-148.92600000000002,-1000.0
1626.466277515,966.309,-185.547,-122.07,-1000.0
1626.466277519,966.309,-167.96900000000002,-69.336,-1000.0
1626.4662775220002,966.309,-148.92600000000002,-88.37899999999999,-1000.0
1626.466277526,966.309,-163.57399999999998,-144.531,-1000.0
1626.46627753,966.309,-203.125,-144.043,-1000.0
1626.466277534,966.309,-193.359,-91.79700000000001,-1000.0
1626.4662775379998,966.309,-167.48,-82.52,-1000.0
1626.46627754,966.309,-169.922,-139.648,-1000.0
1626.466277544,966.309,-193.84799999999998,-147.94899999999998,-1000.0
1626.4662775479999,966.309,-187.988,-84.961,-1000.0
1626.466277552,966.309,-162.59799999999998,-69.824,-1000.0
1626.466277556,966.309,-153.809,-111.816,-1000.0
1626.46627756,966.309,-167.48,-153.809,-1000.0
1626.466277564,966.309,-181.641,-117.18799999999999,-1000.0
1626.4662775670001,966.309,-164.551,-75.195,-1000.0
1626.466277571,966.309,-147.94899999999998,-102.051,-1000.0
1626.466277575,973.633,-173.34,-156.738,-1000.0
1626.466277579,934.57,-194.33599999999998,-128.418,-1000.0
1626.466277583,969.238,-172.363,-67.383,-1000.0
1626.466277585,953.613,-142.578,-75.684,-1000.0
1626.466277589,-281.25,-165.52700000000002,-133.30100000000002,-1000.0
1626.4662775929999,-1000.0,-186.035,-128.906,-1000.0
1626.466277597,-947.7539999999999,-173.828,-74.707,-1000.0
1626.466277601,-999.023,-166.016,-70.801,-1000.0
1626.466277605,-1000.0,-166.99200000000002,-123.535,-1000.0
1626.466277609,-1000.0,-187.5,-139.16,-1000.0
1626.4662776120003,-1000.0,-182.12900000000002,-78.125,-1000.0
1626.466277616,-1000.0,-159.18,-56.641000000000005,-1000.0
1626.4662776199998,-1000.0,-168.945,-98.633,-992.676
1626.4662776239998,-1000.0,-189.94099999999997,-137.207,-1000.0
1626.4662776279997,-1000.0,-180.66400000000002,-85.449,-876.953
1626.4662776300001,-1000.0,-143.066,-32.227,-726.074
1626.4662776339999,-1000.0,-139.16,-74.219,-821.7769999999999
1626.4662776379998,-1000.0,-164.551,-125.977,-599.609
1626.4662776420003,-1000.0,-173.34,-95.70299999999999,-157.715
1626.4662776460002,-1000.0,-156.25,-37.109,65.918
1626.4662776500002,-1000.0,-128.418,-35.645,145.996
1626.4662776540001,-1000.0,-129.88299999999998,-89.355,439.941
1626.466277657,-1000.0,-165.52700000000002,-102.539,775.3910000000001
1626.466277661,-1000.0,-166.016,-48.828,875.0
1626.466277665,-1000.0,-136.23,-21.973000000000003,849.6089999999999
1626.466277669,-1000.0,-142.09,-62.5,688.965
1626.466277673,-1000.0,-180.176,-94.238,802.7339999999999
1626.466277675,-1000.0,-174.805,-36.133,978.0269999999999
1626.4662776789999,-1000.0,-139.16,3.418,964.355
1626.4662776829998,-1000.0,-133.789,-43.945,963.3789999999999
1626.466277687,-1000.0,-166.016,-95.215,968.262
1626.466277691,-1000.0,-168.457,-32.715,967.285
1626.466277695,-1000.0,-132.32399999999998,28.32,966.797
1626.4662776989999,-1000.0,-126.95299999999999,8.301,966.797
1626.466277702,-1000.0,-158.203,-43.457,966.797
1626.466277706,-1000.0,-173.828,-29.785,966.797
1626.46627771,-1000.0,-152.344,39.062,966.797
1626.466277714,-1000.0,-123.535,63.477,966.797
1626.466277718,-1000.0,-126.95299999999999,25.391,966.797
1626.46627772,-1000.0,-145.02,23.926,966.797
1626.466277724,-1000.0,-125.488,91.309,966.797
1626.466277728,-1000.0,-100.098,115.234,966.797
1626.4662777320002,-1000.0,-110.84,72.75399999999999,966.797
1626.4662777360002,-1000.0,-134.27700000000002,47.852,966.797
1626.46627774,-995.117,-113.281,117.676,966.797
1626.4662777439999,-999.023,-89.355,167.48,966.797
1626.4662777470003,-987.305,-101.56200000000001,142.09,966.797
1626.4662777510002,-753.418,-111.32799999999999,114.258,966.797
1626.4662777550002,-405.76199999999994,-104.00399999999999,159.18,967.285
1626.466277759,-65.43,-75.195,221.68,966.797
1626.4662777629999,119.62899999999999,-47.852,224.12099999999998,966.797
1626.4662777670003,240.234,-52.246,191.40599999999998,967.285
1626.4662777710003,577.637,-72.266,222.168,966.797
1626.4662777750002,829.102,-58.105,294.434,966.797
1626.466277779,838.3789999999999,-25.391,322.26599999999996,966.797
1626.466277783,877.441,-22.461,304.199,966.797
1626.466277787,963.867,-33.203,319.336,966.797
1626.466277791,967.773,-29.296999999999997,395.02,966.797
1626.466277794,963.3789999999999,-4.395,436.523,967.285
1626.466277798,966.797,25.879,424.316,966.797
1626.4662778020001,966.309,15.625,407.227,966.797
1626.466277806,966.309,37.109,472.168,966.797
1626.4662778099998,966.309,95.215,549.316,966.797
1626.4662778099998,966.309,130.859,561.523,966.797
1626.4662778139998,966.309,139.16,547.363,966.797
1626.4662778179998,965.82,165.03900000000002,595.703,966.797
1626.466277822,966.309,214.84400000000002,658.203,966.797
1626.466277826,966.309,245.605,649.414,966.797
1626.4662778299999,965.82,252.93,608.887,966.797
1626.4662778339998,966.309,243.16400000000002,611.816,966.797
1626.4662778370002,966.309,260.254,666.0160000000001,966.797
1626.4662778410002,966.309,294.434,676.758,966.797
1626.466277845,966.309,291.01599999999996,624.512,966.797
1626.4662778489999,966.309,262.207,594.727,966.797
1626.4662778529998,966.309,269.531,638.672,966.797
1626.4662778699999,966.309,296.875,652.832,966.797
1626.4662778739998,966.309,295.89799999999997,601.562,966.797
1626.4662778779998,966.309,263.184,554.688,966.797
1626.4662778820002,966.309,246.582,577.637,966.797
1626.4662778860002,966.309,261.23,597.168,967.285
1626.4662778900001,966.309,271.48400000000004,563.965,967.285
1626.466277894,966.309,253.90599999999998,503.906,966.797
1626.466277897,966.309,227.53900000000002,499.023,966.797
1626.466277901,966.309,225.09799999999998,529.297,966.797
1626.466277905,966.309,216.30900000000003,492.676,966.797
1626.466277909,966.309,186.523,414.06199999999995,966.797
1626.4662779129999,966.309,163.57399999999998,394.043,966.797
1626.4662779149999,966.309,174.31599999999997,434.57,966.797
1626.4662779189998,966.309,175.293,432.129,966.797
1626.4662779229998,966.309,147.94899999999998,368.164,966.797
1626.466277927,966.309,116.699,319.336,967.285
1626.466277931,966.309,110.84,327.637,966.797
1626.4662779349999,965.82,126.465,332.52,966.797
1626.4662779389998,966.309,112.79299999999999,286.621,966.797
1626.4662779420003,966.309,63.965,223.145,966.797
1626.466277946,966.309,38.574,238.77,967.285
1626.46627795,966.309,39.551,262.207,967.285
1626.466277954,966.309,39.062,223.63299999999998,966.797
1626.4662779579999,966.309,10.254000000000001,149.90200000000002,966.797
1626.466277961,966.309,-18.555,141.113,966.797
1626.466277965,966.309,-11.719000000000001,161.13299999999998,966.797
1626.466277969,966.309,-8.301,123.535,966.797
1626.4662779729997,966.309,-46.387,50.781000000000006,966.797
1626.4662779770003,966.309,-94.238,12.695,966.797
1626.4662779809998,966.309,-94.238,28.809,966.797
1626.4662779849998,966.309,-108.887,-11.23,966.797
1626.466277988,966.309,-154.785,-111.816,966.797
1626.4662779920002,966.309,-206.543,-191.895,966.797
1626.4662779960001,966.309,-228.02700000000002,-193.359,966.797
1626.466278,966.309,-219.727,-198.24200000000002,966.797
1626.466278004,966.309,-235.352,-265.137,966.797
1626.466278005,966.309,-276.855,-352.539,966.797
1626.4662780089998,966.309,-309.57,-363.281,967.285
1626.4662780129997,966.309,-305.664,-339.844,967.285
1626.4662780170001,966.309,-307.617,-373.04699999999997,966.797
1626.466278021,966.309,-336.426,-441.406,966.797
1626.466278025,965.82,-362.305,-458.98400000000004,967.285
1626.466278029,966.309,-356.445,-426.27,966.797
1626.466278032,966.309,-356.445,-427.73400000000004,966.797
1626.466278036,966.309,-367.676,-479.49199999999996,966.797
1626.46627804,966.309,-391.11300000000006,-509.277,966.797
1626.4662780439999,966.309,-390.625,-466.79699999999997,966.797
1626.4662780479998,966.309,-367.676,-445.31199999999995,966.797
1626.46627805,966.309,-370.605,-489.746,967.285
1626.466278054,966.309,-399.414,-522.9490000000001,966.797
1626.466278058,966.309,-401.855,-479.49199999999996,966.797
1626.4662780620001,966.309,-378.418,-453.125,966.797
1626.466278066,966.309,-377.93,-480.469,966.797
1626.46627807,966.309,-396.48400000000004,-516.602,966.797
1626.4662780739998,966.309,-398.43800000000005,-491.699,966.797
1626.4662780770002,966.309,-378.906,-441.406,966.797
1626.4662780810002,966.309,-356.445,-440.918,966.797
1626.466278085,966.309,-378.418,-479.98,967.285
1626.466278089,966.309,-408.20300000000003,-472.656,966.797
1626.466278093,966.309,-386.23,-414.06199999999995,966.797
1626.466278095,966.309,-357.91,-400.39099999999996,966.797
1626.466278099,966.309,-368.652,-443.35900000000004,966.797
1626.466278103,966.309,-389.16,-469.727,966.797
1626.466278107,966.309,-379.395,-421.38699999999994,966.797
1626.466278111,966.309,-351.074,-378.906,966.797
1626.466278115,966.309,-336.914,-408.691,966.797
1626.466278119,966.309,-354.004,-448.24199999999996,966.797
1626.4662781220002,966.309,-365.723,-403.32,967.285
1626.4662781260001,966.309,-348.145,-344.727,966.797
1626.46627813,966.309,-327.14799999999997,-355.957,966.797
1626.4662781339998,966.309,-336.914,-407.715,966.797
1626.4662781379998,966.309,-345.70300000000003,-394.531,966.797
1626.4662781400002,966.309,-326.172,-343.75,967.285
1626.466278144,966.309,-310.059,-337.89099999999996,966.797
1626.4662781479997,965.82,-317.383,-372.07,966.797
1626.466278152,966.309,-331.543,-371.582,966.797
1626.466278156,966.309,-318.848,-325.684,967.285
1626.46627816,966.309,-286.621,-311.035,966.797
1626.466278164,965.82,-283.203,-341.79699999999997,966.797
1626.4662781670002,965.82,-309.082,-357.42199999999997,966.797
1626.466278171,977.539,-301.27,-301.27,973.145
1626.4662781749998,896.4839999999999,-283.203,-272.949,898.926
1626.4662781789998,-914.062,-278.32,-305.664,-897.461
1626.4662781829998,471.191,-302.73400000000004,-335.93800000000005,305.664
1626.466278185,-918.457,-337.89099999999996,-296.387,-1000.0
1626.466278189,-1000.0,-315.43,-253.90599999999998,-1000.0
1626.4662781929999,-951.66,-284.18,-270.508,-963.867
1626.466278197,-1000.0,-295.89799999999997,-311.52299999999997,-1000.0
1626.466278201,-1000.0,-305.176,-290.527,-1000.0
1626.466278205,-1000.0,-274.902,-229.49200000000002,-1000.0
1626.466278209,-1000.0,-253.90599999999998,-229.98,-1000.0
1626.4662782120001,-1000.0,-260.742,-281.738,-1000.0
1626.466278216,-1000.0,-270.996,-295.89799999999997,-1000.0
1626.46627822,-1000.0,-262.695,-239.25799999999998,-1000.0
1626.466278224,-1000.0,-243.16400000000002,-209.96099999999998,-1000.0
1626.466278228,-1000.0,-237.305,-243.16400000000002,-1000.0
1626.4662782320001,-1000.0,-259.76599999999996,-273.438,-1000.0
1626.466278236,-1000.0,-270.508,-243.16400000000002,-1000.0
1626.46627824,-1000.0,-240.72299999999998,-196.28900000000002,-1000.0
1626.466278244,-1000.0,-220.703,-203.613,-1000.0
1626.466278248,-1000.0,-235.84,-256.348,-1000.0
1626.4662782520002,-1000.0,-246.582,-240.234,-1000.0
1626.4662782560001,-1000.0,-224.12099999999998,-191.40599999999998,-1000.0
1626.4662782589999,-1000.0,-202.148,-189.94099999999997,-1000.0
1626.4662782629998,-1000.0,-219.238,-238.28099999999998,-1000.0
1626.4662782670002,-1000.0,-255.37099999999998,-239.74599999999998,-1000.0
1626.4662782710002,-1000.0,-238.77,-179.199,-1000.0
1626.4662782750001,-1000.0,-214.84400000000002,-171.387,-1000.0
1626.46627829,-1000.0,-224.609,-215.82,-1000.0
1626.466278294,-1000.0,-239.25799999999998,-227.051,-1000.0
1626.466278298,-1000.0,-226.074,-171.875,-1000.0
1626.466278302,-1000.0,-202.637,-146.97299999999998,-1000.0
1626.466278306,-1000.0,-205.56599999999997,-187.012,-1000.0
1626.46627831,-1000.0,-225.09799999999998,-227.53900000000002,-1000.0
1626.466278314,-1000.0,-238.77,-189.453,-1000.0
1626.4662783170002,-1000.0,-224.12099999999998,-146.97299999999998,-1000.0
1626.4662783210001,-1000.0,-202.148,-173.34,-1000.0
1626.466278325,-1000.0,-220.703,-228.02700000000002,-1000.0
1626.466278329,-1000.0,-230.957,-205.56599999999997,-1000.0
1626.466278333,-1000.0,-209.47299999999998,-153.32,-1000.0
1626.466278335,-1000.0,-199.707,-164.551,-1000.0
1626.466278339,-1000.0,-209.96099999999998,-212.40200000000002,-1000.0
1626.4662783429999,-1000.0,-233.398,-210.938,-1000.0
1626.466278347,-1000.0,-221.68,-158.691,-1000.0
1626.466278351,-1000.0,-189.453,-146.97299999999998,-1000.0
1626.466278355,-1000.0,-193.84799999999998,-194.33599999999998,-1000.0
1626.466278359,-1000.0,-220.215,-227.53900000000002,-1000.0
1626.4662783620001,-1000.0,-216.30900000000003,-181.641,-1000.0
1626.466278366,-1000.0,-200.68400000000003,-145.02,-992.676
1626.4662783699998,-1000.0,-211.91400000000002,-182.61700000000002,-976.074
1626.4662783739998,-1000.0,-244.141,-221.19099999999997,-1000.0
1626.4662783779997,-1000.0,-245.605,-182.12900000000002,-354.49199999999996
1626.4662783800002,-982.91,-203.125,-136.719,739.258
1626.466278384,-1000.0,-188.477,-150.879,994.6289999999999
1626.4662783879999,-911.133,-224.12099999999998,-197.266,935.547
1626.4662783920003,-107.42200000000001,-244.62900000000002,-181.641,970.703
1626.4662783960002,800.7810000000001,-214.355,-131.836,967.285
1626.4662784000002,973.633,-186.035,-132.32399999999998,966.797
1626.4662784040001,944.336,-207.03099999999998,-178.22299999999998,966.797
1626.4662784070001,968.262,-246.09400000000002,-189.94099999999997,966.797
1626.466278411,966.797,-229.98,-136.719,966.797
1626.466278415,966.309,-196.28900000000002,-111.816,966.797
1626.466278419,966.309,-208.984,-157.227,966.797
1626.466278423,966.309,-235.352,-188.965,966.797
1626.4662784260001,966.309,-228.02700000000002,-143.555,966.797
1626.46627843,966.309,-204.102,-114.74600000000001,966.797
1626.466278434,966.309,-187.988,-146.484,966.797
1626.466278438,966.309,-208.00799999999998,-177.24599999999998,966.797
1626.4662784420002,966.309,-215.332,-139.16,967.285
1626.4662784460002,966.309,-182.12900000000002,-95.70299999999999,966.797
1626.4662784500001,966.309,-166.50400000000002,-109.375,966.797
1626.4662784529999,965.82,-198.73,-169.922,966.797
1626.466278457,966.309,-222.65599999999998,-165.52700000000002,966.797
1626.466278461,966.309,-205.078,-99.609,966.797
1626.466278465,966.309,-186.523,-94.727,966.797
1626.466278469,965.82,-187.012,-143.555,966.797
1626.466278471,966.309,-202.148,-158.691,966.797
1626.4662784749999,966.309,-193.84799999999998,-113.77,966.797
1626.4662784789998,966.309,-174.31599999999997,-95.215,966.797
1626.4662784829998,965.82,-185.547,-133.789,966.797
1626.4662784870002,966.309,-208.49599999999998,-158.691,966.797
1626.4662784910001,966.309,-184.082,-104.98,966.797
1626.4662784949999,966.309,-159.668,-75.684,967.285
1626.4662784979998,966.309,-179.199,-108.398,967.285
1626.466278502,966.309,-200.68400000000003,-143.555,966.797
1626.466278506,966.309,-200.68400000000003,-118.164,966.797
1626.46627851,966.309,-173.34,-79.102,966.797
1626.466278514,966.309,-160.156,-91.309,966.797
1626.466278516,966.309,-172.363,-138.184,966.797
1626.46627852,966.309,-192.87099999999998,-133.30100000000002,966.797
1626.466278524,965.82,-171.875,-81.543,966.797
1626.466278528,966.309,-153.32,-77.148,966.797
1626.4662785320002,966.309,-174.805,-126.465,966.797
1626.4662785360001,966.309,-190.918,-144.531,966.797
1626.4662785399998,965.82,-181.641,-94.727,966.797
1626.466278543,966.309,-159.18,-73.242,966.797
1626.4662785470002,966.309,-153.809,-112.79299999999999,966.797
1626.4662785510002,966.309,-189.453,-149.414,966.797
1626.4662785550001,966.309,-191.895,-109.375,966.797
1626.466278559,966.309,-156.738,-70.312,966.797
1626.466278561,966.309,-151.36700000000002,-93.75,966.797
1626.466278565,966.309,-176.27,-139.648,966.797
1626.466278569,966.309,-187.988,-123.535,966.797
1626.466278573,966.309,-161.621,-73.73,966.797
1626.4662785770001,966.309,-142.09,-70.801,966.797
1626.466278581,966.309,-151.36700000000002,-118.164,966.797
1626.466278585,966.309,-171.875,-129.88299999999998,966.797
1626.4662785879998,966.309,-167.96900000000002,-74.707,966.797
1626.466278592,966.309,-147.461,-62.5,966.797
1626.466278596,965.82,-156.25,-108.398,966.797
1626.4662786,965.82,-184.57,-125.488,966.797
1626.4662786039999,965.82,-178.71099999999998,-85.93799999999999,966.797
1626.4662786210001,966.309,-154.785,-67.383,966.797
1626.466278625,966.309,-150.879,-96.191,966.797
1626.466278629,966.309,-169.922,-138.672,967.285
1626.466278633,966.309,-176.27,-109.863,966.797
1626.4662786370002,966.309,-145.02,-62.988,966.797
1626.4662786410001,966.309,-124.023,-70.801,966.797
1626.4662786449999,966.309,-156.25,-117.676,966.797
1626.4662786479998,966.309,-174.805,-106.445,966.797
1626.4662786520003,966.309,-144.043,-58.593999999999994,966.797
1626.4662786560002,966.309,-143.555,-61.523,966.797
1626.4662786600002,966.309,-165.52700000000002,-103.516,967.285
1626.4662786640001,966.309,-184.082,-110.84,966.797
1626.466278665,966.309,-172.363,-65.43,966.797
1626.4662786689998,966.309,-142.578,-49.805,966.797
1626.4662786729998,966.309,-148.438,-85.449,966.797
1626.466278677,966.309,-180.66400000000002,-113.281,966.797
1626.466278681,966.309,-177.24599999999998,-75.684,966.797
1626.466278685,966.309,-140.137,-38.574,966.797
1626.4662786889999,966.309,-136.719,-65.43,966.797
1626.466278692,966.309,-172.852,-109.863,966.797
1626.466278696,965.82,-180.176,-86.426,966.797
1626.4662787,966.309,-154.785,-51.27,966.797
1626.466278704,966.309,-133.30100000000002,-60.059,966.797
1626.466278708,965.82,-150.391,-99.609,966.797
1626.46627871,965.82,-165.52700000000002,-90.82,966.797
1626.466278714,966.309,-154.297,-62.5,966.797
1626.466278718,966.309,-140.137,-70.312,966.797
1626.4662787220002,966.309,-148.92600000000002,-100.098,966.797
1626.4662787260002,966.309,-167.48,-106.445,966.797
1626.46627873,966.309,-149.90200000000002,-61.523,966.797
1626.466278734,966.309,-130.859,-48.34,966.797
1626.4662787370003,966.309,-140.137,-81.055,966.797
1626.4662787410002,966.309,-164.551,-107.91,966.797
1626.466278745,966.309,-167.96900000000002,-81.055,966.797
1626.466278749,966.309,-147.94899999999998,-49.316,966.797
1626.4662787529999,966.309,-139.16,-62.988,966.797
1626.466278755,966.309,-147.461,-96.68,966.797
1626.4662787589998,966.309,-160.645,-82.52,966.797
1626.4662787629998,966.309,-145.50799999999998,-36.133,966.797
1626.4662787670002,966.309,-130.859,-42.968999999999994,966.797
1626.4662787710001,965.82,-153.809,-92.773,966.797
1626.466278775,966.309,-160.645,-90.33200000000001,966.797
1626.466278779,966.309,-141.113,-47.363,966.797
1626.466278782,966.309,-134.27700000000002,-43.945,966.797
1626.466278786,966.309,-139.648,-82.031,966.797
1626.46627879,966.309,-153.32,-98.633,966.797
1626.466278794,966.309,-145.996,-61.035,966.797
1626.4662787979998,966.309,-129.395,-34.668,966.797
1626.4662788,966.309,-132.812,-66.895,966.797
1626.466278804,966.309,-153.32,-104.00399999999999,966.797
1626.4662788079997,966.309,-151.855,-73.73,966.797
1626.466278812,966.309,-133.30100000000002,-44.922,966.797
1626.4662788159999,966.309,-125.488,-58.105,966.797
1626.4662788199998,966.309,-134.766,-95.215,966.797
1626.4662788239998,966.309,-145.50799999999998,-83.49600000000001,966.797
1626.4662788270002,966.309,-136.719,-45.898,966.797
1626.4662788310002,965.82,-131.34799999999998,-56.641000000000005,966.797
1626.4662788350001,966.309,-145.02,-85.93799999999999,967.285
1626.466278839,966.309,-165.52700000000002,-87.402,966.797
1626.4662788429998,966.309,-161.621,-47.363,966.797
1626.466278845,966.309,-136.23,-28.32,966.797
1626.466278849,966.309,-133.30100000000002,-60.547,966.797
1626.466278853,964.8439999999999,-150.391,-78.613,966.797
1626.4662788570001,965.82,-150.391,-46.875,966.797
1626.466278861,964.8439999999999,-134.27700000000002,-29.296999999999997,966.797
1626.466278865,923.828,-117.18799999999999,-49.805,966.797
1626.466278869,884.7660000000001,-136.719,-84.961,966.797
1626.4662788720002,874.023,-164.551,-69.824,966.797
1626.4662788760002,869.1410000000001,-142.09,-34.668,966.797
1626.4662788800001,857.91,-123.535,-46.387,966.797
1626.4662788839998,842.773,-148.92600000000002,-84.961,966.797
1626.4662788879998,815.43,-165.52700000000002,-78.613,966.797
1626.46627889,790.5269999999999,-145.02,-36.621,967.285
1626.466278894,789.062,-122.559,-29.296999999999997,965.82
1626.4662788979997,777.3439999999999,-123.04700000000001,-72.266,968.75
1626.466278902,732.422,-145.996,-90.82,961.426
1626.466278906,701.172,-145.996,-46.875,942.383
1626.46627891,720.703,-113.281,-29.296999999999997,954.102
1626.466278914,728.5160000000001,-119.141,-70.312,958.4960000000001
1626.466278917,707.0310000000001,-145.996,-91.79700000000001,930.664
1626.466278921,666.992,-140.137,-55.176,900.8789999999999
1626.4662789249999,660.645,-131.836,-21.973000000000003,886.7189999999999
1626.4662789289998,671.387,-127.93,-47.852,831.055
1626.4662789329998,653.32,-136.23,-88.37899999999999,794.434
1626.466278937,619.629,-137.695,-67.87100000000001,778.809
1626.466278941,595.215,-128.418,-25.879,779.785
1626.4662789449999,591.309,-124.023,-27.831999999999997,815.918
1626.4662789489998,586.4259999999999,-133.30100000000002,-64.941,789.551
1626.4662789529998,543.457,-143.066,-73.73,749.023
1626.466278957,520.508,-125.0,-35.156,759.2769999999999
1626.466278961,520.508,-115.723,-26.855,768.555
1626.466278964,519.043,-133.30100000000002,-69.824,746.0939999999999
1626.4662789679999,523.9259999999999,-142.578,-79.59,722.168
1626.466278972,489.25800000000004,-141.113,-43.457,698.242
1626.466278976,464.844,-132.812,-27.831999999999997,701.172
1626.46627898,478.027,-132.812,-54.688,688.965
1626.4662789949998,475.098,-149.90200000000002,-87.402,654.297
1626.4662789989998,447.26599999999996,-147.94899999999998,-67.383,626.953
1626.4662790029997,431.64099999999996,-126.95299999999999,-38.574,639.648
1626.4662790070001,454.59,-120.605,-51.758,647.461
1626.466279011,456.543,-143.066,-85.93799999999999,635.742
1626.466279015,428.711,-154.297,-75.684,604.98
1626.466279019,409.18,-146.97299999999998,-39.551,598.633
1626.466279022,409.18,-133.789,-32.227,623.047
1626.466279026,430.664,-131.836,-64.453,629.883
1626.46627903,410.645,-158.203,-71.777,592.285
1626.4662790339999,373.535,-155.273,-27.344,534.668
1626.4662790379998,373.04699999999997,-136.719,-13.184000000000001,548.34
1626.46627904,385.74199999999996,-138.672,-48.828,568.8480000000001
1626.466279044,366.699,-159.18,-67.383,543.457
1626.466279048,333.496,-171.875,-38.574,519.531
1626.4662790520001,340.332,-160.156,-19.531,541.016
1626.466279056,355.469,-150.879,-45.898,545.41
1626.46627906,353.027,-154.785,-69.824,535.645
1626.466279064,334.961,-154.297,-48.828,513.184
1626.4662790670002,322.26599999999996,-152.344,-25.879,516.602
1626.4662790710001,317.383,-156.25,-44.922,520.996
1626.466279075,313.965,-166.016,-78.125,507.81199999999995
1626.466279079,295.89799999999997,-170.41,-68.359,469.23800000000006
1626.466279083,275.39099999999996,-161.621,-35.156,447.754
1626.466279085,278.32,-142.578,-36.621,467.285
1626.466279089,300.293,-136.719,-62.5,481.445
1626.466279093,304.199,-159.18,-69.336,455.566
1626.466279097,293.945,-165.52700000000002,-47.363,419.92199999999997
1626.466279101,295.89799999999997,-140.625,-36.133,446.777
1626.466279105,327.14799999999997,-125.488,-53.223,469.727
1626.466279109,334.473,-144.531,-67.87100000000001,433.105
1626.4662791120002,306.152,-152.344,-47.363,380.371
1626.4662791160001,306.152,-142.578,-33.203,400.879
1626.4662791199999,316.895,-138.672,-51.758,420.898
1626.4662791239998,315.43,-148.438,-71.289,418.457
1626.4662791279998,295.89799999999997,-162.59799999999998,-58.593999999999994,386.719
1626.4662791300002,282.715,-149.90200000000002,-27.831999999999997,389.648
1626.466279134,288.086,-141.113,-37.109,401.36699999999996
1626.4662791379997,294.922,-147.461,-63.965,393.066
1626.4662791420003,275.39099999999996,-163.086,-64.941,384.76599999999996
1626.466279146,241.21099999999998,-160.645,-39.551,358.398
1626.46627915,245.605,-135.254,-23.926,375.0
1626.466279154,241.699,-140.625,-50.781000000000006,395.50800000000004
1626.4662791570001,224.609,-162.109,-68.848,360.84
1626.466279161,208.00799999999998,-162.59799999999998,-54.688,311.52299999999997
1626.466279165,205.56599999999997,-154.785,-46.875,323.242
1626.466279169,229.00400000000002,-158.691,-58.593999999999994,337.402
1626.4662791729997,227.53900000000002,-168.945,-70.312,338.86699999999996
1626.4662791760002,191.40599999999998,-168.457,-59.082,298.34
1626.4662791800001,186.523,-152.832,-33.691,312.012
1626.466279184,227.051,-135.254,-38.086,335.449
1626.466279188,230.957,-146.97299999999998,-66.406,324.219
1626.4662791920002,195.312,-170.41,-67.383,281.738
1626.4662791960002,201.172,-152.344,-40.039,266.113
1626.4662792000001,209.96099999999998,-137.207,-41.992,283.203
1626.4662792029999,208.49599999999998,-144.043,-64.453,301.758
1626.466279207,207.52,-152.832,-67.383,297.85200000000003
1626.466279211,164.551,-163.086,-41.992,252.93
1626.466279215,152.832,-160.156,-34.18,257.324
1626.466279219,199.21900000000002,-159.18,-54.199,288.086
1626.46627922,196.28900000000002,-165.52700000000002,-62.012,296.875
1626.466279224,142.09,-166.016,-45.41,259.76599999999996
1626.4662792279998,151.855,-152.344,-32.715,248.047
1626.466279232,182.61700000000002,-148.92600000000002,-53.711000000000006,259.76599999999996
1626.466279236,170.898,-172.363,-71.289,278.809
1626.46627924,131.836,-175.78099999999998,-62.988,222.168
1626.466279244,121.58200000000001,-162.109,-48.828,196.28900000000002
1626.4662792470003,130.371,-164.062,-57.129,224.609
1626.466279251,138.672,-167.96900000000002,-68.359,264.64799999999997
1626.466279255,124.512,-185.547,-69.824,243.16400000000002
1626.4662792589997,99.609,-179.199,-54.199,201.172
1626.4662792629997,114.74600000000001,-159.668,-48.828,213.86700000000002
1626.4662792650001,142.09,-154.785,-62.5,246.582
1626.466279269,125.0,-164.062,-70.801,238.28099999999998
1626.4662792729998,83.49600000000001,-169.43400000000003,-56.641000000000005,175.78099999999998
1626.4662792770002,102.539,-155.762,-46.875,182.61700000000002
1626.4662792810002,142.578,-149.90200000000002,-56.641000000000005,225.09799999999998
1626.4662792850002,136.719,-152.832,-61.523,241.699
1626.466279289,90.82,-154.785,-57.129,180.66400000000002
1626.466279292,76.172,-157.227,-52.733999999999995,152.832
1626.466279296,108.398,-152.344,-57.617,187.988
1626.4662793,116.699,-154.785,-59.082,229.49200000000002
1626.466279304,76.66,-176.27,-49.805,182.61700000000002
1626.466279308,43.945,-173.828,-35.645,152.344
1626.46627931,83.008,-154.297,-45.898,180.66400000000002
1626.4662793139998,129.88299999999998,-150.879,-64.941,225.58599999999998
1626.4662793179998,97.656,-161.13299999999998,-74.707,204.102
1626.466279322,57.129,-167.48,-52.246,139.16
1626.466279326,70.801,-160.156,-34.18,142.09
1626.46627933,83.49600000000001,-151.36700000000002,-43.945,195.312
1626.4662793339999,62.988,-162.109,-58.593999999999994,197.75400000000002
1626.466279337,32.715,-176.27,-48.828,136.719
1626.466279341,28.809,-164.551,-32.227,151.36700000000002
1626.466279345,52.733999999999995,-148.92600000000002,-55.176,187.012
1626.466279349,64.453,-159.668,-78.125,205.56599999999997
1626.466279353,38.574,-181.641,-71.777,141.602
1626.46627937,42.48,-165.52700000000002,-46.387,111.816
1626.466279374,57.617,-150.391,-43.457,139.648
1626.4662793779999,54.199,-164.062,-59.082,165.52700000000002
1626.4662793820003,46.875,-168.945,-62.988,129.88299999999998
1626.4662793860002,33.203,-167.48,-43.457,94.238
1626.4662793900002,52.733999999999995,-161.13299999999998,-37.109,110.84
1626.4662793940001,81.543,-159.668,-60.547,152.344
1626.466279397,66.406,-161.13299999999998,-62.012,141.113
1626.466279401,38.086,-165.03900000000002,-42.48,98.633
1626.466279405,32.715,-168.457,-48.828,103.516
1626.466279409,73.242,-160.645,-63.965,134.27700000000002
1626.466279413,83.008,-164.062,-72.75399999999999,140.625
1626.466279415,42.48,-164.062,-58.105,85.449
1626.4662794189999,40.527,-156.25,-43.945,83.008
1626.4662794229998,68.848,-155.273,-70.801,113.281
1626.466279427,80.566,-161.13299999999998,-86.914,153.32
1626.466279431,55.176,-169.43400000000003,-66.406,118.652
1626.466279435,46.387,-160.645,-36.133,90.82
1626.466279439,73.73,-149.90200000000002,-46.387,105.95700000000001
1626.466279442,104.98,-155.762,-76.66,131.34799999999998
1626.466279446,83.008,-163.086,-80.078,98.145
1626.46627945,34.668,-166.99200000000002,-52.246,67.383
1626.466279454,38.574,-157.227,-38.574,93.262
1626.466279458,86.426,-156.738,-59.082,133.789
1626.4662794609999,90.33200000000001,-166.99200000000002,-64.453,127.93
1626.4662794649998,41.504,-165.52700000000002,-43.457,84.961
1626.4662794689998,28.32,-156.25,-32.227,91.79700000000001
1626.4662794729998,68.359,-145.02,-46.387,121.58200000000001
1626.4662794770002,67.383,-155.762,-63.477,130.859
1626.466279481,18.555,-166.50400000000002,-57.129,72.266
1626.4662794849999,10.254000000000001,-160.645,-47.363,58.105
1626.4662794879998,44.922,-145.50799999999998,-49.805,108.887
1626.466279492,67.87100000000001,-144.043,-57.617,145.02
1626.466279496,23.926,-163.086,-61.035,74.219
1626.4662795,4.395,-163.086,-37.109,47.852
1626.4662795039999,49.316,-155.762,-41.992,72.266
1626.466279505,71.777,-156.738,-59.082,104.00399999999999
1626.4662795089998,36.621,-171.387,-62.5,77.148
1626.4662795129998,-2.93,-173.828,-49.316,31.738000000000003
1626.4662795170002,19.531,-158.691,-51.758,62.5
1626.4662795210002,58.105,-156.25,-67.383,102.051
1626.4662795250001,44.922,-156.738,-69.824,94.238
1626.466279529,0.488,-147.461,-50.293,44.922
1626.466279532,-6.836,-144.531,-33.203,49.316
1626.466279536,13.672,-156.25,-46.387,75.195
1626.46627954,23.926,-166.50400000000002,-63.477,83.008
1626.466279544,-5.371,-172.852,-61.523,36.133
1626.4662795479999,-14.16,-163.57399999999998,-38.086,34.668
1626.4662795499999,15.137,-146.97299999999998,-41.992,70.312
1626.4662795539998,33.691,-152.344,-57.129,123.04700000000001
1626.4662795579998,8.789,-165.52700000000002,-57.129,59.082
1626.466279562,-9.766,-163.57399999999998,-43.945,-3.418
1626.466279566,-0.977,-153.32,-40.039,42.48
1626.4662795699999,15.137,-143.555,-55.663999999999994,103.516
1626.4662795739998,2.441,-152.344,-63.965,92.285
1626.4662795770003,-35.156,-160.156,-45.898,37.109
1626.466279581,-25.391,-144.531,-49.316,39.062
1626.466279585,1.953,-142.578,-62.012,72.75399999999999
1626.466279589,-0.488,-155.273,-58.593999999999994,64.453
1626.4662795929999,-27.344,-163.086,-44.922,10.742
1626.466279595,-50.781000000000006,-150.879,-35.645,15.137
1626.466279599,-7.324,-142.578,-48.828,52.246
1626.466279603,34.18,-155.273,-59.082,84.473
1626.4662796070002,1.953,-168.945,-55.176,28.32
1626.4662796110001,-4.395,-155.273,-36.133,12.207
1626.466279615,18.555,-132.32399999999998,-37.598,46.875
1626.466279619,44.434,-134.27700000000002,-56.152,93.262
1626.4662796220002,21.484,-150.391,-65.43,59.082
1626.4662796260002,0.488,-147.461,-42.48,11.23
1626.4662796300001,28.32,-135.254,-46.875,24.901999999999997
1626.4662796339999,44.922,-135.254,-58.105,74.707
1626.4662796379998,40.527,-146.97299999999998,-44.922,82.52
1626.466279641,19.531,-144.531,-27.344,22.461
1626.466279645,6.836,-135.254,-26.366999999999997,12.695
1626.466279649,33.203,-133.30100000000002,-40.039,52.246
1626.466279653,53.711000000000006,-135.74200000000002,-54.199,68.359
1626.466279657,21.973000000000003,-140.137,-43.457,9.277000000000001
1626.466279661,20.508000000000003,-125.977,-20.996,8.789
1626.466279665,37.109,-116.211,-40.527,44.434
1626.466279668,39.062,-124.512,-60.547,77.637
1626.4662796720002,23.926,-135.74200000000002,-47.363,32.227
1626.466279676,15.137,-138.672,-31.738000000000003,12.207
1626.46627968,39.062,-134.766,-43.945,32.227
1626.466279684,54.688,-135.74200000000002,-53.711000000000006,50.293
1626.466279685,42.48,-139.16,-52.246,14.648
1626.466279689,32.227,-135.74200000000002,-31.25,-13.184000000000001
1626.466279693,37.109,-126.465,-36.133,14.16
1626.4662796970001,69.824,-122.559,-53.711000000000006,57.617
1626.466279701,75.195,-124.512,-58.105,43.457
1626.466279705,28.809,-125.977,-48.34,-19.531
1626.4662797089998,12.207,-120.605,-52.246,-20.508000000000003
1626.4662797120002,22.949,-125.977,-64.941,32.715
1626.4662797160001,43.945,-126.95299999999999,-58.105,63.965
1626.46627972,23.438000000000002,-134.27700000000002,-49.316,-11.719000000000001
1626.466279724,5.859,-139.648,-37.109,-22.949
1626.466279728,25.391,-124.023,-46.387,25.879
1626.4662797449998,42.968999999999994,-117.676,-52.246,65.918
1626.4662797489998,16.113,-137.695,-46.387,9.277000000000001
1626.4662797529998,0.0,-132.812,-26.855,-20.508000000000003
1626.4662797570002,19.531,-116.211,-27.831999999999997,10.254000000000001
1626.4662797610001,51.27,-118.164,-53.711000000000006,55.176
1626.466279765,31.738000000000003,-118.164,-56.641000000000005,46.875
1626.466279769,-6.348,-112.79299999999999,-28.809,1.465
1626.466279772,-5.859,-105.469,-31.25,16.602
1626.466279776,22.949,-118.652,-45.41,57.617
1626.46627978,16.602,-150.879,-51.758,43.457
1626.4662797839999,-37.109,-153.809,-55.663999999999994,-27.344
1626.4662797879998,-35.156,-129.395,-34.18,-17.09
1626.46627979,4.883,-116.699,-32.715,18.066
1626.466279794,20.02,-114.258,-46.875,41.992
1626.466279798,-15.625,-126.465,-43.457,-18.555
1626.4662798020001,-31.25,-131.836,-41.992,-44.434
1626.466279806,-8.789,-123.04700000000001,-54.199,-2.441
1626.4662798099998,10.254000000000001,-110.84,-61.523,35.156
1626.4662798139998,-14.16,-121.58200000000001,-62.988,-6.836
1626.4662798170002,-36.133,-133.789,-35.645,-46.387
1626.4662798210002,-18.555,-116.211,-26.855,-20.996
1626.4662798250001,6.836,-107.42200000000001,-45.41,31.738000000000003
1626.466279829,-1.953,-128.418,-58.593999999999994,-2.441
1626.466279833,-32.227,-130.859,-34.668,-61.035
1626.466279835,-21.973000000000003,-106.934,-20.508000000000003,-25.879
1626.466279839,8.301,-112.79299999999999,-40.527,26.366999999999997
1626.466279843,17.578,-124.023,-46.387,37.109
1626.4662798470001,-19.043,-127.441,-29.296999999999997,-26.366999999999997
1626.466279851,-25.879,-123.04700000000001,-22.461,-22.461
1626.466279855,14.648,-104.00399999999999,-24.901999999999997,25.391
1626.466279859,35.645,-112.79299999999999,-37.109,53.711000000000006
1626.4662798620002,-16.602,-129.395,-41.504,2.93
1626.4662798660001,-35.645,-120.605,-22.949,-33.203
1626.4662798699999,-4.883,-120.117,-29.296999999999997,-12.207
1626.4662798739998,22.461,-116.699,-46.387,35.156
1626.4662798779998,7.812,-116.211,-52.733999999999995,-2.93
1626.466279881,-23.438000000000002,-116.211,-29.296999999999997,-36.621
1626.466279885,0.977,-118.652,-25.391,-5.859
1626.466279889,41.992,-122.07,-54.199,19.531
1626.4662798929999,25.391,-125.488,-67.87100000000001,-10.742
1626.466279897,-32.227,-131.34799999999998,-46.875,-64.941
1626.466279901,-31.738000000000003,-103.027,-23.926,-41.504
1626.466279905,10.254000000000001,-82.031,-32.227,8.301
1626.466279908,20.02,-109.863,-51.27,32.227
1626.4662799120001,-8.789,-125.488,-40.039,-42.48
1626.466279916,-13.672,-114.74600000000001,-21.484,-60.547
1626.46627992,17.09,-109.863,-27.831999999999997,-11.23
1626.466279924,32.715,-111.816,-34.18,21.973000000000003
1626.4662799260002,-10.742,-119.62899999999999,-25.879,-24.901999999999997
1626.4662799300002,-38.574,-121.094,-5.371,-55.176
1626.466279934,-20.508000000000003,-117.18799999999999,-4.395,-19.043
1626.466279938,6.836,-111.816,-12.207,27.344
1626.4662799420003,-34.18,-128.906,-25.391,0.977
1626.466279946,-70.801,-126.465,-17.578,-63.477
1626.46627995,-36.133,-112.79299999999999,-3.418,-57.129
1626.466279953,-9.766,-120.117,-11.23,3.418
1626.466279957,-13.672,-125.488,-19.531,0.0
1626.466279961,-40.039,-131.34799999999998,-3.906,-60.547
1626.466279965,-30.273000000000003,-124.023,9.277000000000001,-37.109
1626.466279969,-2.441,-111.816,-1.465,1.953
1626.46627997,2.93,-115.723,-11.23,6.836
1626.466279974,-24.901999999999997,-121.58200000000001,-5.371,-45.41
1626.4662799779999,-26.855,-111.32799999999999,4.883,-53.223
1626.466279982,6.348,-114.258,-9.766,-4.883
1626.466279986,15.625,-118.164,-25.391,20.996
1626.46627999,-23.926,-119.141,-16.113,-38.086
1626.466279994,-50.781000000000006,-113.281,8.301,-63.477
1626.4662799970001,-31.738000000000003,-105.469,7.324,-32.227
1626.466280001,-15.625,-110.84,-9.277000000000001,18.555
1626.466280005,-45.898,-123.535,-23.926,-14.16
1626.4662800089998,-81.543,-125.977,-11.719000000000001,-77.637
1626.4662800129997,-75.195,-116.699,2.441,-53.711000000000006
1626.4662800150002,-40.527,-111.32799999999999,-5.859,-6.836
1626.4662800190001,-30.273000000000003,-116.699,-8.301,-3.418
1626.4662800229999,-53.711000000000006,-121.58200000000001,6.348,-51.27
1626.4662800270003,-49.316,-111.32799999999999,13.184000000000001,-52.246
1626.4662800310002,-7.324,-99.609,0.977,2.93
1626.4662800350002,6.836,-97.16799999999999,-10.742,27.831999999999997
1626.4662800390001,-47.852,-117.18799999999999,-18.066,-49.316
1626.466280042,-58.105,-117.676,-5.859,-69.824
1626.466280046,-20.508000000000003,-97.656,-10.742,-41.504
1626.46628005,7.324,-95.70299999999999,-14.648,2.93
1626.466280054,-26.855,-114.74600000000001,-15.625,-37.598
1626.466280058,-56.152,-119.141,-0.488,-69.824
1626.4662800610001,-18.555,-90.82,10.742,-32.715
1626.466280065,19.043,-79.59,2.93,17.09
1626.466280069,1.465,-94.238,-11.23,1.953
1626.466280073,-36.133,-104.00399999999999,-15.137,-64.453
1626.4662800770002,-26.366999999999997,-101.074,-6.836,-50.781000000000006
1626.4662800810001,10.742,-92.773,-17.09,-1.465
1626.466280085,5.371,-103.027,-32.227,11.719000000000001
1626.4662800879998,-25.879,-125.0,-21.973000000000003,-52.246
1626.466280092,-28.32,-114.258,-15.625,-53.223
1626.466280096,0.0,-106.445,-16.113,-7.324
1626.4662801,27.344,-108.887,-9.766,23.438000000000002
1626.466280104,-14.16,-103.027,-20.02,-40.527
1626.4662801059999,-33.203,-92.285,-15.137,-66.895
1626.4662801099998,-2.441,-94.238,-12.695,-28.32
1626.4662801139998,26.855,-92.773,-16.113,23.438000000000002
1626.4662801179998,-1.465,-107.91,-20.02,-11.719000000000001
1626.4662801220002,-35.645,-110.352,-13.672,-63.477
1626.4662801260001,-17.09,-91.309,-17.09,-44.434
1626.46628013,12.695,-95.70299999999999,-28.809,4.883
1626.4662801329998,-2.93,-99.609,-39.062,-8.301
1626.466280137,-41.504,-96.68,-35.645,-67.383
1626.466280141,-54.688,-111.32799999999999,-29.785,-62.012
1626.466280145,-32.715,-115.723,-30.761999999999997,-24.901999999999997
1626.4662801489999,-21.973000000000003,-104.492,-34.668,-10.254000000000001
1626.4662801660002,-56.152,-111.32799999999999,-32.227,-72.75399999999999
1626.4662801700001,-58.593999999999994,-106.445,-15.625,-71.289
1626.466280174,-25.391,-96.68,-26.855,-14.16
1626.466280178,-6.836,-100.098,-40.527,21.484
1626.4662801820002,-40.527,-106.445,-38.086,-27.831999999999997
1626.4662801860002,-52.246,-101.074,-23.438000000000002,-51.27
1626.4662801900001,-24.414,-92.285,-29.296999999999997,-27.344
1626.4662801929999,-4.883,-103.516,-43.457,10.742
1626.466280197,-26.855,-117.676,-47.852,-34.668
1626.466280201,-40.527,-115.723,-40.039,-88.37899999999999
1626.466280205,-23.438000000000002,-102.051,-35.645,-47.363
1626.466280209,-1.465,-96.68,-41.016000000000005,2.441
1626.4662802100001,-12.695,-100.098,-43.457,-6.836
1626.4662802139999,-51.27,-112.305,-29.785,-71.777
1626.4662802179998,-45.898,-106.934,-14.648,-65.918
1626.466280222,-14.16,-96.68,-24.901999999999997,-9.277000000000001
1626.466280226,-11.23,-95.70299999999999,-35.156,13.672
1626.46628023,-60.547,-95.70299999999999,-39.062,-65.918
1626.466280234,-65.918,-83.49600000000001,-42.968999999999994,-76.172
1626.4662802370003,-35.156,-74.219,-41.016000000000005,-19.531
1626.4662802410003,-19.531,-98.633,-47.852,5.859
1626.4662802449998,-52.246,-126.95299999999999,-55.176,-61.035
1626.4662802489997,-74.707,-125.488,-30.273000000000003,-85.93799999999999
1626.4662802529997,-43.945,-110.352,-28.32,-46.875
1626.4662802550001,-21.484,-101.56200000000001,-41.992,2.93
1626.4662802589999,-41.504,-104.98,-47.363,-14.16
1626.4662802629998,-67.383,-103.027,-34.668,-69.824
1626.4662802670002,-60.547,-101.074,-27.344,-62.5
1626.4662802710002,-24.901999999999997,-107.91,-36.133,-3.418
1626.4662802750001,-8.789,-102.539,-46.387,24.414
1626.466280279,-59.082,-101.074,-46.875,-67.87100000000001
1626.466280282,-85.93799999999999,-110.352,-41.992,-92.285
1626.466280286,-53.711000000000006,-102.051,-56.641000000000005,-46.387
1626.46628029,-31.738000000000003,-98.633,-60.547,-17.578
1626.466280294,-81.055,-119.62899999999999,-63.965,-99.609
1626.466280298,-115.234,-122.559,-59.082,-134.766
1626.4662802999999,-70.801,-106.445,-65.918,-84.961
1626.4662803039998,-38.574,-103.027,-77.637,-43.457
1626.4662803079998,-67.383,-117.676,-69.824,-83.984
1626.466280312,-89.355,-122.559,-50.293,-121.58200000000001
1626.466280316,-73.242,-112.305,-50.781000000000006,-103.516
1626.46628032,-38.086,-100.586,-50.781000000000006,-42.48
1626.4662803239999,-58.105,-111.32799999999999,-63.477,-62.988
1626.466280327,-101.56200000000001,-120.605,-51.27,-118.164
1626.466280331,-94.238,-107.91,-37.598,-83.49600000000001
1626.466280335,-41.992,-114.74600000000001,-55.176,-42.48
1626.466280339,-21.973000000000003,-120.605,-68.848,-37.598
1626.4662803429999,-59.57,-117.18799999999999,-61.523,-101.56200000000001
1626.466280347,-62.5,-103.516,-41.016000000000005,-106.934
1626.466280351,-27.831999999999997,-99.12100000000001,-44.434,-61.035
1626.466280355,-15.137,-112.79299999999999,-62.012,-35.645
1626.466280359,-64.941,-123.535,-65.43,-102.539
1626.466280363,-84.473,-111.816,-38.086,-116.699
1626.466280367,-51.27,-92.285,-38.574,-68.848
1626.466280371,-23.926,-77.148,-57.129,-21.484
1626.4662803739998,-47.852,-93.75,-66.895,-55.176
1626.4662803779997,-72.266,-116.699,-44.922,-89.355
1626.4662803820001,-48.828,-109.863,-36.621,-62.988
1626.466280386,-10.742,-91.309,-54.688,-10.742
1626.46628039,-10.742,-99.609,-58.593999999999994,-9.277000000000001
1626.46628039,-30.273000000000003,-116.211,-47.363,-80.078
1626.466280394,-34.18,-101.56200000000001,-47.852,-75.684
1626.4662803979998,-14.16,-100.586,-58.105,-26.366999999999997
1626.4662804020002,10.254000000000001,-107.91,-56.641000000000005,1.953
1626.4662804060001,-30.273000000000003,-112.305,-55.176,-61.035
1626.46628041,-48.34,-98.633,-45.41,-79.102
1626.466280414,-28.809,-88.867,-55.176,-36.133
1626.466280417,-12.207,-104.98,-62.988,-3.418
1626.466280421,-35.645,-113.281,-50.293,-49.805
1626.466280425,-70.801,-115.723,-32.227,-82.52
1626.4662804289999,-54.199,-105.95700000000001,-40.039,-65.918
1626.4662804329998,9.766,-98.633,-52.246,-20.508000000000003
1626.466280435,-16.113,-109.863,-55.663999999999994,-48.828
1626.466280439,-72.75399999999999,-113.281,-47.363,-98.633
1626.4662804429997,-52.246,-93.75,-41.016000000000005,-73.242
1626.466280447,-24.414,-94.727,-52.246,-32.715
1626.4662804509999,-32.227,-110.84,-57.617,-39.551
1626.4662804549998,-67.87100000000001,-102.539,-34.668,-101.56200000000001
1626.4662804589998,-68.848,-92.773,-23.926,-92.773
1626.4662804620002,-23.438000000000002,-94.727,-35.156,-53.711000000000006
1626.4662804660002,-23.926,-94.238,-44.922,-30.273000000000003
1626.4662804700001,-74.707,-107.42200000000001,-42.968999999999994,-88.867
1626.466280474,-69.336,-106.934,-20.996,-105.469
1626.4662804779998,-26.366999999999997,-87.891,-25.879,-52.733999999999995
1626.4662804949999,-14.648,-82.031,-41.504,-11.719000000000001
1626.4662804989998,-46.387,-98.145,-46.387,-64.941
1626.4662805029998,-51.27,-114.258,-33.691,-103.027
1626.4662805070002,-31.738000000000003,-114.258,-39.551,-70.801
1626.4662805110001,-3.418,-98.633,-54.688,-19.531
1626.466280515,-20.508000000000003,-91.309,-46.387,-43.457
1626.466280519,-58.105,-108.398,-30.761999999999997,-94.238
1626.466280522,-33.203,-104.98,-28.809,-52.733999999999995
1626.466280526,0.0,-89.844,-22.949,-1.465
1626.46628053,-26.855,-103.516,-38.086,-35.645
1626.466280534,-82.031,-116.211,-32.227,-111.816
1626.4662805379999,-83.984,-119.141,-12.207,-99.12100000000001
1626.466280541,-37.598,-102.051,-21.484,-56.152
1626.466280545,-18.066,-100.098,-34.18,-41.016000000000005
1626.466280549,-52.246,-122.559,-36.621,-101.56200000000001
1626.466280553,-65.43,-116.699,-20.02,-109.863
1626.4662805570001,-40.527,-97.16799999999999,-19.531,-80.566
1626.466280561,-18.555,-88.37899999999999,-34.668,-33.691
1626.466280565,-51.758,-100.098,-46.387,-59.57
1626.4662805679998,-90.33200000000001,-119.62899999999999,-37.109,-103.027
1626.466280572,-78.613,-112.79299999999999,-27.344,-73.242
1626.466280576,-41.016000000000005,-109.375,-35.156,-32.715
1626.4662805799999,-61.035,-121.094,-37.598,-57.617
1626.4662805839998,-103.027,-115.234,-19.043,-105.469
1626.466280585,-73.242,-94.727,-4.883,-86.914
1626.466280589,-48.828,-93.262,-21.973000000000003,-48.34
1626.466280593,-52.733999999999995,-104.98,-37.109,-35.156
1626.4662805970002,-67.383,-117.676,-23.438000000000002,-88.37899999999999
1626.466280601,-54.688,-112.305,-19.043,-75.195
1626.466280605,6.348,-84.473,-19.531,-21.484
1626.466280609,42.48,-84.961,-27.344,11.719000000000001
1626.4662806120002,-14.16,-102.539,-29.785,-57.617
1626.4662806160002,-42.48,-105.95700000000001,-8.789,-84.473
1626.46628062,-11.719000000000001,-109.375,-25.391,-57.617
1626.4662806239999,1.953,-102.539,-38.086,-24.901999999999997
1626.4662806279998,-43.457,-111.32799999999999,-36.621,-48.34
1626.46628063,-70.312,-112.305,-22.949,-86.914
1626.4662806339998,-48.34,-93.262,-18.066,-67.383
1626.4662806379997,-8.789,-85.449,-25.391,6.836
1626.4662806420001,-3.906,-87.402,-35.156,1.465
1626.466280646,-58.593999999999994,-83.008,-25.879,-75.684
1626.46628065,-75.684,-76.172,-18.555,-70.801
1626.466280654,-28.809,-78.613,-30.761999999999997,-27.831999999999997
1626.466280657,-10.742,-89.844,-43.945,-7.324
1626.466280661,-52.246,-105.469,-41.504,-81.055
1626.4662806649999,-52.733999999999995,-95.215,-9.277000000000001,-100.586
1626.4662806689998,-20.996,-87.891,-10.254000000000001,-61.035
1626.4662806729998,-12.207,-84.961,-29.785,-17.578
1626.466280675,-36.133,-89.844,-32.227,-61.035
1626.466280679,-54.688,-100.098,-19.043,-111.32799999999999
1626.466280683,-52.733999999999995,-90.33200000000001,-28.809,-85.93799999999999
1626.466280687,-11.719000000000001,-77.637,-34.668,-32.227
1626.466280691,-22.949,-86.426,-26.855,-58.105
1626.466280695,-62.012,-90.33200000000001,-13.672,-106.445
1626.466280699,-29.296999999999997,-80.078,-13.672,-81.055
1626.4662807020002,1.465,-81.543,-26.366999999999997,-33.691
1626.4662807060001,-28.32,-107.91,-36.133,-36.621
1626.46628071,-97.16799999999999,-124.512,-24.901999999999997,-103.516
1626.466280714,-103.516,-105.469,-17.578,-97.656
1626.466280718,-54.199,-90.33200000000001,-23.438000000000002,-80.566
1626.46628072,-45.41,-90.33200000000001,-29.785,-59.082
1626.466280724,-83.49600000000001,-104.492,-20.508000000000003,-88.867
1626.466280728,-93.262,-99.609,-5.371,-101.074
1626.466280732,-69.336,-90.82,-18.555,-68.359
1626.466280736,-38.086,-89.355,-25.879,-22.949
1626.46628074,-52.733999999999995,-88.37899999999999,-22.461,-59.082
1626.466280744,-83.49600000000001,-95.70299999999999,-11.719000000000001,-93.75
1626.4662807470002,-67.383,-102.051,-15.625,-76.66
1626.466280751,-26.855,-94.727,-24.901999999999997,-34.668
1626.466280755,-38.574,-89.844,-26.366999999999997,-45.41
1626.4662807589998,-78.125,-101.074,-18.555,-90.82
1626.4662807629998,-84.961,-104.00399999999999,-18.555,-81.543
1626.4662807650002,-49.316,-90.82,-23.926,-36.621
1626.4662807690002,-34.18,-93.262,-43.457,-29.785
1626.4662807729997,-70.312,-98.633,-37.598,-90.33200000000001
1626.4662807770003,-82.031,-88.867,-10.742,-86.914
1626.4662807810003,-52.246,-95.215,-22.949,-58.105
1626.466280785,-14.16,-87.402,-36.133,-41.016000000000005
1626.466280789,-57.129,-100.098,-33.203,-91.309
1626.4662807920001,-74.707,-112.79299999999999,-14.16,-106.445
1626.466280796,-42.968999999999994,-86.914,-19.531,-76.172
1626.4662808,-28.32,-85.93799999999999,-37.598,-29.785
1626.466280804,-56.641000000000005,-105.469,-37.598,-66.895
1626.4662808079997,-79.59,-112.305,-17.09,-108.398
1626.4662808110002,-61.035,-93.262,-3.906,-69.824
1626.4662808150001,-30.761999999999997,-83.49600000000001,-21.484,-19.043
1626.466280819,-51.27,-104.98,-34.18,-41.504
1626.466280823,-98.145,-111.816,-15.625,-94.727
1626.4662808270002,-83.49600000000001,-100.586,-2.93,-78.125
1626.4662808310002,-38.086,-85.93799999999999,-8.301,-28.32
1626.4662808350001,-46.875,-83.984,-19.531,-16.113
1626.4662808379999,-82.52,-108.887,-28.32,-78.613
1626.466280842,-65.918,-96.191,-13.184000000000001,-91.309
1626.466280846,-29.785,-77.637,-5.371,-54.688
1626.46628085,-4.883,-78.613,-12.207,-14.648
1626.466280854,-43.457,-100.098,-29.785,-76.66
1626.466280871,-71.289,-108.887,-17.578,-105.469
1626.466280875,-46.875,-91.309,-7.812,-80.078
1626.466280879,-23.926,-86.426,-30.761999999999997,-36.133
1626.4662808829999,-51.27,-100.098,-47.363,-63.965
1626.466280887,-78.613,-99.12100000000001,-23.438000000000002,-106.445
1626.466280891,-62.988,-92.285,-13.672,-80.078
1626.466280895,-30.761999999999997,-85.93799999999999,-30.761999999999997,-41.504
1626.4662808979997,-33.691,-84.473,-29.785,-45.898
1626.466280902,-83.008,-99.12100000000001,-13.672,-93.262
1626.466280906,-63.477,-105.95700000000001,-20.508000000000003,-83.008
1626.46628091,-8.789,-96.191,-33.691,-25.391
1626.466280914,-16.602,-97.16799999999999,-35.645,-8.789
1626.4662809160002,-56.152,-97.656,-18.555,-79.102
1626.4662809200001,-43.945,-85.93799999999999,-4.883,-71.289
1626.466280924,-4.883,-86.914,-16.113,-17.578
1626.466280928,21.973000000000003,-83.984,-22.461,20.508000000000003
1626.4662809320002,2.93,-93.75,-24.901999999999997,-21.973000000000003
1626.4662809360002,-16.602,-96.68,-7.812,-50.293
1626.4662809400002,-15.625,-83.984,-10.254000000000001,-25.879
1626.466280943,8.301,-88.37899999999999,-22.949,2.93
1626.466280947,-5.371,-104.492,-31.738000000000003,-20.02
1626.466280951,-43.945,-107.42200000000001,-21.484,-69.824
1626.466280955,-27.831999999999997,-92.773,-16.113,-62.988
1626.466280959,9.766,-84.961,-23.926,-17.578
1626.466280961,4.883,-94.238,-28.809,-12.695
1626.466280965,-31.25,-107.91,-22.949,-76.172
1626.4662809689999,-25.391,-87.402,-19.531,-70.801
1626.4662809729998,9.277000000000001,-64.941,-27.831999999999997,-32.715
1626.4662809770002,31.738000000000003,-73.73,-28.809,-25.391
1626.466280981,-19.043,-87.402,-22.461,-77.148
1626.466280985,-46.387,-78.613,-6.348,-72.75399999999999
1626.4662809879999,-16.113,-65.43,-9.277000000000001,-47.852
1626.466280992,15.625,-64.453,-32.227,-13.672
1626.466280996,-2.441,-76.66,-39.062,-40.039
1626.466281,-32.715,-86.426,-21.973000000000003,-83.008
1626.466281004,-13.184000000000001,-82.52,-20.02,-53.223
1626.4662810060001,15.137,-71.777,-26.366999999999997,3.906
1626.46628101,-3.418,-79.59,-28.32,-16.113
1626.4662810139998,-30.761999999999997,-90.82,-16.113,-77.637
1626.4662810179998,-28.32,-90.33200000000001,-11.719000000000001,-74.219
1626.466281022,-10.254000000000001,-86.426,-20.508000000000003,-31.25
1626.466281026,-1.465,-72.266,-25.391,-15.625
1626.46628103,-51.27,-83.984,-22.949,-65.43
1626.466281033,-54.199,-91.79700000000001,-22.461,-68.359
1626.4662810370003,-11.719000000000001,-82.52,-37.109,-48.828
1626.4662810410002,9.766,-87.402,-42.968999999999994,-9.766
1626.4662810450002,-14.648,-97.16799999999999,-39.551,-56.152
1626.466281049,-34.18,-91.79700000000001,-21.973000000000003,-85.93799999999999
1626.4662810510001,-7.812,-81.055,-13.184000000000001,-49.805
1626.466281055,27.344,-81.055,-31.738000000000003,-17.09
1626.466281059,4.395,-92.773,-41.504,-66.406
1626.466281063,-41.992,-100.098,-17.578,-99.609
1626.4662810670002,-24.901999999999997,-89.355,-5.859,-62.012
1626.4662810710001,7.812,-70.312,-14.16,-20.02
1626.466281075,-8.789,-83.984,-37.598,-40.527
1626.4662810779998,-44.922,-99.12100000000001,-29.785,-94.727
1626.466281082,-39.062,-83.984,-12.695,-53.711000000000006
1626.466281086,9.277000000000001,-78.125,-26.855,-17.09
1626.46628109,-1.465,-80.078,-48.828,-45.898
1626.466281094,-70.312,-90.82,-42.968999999999994,-117.18799999999999
1626.466281095,-94.727,-90.82,-20.02,-128.906
1626.466281099,-65.918,-83.008,-34.18,-105.95700000000001
1626.466281103,-54.199,-82.031,-58.593999999999994,-79.102
1626.4662811070002,-106.445,-84.473,-60.547,-133.789
1626.4662811110002,-139.648,-76.172,-44.922,-164.062
1626.466281115,-116.211,-55.176,-40.039,-149.90200000000002
1626.4662811189999,-84.961,-50.781000000000006,-56.152,-103.516
1626.4662811220003,-115.234,-76.66,-83.49600000000001,-128.418
1626.4662811260002,-130.371,-80.078,-56.641000000000005,-174.805
1626.4662811300002,-104.00399999999999,-61.035,-36.621,-134.766
1626.466281134,-74.707,-59.082,-54.199,-84.473
1626.4662811379999,-81.543,-70.312,-63.965,-83.984
1626.46628114,-123.535,-70.312,-47.852,-139.648
1626.466281144,-122.559,-56.641000000000005,-40.039,-137.695
1626.4662811479998,-73.73,-52.733999999999995,-45.41,-94.238
1626.4662811520002,-60.059,-68.848,-54.688,-74.707
1626.4662811560002,-101.074,-89.355,-60.059,-121.094
1626.46628116,-97.16799999999999,-80.078,-36.133,-117.18799999999999
1626.466281164,-54.199,-68.359,-37.109,-88.867
1626.466281167,-32.227,-77.637,-56.152,-56.152
1626.466281171,-60.059,-91.79700000000001,-52.246,-89.355
1626.466281175,-67.87100000000001,-96.68,-31.738000000000003,-125.488
1626.466281179,-44.434,-89.844,-28.809,-85.93799999999999
1626.4662811829999,0.488,-72.75399999999999,-41.016000000000005,-33.203
1626.4662811849998,-9.277000000000001,-78.125,-44.922,-66.406
1626.4662811889998,-44.434,-86.914,-21.973000000000003,-109.375
1626.4662811929998,-31.25,-80.566,-18.066,-88.37899999999999
1626.466281197,5.371,-75.684,-33.203,-41.992
1626.466281201,12.207,-76.66,-45.41,-37.598
1626.4662812049999,-45.41,-80.566,-31.25,-102.539
1626.4662812089998,-54.688,-78.125,-13.184000000000001,-94.238
1626.4662812120002,7.324,-71.777,-17.09,-45.41
1626.466281216,14.648,-70.801,-30.761999999999997,-24.414
1626.46628122,-45.41,-88.37899999999999,-40.039,-79.59
1626.4662812239999,-71.777,-98.145,-28.809,-85.93799999999999
1626.4662812279998,-37.598,-96.191,-29.785,-60.547
1626.466281245,5.371,-79.102,-33.691,-33.691
1626.4662812489998,-20.508000000000003,-88.867,-34.18,-81.055
1626.4662812529998,-52.733999999999995,-98.145,-25.879,-123.04700000000001
1626.4662812570002,-33.203,-84.473,-27.344,-89.355
1626.4662812610002,4.395,-71.777,-39.551,-43.457
1626.4662812650001,-11.719000000000001,-73.73,-37.598,-64.941
1626.466281269,-53.223,-88.867,-25.879,-118.164
1626.466281272,-60.547,-91.79700000000001,-29.296999999999997,-101.56200000000001
1626.466281276,-23.438000000000002,-86.426,-41.992,-52.246
1626.46628128,-9.277000000000001,-97.16799999999999,-50.293,-41.016000000000005
1626.466281284,-56.641000000000005,-105.469,-37.598,-103.516
1626.466281288,-56.152,-90.33200000000001,-13.184000000000001,-102.051
1626.4662812899999,-10.254000000000001,-69.824,-18.555,-51.758
1626.4662812939998,22.461,-63.965,-33.203,-19.043
1626.4662812979998,-31.738000000000003,-91.79700000000001,-30.273000000000003,-79.102
1626.466281302,-82.031,-115.234,-8.789,-102.539
1626.466281306,-44.922,-97.656,-18.066,-61.035
1626.4662813099999,19.043,-74.219,-32.227,-28.809
1626.4662813139998,3.906,-87.891,-41.504,-68.359
1626.466281317,-41.504,-102.539,-27.831999999999997,-97.656
1626.466281321,-24.901999999999997,-94.238,-20.996,-81.055
1626.466281325,8.789,-87.891,-42.968999999999994,-51.758
1626.466281329,6.348,-91.79700000000001,-53.711000000000006,-64.453
1626.4662813329999,-40.527,-107.91,-33.203,-107.42200000000001
1626.466281335,-43.945,-94.238,-15.625,-81.055
1626.466281339,9.766,-89.355,-26.855,-37.109
1626.466281343,3.906,-94.727,-51.27,-44.434
1626.4662813470002,-62.012,-90.33200000000001,-50.781000000000006,-105.469
1626.4662813510001,-60.547,-95.215,-18.066,-107.42200000000001
1626.466281355,-20.02,-77.637,-26.366999999999997,-69.824
1626.466281359,-0.488,-73.242,-43.457,-39.062
1626.4662813620002,-50.781000000000006,-96.68,-35.645,-87.891
1626.4662813660002,-86.426,-90.82,-16.602,-100.098
1626.46628137,-50.293,-88.867,-7.324,-71.289
1626.466281374,-10.254000000000001,-86.426,-16.602,-47.852
1626.4662813779998,-40.039,-89.844,-32.715,-75.195
1626.46628138,-80.566,-94.727,-22.461,-112.79299999999999
1626.4662813839998,-63.477,-91.79700000000001,-19.043,-92.773
1626.4662813879997,-34.18,-89.844,-25.879,-42.968999999999994
1626.4662813920002,-38.086,-87.891,-36.133,-51.758
1626.466281396,-97.656,-98.145,-32.715,-98.145
1626.4662814,-93.262,-88.37899999999999,-22.949,-80.566
1626.466281404,-33.203,-79.102,-28.32,-57.129
1626.466281407,-24.414,-89.355,-37.109,-52.733999999999995
1626.466281411,-74.707,-102.051,-43.457,-102.051
1626.466281415,-88.867,-96.68,-30.761999999999997,-93.262
1626.4662814189999,-60.547,-84.961,-30.761999999999997,-59.57
1626.4662814229998,-28.809,-83.49600000000001,-28.809,-37.598
1626.466281427,-43.457,-96.68,-22.949,-84.961
1626.466281431,-75.195,-103.516,-18.555,-104.98
1626.466281435,-62.012,-91.79700000000001,-27.344,-77.148
1626.4662814389999,-7.324,-79.102,-27.831999999999997,-40.039
1626.4662814429998,-8.301,-87.402,-25.879,-58.593999999999994
1626.466281447,-62.5,-98.145,-16.113,-96.191
1626.466281451,-59.57,-86.914,-8.789,-70.801
1626.466281454,-16.113,-80.078,-19.043,-35.156
1626.466281458,-14.648,-91.79700000000001,-27.344,-45.898
1626.466281462,-70.312,-97.656,-14.16,-86.914
1626.466281466,-76.172,-91.309,-8.789,-69.824
1626.46628147,-34.18,-86.426,-21.973000000000003,-46.387
1626.46628147,-8.789,-86.914,-21.973000000000003,-42.968999999999994
1626.466281474,-58.593999999999994,-100.098,-13.184000000000001,-91.309
1626.466281478,-87.402,-95.70299999999999,0.488,-83.984
1626.466281482,-52.246,-85.93799999999999,-7.324,-56.641000000000005
1626.466281486,-16.602,-78.125,-26.366999999999997,-35.645
1626.46628149,-32.715,-83.008,-30.761999999999997,-62.988
1626.466281494,-73.242,-99.12100000000001,-9.766,-93.75
1626.4662814970002,-80.566,-95.215,-6.836,-82.52
1626.4662815010001,-45.41,-84.961,-23.926,-41.504
1626.466281505,-47.363,-99.609,-33.203,-60.059
1626.4662815089998,-85.93799999999999,-110.352,-17.578,-102.539
1626.4662815129998,-86.914,-108.398,-9.766,-75.684
1626.466281516,-37.109,-93.262,-22.461,-35.156
1626.46628152,-14.648,-93.75,-29.296999999999997,-30.273000000000003
1626.466281524,-61.035,-112.305,-15.625,-76.66
1626.4662815279999,-70.312,-104.492,-5.859,-66.895
1626.466281532,-41.016000000000005,-89.355,-15.137,-22.461
1626.466281536,-10.742,-84.473,-22.461,-5.859
1626.46628154,-46.875,-96.68,-22.949,-65.918
1626.466281543,-79.59,-103.027,-3.418,-71.289
1626.466281547,-50.781000000000006,-95.215,-10.254000000000001,-31.25
1626.466281551,-7.324,-86.914,-20.02,-3.418
1626.466281555,-37.598,-100.586,-22.461,-36.621
1626.466281559,-90.82,-105.469,-14.648,-61.035
1626.4662815610002,-84.473,-87.891,-3.418,-49.316
1626.4662815650001,-48.34,-84.473,-24.901999999999997,-29.296999999999997
1626.466281569,-44.434,-96.68,-45.898,-37.598
1626.466281573,-91.79700000000001,-108.887,-17.578,-79.102
1626.4662815770002,-92.285,-90.33200000000001,3.418,-70.312
1626.4662815810002,-53.711000000000006,-71.289,-13.184000000000001,-34.18
1626.466281585,-42.48,-80.078,-30.761999999999997,-26.855
1626.466281588,-89.844,-99.12100000000001,-22.949,-70.312
1626.466281592,-109.863,-91.309,0.488,-70.312
1626.466281596,-61.523,-84.473,-13.184000000000001,-46.875
1626.4662816,-30.761999999999997,-83.49600000000001,-29.785,-20.508000000000003
1626.466281604,-62.012,-91.309,-20.996,-45.41
1626.4662816500002,-87.891,-95.215,-7.812,-64.941
1626.466281654,-65.43,-81.055,-11.719000000000001,-45.898
1626.466281658,-10.254000000000001,-72.266,-23.438000000000002,-12.695
1626.4662816620003,-33.203,-89.355,-31.25,-62.012
1626.4662816660002,-67.383,-99.609,-16.113,-105.95700000000001
1626.4662816700002,-48.828,-82.52,-12.207,-83.49600000000001
1626.4662816740001,-13.672,-79.59,-25.879,-48.34
1626.466281677,-12.207,-84.961,-32.715,-40.039
1626.466281681,-80.566,-90.33200000000001,-28.809,-87.891
1626.466281685,-91.79700000000001,-93.262,-29.785,-83.49600000000001
1626.466281689,-54.688,-91.309,-36.133,-56.152
1626.466281693,-48.34,-92.285,-36.621,-59.57
1626.466281654,-92.285,-103.516,-30.273000000000003,-100.098
1626.466281658,-120.117,-95.215,-15.625,-91.79700000000001
1626.4662816620003,-90.82,-80.566,-24.901999999999997,-59.57
1626.4662816660002,-58.105,-85.93799999999999,-37.109,-39.551
1626.4662816700002,-87.402,-96.191,-41.016000000000005,-76.66
1626.4662816740001,-123.535,-88.867,-13.672,-93.75
1626.466281678,-106.445,-86.914,1.465,-65.43
1626.466281681,-57.617,-88.867,-22.949,-34.18
1626.466281685,-74.707,-94.238,-35.156,-63.477
1626.466281689,-125.488,-97.656,-6.836,-98.633
1626.466281693,-113.281,-86.426,2.441,-82.031
1626.466281697,-66.895,-77.637,-14.648,-55.176
1626.46628171,-80.078,-82.031,-25.879,-64.941
1626.466281714,-128.906,-92.773,-17.578,-117.676
1626.466281718,-111.32799999999999,-96.191,-11.23,-98.145
1626.466281722,-78.125,-88.867,-22.461,-71.777
1626.466281726,-71.777,-91.79700000000001,-26.855,-62.988
1626.46628173,-92.773,-97.656,-22.461,-90.82
1626.466281734,-111.32799999999999,-98.145,-12.207,-99.12100000000001
1626.4662817370001,-94.727,-96.68,-14.648,-83.984
1626.466281741,-48.34,-88.37899999999999,-28.809,-54.688
1626.4662817449998,-73.73,-108.398,-29.296999999999997,-83.008
1626.4662817489998,-91.79700000000001,-108.887,-7.812,-94.727
1626.4662817529997,-57.129,-91.79700000000001,-14.16,-75.195
1626.466281756,-23.438000000000002,-85.449,-36.621,-58.593999999999994
1626.46628176,-40.039,-88.37899999999999,-38.086,-74.707
1626.4662817639999,-97.16799999999999,-100.098,-17.578,-112.305
1626.4662817679998,-96.68,-101.074,-18.066,-98.633
1626.466281772,-54.199,-89.844,-32.227,-75.195
1626.466281776,-54.688,-89.355,-24.414,-64.453
1626.46628178,-111.32799999999999,-102.051,-19.531,-101.074
1626.4662817829999,-134.766,-105.95700000000001,-14.16,-106.445
1626.466281787,-104.492,-90.82,-15.625,-73.73
1626.466281791,-89.844,-85.93799999999999,-28.32,-51.758
1626.466281795,-123.535,-110.84,-20.02,-99.609
1626.466281799,-128.418,-105.95700000000001,-2.93,-109.375
1626.4662818,-95.70299999999999,-88.867,-10.742,-85.93799999999999
1626.466281804,-59.57,-91.309,-28.809,-57.617
1626.4662818079998,-72.266,-97.16799999999999,-30.761999999999997,-78.125
1626.466281812,-98.145,-96.68,-6.348,-100.586
1626.466281816,-77.148,-83.984,-7.324,-66.406
1626.46628182,-41.016000000000005,-69.336,-20.996,-44.434
1626.466281824,-60.547,-75.195,-35.156,-70.801
1626.466281827,-104.492,-93.75,-28.32,-107.91
1626.466281831,-92.773,-104.00399999999999,-13.184000000000001,-98.145
1626.466281835,-50.781000000000006,-91.309,-26.855,-49.316
1626.466281839,-39.551,-84.473,-29.785,-34.668
1626.466281843,-75.195,-101.074,-12.207,-84.473
1626.4662818450001,-86.914,-102.539,1.953,-83.49600000000001
1626.4662818489999,-47.852,-91.309,1.465,-56.641000000000005
1626.4662818529998,-9.277000000000001,-93.75,-21.973000000000003,-42.968999999999994
1626.466281857,-58.593999999999994,-104.492,-27.344,-81.543
1626.466281861,-88.37899999999999,-101.074,0.488,-89.844
1626.466281865,-55.176,-82.031,-1.465,-60.547
1626.4662818689999,-27.344,-72.75399999999999,-20.02,-46.387
1626.4662818720003,-59.57,-89.844,-29.785,-83.49600000000001
1626.4662818760003,-93.75,-93.262,-18.066,-109.375
1626.4662818800002,-51.758,-85.449,-14.648,-67.87100000000001
1626.4662818839997,-17.09,-75.195,-26.366999999999997,-43.457
1626.4662818879997,-40.527,-72.266,-23.926,-88.37899999999999
1626.4662818900001,-85.93799999999999,-79.102,-8.301,-140.137
1626.466281894,-84.961,-74.219,-7.324,-122.559
1626.4662818979998,-44.922,-58.105,-29.296999999999997,-103.027
1626.4662819020002,-23.438000000000002,-56.152,-41.504,-101.56200000000001
1626.4662819060002,-74.219,-72.266,-31.738000000000003,-143.555
1626.4662819100001,-92.773,-56.641000000000005,-15.137,-144.043
1626.466281914,-65.43,-46.387,-34.18,-115.723
1626.466281917,-24.414,-57.617,-52.246,-92.773
1626.466281921,-48.828,-68.848,-52.246,-112.79299999999999
1626.466281925,-85.449,-67.87100000000001,-37.598,-127.441
1626.466281929,-56.641000000000005,-58.105,-35.156,-103.027
1626.466281933,-24.414,-68.359,-45.41,-77.637
1626.4662819349999,-20.02,-78.125,-35.156,-95.70299999999999
1626.4662819389998,-53.711000000000006,-87.402,-15.625,-116.699
1626.4662819429998,-49.805,-73.242,-14.648,-103.027
1626.466281947,-12.695,-63.477,-34.18,-87.891
1626.466281951,-8.789,-73.73,-34.18,-87.891
1626.4662819549999,-53.223,-69.824,-10.254000000000001,-114.258
1626.4662819589998,-62.5,-73.73,-21.973000000000003,-101.074
1626.466281962,-28.809,-83.008,-44.434,-86.426
1626.466281966,-12.207,-78.613,-41.016000000000005,-80.078
1626.46628197,-48.828,-79.59,-33.203,-116.699
1626.466281974,-75.195,-72.266,-20.02,-114.258
1626.4662819779999,-41.504,-78.125,-26.855,-91.309
1626.466281982,-7.324,-81.055,-41.504,-77.148
1626.466281986,-49.316,-79.59,-35.645,-107.42200000000001
1626.46628199,-90.82,-95.215,-21.484,-130.859
1626.466281994,-72.266,-96.68,-26.855,-104.00399999999999
1626.4662819979999,-37.598,-67.87100000000001,-37.598,-72.266
1626.466282002,-48.828,-56.641000000000005,-33.691,-79.102
1626.466282006,-104.492,-77.148,-14.648,-111.32799999999999
1626.4662820089998,-105.95700000000001,-81.055,-8.301,-94.727
1626.4662820129997,-62.012,-67.383,-21.973000000000003,-65.43
1626.4662820170001,-72.266,-87.402,-40.527,-73.73
1626.466282021,-125.977,-102.051,-31.738000000000003,-113.281
1626.466282025,-126.95299999999999,-90.82,-5.371,-98.633
1626.46628204,-85.93799999999999,-86.426,-15.625,-70.801
1626.4662820439999,-30.761999999999997,-80.566,-31.25,-62.012
1626.4662820479998,-64.453,-97.656,-24.414,-94.238
1626.466282052,-97.16799999999999,-95.215,-13.672,-93.262
1626.466282056,-60.547,-63.477,-13.184000000000001,-55.663999999999994
1626.46628206,-21.973000000000003,-59.082,-24.901999999999997,-44.434
1626.4662820639999,-47.363,-92.285,-32.227,-87.891
1626.466282067,-87.891,-102.051,-17.09,-104.00399999999999
1626.466282071,-82.52,-89.844,-35.156,-90.82
1626.466282075,-49.805,-95.70299999999999,-56.152,-58.105
1626.466282079,-48.34,-99.609,-40.527,-57.617
1626.466282083,-83.008,-106.445,-14.16,-100.586
1626.466282085,-84.473,-91.309,6.836,-78.125
1626.466282089,-50.781000000000006,-78.125,-11.719000000000001,-53.223
1626.466282093,-33.203,-82.52,-27.344,-50.781000000000006
1626.4662820970002,-73.242,-92.773,-5.859,-82.031
1626.4662821010002,-81.543,-97.16799999999999,7.812,-73.242
1626.4662821050001,-46.875,-80.566,-12.695,-40.039
1626.466282109,-43.945,-74.707,-34.18,-46.387
1626.4662821120003,-99.12100000000001,-84.961,-25.391,-100.098
1626.4662821160002,-113.77,-80.078,-6.348,-97.16799999999999
1626.46628212,-87.891,-89.355,-19.043,-87.402
1626.466282124,-45.898,-94.238,-26.855,-77.637
1626.4662821279999,-59.082,-95.70299999999999,-20.02,-91.309
1626.46628213,-99.609,-106.445,-7.324,-112.79299999999999
1626.4662821339998,-100.586,-98.145,-12.207,-94.238
1626.4662821379998,-62.012,-92.773,-28.809,-71.289
1626.4662821420002,-56.152,-106.934,-40.039,-77.148
1626.4662821460001,-102.051,-105.95700000000001,-22.461,-111.32799999999999
1626.46628215,-90.82,-84.961,-5.371,-106.934
1626.466282154,-39.062,-76.66,-24.901999999999997,-64.453
1626.466282157,-23.926,-86.426,-29.785,-48.828
1626.466282161,-78.125,-100.098,-13.672,-101.074
1626.466282165,-92.773,-98.145,5.859,-86.426
1626.466282169,-59.082,-82.031,-0.488,-56.152
1626.4662821729999,-26.366999999999997,-73.73,-26.366999999999997,-47.363
1626.466282175,-61.035,-92.773,-28.809,-79.59
1626.4662821789998,-89.844,-95.215,-3.418,-79.59
1626.4662821829997,-69.336,-87.891,-4.395,-56.641000000000005
1626.466282187,-42.968999999999994,-88.37899999999999,-19.043,-44.922
1626.466282191,-47.852,-87.891,-23.926,-60.059
1626.4662821949998,-68.359,-82.52,-1.465,-75.195
1626.4662821989998,-76.66,-68.848,9.277000000000001,-62.988
1626.4662822020002,-55.663999999999994,-79.102,-18.555,-53.711000000000006
1626.4662822060002,-41.504,-95.215,-37.598,-59.082
1626.4662822100001,-80.566,-91.79700000000001,-20.508000000000003,-87.402
1626.4662822139999,-92.285,-84.473,-7.324,-73.242
1626.4662822179998,-53.223,-78.125,-19.531,-58.105
1626.466282221,-23.926,-74.707,-29.296999999999997,-51.27
1626.466282225,-61.035,-82.031,-15.625,-86.914
1626.466282229,-85.93799999999999,-89.355,1.465,-97.656
1626.466282233,-59.082,-84.961,-19.043,-86.914
1626.4662822370003,-29.296999999999997,-68.848,-31.738000000000003,-75.684
1626.4662822410003,-55.176,-71.289,-17.09,-112.79299999999999
1626.4662822449998,-95.70299999999999,-80.566,6.836,-131.34799999999998
1626.466282248,-96.68,-86.426,-3.418,-109.375
1626.4662822520002,-58.105,-79.59,-27.831999999999997,-79.102
1626.466282256,-53.223,-84.473,-28.32,-77.148
1626.46628226,-97.16799999999999,-97.656,-24.414,-115.234
1626.466282264,-100.586,-91.79700000000001,-19.043,-98.145
1626.466282266,-47.363,-90.33200000000001,-22.461,-75.684
1626.46628227,-48.828,-93.75,-33.203,-82.031
1626.466282274,-97.16799999999999,-87.891,-27.831999999999997,-102.051
1626.4662822779999,-90.82,-85.449,-10.254000000000001,-86.914
1626.466282282,-51.27,-72.266,-8.789,-70.801
1626.466282286,-18.555,-62.012,-30.761999999999997,-59.57
1626.46628229,-48.34,-84.473,-35.645,-93.75
1626.466282293,-72.75399999999999,-95.70299999999999,-5.371,-95.70299999999999
1626.4662822970001,-40.039,-84.473,-3.906,-71.289
1626.466282301,-1.953,-83.008,-21.484,-57.617
1626.466282305,-40.039,-95.215,-28.32,-78.125
1626.466282309,-83.008,-100.098,-15.625,-93.75
1626.46628231,-69.336,-83.008,-10.742,-74.219
1626.466282314,-36.133,-72.266,-23.926,-52.246
1626.466282318,-38.086,-85.93799999999999,-33.691,-75.684
1626.466282322,-95.70299999999999,-90.33200000000001,-7.812,-113.77
1626.466282326,-114.74600000000001,-79.59,4.395,-93.262
1626.46628233,-76.66,-75.684,-24.901999999999997,-82.031
1626.466282334,-42.968999999999994,-79.59,-34.18,-76.66
1626.4662823370002,-87.402,-96.68,-17.09,-98.145
1626.4662823410001,-103.516,-89.844,-7.324,-91.79700000000001
1626.466282345,-69.824,-74.219,-15.625,-65.918
1626.466282349,-39.551,-76.66,-22.949,-64.453
1626.466282353,-86.914,-102.539,-27.344,-108.398
1626.4662823699998,-123.04700000000001,-99.12100000000001,-6.348,-107.91
1626.4662823739998,-93.262,-78.613,2.93,-77.637
1626.4662823779997,-41.016000000000005,-74.219,-14.648,-58.105
1626.4662823820001,-56.152,-88.37899999999999,-22.949,-77.637
1626.466282386,-105.469,-98.633,-9.277000000000001,-83.008
1626.46628239,-72.75399999999999,-78.125,-3.906,-64.453
1626.466282394,-18.555,-77.637,-25.879,-47.852
1626.466282397,-14.648,-99.12100000000001,-35.156,-52.733999999999995
1626.466282401,-56.152,-92.773,-8.301,-85.93799999999999
1626.466282405,-69.336,-82.031,1.465,-72.75399999999999
1626.4662824089999,-39.062,-78.613,-24.901999999999997,-55.663999999999994
1626.4662824129998,-20.996,-81.543,-39.062,-55.663999999999994
1626.466282415,-68.848,-97.656,-14.16,-99.12100000000001
1626.466282419,-81.543,-96.191,18.066,-93.262
1626.466282423,-38.086,-82.52,8.789,-63.477
1626.4662824270001,-1.465,-77.637,-21.484,-51.758
1626.466282431,-38.086,-85.93799999999999,-32.715,-102.539
1626.466282435,-78.613,-82.031,-18.066,-115.234
1626.466282439,-55.663999999999994,-72.266,-13.184000000000001,-79.59
1626.4662824420002,-13.672,-78.613,-24.901999999999997,-60.059
1626.4662824460002,-29.296999999999997,-86.426,-29.296999999999997,-81.055
1626.46628245,-77.637,-91.79700000000001,-16.113,-111.32799999999999
1626.466282454,-71.777,-86.914,-4.395,-97.656
1626.466282458,-32.715,-78.613,-20.508000000000003,-78.613
1626.4662824620002,-26.366999999999997,-71.777,-33.691,-83.008
1626.4662824660002,-82.52,-82.52,-13.184000000000001,-123.04700000000001
1626.4662824700001,-100.098,-90.82,3.906,-118.652
1626.466282474,-63.965,-80.078,-17.578,-93.262
1626.466282478,-25.879,-69.336,-37.109,-78.613
1626.4662824820002,-62.5,-73.242,-26.366999999999997,-103.516
1626.466282486,-100.586,-79.102,-3.418,-94.727
1626.466282489,-75.684,-72.75399999999999,-9.277000000000001,-79.59
1626.4662824929999,-39.551,-69.824,-29.296999999999997,-69.824
1626.4662824970003,-77.637,-90.33200000000001,-21.484,-103.027
1626.4662825010003,-105.469,-101.56200000000001,1.465,-118.652
1626.4662825050002,-80.078,-86.914,-16.602,-79.102
1626.4662825050002,-31.738000000000003,-68.848,-38.086,-57.129
1626.4662825089997,-23.438000000000002,-75.684,-34.668,-67.87100000000001
1626.4662825129997,-78.613,-91.79700000000001,-14.648,-94.238
1626.4662825170003,-81.055,-86.426,-3.418,-81.055
1626.466282521,-36.621,-67.383,-12.207,-42.968999999999994
1626.466282525,-22.949,-66.895,-22.949,-47.852
1626.466282529,-66.406,-84.961,-10.742,-86.914
1626.4662825320002,-76.66,-87.891,7.812,-56.152
1626.466282536,-42.48,-70.312,-9.766,-31.25
1626.46628254,-28.809,-66.895,-27.831999999999997,-51.758
1626.466282544,-66.895,-84.961,-21.973000000000003,-98.145
1626.4662825479998,-91.309,-86.914,-4.883,-100.586
1626.46628255,-67.87100000000001,-73.242,-9.277000000000001,-80.078
1626.466282554,-27.344,-62.988,-23.438000000000002,-63.477
1626.4662825579999,-43.457,-81.543,-23.926,-88.37899999999999
1626.466282562,-97.16799999999999,-93.262,-7.812,-113.281
1626.466282566,-83.49600000000001,-80.078,-3.418,-89.844
1626.46628257,-25.391,-63.477,-19.531,-56.641000000000005
1626.466282574,-21.484,-68.848,-28.809,-65.43
1626.4662825770001,-88.37899999999999,-88.867,-17.09,-104.492
1626.466282581,-104.00399999999999,-87.891,-18.066,-99.12100000000001
1626.466282585,-50.781000000000006,-74.707,-30.761999999999997,-74.707
1626.466282589,-24.414,-75.684,-34.18,-76.172
1626.466282593,-70.801,-100.586,-25.391,-114.74600000000001
1626.466282595,-78.613,-98.145,-10.742,-94.238
1626.466282599,-57.617,-78.613,-19.043,-71.289
1626.4662826029999,-23.926,-68.848,-31.25,-62.5
1626.466282607,-35.645,-75.195,-34.668,-98.145
1626.466282611,-66.895,-83.984,-16.602,-80.566
1626.466282615,-47.852,-68.359,-10.254000000000001,-31.738000000000003
1626.466282619,1.953,-53.711000000000006,-28.32,-20.02
1626.466282622,-3.418,-75.684,-32.227,-35.645
1626.466282626,-51.27,-87.891,-7.812,-46.875
1626.46628263,-29.296999999999997,-76.66,-4.395,-22.949
1626.4662826339998,23.438000000000002,-52.733999999999995,-20.996,5.859
1626.4662826379997,37.109,-56.152,-29.785,13.672
1626.4662826400001,1.953,-82.031,-13.184000000000001,-5.859
1626.466282644,-3.418,-73.73,1.465,21.973000000000003
1626.4662826479998,46.387,-62.988,-10.742,46.387
1626.4662826520002,72.266,-70.801,-20.02,41.016000000000005
1626.4662826560002,37.598,-83.49600000000001,-2.93,29.296999999999997
1626.4662826600002,23.926,-71.289,19.531,42.968999999999994
1626.4662826640001,50.781000000000006,-63.477,7.324,56.641000000000005
1626.466282667,78.125,-71.777,-11.23,54.688
1626.466282671,46.875,-74.707,-9.277000000000001,22.461
1626.466282675,6.836,-81.543,7.812,0.0
1626.466282679,28.32,-76.172,6.348,19.531
1626.466282683,71.777,-67.383,-21.484,36.621
1626.466282686,50.781000000000006,-78.613,-30.273000000000003,-4.395
1626.46628269,-10.742,-83.008,-3.418,-39.062
1626.466282694,-14.648,-78.125,-4.395,-15.137
1626.466282698,30.273000000000003,-66.406,-28.32,-0.977
1626.4662827020002,36.621,-62.5,-38.574,-20.02
1626.4662827060001,-21.484,-75.195,-28.809,-49.316
1626.46628271,-27.831999999999997,-73.73,-16.113,-31.25
1626.4662827129998,26.855,-65.43,-29.296999999999997,-12.207
1626.466282717,40.527,-64.453,-44.434,-20.996
1626.466282721,-22.949,-73.73,-34.668,-42.968999999999994
1626.466282725,-53.223,-77.148,-11.23,-28.809
1626.4662827289999,-24.901999999999997,-73.242,-19.531,-17.578
1626.466282745,10.742,-69.824,-44.434,-13.672
1626.466282749,-20.02,-80.566,-38.574,-37.598
1626.4662827529999,-61.035,-89.355,-15.137,-40.039
1626.4662827570003,-41.504,-75.195,-17.578,-19.531
1626.4662827610002,-3.418,-51.27,-34.18,-18.555
1626.4662827650002,2.441,-51.27,-39.551,-42.968999999999994
1626.4662827690001,-45.41,-79.102,-24.901999999999997,-68.848
1626.466282772,-46.387,-73.73,-18.555,-50.293
1626.466282776,-7.324,-61.523,-40.039,-41.504
1626.46628278,-3.418,-70.312,-55.663999999999994,-56.152
1626.466282784,-37.598,-72.266,-33.203,-88.37899999999999
1626.466282788,-57.129,-67.383,-9.766,-76.172
1626.46628279,-36.133,-63.477,-20.508000000000003,-56.152
1626.4662827939999,-23.926,-61.523,-40.527,-65.43
1626.4662827979998,-65.918,-73.242,-38.574,-107.91
1626.466282802,-99.12100000000001,-75.684,-18.555,-88.37899999999999
1626.466282806,-78.613,-62.988,-24.414,-69.824
1626.46628281,-47.363,-63.965,-43.945,-76.172
1626.466282814,-75.195,-80.078,-41.992,-83.49600000000001
1626.466282817,-108.887,-83.008,-13.184000000000001,-69.336
1626.466282821,-97.656,-66.895,-15.137,-59.57
1626.466282825,-71.289,-71.289,-56.152,-79.102
1626.466282829,-69.336,-81.055,-63.965,-102.051
1626.466282833,-106.934,-79.102,-28.32,-105.95700000000001
1626.466282836,-118.652,-72.75399999999999,-18.555,-87.891
1626.4662828399998,-70.801,-70.312,-43.457,-88.37899999999999
1626.4662828439998,-47.852,-72.266,-51.758,-85.93799999999999
1626.4662828479998,-91.309,-82.031,-32.715,-108.887
1626.4662828520002,-96.68,-87.402,-17.578,-92.285
1626.466282856,-55.663999999999994,-71.777,-24.901999999999997,-72.75399999999999
1626.4662828599999,-29.785,-68.359,-47.363,-63.477
1626.4662828629998,-64.453,-86.426,-42.48,-85.449
1626.466282867,-95.215,-88.37899999999999,-32.227,-90.82
1626.466282871,-85.449,-84.473,-42.968999999999994,-61.035
1626.466282875,-53.223,-70.801,-45.898,-45.898
1626.466282879,-62.988,-73.73,-46.387,-83.984
1626.46628288,-113.77,-93.75,-22.461,-105.469
1626.4662828839998,-99.609,-88.37899999999999,-15.137,-84.473
1626.4662828879998,-55.176,-71.289,-36.621,-69.336
1626.4662828920002,-49.805,-72.75399999999999,-42.968999999999994,-81.055
1626.4662828960002,-97.656,-91.309,-29.785,-106.445
1626.4662829000001,-105.469,-77.637,-20.996,-85.449
1626.466282904,-62.988,-61.523,-38.086,-59.57
1626.466282907,-48.34,-80.078,-48.828,-64.941
1626.466282911,-85.93799999999999,-83.984,-35.156,-104.98
1626.466282915,-100.586,-78.125,-24.901999999999997,-94.238
1626.466282919,-72.266,-77.148,-42.48,-82.031
1626.4662829229999,-24.414,-70.801,-53.223,-74.707
1626.466282927,-41.504,-80.078,-45.898,-93.262
1626.466282931,-87.402,-86.914,-24.414,-104.00399999999999
1626.466282935,-61.523,-76.66,-22.461,-80.566
1626.466282939,-28.809,-81.543,-47.852,-57.129
1626.466282943,-41.504,-93.262,-49.316,-79.59
1626.466282947,-76.66,-81.543,-25.879,-98.145
1626.466282951,-70.312,-62.5,-20.02,-70.801
1626.466282954,-31.738000000000003,-65.918,-37.598,-60.059
1626.466282958,-28.809,-81.543,-48.34,-77.637
1626.4662829620002,-83.008,-90.33200000000001,-31.738000000000003,-89.844
1626.466282966,-99.609,-83.49600000000001,-21.973000000000003,-62.988
1626.46628297,-57.129,-75.195,-40.039,-61.523
1626.466282985,-21.484,-64.941,-54.688,-61.523
1626.4662829889999,-67.87100000000001,-79.59,-45.41,-95.70299999999999
1626.4662829929998,-96.191,-88.37899999999999,-27.831999999999997,-102.539
1626.4662829970002,-65.918,-79.59,-36.621,-77.637
1626.4662830010002,-22.949,-66.406,-51.27,-57.129
1626.4662830050002,-49.805,-62.5,-50.293,-100.586
1626.4662830089999,-109.375,-81.055,-36.621,-121.094
1626.466283012,-103.027,-84.961,-50.293,-101.56200000000001
1626.466283016,-69.336,-71.777,-59.082,-77.148
1626.46628302,-76.172,-81.543,-55.176,-94.727
1626.466283024,-106.445,-91.309,-34.668,-129.88299999999998
1626.466283028,-101.56200000000001,-74.707,-31.25,-102.051
1626.466283015,-56.152,-61.523,-53.223,-83.984
1626.466283019,-47.363,-66.406,-47.852,-77.148
1626.4662830229997,-108.887,-86.426,-31.25,-113.77
1626.4662830270001,-114.74600000000001,-84.961,-19.531,-115.723
1626.466283031,-74.707,-80.078,-24.901999999999997,-83.49600000000001
1626.466283035,-52.246,-77.148,-35.645,-69.336
1626.466283039,-98.145,-86.426,-38.574,-112.305
1626.466283042,-121.58200000000001,-101.56200000000001,-19.531,-108.398
1626.466283046,-81.055,-82.52,-19.043,-67.87100000000001
1626.46628305,-29.785,-71.289,-42.968999999999994,-48.34
1626.4662830539999,-52.733999999999995,-88.867,-49.805,-81.543
1626.4662830579998,-100.586,-98.145,-29.785,-92.285
1626.466283061,-76.66,-87.891,-23.438000000000002,-65.43
1626.466283065,-26.366999999999997,-64.453,-36.621,-45.898
1626.466283069,-30.273000000000003,-63.477,-42.968999999999994,-58.593999999999994
1626.4662830729999,-87.891,-84.961,-33.203,-93.262
1626.466283077,-93.262,-84.961,-28.32,-78.613
1626.466283081,-44.434,-67.383,-32.715,-50.781000000000006
1626.466283085,-20.996,-57.129,-44.434,-42.968999999999994
1626.4662830879997,-86.426,-81.055,-45.898,-97.656
1626.466283092,-119.141,-84.473,-20.02,-99.12100000000001
1626.4662830959999,-89.844,-77.148,-20.996,-75.684
1626.4662830999998,-58.593999999999994,-68.848,-35.156,-59.082
1626.4662831039998,-89.844,-75.684,-38.086,-98.145
1626.466283106,-119.62899999999999,-91.79700000000001,-24.414,-108.398
1626.46628311,-89.844,-84.473,-21.484,-82.031
1626.466283114,-35.156,-77.148,-33.691,-58.105
1626.4662831179999,-41.992,-77.637,-41.504,-82.031
1626.4662831220003,-89.355,-77.148,-25.391,-107.42200000000001
1626.4662831260002,-66.895,-62.012,-20.508000000000003,-78.125
1626.4662831300002,-11.719000000000001,-50.781000000000006,-37.109,-49.316
1626.466283133,0.488,-60.059,-42.48,-50.293
1626.4662831370001,-43.457,-75.195,-35.156,-94.727
1626.466283141,-59.57,-76.66,-28.32,-84.961
1626.466283145,-29.296999999999997,-65.918,-28.32,-53.711000000000006
1626.466283149,-12.207,-59.57,-36.133,-47.363
1626.466283167,-70.312,-77.637,-39.062,-90.33200000000001
1626.466283171,-88.867,-75.195,-28.32,-87.891
1626.466283175,-41.992,-57.617,-33.203,-57.617
1626.466283179,-3.906,-60.059,-35.156,-26.366999999999997
1626.4662831829999,-39.551,-77.637,-39.551,-62.988
1626.466283187,-90.82,-81.055,-39.062,-98.633
1626.466283191,-56.641000000000005,-69.336,-35.156,-87.402
1626.466283194,-14.16,-72.75399999999999,-36.621,-59.082
1626.466283198,-34.18,-83.49600000000001,-37.109,-75.195
1626.466283202,-86.426,-88.37899999999999,-18.066,-116.211
1626.466283206,-90.82,-85.449,-19.531,-95.70299999999999
1626.46628321,-34.18,-75.684,-43.945,-55.176
1626.46628321,-11.23,-71.289,-46.875,-49.316
1626.466283214,-63.477,-84.961,-38.574,-102.539
1626.466283218,-61.035,-79.102,-10.254000000000001,-108.398
1626.4662832220001,-8.301,-65.43,-13.672,-72.266
1626.466283226,14.16,-51.27,-38.574,-42.968999999999994
1626.46628323,-29.785,-60.547,-33.203,-85.449
1626.466283234,-80.078,-78.125,-13.672,-94.727
1626.4662832370002,-59.082,-70.312,-17.578,-66.895
1626.4662832410002,-4.883,-60.547,-30.761999999999997,-25.879
1626.4662832449999,-34.18,-71.289,-41.016000000000005,-58.593999999999994
1626.4662832489998,-89.355,-75.195,-36.621,-90.33200000000001
1626.4662832529998,-64.941,-65.918,-19.531,-39.062
1626.466283255,-30.273000000000003,-57.129,-19.043,-25.391
1626.4662832589997,-79.102,-70.801,-42.968999999999994,-78.613
1626.4662832629997,-147.94899999999998,-98.633,-34.18,-138.184
1626.466283267,-155.762,-98.633,-10.742,-144.531
1626.466283271,-125.488,-90.82,-13.672,-130.859
1626.466283275,-130.371,-93.75,-34.18,-139.16
1626.466283279,-198.73,-111.32799999999999,-41.992,-184.082
1626.4662832820002,-220.703,-120.117,-20.02,-187.012
1626.466283286,-214.84400000000002,-115.234,-29.296999999999997,-185.547
1626.4662832899999,-190.918,-113.281,-43.945,-187.012
1626.4662832939998,-226.562,-130.859,-36.133,-235.352
1626.4662832979998,-256.836,-137.207,-25.879,-243.16400000000002
1626.4662833,-222.168,-119.62899999999999,-24.901999999999997,-206.055
1626.466283304,-159.18,-104.98,-34.18,-169.922
1626.466283308,-146.97299999999998,-113.281,-33.203,-174.805
1626.466283312,-175.78099999999998,-125.0,-5.859,-187.012
1626.466283316,-165.52700000000002,-109.863,-1.953,-156.25
1626.46628332,-113.77,-89.844,-23.438000000000002,-111.32799999999999
1626.466283324,-94.727,-91.309,-33.203,-100.098
1626.4662833270002,-137.207,-109.375,-22.949,-131.34799999999998
1626.466283331,-140.625,-109.375,-0.977,-114.258
1626.466283335,-90.33200000000001,-98.633,-5.859,-82.031
1626.466283339,-48.828,-89.355,-22.461,-65.918
1626.466283343,-91.309,-103.516,-4.883,-103.516
1626.466283345,-108.398,-103.516,15.625,-100.586
1626.466283349,-62.5,-88.867,-7.324,-71.777
1626.4662833529999,-31.738000000000003,-84.473,-20.996,-61.035
1626.466283357,-67.383,-90.82,-7.812,-99.609
1626.466283361,-112.305,-93.75,7.812,-105.95700000000001
1626.466283365,-89.844,-74.219,-0.488,-68.848
1626.466283369,-33.203,-65.43,-12.695,-44.922
1626.4662833720001,-64.941,-88.37899999999999,-16.602,-74.219
1626.466283376,-108.887,-101.074,-7.324,-107.42200000000001
1626.46628338,-89.355,-97.656,1.953,-83.008
1626.4662833839998,-50.293,-85.449,-12.695,-56.641000000000005
1626.4662833879997,-37.109,-78.613,-22.461,-69.824
1626.4662833920002,-75.195,-91.309,-3.418,-97.656
1626.466283396,-84.961,-88.37899999999999,5.371,-82.52
1626.4662834,-49.805,-76.172,-14.648,-65.43
1626.466283404,-30.273000000000003,-79.59,-35.156,-50.781000000000006
1626.466283408,-62.5,-86.914,-20.508000000000003,-73.73
1626.4662834120002,-81.543,-74.219,19.043,-63.477
1626.4662834160001,-46.875,-71.289,11.719000000000001,-49.805
1626.4662834189999,-8.301,-69.824,-12.695,-56.641000000000005
1626.4662834229998,-46.875,-73.73,-12.695,-80.078
1626.466283427,-75.684,-84.961,13.184000000000001,-73.242
1626.466283431,-62.5,-78.125,14.16,-51.27
1626.466283435,-31.25,-66.895,-17.09,-52.246
1626.466283435,-29.296999999999997,-73.73,-20.996,-69.824
1626.4662834389999,-64.941,-82.52,-5.371,-82.52
1626.4662834429998,-63.477,-71.777,-3.418,-57.129
1626.466283447,-15.625,-74.219,-24.901999999999997,-47.363
1626.466283451,-2.441,-74.219,-36.133,-63.965
1626.466283455,-45.41,-73.242,-6.836,-92.285
1626.466283459,-64.941,-73.73,9.766,-81.055
1626.466283462,-42.968999999999994,-72.266,-15.625,-72.266
1626.466283466,-29.296999999999997,-70.312,-32.227,-76.66
1626.46628347,-50.293,-77.637,-14.648,-105.469
1626.466283474,-79.102,-80.078,0.977,-94.238
1626.466283478,-65.43,-75.684,-4.395,-80.566
1626.466283495,-13.184000000000001,-75.195,-13.672,-76.66
1626.466283499,-22.949,-79.59,-11.719000000000001,-96.191
1626.4662835029999,-63.965,-80.566,3.418,-107.42200000000001
1626.4662835070003,-56.641000000000005,-75.684,1.465,-87.402
1626.4662835110003,-15.137,-78.125,-37.109,-79.59
1626.4662835150002,-22.949,-79.59,-40.527,-89.355
1626.466283519,-65.43,-74.219,-4.883,-96.191
1626.4662835220001,-60.059,-68.848,8.301,-76.172
1626.466283526,-19.043,-52.733999999999995,-0.977,-69.336
1626.46628353,-6.348,-71.289,-21.973000000000003,-70.801
1626.466283534,-72.75399999999999,-107.42200000000001,-11.23,-82.52
1626.466283538,-94.238,-103.516,6.836,-69.824
1626.46628354,-37.109,-83.49600000000001,-8.789,-54.688
1626.466283544,-10.254000000000001,-86.426,-26.855,-50.781000000000006
1626.4662835479999,-47.852,-100.098,-12.695,-78.125
1626.466283552,-78.125,-99.12100000000001,9.277000000000001,-88.37899999999999
1626.466283556,-39.062,-80.078,1.953,-54.688
1626.46628356,17.09,-60.547,-23.926,-35.156
1626.466283564,-6.836,-72.266,-22.949,-78.613
1626.4662835670001,-49.805,-86.426,10.742,-89.844
1626.466283571,-44.922,-82.031,6.836,-56.152
1626.466283575,-20.508000000000003,-75.684,-24.414,-44.922
1626.466283579,-19.531,-71.777,-35.645,-62.012
1626.466283583,-67.383,-82.031,-19.043,-89.844
1626.466283585,-69.336,-79.102,-4.395,-76.66
1626.4662835889999,-25.879,-65.43,-16.602,-58.593999999999994
1626.4662835929998,-15.625,-74.219,-24.901999999999997,-61.523
1626.466283597,-63.965,-92.285,-7.324,-99.609
1626.466283601,-91.79700000000001,-83.49600000000001,14.648,-95.70299999999999
1626.466283605,-58.105,-64.941,0.977,-77.637
1626.466283609,-11.23,-64.453,-16.602,-66.895
1626.4662836120003,-48.34,-72.75399999999999,-14.16,-99.12100000000001
1626.4662836160003,-88.37899999999999,-88.867,-5.371,-95.215
1626.4662836199998,-75.195,-94.727,-10.742,-76.66
1626.4662836239997,-42.48,-77.637,-26.855,-77.148
1626.4662836279997,-35.645,-80.566,-27.831999999999997,-95.215
1626.466283632,-49.316,-83.008,-2.93,-94.727
1626.466283636,-47.363,-66.895,-2.441,-61.035
1626.46628364,-13.184000000000001,-53.223,-25.879,-42.48
1626.466283644,15.625,-62.5,-31.738000000000003,-41.016000000000005
1626.4662836479997,-33.691,-77.148,-14.16,-62.988
1626.4662836520001,-34.668,-55.176,7.812,-32.715
1626.466283656,35.156,-38.574,-7.812,9.277000000000001
1626.4662836589998,82.031,-52.733999999999995,-24.414,27.344
1626.4662836629998,30.761999999999997,-64.453,-10.254000000000001,-21.484
1626.466283667,1.465,-62.988,6.836,-24.414
1626.466283671,59.57,-57.617,2.441,17.09
1626.4662836749999,96.191,-52.246,-9.277000000000001,38.574
1626.4662836749999,57.129,-55.176,-9.277000000000001,15.625
1626.4662836789998,22.949,-60.547,13.184000000000001,20.508000000000003
1626.4662836829998,41.016000000000005,-54.688,14.16,35.645
1626.466283687,66.895,-51.27,-6.348,42.968999999999994
1626.466283691,42.48,-53.711000000000006,-10.742,32.227
1626.466283695,-0.977,-52.733999999999995,15.137,7.324
1626.4662836989999,8.301,-49.805,19.043,27.344
1626.466283702,38.574,-45.898,-6.348,41.992
1626.466283706,33.203,-54.199,-20.02,27.831999999999997
1626.46628371,-12.207,-72.75399999999999,-7.324,-20.996
1626.466283714,-19.043,-62.012,9.277000000000001,5.371
1626.4662837179999,20.996,-46.875,-7.812,32.227
1626.46628372,41.504,-52.733999999999995,-35.156,25.879
1626.466283724,-7.812,-69.336,-24.414,-7.812
1626.466283728,-30.273000000000003,-70.801,2.93,-3.906
1626.4662837320002,-19.043,-67.383,-8.301,5.859
1626.4662837360002,15.625,-65.918,-27.831999999999997,6.836
1626.46628374,-7.812,-62.5,-13.184000000000001,-13.184000000000001
1626.466283744,-56.641000000000005,-70.312,1.465,-43.457
1626.4662837470003,-42.48,-68.848,-7.812,-36.133
1626.4662837510002,-13.184000000000001,-61.523,-24.414,-20.508000000000003
1626.4662837550002,-35.156,-71.777,-34.18,-29.296999999999997
1626.466283759,-69.336,-77.148,-15.137,-53.711000000000006
1626.4662837629999,-50.293,-60.547,-2.93,-43.457
1626.466283766,-37.598,-45.41,-22.461,-23.438000000000002
1626.46628377,-24.901999999999997,-53.223,-37.109,-18.066
1626.466283774,-49.805,-70.801,-25.391,-62.5
1626.466283778,-83.984,-68.848,-8.301,-58.593999999999994
1626.4662837820001,-68.848,-62.012,-21.973000000000003,-40.527
1626.466283786,-17.09,-53.711000000000006,-43.457,-38.086
1626.46628379,-48.828,-66.406,-43.945,-64.453
1626.466283793,-98.633,-77.637,-23.926,-65.43
1626.4662837970002,-72.75399999999999,-57.129,-20.02,-45.898
1626.4662838010001,-29.785,-64.941,-44.434,-39.551
1626.466283805,-66.895,-80.566,-52.733999999999995,-70.801
1626.466283809,-106.934,-78.613,-28.32,-85.449
1626.466283811,-83.984,-66.895,-16.113,-48.828
1626.466283815,-60.059,-61.035,-37.109,-40.039
1626.466283819,-63.965,-75.195,-49.805,-62.988
1626.466283823,-89.844,-87.402,-26.366999999999997,-91.79700000000001
1626.466283827,-94.238,-76.66,-13.184000000000001,-79.102
1626.466283831,-68.848,-56.152,-28.32,-58.593999999999994
1626.466283835,-45.41,-63.477,-45.41,-44.434
1626.4662838379998,-73.242,-82.52,-43.945,-83.984
1626.466283842,-106.445,-81.055,-32.227,-90.33200000000001
1626.466283846,-85.93799999999999,-76.172,-37.109,-69.824
1626.4662838499999,-39.551,-74.707,-47.363,-53.223
1626.4662838539998,-62.5,-85.449,-41.992,-89.844
1626.466283871,-106.445,-84.473,-20.996,-106.445
1626.466283875,-106.934,-67.383,-25.879,-80.078
1626.466283879,-53.223,-62.5,-41.504,-75.684
1626.466283883,-57.129,-82.031,-38.086,-105.469
1626.4662838870001,-117.676,-87.402,-14.16,-115.723
1626.466283891,-114.258,-64.941,-12.207,-84.473
1626.466283895,-64.941,-61.523,-38.086,-67.383
1626.4662838979998,-60.547,-76.172,-41.504,-72.266
1626.4662839020002,-99.12100000000001,-77.637,-22.949,-102.539
1626.4662839060002,-93.75,-77.637,-15.625,-87.402
