timestamps,TP9,AF7,AF8,TP10
1626.466377741,-44.434,-44.922,-9.766,-8.301
1626.4663777449998,8.301,-11.719000000000001,-5.859,51.758
1626.4663777489998,-29.296999999999997,-44.434,-51.758,-23.926
1626.4663777529997,-77.637,-80.566,-60.059,-69.824
1626.4663777570001,-44.922,-57.617,-27.344,-25.879
1626.466377761,15.625,-5.859,10.254000000000001,64.453
1626.466377765,-21.484,-23.926,-32.227,19.531
1626.4663777679998,-64.941,-70.312,-55.176,-61.035
1626.466377772,-28.809,-62.5,-27.344,-37.598
1626.466377776,13.184000000000001,-30.273000000000003,7.812,43.457
1626.46637778,8.301,-28.32,-15.137,42.968999999999994
1626.4663777839999,-49.316,-68.848,-45.898,-40.039
1626.466377785,-61.035,-75.195,-34.668,-54.688
1626.466377789,0.977,-34.18,-2.93,20.02
1626.466377793,23.438000000000002,-11.23,-8.301,60.059
1626.4663777970002,-28.32,-49.316,-44.434,-13.672
1626.4663778010001,-50.293,-68.359,-33.691,-38.574
1626.466377805,-12.207,-32.715,7.812,20.508000000000003
1626.466377809,33.203,-0.977,17.09,73.73
1626.466377812,3.906,-33.203,-20.02,13.184000000000001
1626.466377816,-38.574,-65.43,-21.973000000000003,-59.57
1626.46637782,-30.273000000000003,-58.593999999999994,15.137,-41.992
1626.466377824,30.761999999999997,-17.09,45.41,42.48
1626.4663778279998,24.901999999999997,-23.926,12.207,21.973000000000003
1626.4663778450001,-32.715,-62.5,3.906,-46.875
1626.466377849,-41.504,-62.012,28.32,-28.809
1626.4663778529998,9.766,-20.508000000000003,66.406,43.945
1626.4663778570002,14.16,-15.137,45.898,47.852
1626.466377861,-46.875,-63.965,10.742,-29.296999999999997
1626.466377865,-51.27,-66.895,24.901999999999997,-55.176
1626.4663778689999,-3.418,-39.062,56.641000000000005,0.0
1626.4663778720003,29.785,-24.901999999999997,56.152,50.293
1626.4663778760003,-14.648,-60.547,15.137,-13.184000000000001
1626.4663778800002,-50.293,-94.238,6.348,-50.781000000000006
1626.4663778839997,-15.137,-80.566,42.968999999999994,-9.766
1626.4663778879997,34.18,-45.41,62.988,45.898
1626.46637789,-1.465,-67.87100000000001,21.484,-5.859
1626.466377894,-51.758,-100.098,11.719000000000001,-72.75399999999999
1626.4663778979998,-36.621,-92.285,40.527,-38.086
1626.4663779020002,12.207,-57.129,72.266,40.039
1626.4663779060002,11.719000000000001,-56.641000000000005,35.645,12.207
1626.4663779100001,-41.992,-85.449,9.766,-62.012
1626.466377914,-63.477,-93.75,31.738000000000003,-65.43
1626.466377917,-3.418,-67.383,71.777,1.953
1626.466377921,12.695,-47.363,48.34,13.184000000000001
1626.466377925,-60.059,-99.609,-3.418,-69.336
1626.466377929,-75.684,-125.488,2.93,-96.68
1626.4663779329999,-14.648,-83.49600000000001,38.574,-26.855
1626.4663779349999,16.602,-60.059,29.296999999999997,22.461
1626.4663779389998,-30.273000000000003,-95.70299999999999,-20.02,-38.574
1626.4663779429998,-64.453,-119.62899999999999,-21.973000000000003,-86.426
1626.466377947,-29.296999999999997,-102.051,9.766,-63.477
1626.466377951,20.508000000000003,-55.663999999999994,30.761999999999997,14.16
1626.4663779549999,-11.719000000000001,-68.359,-7.324,-34.668
1626.4663779589998,-59.082,-110.84,-25.391,-106.445
1626.466377962,-40.527,-108.887,1.465,-80.566
1626.466377966,14.648,-62.988,37.598,-1.953
1626.46637797,-0.488,-62.012,5.371,-3.418
1626.466377974,-54.199,-103.516,-24.414,-75.195
1626.4663779779999,-60.059,-102.539,-11.23,-88.867
1626.4663779829998,-8.301,-60.059,23.926,-17.09
1626.4663779870002,12.695,-49.805,12.207,17.09
1626.4663779910002,-49.805,-97.16799999999999,-31.738000000000003,-58.593999999999994
1626.466377995,-69.824,-122.07,-34.18,-87.402
1626.4663779989999,-23.926,-86.426,-1.953,-31.738000000000003
1626.4663780029998,21.484,-40.039,9.277000000000001,27.344
1626.4663780070002,-20.996,-73.73,-39.062,-27.831999999999997
1626.46637801,-67.383,-113.281,-47.852,-81.055
1626.466378014,-43.945,-98.145,-5.859,-44.922
1626.466378018,14.648,-59.082,13.184000000000001,24.901999999999997
1626.466378022,-11.719000000000001,-71.289,-35.645,-7.812
1626.466378026,-64.941,-106.934,-49.316,-64.453
1626.466378026,-55.663999999999994,-94.238,-16.602,-42.48
1626.46637803,2.93,-50.293,10.254000000000001,14.16
1626.466378034,-0.977,-55.176,-23.926,8.789
1626.466378038,-60.059,-94.238,-53.223,-62.988
1626.466378042,-75.684,-95.70299999999999,-38.086,-82.52
1626.466378046,-10.742,-51.758,1.953,-12.695
1626.46637805,30.273000000000003,-20.996,-10.254000000000001,19.531
1626.466378053,-43.457,-72.75399999999999,-54.199,-46.875
1626.4663780570002,-70.801,-102.539,-51.758,-83.984
1626.4663780610001,-13.184000000000001,-66.406,-16.113,-29.785
1626.466378065,27.344,-27.831999999999997,-0.488,30.273000000000003
1626.466378069,-13.672,-59.57,-43.457,-26.366999999999997
1626.46637807,-26.366999999999997,-86.426,-53.223,-71.289
1626.466378074,-3.418,-65.918,-20.996,-44.922
1626.466378078,42.48,-29.785,0.0,18.555
1626.4663780820001,26.855,-42.968999999999994,-41.016000000000005,-11.23
1626.466378086,-45.898,-91.79700000000001,-57.129,-73.242
1626.4663780899998,-43.945,-78.125,-28.32,-65.918
1626.4663780939998,10.742,-35.156,2.441,-12.207
1626.4663780970002,10.254000000000001,-37.598,-20.508000000000003,0.488
1626.4663781010001,-49.805,-72.266,-45.41,-57.617
1626.466378105,-52.246,-86.426,-32.715,-83.008
1626.466378109,0.488,-61.523,7.324,-25.391
1626.466378113,10.742,-49.805,6.348,20.508000000000003
1626.466378115,-47.852,-84.473,-30.273000000000003,-41.016000000000005
1626.466378119,-71.777,-111.816,-29.296999999999997,-90.33200000000001
1626.466378123,-24.901999999999997,-97.16799999999999,11.719000000000001,-31.738000000000003
1626.466378127,29.296999999999997,-63.965,33.691,31.25
1626.466378131,-2.441,-83.008,-3.906,-22.949
1626.466378135,-77.148,-119.141,-19.531,-77.637
1626.466378139,-51.758,-114.258,4.883,-59.082
1626.4663781420002,35.645,-72.266,40.527,16.113
1626.4663781460001,4.395,-80.078,1.465,7.324
1626.46637815,-48.34,-118.652,-26.855,-64.941
1626.466378154,-42.968999999999994,-101.56200000000001,-0.488,-69.336
1626.466378158,5.859,-56.641000000000005,41.992,6.348
1626.4663781620002,8.301,-56.641000000000005,14.16,19.531
1626.4663781660001,-48.828,-95.70299999999999,-24.414,-57.617
1626.46637817,-55.176,-100.098,-2.441,-76.66
1626.466378174,-7.812,-61.523,35.645,-13.672
1626.466378178,20.02,-38.574,21.484,38.574
1626.4663781820002,-35.156,-68.359,-28.809,-33.203
1626.4663781860002,-65.918,-90.82,-21.484,-81.055
1626.466378189,-33.691,-73.73,20.508000000000003,-29.296999999999997
1626.4663781929999,8.301,-34.668,32.715,26.855
1626.466378197,-27.344,-62.5,-20.02,-29.785
1626.466378201,-83.008,-110.84,-35.645,-93.262
1626.466378205,-62.012,-96.68,-4.395,-61.035
1626.466378221,8.789,-49.316,27.831999999999997,20.508000000000003
1626.466378225,-7.812,-49.805,-0.488,-1.465
1626.466378229,-89.355,-87.891,-24.414,-90.33200000000001
1626.466378233,-82.52,-92.773,-8.789,-99.609
1626.4663782370003,-16.113,-58.593999999999994,26.366999999999997,-33.203
1626.4663782410003,-15.137,-46.875,5.859,-6.348
1626.466378245,-72.75399999999999,-85.93799999999999,-32.715,-75.684
1626.466378248,-94.727,-104.98,-20.996,-103.516
1626.4663782520001,-36.621,-78.125,16.113,-35.645
1626.466378256,1.465,-44.922,22.461,37.109
1626.46637826,-50.293,-74.707,-17.578,-37.109
1626.466378264,-76.66,-101.56200000000001,-17.578,-93.262
1626.466378265,-35.645,-73.73,14.16,-44.434
1626.466378269,15.137,-37.598,33.203,19.043
1626.4663782729997,-18.555,-56.641000000000005,-14.16,-9.277000000000001
1626.466378277,-55.176,-84.961,-26.366999999999997,-66.406
1626.466378281,-41.504,-76.66,2.93,-59.082
1626.466378285,2.93,-28.809,27.831999999999997,5.371
1626.466378289,-6.348,-27.344,-13.672,1.465
1626.466378292,-60.059,-69.336,-51.758,-71.289
1626.466378296,-62.988,-77.148,-29.296999999999997,-93.75
1626.4663782999999,-19.531,-57.617,1.953,-32.715
1626.4663783039998,7.324,-37.598,-9.277000000000001,1.465
1626.4663783079998,-34.668,-68.359,-45.41,-61.523
1626.46637831,-62.012,-81.055,-36.133,-76.66
1626.466378314,-20.508000000000003,-48.828,2.93,-26.366999999999997
1626.466378318,27.344,-21.973000000000003,10.742,17.09
1626.466378322,-20.996,-48.34,-30.761999999999997,-40.039
1626.466378326,-69.336,-73.242,-42.968999999999994,-90.82
1626.46637833,-38.574,-49.805,-21.973000000000003,-49.316
1626.466378334,17.578,-1.465,8.301,28.32
1626.4663783370002,-8.789,-22.461,-23.438000000000002,-3.906
1626.466378341,-66.406,-68.359,-56.641000000000005,-76.172
1626.466378345,-61.035,-69.336,-37.598,-76.172
1626.466378349,1.953,-31.25,8.301,-9.766
1626.466378353,-0.977,-20.508000000000003,-16.602,-7.812
1626.466378355,-80.566,-56.152,-53.223,-78.613
1626.466378359,-89.355,-69.824,-47.363,-90.82
1626.4663783629999,-26.855,-38.574,-18.066,-37.598
1626.466378367,4.395,-18.066,-30.761999999999997,-7.812
1626.466378371,-44.434,-55.663999999999994,-68.848,-71.777
1626.466378375,-77.148,-67.383,-56.152,-114.258
1626.466378379,-32.715,-37.598,-19.531,-54.688
1626.4663783820001,17.578,-7.812,-11.719000000000001,4.883
1626.466378386,-38.086,-41.992,-63.477,-57.129
1626.46637839,-88.867,-79.59,-65.43,-94.727
1626.466378394,-58.593999999999994,-65.918,-30.761999999999997,-54.688
1626.4663783979997,-3.418,-40.527,-9.277000000000001,0.488
1626.4663784000002,-21.973000000000003,-51.27,-50.293,-21.484
1626.4663784040001,-62.988,-78.125,-75.684,-79.59
1626.466378408,-54.688,-81.543,-54.688,-79.102
1626.4663784120003,-7.324,-47.852,-14.648,-9.277000000000001
1626.4663784160002,8.301,-30.761999999999997,-35.156,-8.789
1626.4663784200002,-60.547,-62.5,-63.965,-84.473
1626.466378424,-81.055,-72.266,-48.34,-86.426
1626.466378427,-21.973000000000003,-49.316,-16.602,-32.227
1626.466378431,-1.465,-26.855,-12.695,8.789
1626.466378435,-52.733999999999995,-60.059,-60.059,-48.828
1626.466378439,-93.75,-85.449,-61.523,-94.238
1626.466378443,-64.453,-58.593999999999994,-21.973000000000003,-50.781000000000006
1626.466378445,7.812,-19.043,-3.906,18.555
1626.4663784489999,-23.438000000000002,-39.062,-38.574,-24.414
1626.4663784529998,-79.102,-72.75399999999999,-44.922,-87.891
1626.466378457,-56.152,-62.012,-13.184000000000001,-61.523
1626.466378461,2.93,-22.949,21.484,13.672
1626.466378465,4.883,-26.366999999999997,-13.184000000000001,7.812
1626.466378469,-51.27,-74.707,-45.41,-66.895
1626.466378472,-55.176,-77.637,-37.109,-81.543
1626.466378476,0.0,-38.574,-7.324,-17.09
1626.46637848,6.348,-35.645,-15.137,1.953
1626.466378484,-56.152,-77.637,-46.387,-63.477
1626.466378488,-76.66,-87.891,-43.945,-84.473
1626.46637849,-24.414,-52.246,-12.207,-24.901999999999997
1626.4663784939999,13.672,-26.855,-5.859,20.508000000000003
1626.4663784979998,-39.551,-58.593999999999994,-54.688,-39.062
1626.466378502,-77.637,-80.566,-68.848,-97.656
1626.466378506,-48.828,-54.688,-35.645,-81.543
1626.46637851,-0.488,-19.043,-11.719000000000001,-1.465
1626.4663785139999,-31.738000000000003,-43.945,-61.035,-31.25
1626.4663785170003,-79.59,-93.262,-78.613,-94.238
1626.4663785210003,-63.965,-83.984,-56.152,-77.148
1626.466378525,-7.324,-40.527,-26.855,-3.906
1626.466378529,-3.906,-33.203,-44.922,6.836
1626.466378533,-66.895,-66.895,-70.801,-74.707
1626.466378535,-77.637,-76.66,-57.129,-96.191
1626.466378539,-23.926,-46.387,-17.578,-15.137
1626.466378543,-1.465,-23.926,-28.32,21.973000000000003
1626.4663785470002,-38.086,-52.733999999999995,-68.848,-51.758
1626.4663785510002,-57.617,-80.078,-63.477,-85.449
1626.4663785550001,-20.996,-49.316,-24.414,-44.922
1626.466378559,22.461,-6.348,-11.719000000000001,19.043
1626.466378562,-7.812,-46.875,-58.593999999999994,-31.738000000000003
1626.466378566,-49.805,-64.941,-69.336,-86.426
1626.46637857,-44.434,-47.852,-50.293,-58.105
1626.466378574,-1.953,-28.809,-30.761999999999997,4.883
1626.4663785779999,-9.277000000000001,-37.598,-66.406,-29.785
1626.466378595,-55.176,-78.613,-70.312,-100.098
1626.4663785989999,-56.641000000000005,-76.66,-48.34,-83.49600000000001
1626.4663786029998,-3.418,-39.551,-25.391,-19.043
1626.466378607,3.418,-35.645,-34.668,-17.09
1626.466378611,-51.758,-71.777,-62.012,-87.891
1626.466378615,-62.5,-74.219,-51.758,-97.656
1626.466378619,-17.09,-43.945,-19.531,-27.344
1626.4663786220003,12.695,-27.344,-28.809,5.859
1626.4663786260003,-34.668,-54.688,-65.918,-66.406
1626.46637863,-67.383,-78.125,-68.359,-86.914
1626.4663786339997,-23.438000000000002,-54.688,-34.668,-37.598
1626.4663786379997,15.137,-13.184000000000001,-15.625,18.066
1626.4663786400001,-25.879,-33.691,-60.547,-32.227
1626.466378644,-67.87100000000001,-73.242,-80.078,-90.82
1626.4663786479998,-62.988,-65.43,-43.457,-64.941
1626.4663786520002,-11.23,-31.25,-2.441,4.883
1626.4663786560002,-15.137,-41.504,-41.992,-10.742
1626.4663786600001,-75.195,-71.777,-60.547,-77.637
1626.466378664,-70.801,-62.988,-38.574,-75.195
1626.466378667,0.977,-25.879,-8.789,2.441
1626.466378671,7.812,-24.901999999999997,-27.831999999999997,7.324
1626.466378675,-56.152,-66.895,-66.406,-79.102
1626.466378679,-68.848,-73.73,-58.105,-88.867
1626.466378683,-24.414,-54.199,-13.184000000000001,-26.855
1626.466378686,10.254000000000001,-26.366999999999997,-0.977,27.344
1626.46637869,-45.41,-50.293,-33.691,-35.645
1626.466378694,-70.801,-66.406,-29.296999999999997,-85.449
1626.466378698,-28.809,-49.316,-8.789,-36.621
1626.4663787020002,19.043,-22.949,0.488,25.391
1626.4663787060001,-16.113,-37.109,-29.296999999999997,-18.066
1626.46637871,-72.75399999999999,-67.383,-34.18,-81.055
1626.4663787129998,-48.828,-69.336,-14.16,-64.453
1626.466378717,11.23,-41.504,5.371,12.207
1626.466378721,-1.465,-42.968999999999994,-16.113,-3.906
1626.466378725,-49.805,-77.148,-35.156,-78.613
1626.4663787289999,-60.547,-77.637,-21.973000000000003,-91.309
1626.46637873,-11.23,-39.551,15.625,-24.414
1626.466378734,15.625,-23.438000000000002,-0.977,9.766
1626.466378738,-33.203,-55.176,-45.898,-61.035
1626.4663787420002,-47.363,-66.895,-32.227,-85.93799999999999
1626.4663787460001,-3.906,-44.922,11.23,-17.578
1626.46637875,29.296999999999997,-18.555,2.441,41.992
1626.466378754,-16.113,-41.016000000000005,-46.387,-35.645
1626.4663787570003,-44.922,-70.801,-50.781000000000006,-80.078
1626.4663787610002,-22.461,-70.312,-23.926,-41.016000000000005
1626.4663787650002,21.973000000000003,-46.875,-3.906,15.137
1626.4663787690001,-12.207,-54.688,-38.574,-10.742
1626.4663787729999,-67.383,-86.914,-52.733999999999995,-87.402
1626.466378775,-65.43,-79.102,-33.691,-86.426
1626.466378779,-11.719000000000001,-32.715,-3.906,-0.977
1626.466378783,-9.766,-32.715,-29.296999999999997,-8.301
1626.4663787870002,-68.848,-70.801,-57.129,-72.266
1626.4663787910001,-65.918,-76.66,-52.246,-70.801
1626.466378795,-4.883,-32.227,-23.438000000000002,-24.414
1626.466378799,12.695,-12.207,-38.086,-13.672
1626.466378802,-45.41,-61.523,-71.777,-83.984
1626.466378806,-62.988,-77.148,-62.988,-105.95700000000001
1626.46637881,-20.508000000000003,-41.016000000000005,-32.227,-44.434
1626.4663788139999,17.578,-14.16,-25.879,20.02
1626.4663788179998,-27.831999999999997,-45.41,-67.87100000000001,-30.273000000000003
1626.46637882,-48.34,-65.43,-68.848,-74.219
1626.4663788239998,-15.625,-51.758,-45.41,-49.316
1626.4663788279997,26.855,-28.32,-29.296999999999997,12.695
1626.466378832,3.418,-40.039,-72.266,-18.066
1626.4663788359999,-43.945,-71.289,-88.867,-83.984
1626.4663788399998,-39.062,-62.012,-55.176,-66.895
1626.4663788439998,16.113,-24.414,-22.461,-0.488
1626.4663788470002,26.855,-30.761999999999997,-52.246,11.23
1626.4663788510002,-27.344,-71.777,-80.566,-50.781000000000006
1626.4663788550001,-35.645,-74.219,-70.312,-75.195
1626.4663788589999,4.395,-43.457,-42.968999999999994,-14.16
1626.4663788629998,19.531,-35.156,-44.434,26.855
1626.4663788660002,-34.668,-58.593999999999994,-73.73,-36.621
1626.46637887,-72.75399999999999,-76.66,-71.777,-79.59
1626.466378874,-37.598,-59.082,-40.527,-56.152
1626.466378878,19.043,-27.344,-23.438000000000002,17.09
1626.4663788820003,-35.156,-58.593999999999994,-62.5,-31.738000000000003
1626.4663788860003,-83.984,-76.172,-72.266,-103.516
1626.4663788900002,-41.504,-62.988,-48.828,-64.941
1626.466378893,11.719000000000001,-39.062,-25.879,5.371
1626.4663788970001,-2.441,-43.945,-58.593999999999994,-15.137
1626.466378901,-58.105,-79.59,-85.93799999999999,-77.148
1626.466378905,-48.34,-76.172,-68.359,-65.43
1626.466378909,14.648,-40.527,-20.996,6.348
1626.46637891,13.672,-29.296999999999997,-30.273000000000003,14.648
1626.466378914,-49.805,-76.172,-68.848,-61.523
1626.466378918,-64.453,-91.309,-64.453,-80.078
1626.466378922,-7.324,-56.641000000000005,-26.366999999999997,-15.625
1626.466378926,27.831999999999997,-33.691,-26.366999999999997,26.366999999999997
1626.46637893,-24.901999999999997,-62.988,-71.777,-37.109
1626.466378934,-51.758,-96.191,-76.66,-82.52
1626.466378937,-19.043,-82.031,-41.992,-51.27
1626.466378941,18.066,-34.668,-28.809,9.766
1626.4663789449999,-21.973000000000003,-56.152,-72.266,-26.366999999999997
1626.4663789489998,-64.941,-85.449,-75.684,-77.637
1626.4663789529998,-30.761999999999997,-64.453,-46.875,-61.035
1626.46637897,20.508000000000003,-35.645,-17.09,11.23
1626.466378974,-4.883,-49.316,-55.176,-2.441
1626.466378978,-45.41,-79.59,-78.613,-80.566
1626.4663789820002,-49.316,-73.242,-52.246,-83.008
1626.466378986,-1.953,-38.574,-18.066,-22.461
1626.46637899,26.855,-27.344,-31.738000000000003,9.277000000000001
1626.466378994,-29.296999999999997,-62.5,-67.383,-53.711000000000006
1626.4663789970002,-61.035,-84.961,-62.5,-85.93799999999999
1626.4663790010002,-15.137,-63.477,-30.273000000000003,-29.785
1626.4663790050001,17.09,-28.32,-21.973000000000003,30.273000000000003
1626.4663790089999,-32.715,-59.082,-57.617,-42.48
1626.4663790129998,-60.059,-87.402,-62.012,-92.773
1626.466379015,-34.18,-65.918,-26.855,-47.852
1626.466379019,15.625,-30.761999999999997,-4.395,11.23
1626.4663790229997,-16.602,-47.852,-48.34,-30.761999999999997
1626.4663790270001,-77.637,-83.984,-62.988,-89.355
1626.466379031,-61.035,-78.125,-45.898,-67.87100000000001
1626.466379035,4.395,-31.25,-12.207,9.277000000000001
1626.466379039,-11.719000000000001,-27.344,-34.668,14.16
1626.466379042,-61.035,-71.777,-62.5,-55.663999999999994
1626.466379046,-47.852,-79.102,-40.039,-66.895
1626.46637905,1.953,-55.176,-11.23,-8.789
1626.4663790539998,25.879,-39.551,-26.855,20.996
1626.4663790579998,-37.598,-71.777,-61.035,-52.733999999999995
1626.466379061,-64.941,-84.961,-58.593999999999994,-93.262
1626.466379065,-32.715,-55.663999999999994,-38.574,-36.133
1626.466379069,4.395,-26.366999999999997,-26.855,10.254000000000001
1626.4663790729999,-43.457,-53.223,-62.988,-61.035
1626.466379077,-84.961,-91.309,-63.965,-106.445
1626.466379081,-45.41,-68.848,-42.48,-70.312
1626.466379085,6.348,-29.785,-27.344,4.395
1626.4663790879997,-17.09,-53.223,-48.34,-18.555
1626.466379092,-66.895,-86.914,-59.082,-87.891
1626.4663790959999,-59.57,-75.195,-39.062,-67.383
1626.4663790999998,4.395,-37.598,-3.418,19.043
1626.4663791039998,9.766,-40.527,-28.809,22.461
1626.466379105,-56.152,-79.102,-61.035,-55.663999999999994
1626.466379109,-61.523,-76.172,-45.41,-66.406
1626.466379113,0.488,-43.945,-10.742,-0.488
1626.466379117,26.855,-27.831999999999997,-17.578,39.062
1626.466379121,-28.809,-60.547,-61.523,-24.901999999999997
1626.466379125,-59.082,-73.242,-56.152,-68.359
1626.466379129,-24.414,-44.922,-13.672,-21.973000000000003
1626.4663791320002,22.461,-15.137,4.883,44.434
1626.4663791360001,-15.137,-45.898,-39.062,-11.23
1626.46637914,-65.43,-81.055,-48.34,-66.895
1626.466379144,-41.504,-78.125,-21.973000000000003,-41.504
1626.4663791479998,19.531,-42.968999999999994,1.465,35.156
1626.4663791500002,4.395,-42.968999999999994,-29.296999999999997,13.184000000000001
1626.4663791540002,-49.316,-87.891,-54.688,-70.312
1626.4663791579999,-42.968999999999994,-75.684,-45.898,-60.059
1626.466379162,8.789,-34.668,-11.719000000000001,8.301
1626.466379166,18.555,-42.968999999999994,-27.831999999999997,11.719000000000001
1626.46637917,-41.016000000000005,-66.406,-64.941,-59.57
1626.466379174,-50.781000000000006,-62.5,-63.477,-84.961
1626.4663791770001,11.23,-50.781000000000006,-22.461,-13.184000000000001
1626.466379181,27.831999999999997,-34.668,-6.836,37.598
1626.466379185,-55.176,-70.312,-48.34,-59.57
1626.4663791889998,-97.16799999999999,-99.12100000000001,-49.805,-96.191
1626.4663791929997,-70.312,-82.031,-11.719000000000001,-56.641000000000005
1626.466379195,-23.438000000000002,-54.688,8.789,-14.648
1626.466379199,-59.082,-73.73,-29.296999999999997,-50.293
1626.4663792029999,-116.211,-112.305,-34.18,-111.32799999999999
1626.466379207,-99.609,-105.95700000000001,-1.465,-92.773
1626.466379211,-48.828,-69.824,28.809,-11.23
1626.466379215,-60.059,-67.383,0.488,-25.879
1626.466379219,-107.42200000000001,-99.12100000000001,-27.831999999999997,-97.656
1626.4663792220001,-118.652,-120.605,-29.296999999999997,-95.70299999999999
1626.466379226,-58.105,-91.79700000000001,5.371,-13.672
1626.46637923,-24.901999999999997,-73.242,4.883,25.879
1626.466379234,-87.891,-115.234,-34.668,-47.852
1626.466379238,-101.56200000000001,-129.88299999999998,-25.391,-63.477
1626.46637924,-47.363,-89.844,10.254000000000001,-2.93
1626.4663792439999,-3.418,-52.246,19.531,38.086
1626.4663792479998,-51.758,-79.102,-14.16,-19.531
1626.466379252,-92.285,-107.91,-29.785,-68.359
1626.466379256,-53.711000000000006,-84.473,-7.324,-41.016000000000005
1626.46637926,-0.488,-41.016000000000005,18.066,21.973000000000003
1626.466379264,-48.828,-66.406,-32.227,-10.254000000000001
1626.466379267,-101.56200000000001,-109.863,-56.152,-73.242
1626.466379271,-73.242,-103.516,-10.742,-63.965
1626.466379275,-12.695,-65.43,28.32,12.207
1626.466379279,-7.812,-59.082,-12.695,14.16
1626.466379283,-63.965,-94.238,-45.898,-60.059
1626.4663792850001,-81.543,-102.051,-28.32,-74.219
1626.466379289,-20.996,-65.43,3.906,-14.16
1626.466379293,15.625,-38.574,-15.625,24.414
1626.4663792970002,-35.645,-71.289,-49.316,-46.875
1626.4663793010002,-68.359,-87.891,-37.109,-79.102
1626.4663793050001,-29.785,-59.57,-13.672,-18.555
1626.466379309,10.254000000000001,-34.18,-9.277000000000001,31.738000000000003
1626.466379312,-29.296999999999997,-71.777,-46.875,-37.109
1626.466379316,-65.43,-92.773,-41.504,-81.543
1626.46637932,-47.852,-67.87100000000001,-13.672,-38.574
1626.466379324,11.719000000000001,-31.25,3.906,32.227
1626.466379328,-0.977,-39.062,-20.02,-3.418
1626.466379345,-55.663999999999994,-70.312,-37.598,-71.777
1626.466379349,-52.733999999999995,-76.66,-31.738000000000003,-60.059
1626.4663793529999,5.859,-50.293,-1.953,7.812
1626.466379357,5.859,-44.922,-14.648,9.766
1626.466379361,-60.547,-79.102,-41.992,-72.266
1626.466379365,-65.918,-75.684,-26.366999999999997,-91.79700000000001
1626.466379369,-12.207,-44.434,0.0,-35.156
1626.4663793720001,16.602,-33.203,-10.742,5.371
1626.466379376,-40.039,-67.87100000000001,-45.41,-63.965
1626.46637938,-82.031,-92.773,-54.688,-118.164
1626.4663793839998,-41.016000000000005,-62.5,-18.555,-65.918
1626.4663793879997,12.207,-23.438000000000002,6.348,6.348
1626.4663793900002,-34.18,-52.246,-35.645,-42.48
1626.4663793940001,-78.613,-85.449,-50.293,-98.633
1626.4663793979998,-60.059,-69.824,-21.484,-81.055
1626.4663794020003,2.441,-34.18,10.742,-5.859
1626.4663794060002,-12.207,-44.434,-36.133,-26.855
1626.4663794100002,-70.801,-80.566,-62.012,-108.887
1626.4663794140001,-60.547,-85.93799999999999,-29.296999999999997,-98.633
1626.466379417,3.906,-43.945,20.02,-15.137
1626.466379421,13.672,-33.203,-10.742,2.93
1626.466379425,-45.41,-85.93799999999999,-63.477,-75.195
1626.466379429,-64.453,-94.727,-53.711000000000006,-97.656
1626.466379433,-17.09,-55.176,-15.625,-36.133
1626.466379435,17.578,-28.809,-9.766,9.766
1626.4663794389999,-43.457,-62.988,-43.945,-52.733999999999995
1626.4663794429998,-84.961,-86.426,-50.293,-100.098
1626.466379447,-41.504,-64.941,-19.043,-37.598
1626.466379451,18.555,-32.715,-18.066,30.273000000000003
1626.466379455,-19.531,-43.457,-70.801,-25.879
1626.4663794589999,-61.035,-63.477,-43.945,-82.031
1626.466379462,-43.457,-62.012,1.465,-67.87100000000001
1626.466379466,1.953,-37.109,13.184000000000001,-6.836
1626.46637947,-5.859,-40.039,-28.32,-17.09
1626.466379474,-69.824,-85.93799999999999,-51.27,-81.543
1626.466379478,-83.008,-90.82,-37.598,-91.309
1626.4663794800001,-27.831999999999997,-43.945,-11.719000000000001,-21.484
1626.466379484,-0.977,-34.18,-22.461,9.766
1626.466379488,-55.663999999999994,-69.336,-53.711000000000006,-58.593999999999994
1626.4663794920002,-88.37899999999999,-85.93799999999999,-47.852,-75.195
1626.466379496,-36.621,-58.593999999999994,-24.414,-32.227
1626.4663795,2.441,-21.484,-21.484,14.16
1626.4663795039999,-49.316,-58.593999999999994,-57.129,-24.901999999999997
1626.4663795070003,-83.49600000000001,-89.844,-62.5,-70.801
1626.4663795110002,-48.828,-55.176,-28.32,-41.992
1626.4663795150002,6.348,-22.949,-2.441,30.761999999999997
1626.4663795190002,-19.043,-51.758,-41.016000000000005,0.488
1626.4663795229997,-64.941,-82.031,-62.988,-72.266
1626.466379526,-40.527,-64.941,-39.062,-67.383
1626.46637953,18.066,-28.809,1.953,12.695
1626.466379534,6.836,-37.598,-26.855,-0.977
1626.466379538,-50.293,-72.75399999999999,-57.617,-68.848
1626.4663795420001,-66.895,-72.75399999999999,-50.781000000000006,-78.125
1626.466379546,-21.973000000000003,-33.203,-29.296999999999997,-25.391
1626.46637955,12.695,-14.648,-33.203,14.648
1626.466379553,-43.457,-62.988,-55.663999999999994,-41.016000000000005
1626.4663795570002,-74.707,-78.613,-50.781000000000006,-65.918
1626.4663795610002,-19.043,-51.758,-19.531,-18.555
1626.4663795650001,23.926,-27.831999999999997,-3.418,37.109
1626.466379569,-33.203,-52.733999999999995,-35.645,-23.926
1626.466379572,-74.707,-75.684,-41.992,-82.031
1626.466379576,-41.504,-58.593999999999994,-25.391,-29.785
1626.46637958,10.254000000000001,-25.879,-8.789,42.48
1626.466379584,-10.254000000000001,-46.875,-39.062,4.883
1626.4663795879999,-43.945,-70.801,-47.363,-54.688
1626.466379592,-33.203,-52.246,-23.926,-41.504
1626.466379596,14.648,-23.926,-3.906,34.668
1626.466379599,0.0,-24.901999999999997,-21.973000000000003,32.715
1626.466379603,-46.875,-67.383,-37.109,-45.898
1626.4663796070001,-15.625,-70.312,-24.901999999999997,-41.992
1626.466379611,22.461,-39.551,5.859,29.296999999999997
1626.466379615,37.109,-25.391,6.836,66.406
1626.466379615,0.977,-42.968999999999994,-33.691,2.93
1626.466379619,-44.922,-61.523,-43.457,-58.593999999999994
1626.466379623,0.977,-34.668,5.371,-29.296999999999997
1626.4663796270002,60.059,1.953,21.973000000000003,40.527
1626.466379631,13.672,-28.809,-28.32,-5.859
1626.466379635,-41.504,-50.781000000000006,-30.273000000000003,-77.637
1626.466379639,-8.789,-36.621,-13.184000000000001,-63.965
1626.4663796420002,41.504,-9.766,5.371,7.324
1626.4663796460002,3.418,-14.16,-38.574,-16.113
1626.4663796500001,-37.109,-47.363,-63.477,-68.848
1626.466379654,4.883,-41.504,-37.109,-70.801
1626.466379658,60.547,-3.418,-4.883,0.0
1626.466379661,56.641000000000005,0.977,-28.32,20.508000000000003
1626.466379665,-14.648,-42.48,-60.547,-62.988
1626.466379669,-51.758,-54.688,-48.828,-79.102
1626.466379673,0.488,-20.02,-15.625,-15.137
1626.466379677,40.039,11.719000000000001,-13.184000000000001,32.715
1626.466379681,-8.789,-16.113,-51.27,-26.855
1626.466379685,-46.387,-42.968999999999994,-65.43,-67.383
1626.466379688,-5.859,-29.785,-27.831999999999997,-21.973000000000003
1626.4663796920001,54.688,5.371,3.418,46.875
1626.466379696,4.883,-24.901999999999997,-40.039,5.859
1626.4663797,-54.199,-72.266,-60.547,-55.176
1626.466379704,-26.366999999999997,-53.711000000000006,-38.086,-25.879
1626.46637972,9.277000000000001,-16.602,-10.254000000000001,41.016000000000005
1626.466379724,3.906,-22.949,-41.504,5.371
1626.466379728,-33.691,-53.711000000000006,-61.523,-50.293
1626.4663797320002,-45.41,-58.593999999999994,-48.34,-48.34
1626.4663797360001,11.23,-23.926,-14.16,6.348
1626.46637974,21.973000000000003,-9.277000000000001,-20.508000000000003,30.273000000000003
1626.466379744,-33.691,-58.105,-68.848,-45.41
1626.4663797470002,-43.457,-82.52,-71.289,-62.012
1626.4663797510002,-3.418,-50.293,-23.926,-3.418
1626.4663797550002,28.32,-24.901999999999997,-18.066,41.992
1626.466379759,-10.254000000000001,-48.34,-62.012,-14.16
1626.4663797629998,-34.18,-73.242,-60.547,-63.477
1626.466379765,-1.953,-59.082,-19.043,-19.043
1626.466379769,46.875,-15.137,1.465,40.527
1626.4663797729997,19.531,-32.715,-46.875,-15.625
1626.4663797770002,-29.296999999999997,-70.801,-63.965,-73.242
1626.4663797810001,-15.137,-66.406,-35.156,-51.758
1626.466379785,38.086,-22.461,-0.977,16.602
1626.466379789,17.09,-20.508000000000003,-46.387,13.184000000000001
1626.466379792,-47.852,-61.035,-77.148,-60.059
1626.466379796,-52.246,-69.824,-52.246,-78.613
1626.4663798,6.348,-48.828,-15.137,-17.578
1626.4663798039999,20.508000000000003,-30.273000000000003,-27.344,17.09
1626.4663798079998,-44.922,-68.848,-64.941,-63.477
1626.46637981,-66.406,-87.891,-62.012,-90.82
1626.466379814,-18.555,-50.781000000000006,-24.901999999999997,-36.621
1626.466379818,22.461,-20.996,-8.789,11.719000000000001
1626.4663798220001,-31.25,-51.758,-51.27,-45.41
1626.4663798259999,-62.5,-76.66,-54.199,-83.008
1626.4663798299998,-33.691,-53.223,-24.901999999999997,-39.551
1626.4663798339998,2.93,-13.672,3.906,20.996
1626.4663798370002,-17.578,-40.527,-40.039,-11.719000000000001
1626.4663798410002,-64.453,-74.707,-68.848,-76.172
1626.4663798450001,-47.363,-69.336,-31.738000000000003,-72.266
1626.466379849,4.395,-41.016000000000005,4.395,-20.996
1626.466379853,0.977,-28.809,-30.273000000000003,-11.23
1626.466379855,-55.663999999999994,-58.105,-55.176,-66.406
1626.466379859,-63.965,-69.824,-37.598,-76.172
1626.466379863,-13.184000000000001,-38.086,2.441,-11.23
1626.4663798670001,5.371,-22.461,-2.93,12.207
1626.466379871,-59.082,-62.988,-53.711000000000006,-69.336
1626.466379875,-94.727,-76.172,-42.48,-92.285
1626.466379879,-47.852,-52.246,-3.906,-39.062
1626.4663798820002,-5.371,-24.901999999999997,-3.906,20.508000000000003
1626.4663798860001,-62.012,-57.129,-53.711000000000006,-44.434
1626.46637989,-97.16799999999999,-98.145,-50.293,-90.33200000000001
1626.466379894,-51.27,-81.543,-8.301,-39.062
1626.4663798979998,-5.371,-25.879,20.02,11.23
1626.4663799,-38.086,-24.901999999999997,-26.366999999999997,-14.648
1626.466379904,-84.473,-65.918,-56.152,-80.078
1626.466379908,-80.078,-65.918,-38.086,-90.33200000000001
1626.466379912,-22.949,-35.645,-3.906,-6.348
1626.466379916,-6.348,-25.879,-22.461,20.508000000000003
1626.46637992,-66.895,-57.617,-48.34,-66.895
1626.466379924,-89.355,-66.406,-43.945,-95.215
1626.466379927,-46.875,-55.176,-20.02,-28.32
1626.466379931,-18.066,-34.668,-18.066,7.324
1626.4663799349998,-63.965,-58.593999999999994,-57.129,-69.336
1626.4663799389998,-92.285,-83.49600000000001,-61.523,-113.281
1626.4663799429998,-61.035,-62.5,-28.809,-62.988
1626.466379945,-16.602,-32.227,-4.883,3.906
1626.466379949,-45.41,-46.875,-48.828,-42.48
1626.466379953,-73.73,-73.73,-58.593999999999994,-98.633
1626.466379957,-47.852,-62.988,-33.203,-67.383
1626.466379961,-0.488,-26.855,-8.301,15.137
1626.466379965,-8.789,-21.973000000000003,-33.203,10.742
1626.466379969,-68.848,-60.547,-58.593999999999994,-70.312
1626.4663799720001,-71.289,-70.801,-39.551,-63.477
1626.466379976,-27.344,-32.227,-1.953,-8.789
1626.46637998,-19.531,-25.391,-20.996,-5.859
1626.466379984,-69.336,-67.87100000000001,-56.641000000000005,-70.801
1626.466379988,-100.098,-81.543,-55.176,-97.16799999999999
1626.46637999,-48.828,-46.875,-23.438000000000002,-41.992
1626.466379994,5.859,-20.02,-14.648,13.184000000000001
1626.4663799979999,-34.668,-46.387,-62.5,-40.039
1626.466380002,-63.477,-71.777,-64.453,-82.52
1626.466380006,-28.32,-55.663999999999994,-24.901999999999997,-42.968999999999994
1626.46638001,28.32,-13.184000000000001,3.906,20.508000000000003
1626.466380014,-0.488,-33.691,-34.18,-27.344
1626.4663800170001,-49.316,-72.266,-56.152,-79.59
1626.466380021,-44.434,-67.87100000000001,-39.062,-58.593999999999994
1626.466380025,7.812,-36.133,-5.859,13.672
1626.466380029,6.836,-36.621,-26.366999999999997,-1.953
1626.466380033,-73.73,-77.637,-53.223,-88.37899999999999
1626.466380052,-78.613,-74.219,-39.062,-84.961
1626.466380056,-29.296999999999997,-43.945,-8.301,-14.16
1626.46638006,-23.438000000000002,-40.527,-24.901999999999997,9.277000000000001
1626.4663800639998,-67.87100000000001,-76.172,-59.082,-64.453
1626.4663800679998,-74.219,-81.055,-51.27,-99.609
1626.466380072,-46.387,-54.199,-22.461,-39.062
1626.466380076,-8.789,-29.296999999999997,-17.578,20.02
1626.466380079,-31.738000000000003,-53.711000000000006,-50.293,-44.922
1626.4663800829999,-53.223,-73.242,-50.781000000000006,-95.70299999999999
1626.466380087,-16.602,-61.523,-26.855,-60.547
1626.466380091,23.926,-31.738000000000003,-12.207,2.93
1626.466380095,2.93,-39.062,-55.663999999999994,-32.715
1626.466380095,-42.968999999999994,-74.219,-66.895,-99.609
1626.466380099,-36.621,-70.312,-40.527,-84.473
1626.466380103,3.906,-36.621,-15.625,-0.977
1626.466380107,-4.395,-33.691,-47.363,0.488
1626.466380111,-56.152,-71.777,-72.266,-82.031
1626.466380115,-73.242,-75.684,-46.875,-88.867
1626.466380119,-19.531,-46.875,-12.695,-33.203
1626.4663801220001,0.0,-39.551,-20.996,11.23
1626.466380126,-58.593999999999994,-75.195,-50.293,-64.453
1626.46638013,-85.449,-100.098,-49.316,-102.539
1626.4663801339998,-46.875,-72.75399999999999,-29.785,-51.27
1626.4663801379997,2.441,-35.645,-19.531,1.465
1626.4663801400002,-37.598,-58.593999999999994,-57.617,-44.434
1626.4663801440001,-70.801,-83.49600000000001,-66.406,-100.586
1626.4663801479999,-50.293,-78.613,-36.621,-62.988
1626.4663801520003,-0.488,-45.41,-10.742,9.766
1626.4663801560002,-20.508000000000003,-46.387,-44.922,-29.296999999999997
1626.4663801600002,-82.52,-75.684,-61.035,-108.398
1626.466380164,-96.191,-76.66,-41.992,-105.95700000000001
1626.4663801670001,-43.457,-43.457,-8.789,-36.133
1626.466380171,-31.738000000000003,-39.062,-30.761999999999997,-30.273000000000003
1626.466380175,-105.95700000000001,-83.008,-66.406,-132.812
1626.466380179,-129.88299999999998,-92.285,-52.246,-170.898
1626.466380183,-74.219,-52.733999999999995,-8.789,-97.16799999999999
1626.466380185,-62.988,-29.296999999999997,-14.16,-73.73
1626.466380189,-136.719,-63.965,-61.523,-171.387
1626.4663801929998,-187.5,-90.33200000000001,-62.012,-222.65599999999998
1626.466380197,-168.945,-77.148,-28.32,-188.965
1626.466380201,-133.789,-41.992,-13.672,-133.789
1626.466380205,-176.75799999999998,-49.805,-54.199,-184.57
1626.466380209,-213.37900000000002,-78.125,-66.895,-245.11700000000002
1626.466380212,-195.312,-75.684,-43.945,-220.215
1626.466380216,-143.555,-40.039,-19.043,-135.254
1626.46638022,-139.648,-41.504,-55.663999999999994,-142.09
1626.466380224,-194.33599999999998,-81.055,-82.031,-213.86700000000002
1626.466380228,-191.40599999999998,-83.008,-60.547,-195.801
1626.46638023,-127.441,-43.457,-20.508000000000003,-124.023
1626.4663802339999,-119.141,-28.809,-39.551,-105.469
1626.4663802379998,-170.41,-66.895,-85.93799999999999,-174.31599999999997
1626.466380242,-174.805,-75.684,-75.195,-187.988
1626.466380246,-116.699,-43.457,-27.831999999999997,-108.398
1626.46638025,-69.824,-22.949,-26.855,-44.922
1626.466380254,-112.305,-53.711000000000006,-68.848,-95.215
1626.4663802570003,-137.695,-72.266,-65.43,-135.254
1626.4663802610003,-83.49600000000001,-66.406,-36.133,-85.93799999999999
1626.466380265,-21.484,-28.32,-17.578,4.395
1626.466380269,-49.316,-39.062,-54.199,-27.344
1626.4663802729997,-83.008,-78.125,-60.547,-78.613
1626.466380276,-55.176,-63.477,-30.273000000000003,-43.945
1626.46638028,0.0,-29.296999999999997,-3.906,26.366999999999997
1626.466380284,0.488,-29.785,-32.227,28.809
1626.4663802879998,-55.176,-63.477,-59.57,-30.761999999999997
1626.4663802920002,-46.387,-71.289,-49.316,-38.086
1626.466380296,32.715,-36.621,-15.137,40.039
1626.4663802999999,52.246,-19.531,-21.973000000000003,56.152
1626.466380303,-10.254000000000001,-63.477,-56.641000000000005,-24.901999999999997
1626.4663803070002,-22.949,-82.52,-41.992,-22.461
1626.4663803110002,35.645,-49.316,3.906,46.387
1626.4663803150002,82.52,-21.484,6.836,93.75
1626.466380319,35.645,-50.781000000000006,-41.504,46.387
1626.4663803199999,-0.488,-69.824,-45.898,11.23
1626.4663803239998,16.602,-62.012,-8.301,41.016000000000005
1626.4663803279998,61.035,-28.809,25.391,96.191
1626.466380332,38.086,-34.668,-20.508000000000003,50.781000000000006
1626.466380336,-20.02,-71.289,-42.968999999999994,-4.883
1626.46638034,-7.812,-55.663999999999994,-20.02,12.695
1626.4663803439998,49.805,-21.973000000000003,8.301,67.87100000000001
1626.466380347,39.062,-34.668,-8.301,69.824
1626.466380351,-23.438000000000002,-73.73,-37.109,-1.953
1626.466380355,-23.926,-88.37899999999999,-35.156,-11.23
1626.466380359,26.855,-63.477,-6.836,42.48
1626.4663803629999,48.828,-36.133,-12.695,66.895
1626.466380365,1.465,-58.593999999999994,-46.387,7.324
1626.466380369,-30.273000000000003,-91.309,-42.48,-30.761999999999997
1626.466380373,-3.418,-73.242,-6.836,10.254000000000001
1626.4663803770002,41.504,-28.32,2.93,65.918
1626.4663803810001,-8.789,-61.523,-39.062,9.766
1626.466380385,-60.059,-93.262,-38.574,-39.551
1626.466380389,-29.296999999999997,-66.895,-16.602,-9.277000000000001
1626.4663803920002,42.968999999999994,-34.18,2.441,68.359
1626.4663803960002,40.039,-39.551,-20.996,41.992
1626.4663804000002,-38.574,-76.172,-37.109,-20.02
1626.4663804040001,-26.366999999999997,-78.125,-20.996,-7.324
1626.466380408,53.711000000000006,-36.621,17.578,59.082
1626.46638041,45.41,-30.761999999999997,0.488,72.266
1626.466380414,-8.301,-68.848,-28.32,-4.395
1626.466380418,-13.672,-77.148,-21.973000000000003,-18.066
1626.4663804220002,28.809,-50.293,6.836,24.901999999999997
1626.4663804260001,59.57,-26.366999999999997,7.812,65.918
1626.46638043,-8.789,-60.059,-35.156,10.254000000000001
1626.466380434,-41.016000000000005,-91.309,-34.668,-46.875
1626.466380437,14.648,-70.312,-0.977,-10.254000000000001
1626.466380441,38.086,-24.414,14.16,51.27
1626.466380445,-5.371,-44.434,-27.344,11.23
1626.4663804489999,-44.434,-87.891,-41.504,-54.199
1626.4663804529998,-32.715,-79.102,-1.953,-39.062
1626.46638047,29.296999999999997,-41.016000000000005,35.645,20.508000000000003
1626.466380474,20.02,-43.457,-4.883,10.254000000000001
1626.466380478,-41.992,-80.566,-41.504,-61.035
1626.4663804820002,-49.805,-83.008,-30.273000000000003,-55.663999999999994
1626.4663804860002,9.766,-44.922,10.254000000000001,23.438000000000002
1626.4663804900001,21.973000000000003,-30.761999999999997,-1.465,32.227
1626.4663804939998,-32.715,-73.73,-29.785,-29.296999999999997
1626.4663804970003,-33.691,-94.727,-16.113,-37.598
1626.4663805010002,12.207,-75.684,20.02,22.949
1626.4663805050002,51.27,-52.733999999999995,19.043,67.383
1626.466380509,2.93,-72.75399999999999,-22.949,4.395
1626.4663805129999,-37.109,-90.33200000000001,-21.973000000000003,-15.625
1626.466380515,4.883,-69.336,1.953,20.508000000000003
1626.466380519,68.848,-44.922,19.043,63.965
1626.4663805229998,43.945,-59.57,-7.812,32.715
1626.4663805270002,-25.879,-87.402,-18.555,-30.273000000000003
1626.4663805310001,-6.836,-78.125,10.254000000000001,-6.836
1626.466380535,55.663999999999994,-37.109,31.738000000000003,69.336
1626.466380539,34.18,-38.574,-12.695,49.805
1626.466380542,-26.366999999999997,-75.684,-32.715,-19.043
1626.466380546,-34.18,-89.355,-26.855,-21.973000000000003
1626.46638055,18.066,-68.848,-10.742,24.901999999999997
1626.466380554,35.156,-46.387,-19.043,42.48
1626.4663805579999,-26.366999999999997,-78.613,-52.733999999999995,-22.949
1626.466380561,-50.781000000000006,-91.309,-40.039,-46.875
1626.466380565,-5.371,-57.617,3.418,0.488
1626.466380569,26.366999999999997,-25.391,10.742,44.922
1626.466380573,-37.109,-55.663999999999994,-37.109,-10.254000000000001
1626.466380577,-83.008,-91.309,-50.781000000000006,-60.547
1626.466380581,-42.48,-61.035,-14.648,-25.391
1626.466380585,26.366999999999997,-18.066,11.23,35.156
1626.4663805879998,-5.371,-51.758,-40.527,-4.883
1626.466380592,-62.012,-88.867,-59.57,-66.406
1626.466380596,-46.387,-80.078,-23.438000000000002,-52.246
1626.4663805999999,15.137,-40.527,15.137,12.207
1626.4663806039998,-3.418,-31.738000000000003,-18.066,19.043
1626.466380605,-63.477,-68.848,-45.898,-61.035
1626.466380609,-65.918,-79.102,-24.901999999999997,-79.102
1626.466380613,-18.555,-49.805,4.395,-4.883
1626.4663806170001,13.184000000000001,-32.227,-11.719000000000001,33.203
1626.466380621,-32.227,-64.941,-47.363,-37.598
1626.466380625,-56.152,-77.148,-45.41,-69.336
1626.466380629,-26.855,-34.668,-25.879,-8.301
1626.4663806320002,7.324,-15.625,-19.043,45.41
1626.4663806360002,-33.691,-68.359,-58.105,-24.901999999999997
1626.4663806400001,-67.383,-87.402,-51.27,-74.707
1626.466380644,-24.901999999999997,-70.801,-10.254000000000001,-40.527
1626.4663806479998,39.062,-41.504,4.395,19.531
1626.46638065,20.508000000000003,-37.598,-43.457,6.836
1626.466380654,-29.296999999999997,-70.801,-61.035,-53.223
1626.466380658,-28.32,-80.566,-38.086,-62.988
1626.4663806620001,20.02,-41.016000000000005,-10.254000000000001,-0.488
1626.466380666,29.785,-24.414,-32.227,17.578
1626.46638067,-38.086,-63.477,-57.129,-52.246
1626.466380674,-56.152,-77.148,-44.922,-82.52
1626.466380677,-3.906,-57.617,-18.555,-26.855
1626.466380681,19.043,-28.32,-20.508000000000003,7.324
1626.4663806849999,-42.48,-49.316,-53.711000000000006,-56.152
1626.4663806889998,-78.613,-79.59,-46.387,-82.52
1626.4663806929998,-38.574,-60.059,-11.23,-52.733999999999995
1626.466380695,8.789,-31.25,-11.23,2.93
1626.466380699,-29.296999999999997,-59.082,-62.5,-35.156
1626.466380703,-72.75399999999999,-86.426,-62.988,-90.82
1626.466380707,-43.457,-67.383,-22.461,-54.688
1626.466380711,9.766,-29.785,11.719000000000001,8.301
1626.466380715,-21.973000000000003,-26.855,-21.973000000000003,-17.09
1626.466380719,-86.426,-66.406,-56.641000000000005,-76.172
1626.4663807220002,-89.355,-79.102,-50.781000000000006,-85.93799999999999
1626.4663807260001,-40.039,-42.968999999999994,-18.555,-22.461
1626.46638073,-32.227,-32.715,-30.761999999999997,-8.301
1626.466380734,-94.727,-75.684,-62.012,-94.727
1626.466380738,-110.84,-86.914,-54.688,-112.79299999999999
1626.4663807410002,-55.176,-54.199,-20.996,-50.293
1626.466380745,-19.043,-39.551,-27.344,-6.348
1626.4663807489999,-62.5,-66.895,-70.801,-66.406
1626.4663807529998,-87.402,-83.49600000000001,-63.965,-105.95700000000001
1626.4663807570003,-44.434,-57.129,-25.879,-64.941
1626.4663807610002,6.348,-10.254000000000001,-4.395,2.93
1626.4663807650002,-35.156,-31.738000000000003,-46.387,-39.551
1626.466380768,-88.37899999999999,-88.37899999999999,-62.012,-101.074
1626.466380772,-71.289,-76.66,-41.016000000000005,-92.773
1626.466380776,-9.766,-31.738000000000003,-17.578,-39.062
1626.46638078,-15.137,-40.527,-42.968999999999994,-51.27
1626.466380784,-78.613,-79.102,-54.688,-117.18799999999999
1626.4663807870002,-80.566,-77.637,-31.738000000000003,-101.074
1626.4663807910001,-30.761999999999997,-53.223,-23.926,-46.875
1626.466380795,-17.09,-34.18,-53.223,-36.621
1626.466380799,-65.43,-59.57,-71.289,-87.891
1626.466380803,-92.773,-90.33200000000001,-57.129,-121.58200000000001
1626.4663808070002,-64.453,-55.176,-11.23,-71.777
1626.4663808110001,-21.484,-19.043,-3.906,-13.184000000000001
1626.4663808139999,-48.828,-51.758,-43.457,-55.176
1626.4663808179998,-92.773,-79.102,-52.733999999999995,-99.12100000000001
1626.466380822,-70.801,-75.195,-32.227,-77.637
1626.466380826,-17.578,-43.945,-2.441,-11.719000000000001
1626.46638083,-42.48,-54.199,-28.809,-26.855
1626.466380845,-90.82,-92.285,-41.016000000000005,-78.613
1626.466380849,-82.52,-88.867,-27.344,-77.637
1626.466380853,-17.09,-47.363,4.395,-20.02
1626.466380857,-25.391,-46.875,-35.156,-23.438000000000002
1626.466380861,-88.867,-92.773,-73.242,-92.773
1626.466380865,-79.59,-89.355,-52.733999999999995,-91.309
1626.466380869,-28.809,-48.34,-26.855,-30.273000000000003
1626.4663808720002,-11.719000000000001,-36.621,-30.761999999999997,1.953
1626.4663808760001,-64.941,-71.289,-51.758,-53.711000000000006
1626.46638088,-84.961,-96.68,-46.875,-85.93799999999999
1626.4663808839998,-42.968999999999994,-76.66,-11.719000000000001,-46.875
1626.4663808879998,-12.695,-40.039,3.906,6.836
1626.4663808900002,-69.336,-65.43,-44.922,-38.086
1626.466380894,-122.07,-99.609,-58.105,-101.074
1626.4663808979997,-83.008,-83.008,-33.203,-97.656
1626.466380902,-17.578,-48.828,-6.836,-34.18
1626.466380906,-41.504,-54.199,-33.203,-39.062
1626.46638091,-91.309,-75.684,-33.691,-86.914
1626.466380914,-87.402,-76.66,-8.789,-75.195
1626.4663809170002,-27.831999999999997,-42.48,9.766,-7.812
1626.466380921,-20.996,-35.645,-31.25,-1.465
1626.4663809249998,-95.215,-87.891,-66.406,-73.242
1626.4663809289998,-92.285,-102.051,-39.062,-74.707
1626.4663809329998,-28.32,-56.152,5.371,-31.25
1626.466380935,5.371,-24.901999999999997,-5.859,7.812
1626.466380939,-38.574,-60.059,-57.617,-39.062
1626.4663809429999,-67.383,-83.008,-53.711000000000006,-84.473
1626.466380947,-21.973000000000003,-62.988,-13.672,-41.504
1626.466380951,12.695,-27.344,-10.742,20.02
1626.466380955,-31.25,-38.086,-51.758,-16.602
1626.466380959,-73.242,-61.523,-44.922,-72.266
1626.4663809620001,-57.129,-66.895,-22.461,-60.059
1626.466380966,-4.395,-37.109,4.395,7.324
1626.46638097,-20.508000000000003,-35.156,-23.926,-27.831999999999997
1626.466380974,-71.289,-71.289,-41.992,-89.355
1626.466380978,-72.75399999999999,-79.102,-21.973000000000003,-67.87100000000001
1626.46638098,-14.16,-40.527,-2.93,-13.672
1626.466380984,-3.418,-24.414,-20.508000000000003,-0.488
1626.4663809879999,-72.75399999999999,-59.57,-41.504,-62.988
1626.466380992,-87.891,-77.637,-40.527,-86.914
1626.466380996,-29.785,-49.805,-11.719000000000001,-42.968999999999994
1626.466381,9.277000000000001,-15.625,-3.906,-2.441
1626.466381004,-49.316,-54.199,-42.48,-55.176
1626.466381007,-79.59,-83.984,-49.316,-90.82
1626.466381011,-25.391,-53.223,-16.113,-44.922
1626.466381015,26.855,-24.901999999999997,10.254000000000001,17.09
1626.466381019,-20.02,-50.293,-32.227,-24.414
1626.4663810229997,-71.777,-78.125,-35.645,-79.102
1626.4663810260001,-55.663999999999994,-67.383,-2.441,-69.824
1626.4663810299999,-2.93,-34.18,26.366999999999997,-0.977
1626.4663810339998,-1.465,-35.645,-4.883,-14.16
1626.4663810379998,-69.336,-71.289,-29.296999999999997,-84.473
1626.466381042,-80.078,-76.172,-16.113,-63.965
1626.466381046,-14.16,-39.062,4.395,-13.672
1626.4663810499999,3.906,-29.785,-10.254000000000001,0.0
1626.466381053,-56.152,-79.59,-33.203,-59.082
1626.4663810570003,-69.824,-88.867,-15.625,-83.008
1626.4663810610002,-23.438000000000002,-52.246,13.184000000000001,-25.391
1626.466381065,9.766,-27.344,16.113,11.719000000000001
1626.466381069,-48.34,-56.152,-16.113,-45.898
1626.46638107,-86.914,-82.031,-21.973000000000003,-83.008
1626.4663810739999,-54.199,-67.383,4.395,-54.199
1626.4663810779998,-0.488,-26.855,29.785,13.184000000000001
1626.466381082,-28.32,-35.645,-16.113,-17.09
1626.466381086,-103.027,-69.336,-39.551,-71.289
1626.46638109,-94.238,-62.988,1.953,-54.199
1626.4663810939999,-17.578,-22.949,32.227,18.555
1626.466381097,-20.996,-23.438000000000002,-18.066,3.906
1626.466381101,-88.37899999999999,-70.801,-34.18,-64.941
1626.466381105,-85.449,-75.684,-5.371,-62.012
1626.466381109,-28.32,-45.41,15.625,-17.09
1626.466381113,-16.113,-27.344,0.977,9.766
1626.466381115,-61.035,-54.199,-30.273000000000003,-53.223
1626.466381119,-78.613,-67.383,-19.531,-70.312
1626.466381123,-35.156,-48.34,8.789,-21.973000000000003
1626.4663811270002,6.836,-22.461,19.043,21.973000000000003
1626.466381131,-47.852,-44.434,-18.066,-30.273000000000003
1626.466381135,-90.82,-68.848,-17.09,-69.336
1626.4663811389999,-58.593999999999994,-55.176,9.277000000000001,-42.48
1626.4663811420003,-0.488,-24.901999999999997,18.066,14.16
1626.4663811460002,-25.391,-28.32,-15.137,-13.184000000000001
1626.4663811500002,-84.473,-66.406,-32.715,-80.078
1626.4663811540001,-77.637,-75.684,-20.508000000000003,-76.172
1626.466381158,-12.695,-41.992,18.066,-11.719000000000001
1626.466381161,-4.395,-29.785,-7.324,1.953
1626.466381165,-69.824,-65.43,-51.27,-62.988
1626.466381169,-86.426,-83.008,-31.738000000000003,-91.309
1626.466381173,-32.715,-62.012,8.301,-35.156
1626.4663811770001,6.836,-24.414,3.906,12.207
1626.466381181,-52.733999999999995,-41.992,-29.296999999999997,-48.828
1626.466381185,-89.355,-71.289,-23.438000000000002,-82.031
1626.466381188,-46.875,-54.688,7.324,-45.898
1626.4663811920002,4.395,-18.066,12.207,10.254000000000001
1626.4663811960002,-37.109,-38.086,-29.785,-26.366999999999997
1626.4663812000001,-83.984,-75.195,-43.457,-87.402
1626.466381204,-48.828,-66.895,-13.672,-66.895
1626.4663812200001,19.043,-27.344,15.137,-1.465
1626.466381224,11.719000000000001,-34.18,-27.831999999999997,-12.695
1626.4663812279998,-43.945,-71.777,-34.18,-59.57
1626.466381232,-51.758,-70.312,-5.371,-55.663999999999994
1626.466381236,8.301,-29.296999999999997,19.531,2.93
1626.46638124,25.391,-2.93,-2.93,10.254000000000001
1626.4663812439999,-36.133,-45.41,-40.039,-58.593999999999994
1626.4663812470003,-55.176,-75.195,-31.738000000000003,-62.988
1626.4663812510003,4.395,-38.574,9.766,-20.02
1626.4663812550002,28.809,-17.578,0.488,14.648
1626.4663812589997,-32.227,-54.688,-52.246,-38.574
1626.4663812629997,-47.363,-68.848,-38.086,-85.449
1626.466381265,-11.23,-44.434,-8.301,-41.016000000000005
1626.466381269,32.227,-8.301,-1.465,23.438000000000002
1626.4663812729998,-3.906,-20.996,-31.25,-27.831999999999997
1626.4663812770002,-61.523,-54.199,-32.227,-76.66
1626.4663812810002,-44.922,-58.593999999999994,-15.625,-62.5
1626.4663812850001,9.277000000000001,-26.855,6.836,-1.953
1626.466381289,-12.207,-31.738000000000003,-20.02,-1.465
1626.466381292,-62.988,-68.359,-38.086,-78.613
1626.466381296,-57.129,-68.848,-12.207,-93.262
1626.4663813,-21.484,-45.898,3.418,-8.301
1626.466381304,7.812,-26.366999999999997,-16.113,22.949
1626.4663813079999,-43.945,-64.941,-45.898,-47.363
1626.4663813099999,-61.035,-76.172,-45.41,-40.039
1626.4663813139998,-1.465,-42.48,-7.812,8.301
1626.4663813179998,35.156,-21.484,2.441,42.968999999999994
1626.466381322,-3.906,-48.34,-41.504,0.977
1626.466381326,-46.387,-65.918,-34.668,-44.434
1626.4663813299999,-25.391,-44.922,11.719000000000001,-26.366999999999997
1626.4663813339998,24.414,-8.789,36.621,24.414
1626.466381337,-12.695,-34.668,-6.348,-21.973000000000003
1626.466381341,-83.984,-86.426,-21.484,-78.613
1626.466381345,-76.66,-84.473,-1.953,-75.684
1626.466381349,-13.672,-43.457,21.484,-20.996
1626.4663813529999,-17.578,-47.852,-2.441,-16.602
1626.466381355,-92.773,-94.238,-29.785,-90.33200000000001
1626.466381359,-119.141,-105.469,-17.09,-99.12100000000001
1626.466381363,-69.824,-75.684,28.809,-39.062
1626.4663813670002,-51.758,-52.246,26.855,-18.555
1626.4663813710001,-100.098,-78.125,-20.02,-89.844
1626.466381375,-117.676,-95.215,-16.113,-111.32799999999999
1626.466381379,-65.43,-72.266,18.555,-48.828
1626.4663813820002,-18.555,-38.574,24.414,9.766
1626.4663813860002,-72.266,-67.87100000000001,-31.25,-46.875
1626.4663813900002,-104.00399999999999,-94.727,-39.551,-85.449
1626.466381394,-52.246,-74.219,5.859,-47.852
1626.4663813979998,8.301,-37.598,37.598,15.625
1626.4663814,-26.366999999999997,-49.805,-3.906,-7.812
1626.466381404,-76.66,-87.891,-29.296999999999997,-64.941
1626.466381408,-57.129,-86.426,-11.23,-53.711000000000006
1626.4663814120001,-4.395,-46.875,20.02,26.366999999999997
1626.466381416,-2.93,-35.156,-0.977,39.062
1626.46638142,-75.195,-64.453,-42.48,-49.805
1626.466381424,-80.078,-62.5,-30.273000000000003,-69.336
1626.466381427,-10.742,-45.898,19.043,-24.901999999999997
1626.466381431,7.812,-31.738000000000003,9.766,7.812
1626.466381435,-51.758,-55.176,-35.645,-42.968999999999994
1626.4663814389999,-71.289,-77.148,-33.691,-76.66
1626.4663814429998,-20.996,-56.152,3.418,-28.32
1626.466381446,29.785,-12.695,19.043,32.715
1626.46638145,-18.555,-40.039,-38.574,-23.926
1626.466381454,-74.707,-79.102,-53.711000000000006,-80.078
1626.466381458,-44.922,-64.941,-15.625,-68.359
1626.466381462,9.766,-26.366999999999997,15.137,3.418
1626.466381466,-17.578,-24.414,-11.719000000000001,8.301
1626.46638147,-75.195,-67.87100000000001,-40.039,-82.031
1626.4663814729997,-57.129,-77.148,-28.32,-78.125
1626.4663814770001,4.883,-37.598,20.02,0.977
1626.4663814809999,9.277000000000001,-30.761999999999997,-1.465,5.859
1626.4663814849998,-59.57,-73.73,-41.504,-67.383
1626.4663814889998,-81.543,-84.961,-20.02,-72.75399999999999
1626.46638149,-20.996,-47.852,19.531,-13.184000000000001
1626.466381494,8.789,-25.391,8.789,31.738000000000003
1626.466381498,-50.781000000000006,-55.663999999999994,-26.366999999999997,-32.715
1626.466381502,-67.383,-64.453,-8.789,-86.426
1626.466381506,-19.531,-48.828,19.531,-26.366999999999997
1626.46638151,15.625,-18.066,38.086,47.852
1626.466381514,-16.113,-34.668,-5.859,-4.395
1626.4663815170002,-49.316,-72.75399999999999,-23.926,-73.73
1626.4663815210001,-30.761999999999997,-59.57,12.207,-62.988
1626.466381525,22.461,-24.901999999999997,55.663999999999994,11.719000000000001
1626.466381529,15.625,-22.461,25.879,1.953
1626.466381533,-41.504,-59.082,-12.207,-69.824
1626.466381535,-44.922,-66.895,0.0,-77.148
1626.466381539,7.812,-30.761999999999997,37.598,-7.812
1626.466381543,10.254000000000001,-14.648,23.438000000000002,28.809
1626.466381547,-66.406,-53.711000000000006,-24.901999999999997,-67.383
1626.466381551,-78.613,-57.129,-7.324,-91.79700000000001
1626.466381555,-38.086,-31.25,37.598,-22.949
1626.466381559,-0.977,-5.859,29.785,27.831999999999997
1626.466381562,-31.25,-26.855,-11.23,-15.625
1626.4663815659999,-75.195,-65.918,-13.184000000000001,-81.055
1626.4663815699998,-56.152,-61.523,14.648,-58.593999999999994
1626.4663815739998,-5.859,-30.761999999999997,36.621,34.18
1626.4663815779998,-20.996,-35.645,-9.277000000000001,17.578
1626.466381595,-69.336,-58.593999999999994,-35.156,-64.453
1626.466381599,-62.012,-50.781000000000006,-13.184000000000001,-61.523
1626.466381603,0.977,-9.766,20.02,10.742
1626.4663816070001,14.16,-12.207,-5.859,-4.395
1626.466381611,-49.805,-48.828,-34.18,-87.891
1626.466381615,-59.082,-35.156,-21.484,-90.33200000000001
1626.466381619,6.348,-0.977,9.766,-25.391
1626.4663816220002,24.901999999999997,-1.465,-0.977,7.812
1626.4663816260002,-18.555,-34.668,-35.156,-35.156
1626.4663816300001,-37.109,-48.34,-32.715,-60.547
1626.4663816339998,4.883,-31.738000000000003,-1.465,-8.789
1626.4663816379998,34.18,-4.395,1.465,33.691
1626.46638164,-11.23,-26.855,-36.621,-35.156
1626.466381644,-46.387,-50.781000000000006,-31.25,-81.055
1626.4663816479997,-25.391,-47.852,-11.23,-38.574
1626.466381652,24.414,-14.16,14.16,28.32
1626.466381656,0.977,-18.555,-14.648,-12.207
1626.46638166,-43.457,-47.363,-39.551,-65.43
1626.466381664,-31.25,-39.551,-17.09,-48.34
1626.466381667,15.137,-10.742,25.879,13.672
1626.466381671,12.695,-20.508000000000003,-4.395,12.695
1626.4663816749999,-44.434,-67.87100000000001,-41.992,-60.059
1626.4663816789998,-57.129,-62.988,-28.809,-68.359
1626.4663816829998,-5.859,-32.715,-0.488,-1.465
1626.466381685,26.366999999999997,-14.16,-5.371,32.715
1626.466381689,-33.203,-37.598,-34.18,-45.898
1626.466381693,-71.289,-68.359,-25.879,-77.637
1626.466381697,-22.949,-42.968999999999994,3.906,-29.785
1626.466381701,32.715,1.953,6.348,31.738000000000003
1626.466381705,-7.812,-24.901999999999997,-27.831999999999997,-16.113
1626.466381709,-44.922,-53.711000000000006,-33.203,-65.43
1626.4663817120002,-15.625,-55.663999999999994,-15.137,-37.598
1626.4663817160001,31.25,-23.926,20.996,20.996
1626.46638172,-5.859,-14.648,-5.371,6.836
1626.466381724,-51.27,-51.27,-37.109,-58.105
1626.466381728,-30.761999999999997,-62.012,-28.809,-62.012
1626.46638173,13.672,-20.508000000000003,7.812,9.277000000000001
1626.466381734,9.766,-13.184000000000001,-13.184000000000001,20.996
1626.4663817379999,-44.434,-55.176,-44.922,-53.223
1626.466381742,-55.663999999999994,-57.129,-31.738000000000003,-80.078
1626.466381746,-6.836,-35.156,9.766,-21.484
1626.46638175,10.742,-20.508000000000003,7.812,35.156
1626.466381754,-48.34,-42.48,-45.41,-31.738000000000003
1626.4663817570001,-70.801,-57.129,-35.156,-71.777
1626.466381761,-49.805,-44.434,-5.371,-28.809
1626.466381765,0.0,-28.32,4.395,20.508000000000003
1626.466381769,-7.324,-45.898,-32.715,-37.598
1626.4663817729997,-53.711000000000006,-63.477,-40.527,-82.52
1626.4663817750002,-42.968999999999994,-46.875,-17.578,-55.176
1626.4663817790001,10.254000000000001,-13.184000000000001,12.207,2.441
1626.466381783,-2.441,-23.438000000000002,-11.23,-7.812
1626.4663817870003,-46.875,-59.082,-36.133,-62.5
1626.4663817910002,-59.57,-64.453,-25.879,-65.43
1626.4663817950002,-12.695,-28.32,15.137,-3.906
1626.466381799,13.184000000000001,-0.977,6.836,32.227
1626.4663818020001,-45.41,-47.852,-41.016000000000005,-33.203
1626.466381806,-69.336,-72.266,-36.621,-59.082
1626.46638181,-22.461,-42.968999999999994,5.371,-9.277000000000001
1626.466381814,21.484,-15.137,8.301,35.645
1626.466381818,-21.484,-27.831999999999997,-35.645,-17.09
1626.46638182,-54.199,-49.316,-37.598,-60.547
1626.4663818239999,-23.926,-39.062,-2.441,-27.831999999999997
1626.4663818279998,17.578,-7.324,23.926,25.391
1626.466381832,-11.23,-24.414,-18.066,-8.789
1626.466381836,-37.109,-57.617,-33.691,-54.199
1626.46638184,-32.227,-49.316,-8.301,-61.523
1626.466381844,-6.836,-22.461,1.465,-17.09
1626.466381847,3.906,-19.043,-30.761999999999997,-6.836
1626.466381851,-44.922,-50.293,-47.852,-75.195
1626.466381855,-56.152,-61.523,-41.504,-85.449
1626.466381859,-6.836,-40.039,-10.254000000000001,-15.137
1626.466381863,6.836,-31.738000000000003,-20.508000000000003,8.301
1626.466381865,-45.41,-50.781000000000006,-54.688,-56.641000000000005
1626.4663818689999,-68.848,-62.988,-53.711000000000006,-77.637
1626.4663818729998,-30.761999999999997,-40.039,-16.113,-32.715
1626.466381877,-9.766,-16.113,1.953,6.348
1626.466381881,-55.176,-52.246,-45.898,-41.504
1626.466381885,-70.801,-60.059,-61.523,-74.707
1626.4663818889999,-54.688,-44.434,-43.457,-49.805
1626.4663818920003,-6.836,-35.645,-7.812,11.719000000000001
1626.4663818960003,-20.996,-41.992,-29.785,-25.879
1626.4663819,-73.73,-72.266,-61.035,-83.49600000000001
1626.466381904,-62.012,-72.75399999999999,-41.504,-65.43
1626.466381908,-5.859,-35.645,8.789,23.926
1626.466381911,23.438000000000002,-7.324,-9.277000000000001,39.062
1626.466381915,-43.457,-41.504,-54.688,-62.012
1626.466381919,-88.867,-65.918,-52.733999999999995,-101.56200000000001
1626.466381923,-26.855,-33.691,-14.16,-46.387
1626.4663819270002,6.836,-7.812,-23.438000000000002,-16.113
1626.466381931,-65.43,-37.598,-67.87100000000001,-91.309
1626.4663819349998,-94.727,-59.57,-71.289,-135.74200000000002
1626.466381938,-67.383,-30.273000000000003,-43.457,-105.95700000000001
1626.4663819420002,-27.831999999999997,-1.953,-33.691,-56.152
1626.4663819460002,-62.988,-33.691,-79.102,-104.492
1626.4663819500001,-108.887,-55.663999999999994,-83.008,-159.18
1626.466381954,-75.195,-30.761999999999997,-48.828,-120.117
1626.46638197,-28.809,0.977,-29.785,-18.066
1626.466381974,-42.48,-16.602,-67.383,-51.758
1626.4663819779998,-88.867,-54.688,-83.984,-141.602
1626.466381982,-85.93799999999999,-51.758,-56.641000000000005,-118.652
1626.466381986,-22.461,-21.484,-15.137,-36.133
1626.46638199,-26.855,-18.066,-44.434,-31.25
1626.466381994,-85.93799999999999,-47.363,-83.49600000000001,-114.74600000000001
1626.4663819970003,-92.285,-55.663999999999994,-60.547,-131.34799999999998
1626.466382001,-45.41,-33.203,-20.996,-65.918
1626.466382005,-6.836,-18.066,-11.23,-7.812
1626.4663820089997,-56.152,-45.41,-46.387,-76.66
1626.4663820129997,-79.102,-59.082,-49.805,-106.934
1626.4663820150001,-30.761999999999997,-34.18,-22.949,-62.012
1626.466382019,22.461,-1.953,-4.395,0.488
1626.4663820229998,-1.953,-20.02,-44.434,-27.344
1626.4663820270002,-52.733999999999995,-50.781000000000006,-67.383,-77.148
1626.4663820310002,-32.715,-41.992,-28.809,-63.965
1626.4663820350002,22.461,-4.395,14.16,9.766
1626.466382039,3.906,-6.348,-29.296999999999997,9.766
1626.466382042,-47.852,-41.992,-49.805,-60.059
1626.466382046,-46.387,-45.898,-29.296999999999997,-63.965
1626.46638205,-3.418,-23.926,-8.789,-10.254000000000001
1626.466382054,15.137,-11.23,-26.366999999999997,4.395
1626.466382058,-21.973000000000003,-38.086,-42.968999999999994,-43.945
1626.46638206,-50.781000000000006,-51.27,-24.901999999999997,-55.663999999999994
1626.4663820639998,-35.156,-33.203,-2.441,-27.831999999999997
1626.4663820679998,-1.953,-11.719000000000001,0.488,6.348
1626.466382072,-44.434,-37.109,-35.645,-38.086
1626.466382076,-90.33200000000001,-63.965,-36.133,-84.961
1626.46638208,-66.895,-45.898,-2.441,-56.152
1626.4663820839999,-9.766,-15.137,15.625,17.578
1626.466382087,-28.809,-32.715,-25.879,-25.879
1626.466382091,-90.33200000000001,-69.824,-41.016000000000005,-84.961
1626.466382095,-65.43,-64.941,-22.949,-64.941
1626.466382099,-9.766,-26.855,5.859,5.859
1626.466382103,-20.996,-34.668,-10.254000000000001,-8.301
1626.466382105,-69.336,-64.453,-28.32,-71.289
1626.466382109,-79.59,-61.523,-11.23,-74.707
1626.466382113,-39.551,-36.133,21.973000000000003,-23.438000000000002
1626.4663821170002,-21.484,-23.438000000000002,10.254000000000001,1.465
1626.4663821210002,-59.082,-61.523,-28.32,-69.824
1626.466382125,-77.637,-67.87100000000001,-26.366999999999997,-83.49600000000001
1626.4663821289998,-37.109,-39.551,5.371,-25.391
1626.4663821320003,14.648,-14.16,22.949,28.32
1626.4663821360002,-45.898,-40.527,-19.043,-37.109
1626.4663821400002,-89.355,-73.242,-33.691,-78.613
1626.4663821440001,-42.48,-55.663999999999994,-10.254000000000001,-41.992
1626.4663821479999,6.836,-19.531,20.02,18.066
1626.466382151,-5.371,-17.578,-9.766,0.0
1626.466382155,-53.711000000000006,-46.387,-38.574,-60.547
1626.466382159,-54.199,-58.105,-29.296999999999997,-56.152
1626.466382163,-6.836,-28.32,5.859,13.184000000000001
1626.4663821670001,1.953,-13.184000000000001,-4.883,28.809
1626.466382171,-60.547,-41.504,-27.344,-43.945
1626.466382175,-66.406,-55.176,-12.207,-57.617
1626.466382178,-20.996,-33.203,16.113,9.766
1626.4663821820002,-20.996,-19.531,8.301,40.039
1626.4663821860001,-66.895,-54.199,-29.296999999999997,-39.062
1626.46638219,-69.824,-70.312,-26.366999999999997,-60.547
1626.466382194,-45.41,-53.711000000000006,0.0,-19.043
1626.466382197,-4.395,-12.695,-4.883,34.18
1626.466382201,-26.855,-18.555,-37.598,-6.348
1626.466382205,-73.73,-51.27,-29.785,-67.383
1626.466382209,-52.246,-40.039,2.93,-42.968999999999994
1626.4663822129999,-6.836,-10.742,27.831999999999997,25.879
1626.466382217,-20.508000000000003,-13.672,-9.277000000000001,6.348
1626.466382221,-63.477,-47.852,-34.18,-52.733999999999995
1626.466382224,-73.73,-70.312,-23.926,-62.012
1626.466382228,-9.766,-33.691,0.977,-5.371
1626.4663822320001,11.23,-15.137,-26.855,6.836
1626.466382236,-58.105,-45.41,-55.176,-55.663999999999994
1626.46638224,-69.824,-56.641000000000005,-30.273000000000003,-67.383
1626.46638224,-5.371,-41.016000000000005,6.348,-8.789
1626.466382244,28.32,-20.02,-4.395,35.645
1626.466382248,-35.645,-39.551,-50.293,-27.831999999999997
1626.4663822520001,-59.57,-60.059,-43.457,-69.336
1626.466382256,-15.137,-39.062,4.883,-22.949
1626.46638226,25.879,0.0,15.625,37.598
1626.466382264,-2.93,-20.02,-47.852,-4.883
1626.4663822670002,-38.086,-61.523,-53.223,-48.828
1626.4663822710002,-45.898,-58.593999999999994,-17.09,-31.738000000000003
1626.4663822750001,5.859,-18.555,3.418,20.996
1626.466382279,7.324,-20.996,-25.879,2.441
1626.466382283,-59.57,-72.75399999999999,-43.457,-48.34
1626.466382285,-62.012,-78.125,-26.366999999999997,-62.012
1626.466382289,-4.395,-38.574,5.371,-18.555
1626.466382293,10.742,-29.785,-14.648,5.371
1626.466382297,-48.828,-69.824,-48.828,-74.707
1626.466382301,-72.266,-82.031,-41.504,-103.027
1626.466382305,-25.879,-34.668,-13.672,-40.039
1626.466382309,10.254000000000001,-1.953,-15.625,18.066
1626.466382312,-37.598,-45.41,-58.593999999999994,-43.457
1626.466382316,-65.43,-65.918,-62.012,-84.961
1626.4663823199999,-43.457,-55.176,-24.901999999999997,-38.574
1626.4663823239998,11.719000000000001,-29.785,-1.953,18.555
1626.4663823279998,-17.578,-39.551,-39.551,-17.09
1626.466382345,-83.008,-77.637,-48.34,-68.359
1626.466382349,-52.733999999999995,-75.195,-17.09,-32.715
1626.466382353,20.996,-25.391,9.766,52.246
1626.4663823570002,16.113,-11.719000000000001,-30.273000000000003,36.133
1626.4663823610001,-38.086,-46.387,-56.641000000000005,-39.062
1626.466382365,-18.555,-38.574,-34.668,-38.086
1626.466382369,45.41,1.953,-7.324,30.273000000000003
1626.4663823720002,62.988,9.277000000000001,-30.761999999999997,57.617
1626.4663823760002,24.901999999999997,-23.926,-66.406,-0.977
1626.4663823800001,10.254000000000001,-36.621,-58.593999999999994,-22.949
1626.4663823839999,55.176,-11.23,-29.296999999999997,31.738000000000003
1626.4663823879998,118.652,16.602,-27.831999999999997,91.309
1626.46638239,87.402,-3.906,-68.359,47.363
1626.466382394,52.246,-29.785,-80.078,-0.977
1626.4663823979997,82.52,-20.996,-49.316,27.831999999999997
1626.4663824020001,132.812,15.137,-14.648,96.191
1626.466382406,85.93799999999999,-0.488,-53.711000000000006,46.387
1626.46638241,27.344,-33.691,-64.941,-15.137
1626.466382414,37.109,-27.344,-42.48,-6.836
1626.466382417,70.312,0.488,-17.578,50.293
1626.466382421,72.75399999999999,-1.953,-44.434,52.733999999999995
1626.466382425,21.973000000000003,-48.34,-81.543,-30.761999999999997
1626.4663824289999,5.371,-52.246,-63.477,-45.898
1626.4663824329998,59.57,-14.648,-30.761999999999997,18.066
1626.466382435,84.961,4.395,-41.992,57.129
1626.466382439,15.137,-32.227,-61.035,-11.719000000000001
1626.466382443,-23.926,-57.617,-45.898,-42.968999999999994
1626.4663824470001,20.02,-26.855,-20.996,-9.766
1626.466382451,55.176,7.324,-14.16,44.922
1626.466382455,3.418,-19.043,-52.733999999999995,3.418
1626.4663824589998,-47.363,-52.246,-67.383,-64.941
1626.4663824620002,-20.02,-50.781000000000006,-46.387,-34.18
1626.4663824660001,42.48,-17.09,-26.366999999999997,36.133
1626.46638247,15.137,-20.508000000000003,-54.199,17.578
1626.466382474,-30.761999999999997,-52.733999999999995,-60.547,-42.48
1626.466382478,-18.066,-56.641000000000005,-39.062,-47.852
1626.46638248,23.926,-18.066,-15.625,26.855
1626.466382484,33.691,-13.184000000000001,-39.062,52.246
1626.466382488,-24.414,-54.199,-64.453,-20.508000000000003
1626.466382492,-46.875,-59.57,-59.57,-42.968999999999994
1626.466382496,8.301,-30.761999999999997,-30.273000000000003,14.648
1626.4663825,30.273000000000003,-4.395,-28.32,49.316
1626.466382504,-26.366999999999997,-21.973000000000003,-60.059,-12.695
1626.4663825070002,-42.48,-50.781000000000006,-58.105,-49.805
1626.4663825110001,-7.324,-50.781000000000006,-35.645,-14.648
1626.466382515,25.391,-24.414,-16.113,44.434
1626.466382519,-18.555,-41.504,-49.316,2.441
1626.4663825229998,-62.012,-68.848,-62.5,-60.547
1626.466382526,-39.062,-50.293,-44.434,-44.922
1626.46638253,6.836,-18.066,-21.973000000000003,20.02
1626.4663825339999,-13.184000000000001,-22.461,-46.387,4.395
1626.4663825379998,-69.336,-63.965,-69.824,-67.383
1626.466382542,-72.266,-72.75399999999999,-60.059,-66.406
1626.466382546,-20.02,-21.973000000000003,-26.855,1.953
1626.46638255,-10.742,-4.395,-36.133,15.625
1626.466382553,-64.453,-51.27,-76.172,-58.105
1626.466382557,-89.355,-67.87100000000001,-75.195,-95.70299999999999
1626.466382561,-43.457,-34.18,-36.133,-50.293
1626.466382565,3.906,-7.812,-33.691,-2.93
1626.466382569,-42.48,-43.945,-69.824,-64.453
1626.46638257,-81.055,-69.336,-60.547,-102.051
1626.466382574,-45.898,-49.805,-39.551,-49.805
1626.4663825779999,14.16,-20.996,-32.227,9.277000000000001
1626.466382582,-15.625,-41.992,-64.453,-35.156
1626.466382586,-65.918,-70.312,-65.918,-79.102
1626.46638259,-50.293,-48.828,-37.109,-62.988
1626.466382594,-3.906,-14.648,-18.555,-7.812
1626.4663825970001,-10.254000000000001,-20.996,-48.34,-7.324
1626.466382601,-56.641000000000005,-47.363,-65.43,-64.941
1626.466382605,-57.617,-52.246,-56.152,-73.73
1626.466382609,-8.301,-32.715,-26.855,-25.879
1626.466382613,0.488,-23.926,-34.668,3.906
1626.4663826160001,-56.641000000000005,-41.016000000000005,-58.105,-58.105
1626.4663826199999,-70.312,-57.129,-47.363,-85.93799999999999
1626.4663826239998,-34.18,-53.711000000000006,-25.391,-41.992
1626.4663826279998,-1.953,-32.227,-16.602,11.23
1626.4663826320002,-38.086,-46.387,-56.152,-40.527
1626.4663826360002,-76.66,-60.547,-59.082,-71.289
1626.4663826400001,-67.383,-47.363,-29.296999999999997,-46.387
1626.4663826429999,-15.625,-26.855,-17.09,0.488
1626.466382647,-18.066,-34.18,-43.457,-18.555
1626.466382651,-63.477,-56.641000000000005,-56.152,-77.637
1626.466382655,-69.336,-52.733999999999995,-40.039,-51.758
1626.466382659,-5.859,-23.926,-11.23,12.207
1626.4663826610001,11.23,-20.02,-34.668,7.324
1626.4663826649999,-35.645,-55.176,-59.57,-47.363
1626.4663826689998,-42.968999999999994,-63.477,-47.363,-60.059
1626.4663826729998,-9.766,-35.156,-20.02,-10.254000000000001
1626.466382677,12.207,-18.555,-22.949,14.16
1626.466382681,-29.785,-41.992,-52.246,-41.992
1626.4663826849999,-62.988,-59.57,-62.988,-66.895
1626.466382688,-36.621,-46.387,-36.133,-43.945
1626.4663826920003,15.137,-19.531,-20.02,0.977
1626.4663826960002,-14.648,-44.922,-63.477,-37.598
1626.4663827,-62.988,-75.684,-59.57,-79.102
1626.466382704,-52.733999999999995,-62.5,-27.831999999999997,-58.593999999999994
1626.46638272,-9.766,-38.086,-11.23,-3.418
1626.466382724,-31.25,-47.852,-37.598,-18.555
1626.4663827279999,-82.031,-72.266,-47.852,-65.43
1626.466382732,-82.031,-71.777,-36.133,-62.988
1626.466382736,-39.062,-42.48,-18.066,-8.789
1626.46638274,-22.461,-23.926,-32.227,18.066
1626.466382744,-63.477,-49.316,-44.434,-28.32
1626.4663827470001,-106.445,-62.5,-33.691,-83.008
1626.466382751,-82.52,-45.898,-24.414,-60.059
1626.466382755,-49.316,-47.852,-31.25,-22.461
1626.4663827589998,-124.512,-79.59,-46.387,-91.79700000000001
1626.4663827629997,-160.156,-96.68,-41.992,-135.254
1626.4663827650002,-138.184,-88.867,-17.578,-114.74600000000001
1626.4663827690001,-139.648,-69.336,-3.906,-82.031
1626.4663827729999,-165.03900000000002,-84.961,-36.621,-117.18799999999999
1626.4663827770003,-213.86700000000002,-110.84,-55.663999999999994,-182.12900000000002
1626.4663827810002,-197.266,-99.12100000000001,-36.133,-162.109
1626.4663827850002,-148.438,-69.336,-1.465,-89.355
1626.4663827890001,-146.484,-83.49600000000001,-29.785,-117.18799999999999
1626.466382792,-159.18,-109.375,-48.34,-154.297
1626.466382796,-140.625,-101.56200000000001,-35.645,-134.766
1626.4663828,-96.68,-83.008,-21.484,-81.543
1626.466382804,-83.49600000000001,-77.637,-32.715,-52.246
1626.466382808,-110.84,-106.934,-47.363,-99.609
1626.46638281,-125.488,-105.95700000000001,-30.761999999999997,-110.84
1626.4663828139999,-82.52,-82.52,-2.441,-55.176
1626.4663828179998,-45.41,-63.477,2.441,-13.672
1626.466382822,-82.031,-75.684,-35.156,-73.73
1626.466382826,-107.42200000000001,-93.262,-41.504,-112.79299999999999
1626.46638283,-87.402,-63.477,-16.602,-44.434
1626.466382834,-24.901999999999997,-31.738000000000003,-6.348,13.672
1626.466382837,-40.039,-62.988,-30.761999999999997,-39.551
1626.466382841,-90.82,-93.75,-40.039,-79.102
1626.466382845,-68.848,-80.566,-22.461,-58.105
1626.466382849,-32.227,-66.406,-16.602,-12.695
1626.466382853,-36.133,-75.195,-44.922,-17.578
1626.4663828559999,-66.406,-79.102,-46.875,-47.852
1626.4663828599998,-63.477,-71.777,-26.366999999999997,-48.828
1626.4663828639998,-10.742,-46.875,5.859,-9.766
1626.4663828679998,5.859,-35.156,5.859,10.254000000000001
1626.4663828720002,-39.551,-67.383,-29.785,-45.41
1626.4663828760001,-51.758,-65.918,-29.785,-64.941
1626.46638288,-36.133,-39.062,-1.953,-22.949
1626.4663828829998,3.418,-22.461,-8.789,8.301
1626.466382887,-15.137,-51.27,-46.387,-27.344
1626.466382891,-49.805,-78.125,-44.434,-60.059
1626.466382895,-12.207,-54.688,-20.996,-42.968999999999994
1626.4663828989999,31.25,-32.715,-18.066,11.719000000000001
1626.4663829,-10.742,-47.852,-49.316,-9.766
1626.466382904,-75.195,-67.87100000000001,-49.316,-60.547
1626.466382908,-65.918,-72.266,-36.133,-49.316
1626.4663829120002,-2.93,-36.621,-16.113,5.859
1626.4663829160002,11.719000000000001,-17.578,-14.648,13.672
1626.4663829200001,-43.945,-48.34,-39.062,-51.27
1626.466382924,-73.242,-55.663999999999994,-53.223,-71.777
1626.466382927,-43.945,-41.504,-26.366999999999997,-20.02
1626.466382931,-16.602,-37.109,-14.16,-2.93
1626.466382935,-54.199,-61.035,-31.25,-52.733999999999995
1626.466382939,-71.777,-73.73,-29.296999999999997,-67.383
1626.4663829429999,-37.598,-52.733999999999995,-11.23,-46.387
1626.4663829449999,-9.277000000000001,-25.879,-6.836,0.488
1626.4663829489998,-41.016000000000005,-44.434,-36.621,-27.344
1626.4663829529998,-71.777,-67.383,-44.434,-68.359
1626.466382957,-51.27,-59.082,-23.438000000000002,-39.062
1626.466382961,-3.418,-40.039,-15.625,17.578
1626.4663829649999,-7.812,-31.738000000000003,-39.551,-5.859
1626.4663829689998,-55.663999999999994,-41.992,-43.945,-58.105
1626.466382972,-61.523,-60.059,-34.18,-58.105
1626.466382976,-26.366999999999997,-50.781000000000006,-13.672,-17.09
1626.46638298,-25.879,-46.387,-40.039,-1.465
1626.466382984,-59.57,-73.242,-60.547,-55.176
1626.4663829879999,-61.035,-72.75399999999999,-34.18,-65.43
1626.46638299,-13.184000000000001,-40.039,-16.602,-13.184000000000001
1626.466382994,4.395,-35.156,-24.414,2.93
1626.466382998,-52.246,-68.359,-41.016000000000005,-57.617
1626.4663830020002,-75.195,-80.078,-40.039,-73.73
1626.4663830060001,-41.016000000000005,-56.152,-28.809,-23.438000000000002
1626.46638301,0.977,-14.16,-24.414,18.066
1626.466383014,-26.855,-32.227,-55.663999999999994,-28.809
1626.4663830170002,-52.246,-74.219,-59.57,-72.266
1626.4663830210002,-37.598,-58.105,-40.039,-49.805
1626.4663830250001,1.953,-14.648,-27.831999999999997,-0.488
1626.466383029,-13.184000000000001,-18.066,-46.875,-12.695
1626.466383033,-63.965,-55.663999999999994,-58.105,-62.012
1626.466383035,-68.359,-60.059,-49.805,-64.941
1626.466383039,-24.414,-34.18,-25.391,-5.371
1626.466383043,4.395,-29.296999999999997,-40.039,15.137
1626.4663830470001,-30.761999999999997,-62.5,-66.895,-40.039
1626.466383051,-46.875,-59.57,-46.875,-67.383
1626.466383055,-7.324,-24.901999999999997,-31.738000000000003,-33.691
1626.466383059,20.996,-13.672,-36.621,7.812
1626.466383062,-26.855,-52.246,-49.805,-45.41
1626.466383066,-64.941,-77.148,-53.223,-87.891
1626.46638307,-37.598,-55.663999999999994,-43.945,-62.5
1626.4663830739999,22.949,-26.366999999999997,-35.156,-11.719000000000001
1626.4663830779998,5.859,-44.434,-55.663999999999994,-36.621
1626.466383095,-45.898,-60.059,-49.316,-73.242
1626.466383099,-41.016000000000005,-48.34,-30.273000000000003,-54.688
1626.466383103,9.277000000000001,-31.25,-20.996,-4.395
1626.4663831070002,4.395,-37.598,-37.598,-15.625
1626.4663831110001,-66.406,-64.453,-44.922,-76.66
1626.466383115,-69.336,-59.57,-30.761999999999997,-61.035
1626.466383119,-10.742,-32.715,-24.901999999999997,-8.301
1626.4663831220003,6.836,-26.366999999999997,-42.48,2.93
1626.4663831260002,-30.273000000000003,-46.387,-40.527,-39.062
1626.4663831300002,-54.199,-59.57,-31.25,-60.547
1626.466383134,-22.461,-46.387,-23.438000000000002,-33.691
1626.4663831379999,-3.418,-32.227,-24.414,8.789
1626.46638314,-31.25,-51.758,-44.434,-23.926
1626.466383144,-47.363,-60.059,-42.968999999999994,-71.289
1626.4663831479997,-34.18,-51.758,-14.16,-43.457
1626.4663831520002,3.906,-35.645,4.883,15.625
1626.4663831560001,-18.066,-39.551,-26.366999999999997,-18.066
1626.46638316,-65.43,-57.129,-37.109,-61.523
1626.466383164,-57.617,-57.617,-21.973000000000003,-51.758
1626.466383167,-7.324,-32.227,0.0,-7.324
1626.466383171,-18.555,-26.855,-21.484,-3.906
1626.466383175,-89.844,-65.43,-40.527,-56.641000000000005
1626.4663831789999,-94.238,-79.102,-30.761999999999997,-73.242
1626.4663831829998,-40.039,-51.27,-10.254000000000001,-28.809
1626.466383185,-13.184000000000001,-25.879,-10.742,2.441
1626.466383189,-58.593999999999994,-50.781000000000006,-36.621,-54.199
1626.4663831929997,-79.59,-73.73,-39.551,-78.125
1626.466383197,-45.41,-58.105,-12.207,-37.598
1626.4663832009999,-3.906,-42.968999999999994,-9.766,13.672
1626.4663832049998,-28.809,-51.758,-45.41,-25.391
1626.4663832089998,-70.801,-62.988,-46.387,-80.566
1626.4663832120002,-45.41,-52.246,-22.949,-62.012
1626.4663832160002,18.066,-29.785,-12.207,5.371
1626.4663832200001,12.695,-39.551,-42.48,0.977
1626.466383224,-24.414,-57.617,-47.852,-37.598
1626.4663832279998,-10.742,-51.27,-32.715,-29.785
1626.46638323,41.016000000000005,-25.879,-19.043,24.414
1626.466383234,46.875,-22.949,-32.227,49.316
1626.466383238,1.465,-44.434,-46.875,-2.441
1626.4663832420001,1.465,-47.363,-38.086,-21.484
1626.466383246,53.223,-21.484,-11.23,42.48
1626.46638325,80.566,2.441,-5.859,78.613
1626.466383254,33.203,-16.602,-33.203,20.02
1626.4663832570002,2.441,-39.062,-34.18,-17.09
1626.4663832610001,36.133,-32.227,-12.207,18.555
1626.466383265,77.148,-11.23,-4.395,82.031
1626.466383269,40.527,-22.949,-29.785,44.434
1626.4663832729998,-6.836,-48.828,-37.598,-19.531
1626.466383275,4.883,-37.109,-19.531,-13.672
1626.466383279,52.246,-13.184000000000001,6.348,43.945
1626.466383283,37.109,-21.973000000000003,-23.926,33.203
1626.466383287,-20.996,-48.828,-47.363,-18.066
1626.466383291,-11.23,-58.105,-26.366999999999997,-14.16
1626.466383295,27.831999999999997,-25.391,15.625,35.156
1626.466383299,22.949,-5.859,7.812,37.598
1626.466383302,-19.043,-45.41,-26.855,-19.043
1626.466383306,-28.32,-60.059,-29.296999999999997,-34.18
1626.4663833099999,16.602,-32.227,-13.672,0.977
1626.4663833139998,43.457,-9.766,-8.301,29.785
1626.4663833179998,-14.16,-39.551,-39.062,-11.23
1626.4663833210002,-40.527,-57.129,-41.992,-42.48
1626.4663833250002,-6.348,-32.227,-9.277000000000001,-7.324
1626.466383329,37.598,-13.672,5.371,46.387
1626.4663833329998,16.602,-35.156,-27.831999999999997,15.137
1626.466383337,-40.039,-52.733999999999995,-28.809,-33.203
1626.466383341,-28.32,-37.109,-1.953,-18.066
1626.466383345,38.086,-14.16,8.789,41.504
1626.466383348,34.668,-25.391,-15.625,24.414
1626.4663833520003,-20.996,-48.828,-29.785,-17.578
1626.466383356,-34.668,-51.758,-28.32,-25.391
1626.4663833599998,3.906,-32.227,-6.836,-7.324
1626.4663833639997,22.949,-25.391,-12.207,13.672
1626.466383365,-27.831999999999997,-52.733999999999995,-37.598,-27.344
1626.466383369,-51.27,-58.105,-33.203,-47.852
1626.4663833729999,-10.254000000000001,-27.344,-9.277000000000001,-10.254000000000001
1626.466383377,16.602,-7.812,-4.883,27.344
1626.466383381,-26.366999999999997,-28.809,-28.809,-22.949
1626.466383385,-51.27,-43.457,-23.926,-56.152
1626.466383389,-31.25,-41.016000000000005,-11.719000000000001,-21.973000000000003
1626.4663833920001,9.277000000000001,-24.901999999999997,-4.883,8.301
1626.466383396,-10.742,-32.715,-32.715,-19.531
1626.4663834,-59.57,-53.711000000000006,-41.504,-52.246
1626.466383404,-54.688,-43.457,-19.043,-52.246
1626.466383408,-9.766,-21.484,-1.953,-18.555
1626.4663834100002,-6.836,-25.879,-20.508000000000003,-19.531
1626.4663834140001,-55.663999999999994,-51.27,-32.227,-57.129
1626.466383418,-72.75399999999999,-55.663999999999994,-24.414,-66.406
1626.4663834220003,-24.901999999999997,-35.156,-12.695,-21.973000000000003
1626.4663834260002,-3.906,-25.391,-15.625,13.672
1626.4663834300002,-63.477,-43.457,-29.296999999999997,-51.27
1626.466383434,-83.49600000000001,-57.129,-20.996,-77.148
1626.466383437,-36.621,-43.457,-7.324,-27.344
1626.466383441,0.488,-20.508000000000003,-9.277000000000001,14.16
1626.466383445,-47.852,-53.711000000000006,-35.156,-34.18
1626.466383449,-78.613,-79.102,-31.738000000000003,-80.566
1626.466383453,-53.223,-53.223,-12.695,-53.223
1626.466383471,-12.695,-20.02,-11.719000000000001,-7.812
1626.466383475,-30.761999999999997,-30.761999999999997,-40.527,-29.785
1626.466383479,-67.383,-62.012,-38.086,-69.824
1626.4663834829998,-52.733999999999995,-57.617,-16.113,-61.523
1626.4663834870003,0.0,-28.809,-3.906,-8.301
1626.4663834910002,14.16,-18.555,-26.855,-2.441
1626.466383495,-41.504,-42.48,-32.715,-44.922
1626.466383498,-62.5,-60.547,-13.672,-53.711000000000006
1626.466383502,-11.23,-38.574,4.395,-24.414
1626.466383506,10.254000000000001,-25.879,-0.488,2.93
1626.46638351,-48.34,-49.316,-26.366999999999997,-42.48
1626.466383514,-67.383,-59.082,-23.926,-78.613
1626.4663835150002,-31.738000000000003,-46.387,-2.441,-48.828
1626.4663835190001,-13.672,-38.086,4.395,1.953
1626.4663835229999,-57.617,-60.059,-23.438000000000002,-47.363
1626.4663835270003,-80.566,-71.777,-33.691,-77.637
1626.4663835310002,-61.035,-65.43,-16.113,-58.593999999999994
1626.466383535,-27.344,-41.992,14.648,-19.531
1626.466383539,-32.227,-41.016000000000005,-13.184000000000001,-27.831999999999997
1626.4663835420001,-86.426,-71.289,-31.738000000000003,-91.309
1626.466383546,-87.402,-78.125,-8.789,-86.426
1626.46638355,-33.203,-62.988,0.0,-30.273000000000003
1626.466383554,-23.438000000000002,-49.805,-13.672,-8.301
1626.466383558,-62.012,-68.359,-17.09,-49.805
1626.4663835620001,-72.266,-78.125,-8.789,-68.848
1626.4663835659999,-32.227,-59.57,3.906,-36.621
1626.4663835699998,6.348,-46.875,-5.371,7.324
1626.4663835739998,-36.621,-63.965,-33.203,-22.949
1626.4663835779997,-67.383,-74.707,-15.625,-56.152
1626.466383582,-36.621,-58.105,15.625,-33.691
1626.466383586,4.883,-38.574,17.578,11.719000000000001
1626.466383589,-14.16,-55.176,-13.672,-20.996
1626.466383593,-54.688,-76.172,-24.901999999999997,-70.801
1626.4663835970002,-43.945,-67.383,-7.324,-49.805
1626.466383601,3.906,-36.621,15.625,0.977
1626.466383605,3.906,-41.016000000000005,-3.418,-15.625
1626.466383605,-35.645,-73.242,-13.184000000000001,-61.523
1626.4663836089999,-46.387,-68.359,-5.371,-60.059
1626.4663836129998,-9.277000000000001,-41.016000000000005,6.836,-8.301
1626.466383617,8.301,-41.016000000000005,2.441,6.348
1626.466383621,-37.598,-60.059,-27.344,-55.663999999999994
1626.466383625,-66.406,-61.523,-25.391,-68.848
1626.466383629,-32.715,-53.711000000000006,5.859,-21.973000000000003
1626.4663836320003,13.184000000000001,-42.48,15.137,9.277000000000001
1626.466383636,-22.461,-63.965,-14.648,-36.621
1626.46638364,-55.176,-83.49600000000001,-11.719000000000001,-66.406
1626.466383644,-28.809,-68.359,17.09,-40.039
1626.4663836479997,13.672,-38.086,18.066,6.836
1626.4663836500001,-19.531,-35.156,-14.648,-30.273000000000003
1626.466383654,-66.406,-61.035,-20.996,-76.172
1626.466383658,-41.992,-65.918,-1.465,-48.828
1626.4663836620002,19.043,-36.621,20.02,18.555
1626.4663836660002,20.996,-34.18,-4.395,13.672
1626.4663836700001,-41.504,-58.105,-21.484,-35.645
1626.466383674,-54.688,-54.199,-11.23,-42.968999999999994
1626.466383677,-4.883,-33.691,6.836,-2.93
1626.466383681,16.113,-27.831999999999997,-0.977,24.414
1626.466383685,-43.945,-56.152,-26.366999999999997,-38.086
1626.466383689,-75.195,-69.336,-29.296999999999997,-71.289
1626.466383693,-29.296999999999997,-43.945,-1.953,-27.344
1626.4663836949999,3.906,-27.831999999999997,9.277000000000001,11.719000000000001
1626.4663836989998,-28.32,-57.129,-30.761999999999997,-33.691
1626.4663837029998,-68.848,-70.312,-37.109,-75.684
1626.466383707,-48.34,-51.758,-8.301,-65.918
1626.466383711,9.766,-22.461,10.742,-8.789
1626.466383715,-16.113,-28.32,-18.066,-17.09
1626.4663837189999,-65.43,-60.547,-34.18,-82.52
1626.466383722,-51.758,-60.059,-16.113,-84.961
1626.466383726,-2.93,-27.344,13.184000000000001,-30.273000000000003
1626.46638373,3.418,-26.855,-2.441,-22.949
1626.466383734,-44.434,-52.733999999999995,-23.438000000000002,-65.43
1626.4663837379999,-53.223,-62.5,-14.648,-68.848
1626.46638374,-4.883,-49.316,12.695,-21.484
1626.466383744,18.555,-35.645,2.93,9.766
1626.466383748,-31.25,-52.733999999999995,-33.203,-31.738000000000003
1626.4663837520002,-48.828,-73.242,-33.203,-44.434
1626.4663837560001,-11.719000000000001,-51.27,0.977,-3.418
1626.46638376,17.09,-17.578,17.09,37.109
1626.4663837639998,-25.879,-46.875,-25.879,0.977
1626.4663837670003,-67.383,-80.078,-16.113,-42.968999999999994
1626.4663837710002,-52.246,-71.289,14.16,-39.551
1626.4663837750002,-6.348,-45.898,17.578,15.137
1626.4663837790001,-5.371,-40.039,-16.602,6.348
1626.466383783,-45.41,-63.477,-30.761999999999997,-47.852
1626.466383786,-44.434,-70.312,-1.465,-43.457
1626.46638379,6.836,-33.203,16.113,9.277000000000001
1626.466383794,18.066,-11.719000000000001,-14.16,20.996
1626.466383798,-34.18,-49.805,-32.715,-45.898
1626.466383802,-41.504,-68.359,-32.715,-68.848
1626.466383806,12.695,-30.273000000000003,-8.789,-13.184000000000001
1626.46638381,41.992,-17.09,4.395,37.109
1626.466383813,-55.663999999999994,-52.733999999999995,-26.855,-51.758
1626.4663838170002,-121.58200000000001,-71.289,-20.02,-114.258
1626.4663838210001,-94.727,-74.219,-1.953,-89.355
1626.466383825,-77.637,-52.246,-7.812,-61.523
1626.466383829,-127.93,-60.547,-19.043,-115.234
1626.466383845,-173.34,-91.309,-23.438000000000002,-184.57
1626.466383849,-160.156,-88.867,-31.25,-166.016
1626.466383853,-133.789,-65.43,-24.414,-131.836
1626.4663838570002,-143.555,-65.43,-39.551,-148.92600000000002
1626.4663838610002,-190.918,-93.262,-18.555,-185.05900000000003
1626.466383865,-203.613,-96.68,11.719000000000001,-199.707
1626.4663838689999,-143.555,-65.43,6.836,-138.672
1626.4663838720003,-112.79299999999999,-59.082,-9.277000000000001,-100.586
1626.4663838760002,-157.715,-92.773,-21.973000000000003,-149.414
1626.4663838800002,-157.227,-99.609,-14.648,-140.137
1626.466383884,-97.656,-70.312,8.301,-78.613
1626.4663838879999,-55.663999999999994,-45.898,5.859,-31.25
1626.46638389,-92.773,-68.848,-31.25,-69.336
1626.466383894,-118.164,-83.49600000000001,-21.973000000000003,-93.75
1626.4663838979998,-76.66,-61.035,-1.465,-51.27
1626.4663839020002,-16.602,-37.598,10.742,5.859
1626.4663839060001,-35.156,-59.082,-10.742,-32.715
1626.46638391,-80.566,-73.73,-14.648,-87.891
1626.466383914,-60.059,-64.941,2.441,-77.148
1626.466383917,-7.324,-47.363,23.438000000000002,-16.602
1626.466383921,-5.859,-39.062,-2.93,-16.113
1626.466383925,-60.547,-76.172,-24.414,-73.242
1626.466383929,-70.801,-86.426,-15.137,-70.312
1626.4663839329999,-21.484,-47.852,5.371,-23.438000000000002
1626.4663839349998,-14.16,-28.809,2.93,-5.371
1626.4663839389998,-69.336,-59.57,-20.508000000000003,-55.663999999999994
1626.4663839429998,-78.613,-76.66,-13.672,-65.918
1626.466383947,-39.551,-61.035,8.301,-23.926
1626.466383951,-13.184000000000001,-34.668,15.137,18.555
1626.4663839549999,-54.688,-50.781000000000006,-20.02,-38.086
1626.4663839589998,-89.844,-71.289,-25.879,-73.73
1626.4663839620002,-63.965,-66.895,-9.277000000000001,-41.504
1626.466383966,-18.066,-48.828,5.371,0.488
1626.46638397,-23.438000000000002,-51.27,-11.23,-19.531
1626.4663839739999,-57.129,-67.383,-22.949,-61.523
1626.4663839779998,-46.875,-61.523,-14.648,-50.781000000000006
1626.46638398,6.836,-30.761999999999997,11.23,2.93
1626.466383984,4.883,-28.32,0.488,4.883
1626.466383988,-59.082,-65.43,-21.973000000000003,-46.875
1626.4663839920001,-76.66,-76.172,-21.973000000000003,-58.593999999999994
1626.466383996,-34.668,-55.663999999999994,1.953,-19.043
1626.466384,-1.465,-28.32,6.836,24.901999999999997
1626.466384004,-48.828,-52.733999999999995,-29.296999999999997,-24.414
1626.4663840070002,-78.613,-83.008,-32.715,-82.031
1626.4663840110002,-39.062,-64.453,-6.348,-40.039
1626.4663840150001,26.855,-28.809,3.906,28.809
1626.466384019,5.371,-46.387,-30.273000000000003,-20.02
1626.4663840229998,-46.875,-77.148,-30.273000000000003,-65.43
1626.4663840270002,-25.879,-54.688,1.465,-30.761999999999997
1626.4663840310002,33.691,-15.625,16.602,23.438000000000002
1626.4663840350001,29.785,-33.203,-28.32,-6.836
1626.466384039,-26.366999999999997,-63.965,-47.852,-66.895
1626.466384043,-36.621,-65.918,-27.344,-61.035
1626.4663840470002,12.207,-34.668,0.488,3.906
1626.4663840510002,22.461,-18.066,-8.789,18.555
1626.466384054,-36.133,-65.43,-39.551,-48.34
1626.466384058,-46.387,-78.613,-35.156,-65.43
1626.466384062,6.348,-48.34,-1.953,-7.324
1626.466384066,36.133,-26.855,-5.859,23.926
1626.46638407,-1.953,-47.363,-36.621,-19.043
1626.46638407,-25.879,-61.035,-24.901999999999997,-43.945
1626.466384074,6.836,-46.875,9.277000000000001,-8.301
1626.466384078,44.922,-20.996,19.043,54.688
1626.466384082,17.09,-39.062,-12.695,15.625
1626.466384086,-27.831999999999997,-65.918,-20.508000000000003,-32.227
1626.46638409,-22.461,-53.711000000000006,-14.16,-10.254000000000001
1626.4663840939997,39.551,-24.414,6.348,58.593999999999994
1626.4663840970002,41.504,-23.926,-5.371,43.457
1626.4663841010001,-7.812,-57.617,-23.438000000000002,-31.25
1626.466384105,-4.883,-67.87100000000001,-21.484,-34.668
1626.466384109,44.434,-40.527,-1.465,24.901999999999997
1626.466384113,51.27,-34.18,-6.348,41.504
1626.466384115,-1.465,-63.965,-29.296999999999997,-14.648
1626.466384119,-15.625,-74.219,-22.949,-35.645
1626.466384123,28.32,-45.898,3.418,7.324
1626.466384127,60.547,-23.438000000000002,9.277000000000001,54.688
1626.466384131,18.066,-58.105,-24.901999999999997,-11.23
1626.466384135,-27.344,-78.125,-32.715,-59.57
1626.466384139,-16.602,-62.012,-13.184000000000001,-16.602
1626.4663841420002,28.809,-31.738000000000003,5.859,48.828
1626.466384146,1.465,-33.203,-22.949,20.996
1626.46638415,-52.246,-69.824,-38.086,-45.898
1626.466384154,-40.527,-71.289,-20.508000000000003,-35.645
1626.466384158,-6.348,-39.062,-14.16,37.598
1626.466384161,-11.719000000000001,-35.645,-35.156,29.296999999999997
1626.466384165,-67.383,-67.87100000000001,-32.715,-42.48
1626.4663841689999,-88.37899999999999,-74.707,-21.484,-56.641000000000005
1626.4663841729998,-34.668,-46.387,2.93,-7.812
1626.466384177,-14.16,-37.598,-0.488,19.043
1626.466384181,-68.848,-63.477,-32.227,-34.18
1626.466384185,-79.59,-74.219,-33.203,-42.968999999999994
1626.466384188,-20.508000000000003,-51.758,-10.254000000000001,3.906
1626.466384192,15.625,-29.785,-6.348,40.039
1626.466384196,-28.32,-59.082,-46.387,-11.719000000000001
1626.4663842,-61.523,-77.637,-39.062,-63.477
1626.466384204,-23.926,-64.941,-10.254000000000001,-41.504
1626.46638422,20.508000000000003,-33.691,5.859,18.066
1626.466384224,-17.578,-32.715,-25.879,-6.348
1626.466384228,-65.43,-61.523,-53.711000000000006,-60.059
1626.466384232,-52.246,-65.918,-30.761999999999997,-46.387
1626.466384236,4.395,-28.32,-0.488,20.508000000000003
1626.46638424,-1.465,-15.137,-23.926,16.602
1626.466384244,-66.406,-54.688,-46.387,-48.34
1626.4663842470002,-77.637,-81.055,-39.062,-64.453
1626.4663842510001,-25.879,-59.082,-5.371,-8.301
1626.466384255,6.836,-31.25,-2.441,35.156
1626.4663842589998,-47.852,-59.57,-38.086,-33.203
1626.4663842629998,-78.613,-81.543,-33.203,-59.082
1626.466384268,-40.039,-59.57,1.953,-16.602
1626.4663842720001,-2.441,-34.18,15.137,36.133
1626.466384276,-37.598,-58.593999999999994,-27.344,-19.043
1626.46638428,-75.195,-83.984,-39.062,-67.383
1626.466384284,-58.105,-74.707,-10.742,-41.992
1626.466384288,-3.418,-31.738000000000003,15.137,15.137
1626.4663842920002,-15.137,-35.156,-10.742,7.812
1626.4663842950001,-65.918,-72.266,-40.527,-44.922
1626.466384299,-58.593999999999994,-69.824,-27.831999999999997,-38.574
1626.466384303,-9.766,-43.457,9.277000000000001,21.484
1626.4663843070002,-1.953,-28.32,-18.555,29.296999999999997
1626.4663843110002,-49.316,-61.035,-53.223,-53.223
1626.46638431,-61.035,-71.777,-32.227,-75.684
1626.466384314,-14.16,-39.551,5.371,-11.719000000000001
1626.4663843179999,19.531,-20.508000000000003,5.371,34.18
1626.466384322,-22.461,-53.223,-39.062,-21.484
1626.466384326,-48.828,-74.219,-42.48,-62.012
1626.46638433,-7.812,-39.551,-7.324,-26.855
1626.466384334,31.25,-13.184000000000001,9.277000000000001,28.809
1626.4663843370001,-2.93,-49.316,-25.879,-4.883
1626.466384341,-43.945,-77.637,-45.898,-60.059
1626.466384345,-25.879,-58.105,-34.18,-50.293
1626.466384349,28.32,-17.578,-2.441,27.344
1626.466384353,18.066,-22.461,-22.461,17.578
1626.466384355,-40.039,-58.105,-39.551,-70.312
1626.466384359,-56.641000000000005,-61.035,-31.25,-78.613
1626.4663843629999,-9.277000000000001,-35.156,-3.418,-16.113
1626.466384367,6.836,-20.508000000000003,-20.996,6.348
1626.466384371,-52.246,-56.152,-65.43,-55.176
1626.466384375,-72.75399999999999,-64.453,-49.316,-75.195
1626.466384379,-26.366999999999997,-36.621,-8.301,-19.043
1626.4663843820001,6.836,-23.438000000000002,-10.742,19.043
1626.466384386,-42.968999999999994,-46.387,-53.223,-46.875
1626.46638439,-80.078,-77.637,-41.016000000000005,-80.078
1626.466384394,-59.57,-66.895,-2.93,-43.457
1626.4663843979997,-25.391,-32.227,7.812,11.23
1626.4663844000002,-40.039,-42.968999999999994,-22.949,-15.137
1626.466384404,-79.102,-76.172,-40.039,-79.102
1626.466384408,-76.172,-73.242,-19.043,-76.66
1626.4663844120003,-16.602,-34.668,13.672,-3.418
1626.4663844160002,-16.602,-37.109,-13.184000000000001,4.395
1626.4663844200002,-71.777,-67.383,-40.039,-62.5
1626.4663844240001,-70.801,-62.5,-33.203,-83.49600000000001
1626.466384427,-13.672,-32.715,-7.812,-22.461
1626.466384431,11.23,-25.391,-15.625,14.16
1626.466384435,-27.831999999999997,-56.152,-44.922,-47.363
1626.466384439,-39.062,-55.663999999999994,-43.945,-78.613
1626.466384443,-5.859,-29.785,-29.785,-30.273000000000003
1626.466384445,41.504,-6.836,-21.484,24.414
1626.4663844489999,11.23,-36.133,-43.945,-30.273000000000003
1626.4663844529998,-36.133,-68.359,-34.18,-73.73
1626.466384457,-9.766,-52.733999999999995,-2.441,-32.715
1626.466384461,43.945,-16.602,7.812,31.25
1626.466384465,16.602,-16.602,-26.855,1.953
1626.4663844689999,-28.809,-53.711000000000006,-42.48,-46.387
1626.466384472,-17.578,-56.641000000000005,-20.508000000000003,-35.645
1626.466384476,30.273000000000003,-16.113,7.812,19.531
1626.46638448,22.461,-20.508000000000003,-25.391,19.531
1626.466384484,-38.574,-58.593999999999994,-50.293,-48.34
1626.466384488,-44.922,-65.918,-35.156,-60.059
1626.466384491,-7.324,-39.551,-6.836,5.371
1626.4663844949998,26.366999999999997,-10.254000000000001,-12.207,46.875
1626.4663844989998,-15.137,-41.992,-46.387,-13.672
1626.4663845029997,-78.613,-78.125,-43.457,-69.824
1626.4663845070002,-55.176,-56.152,-6.348,-44.434
1626.4663845110001,-11.719000000000001,-18.555,7.324,21.973000000000003
1626.466384515,-51.758,-45.898,-36.133,-30.273000000000003
1626.4663845179998,-80.566,-83.984,-45.41,-88.37899999999999
1626.466384522,-60.547,-64.941,-24.414,-77.637
1626.466384526,-17.578,-32.715,-7.812,-23.438000000000002
1626.46638453,-25.391,-43.457,-35.645,-34.18
1626.4663845339999,-76.66,-80.078,-52.246,-102.051
1626.466384535,-73.73,-67.87100000000001,-32.715,-99.12100000000001
1626.466384539,-20.996,-31.738000000000003,-8.301,-24.901999999999997
1626.466384543,-11.23,-39.062,-38.086,-6.836
1626.4663845470002,-57.617,-65.43,-62.012,-76.172
1626.4663845510001,-61.035,-54.199,-36.621,-84.473
1626.466384555,-19.043,-27.344,-1.465,-20.996
1626.466384559,8.789,-23.438000000000002,-1.953,27.344
1626.466384562,-37.109,-52.246,-37.598,-35.645
1626.466384566,-75.684,-76.66,-38.574,-79.59
1626.46638457,-33.691,-63.477,-15.625,-42.48
1626.466384574,8.301,-27.344,-2.441,12.207
1626.4663845779999,-30.273000000000003,-49.316,-32.715,-16.602
1626.4663845950001,-62.5,-74.707,-47.363,-72.75399999999999
1626.4663845989999,-42.968999999999994,-65.43,-25.391,-52.733999999999995
1626.4663846029998,-4.883,-39.551,0.977,19.043
1626.466384607,-15.625,-37.598,-28.32,17.09
1626.466384611,-70.801,-70.312,-41.016000000000005,-57.617
1626.466384615,-87.402,-66.895,-20.02,-66.406
1626.4663846189999,-26.366999999999997,-37.109,-3.906,-8.301
1626.4663846220003,-8.789,-26.855,-26.855,2.93
1626.4663846260003,-69.824,-56.152,-45.41,-62.012
1626.4663846300002,-85.93799999999999,-74.219,-29.785,-89.844
1626.4663846339997,-39.062,-45.41,-6.348,-31.25
1626.4663846379997,-0.977,-24.414,-11.719000000000001,33.691
1626.4663846400001,-50.781000000000006,-56.152,-48.828,-32.715
1626.466384644,-82.031,-81.543,-46.875,-88.867
1626.4663846479998,-46.875,-60.059,-20.996,-50.781000000000006
1626.4663846520002,0.977,-19.043,-13.184000000000001,15.137
1626.4663846560002,-20.996,-30.273000000000003,-48.828,-16.602
1626.4663846600001,-63.965,-54.688,-56.641000000000005,-73.242
1626.466384664,-51.758,-51.758,-26.855,-49.805
1626.466384667,2.441,-24.414,8.789,10.742
1626.466384671,-2.93,-20.996,-29.785,12.207
1626.466384675,-56.641000000000005,-69.824,-62.012,-47.852
1626.466384679,-55.663999999999994,-67.383,-41.992,-81.055
1626.466384683,-1.465,-31.25,-15.137,-24.414
1626.4663846849999,10.254000000000001,-28.32,-25.879,21.484
1626.4663846889998,-57.129,-59.082,-49.316,-50.781000000000006
1626.4663846929998,-75.195,-71.289,-38.086,-73.73
1626.466384697,-32.715,-42.968999999999994,-5.371,-20.508000000000003
1626.466384701,8.789,-18.555,1.953,34.668
1626.4663847049999,-35.156,-33.691,-31.25,-12.207
1626.4663847089998,-63.477,-56.152,-37.109,-70.312
1626.466384712,-38.086,-59.082,-15.625,-36.133
1626.466384716,9.766,-24.414,2.93,24.901999999999997
1626.46638472,-14.16,-27.831999999999997,-38.086,1.465
1626.466384724,-78.613,-61.035,-50.293,-63.965
1626.4663847279999,-71.289,-61.035,-21.973000000000003,-64.941
1626.466384732,-21.484,-28.809,2.441,0.977
1626.466384736,-7.812,-19.043,-23.438000000000002,20.996
1626.46638474,-36.133,-57.129,-45.41,-44.434
1626.466384744,-53.223,-80.078,-32.715,-72.266
1626.4663847479999,-15.625,-48.34,-3.906,-20.996
1626.466384752,19.531,-17.09,-9.277000000000001,9.766
1626.466384756,-38.086,-47.852,-48.34,-51.758
1626.4663847589998,-64.453,-71.289,-46.875,-91.79700000000001
1626.4663847629997,-38.574,-53.711000000000006,-25.391,-51.758
1626.4663847670001,-1.953,-34.668,-23.438000000000002,-1.953
1626.466384771,-35.645,-57.617,-51.758,-46.387
1626.466384775,-73.242,-76.172,-50.293,-90.33200000000001
1626.466384775,-48.828,-61.523,-25.879,-56.152
1626.466384779,-5.859,-28.32,-3.418,24.901999999999997
1626.466384783,-18.555,-32.227,-33.691,-0.488
1626.4663847870002,-74.707,-75.684,-55.176,-76.172
1626.466384791,-62.5,-73.73,-38.574,-78.125
1626.466384795,-2.441,-23.438000000000002,-8.301,-14.648
1626.466384799,-8.789,-17.09,-20.996,8.301
1626.466384802,-71.289,-69.336,-52.246,-61.035
1626.466384806,-85.449,-91.79700000000001,-45.898,-75.684
1626.46638481,-19.531,-56.641000000000005,-12.695,-21.973000000000003
1626.4663848139999,15.625,-24.414,-11.719000000000001,18.555
1626.4663848179998,-40.527,-52.733999999999995,-46.875,-29.296999999999997
1626.46638482,-56.641000000000005,-75.684,-53.223,-79.102
1626.466384824,-12.695,-48.34,-27.831999999999997,-39.062
1626.4663848279997,32.715,-19.043,-12.695,33.203
1626.4663848320001,-5.371,-47.852,-51.758,-23.438000000000002
1626.4663848359999,-49.316,-74.707,-64.453,-85.93799999999999
1626.4663848399998,-25.879,-50.781000000000006,-31.25,-56.152
1626.4663848439998,10.254000000000001,-18.555,2.441,20.02
1626.4663848470002,-10.254000000000001,-35.645,-35.645,6.348
1626.4663848510002,-50.781000000000006,-55.176,-55.663999999999994,-73.73
1626.4663848550001,-35.645,-53.711000000000006,-36.621,-77.637
1626.466384859,7.812,-41.016000000000005,-14.16,-0.977
1626.4663848629998,17.578,-33.691,-41.504,17.578
1626.466384865,-31.25,-59.082,-68.359,-59.082
1626.466384869,-50.781000000000006,-68.848,-53.223,-87.402
1626.466384873,-5.371,-46.387,-13.672,-24.414
1626.466384877,29.785,-20.508000000000003,4.883,38.086
1626.466384881,-8.789,-39.062,-35.156,-14.16
1626.466384885,-37.598,-45.41,-48.828,-60.547
1626.466384889,-15.137,-35.156,-27.344,-16.113
1626.4663848920002,24.414,-25.879,-4.395,56.641000000000005
1626.4663848960001,-6.348,-41.992,-38.574,3.906
1626.4663849,-52.246,-70.801,-60.059,-68.359
1626.466384904,-39.551,-60.547,-39.062,-54.688
1626.466384908,7.324,-31.25,-10.742,17.09
1626.466384911,3.418,-35.645,-41.992,16.113
1626.466384915,-52.733999999999995,-68.848,-67.87100000000001,-63.477
1626.466384919,-65.918,-69.336,-41.016000000000005,-69.336
1626.4663849229999,-0.488,-32.715,-0.977,5.371
1626.466384927,30.761999999999997,-9.277000000000001,-8.301,40.527
1626.466384931,-43.945,-37.598,-50.293,-34.18
1626.466384935,-67.87100000000001,-73.73,-54.688,-80.566
1626.466384938,-19.043,-52.733999999999995,-14.648,-25.391
1626.466384942,13.672,-12.207,-7.812,38.574
1626.466384946,-23.438000000000002,-45.41,-49.805,-9.766
1626.46638495,-61.523,-76.172,-51.758,-61.523
1626.466384954,-35.156,-58.105,-22.949,-27.344
1626.46638497,11.719000000000001,-30.273000000000003,-5.859,30.273000000000003
1626.466384974,-16.113,-38.574,-42.48,3.418
1626.466384978,-61.523,-68.359,-55.176,-58.593999999999994
1626.4663849820001,-45.41,-61.035,-35.156,-64.453
1626.466384986,-2.441,-23.926,-4.883,11.719000000000001
1626.46638499,-10.254000000000001,-22.949,-29.296999999999997,36.621
1626.466384994,-56.152,-68.359,-62.988,-39.062
1626.4663849970002,-62.5,-85.449,-44.434,-68.359
1626.4663850010002,-12.695,-48.34,-7.324,-2.93
1626.4663850050001,13.184000000000001,-21.973000000000003,-14.648,39.062
1626.4663850089999,-36.621,-57.129,-46.387,-20.02
1626.4663850129998,-60.059,-77.148,-40.527,-62.012
1626.466385015,-19.043,-48.828,-13.184000000000001,-18.555
1626.466385019,29.296999999999997,-17.09,-9.277000000000001,45.41
1626.4663850229997,-14.648,-39.062,-42.48,-2.93
1626.4663850270001,-68.359,-69.824,-47.363,-69.336
1626.466385031,-44.434,-57.617,-32.715,-48.828
1626.466385035,12.207,-10.254000000000001,-14.16,20.02
1626.466385039,-1.465,-15.625,-50.293,1.465
1626.466385042,-61.035,-60.547,-64.453,-57.129
1626.466385046,-63.965,-64.941,-49.316,-61.523
1626.4663850499999,-2.93,-42.48,-19.043,1.953
1626.4663850539998,13.184000000000001,-32.715,-30.761999999999997,21.973000000000003
1626.4663850579998,-48.34,-66.895,-61.523,-53.223
1626.46638506,-65.918,-84.473,-40.527,-72.75399999999999
1626.466385064,-12.695,-57.617,-9.766,-16.113
1626.466385068,11.23,-31.738000000000003,-14.16,23.926
1626.466385072,-33.203,-57.129,-46.875,-34.668
1626.466385076,-53.711000000000006,-74.219,-52.733999999999995,-63.477
1626.46638508,-23.438000000000002,-48.34,-23.438000000000002,-16.113
1626.466385084,27.831999999999997,-14.16,-5.371,40.039
1626.4663850870002,-8.789,-36.621,-42.968999999999994,0.0
1626.4663850910001,-58.105,-63.965,-53.223,-62.988
1626.466385095,-39.062,-57.617,-26.855,-39.062
1626.466385099,21.484,-24.901999999999997,2.93,34.668
1626.466385103,13.672,-22.461,-29.785,19.043
1626.466385105,-41.992,-54.688,-55.176,-48.828
1626.466385109,-41.016000000000005,-54.688,-31.738000000000003,-53.223
1626.466385113,8.789,-20.508000000000003,6.836,12.695
1626.466385117,24.901999999999997,-9.766,-12.695,33.691
1626.466385121,-35.645,-42.968999999999994,-52.246,-32.227
1626.466385125,-56.152,-57.617,-51.758,-60.547
1626.466385129,-5.371,-35.156,-18.555,-16.602
1626.4663851320001,30.761999999999997,-4.883,-2.93,28.32
1626.466385136,-20.02,-38.086,-41.504,-29.296999999999997
1626.46638514,-51.758,-70.312,-42.48,-69.824
1626.466385144,-34.668,-45.41,-10.254000000000001,-32.227
1626.4663851479997,6.836,-9.277000000000001,0.977,41.016000000000005
1626.4663851500002,-11.719000000000001,-31.738000000000003,-29.785,10.742
1626.4663851540001,-64.453,-70.801,-39.551,-62.988
1626.466385158,-58.593999999999994,-67.87100000000001,-24.901999999999997,-51.27
1626.4663851620003,-4.395,-30.761999999999997,2.93,13.184000000000001
1626.4663851660002,-10.254000000000001,-26.855,-15.625,-4.883
1626.46638517,-63.477,-55.663999999999994,-34.668,-70.801
1626.466385174,-70.312,-54.199,-22.949,-73.73
1626.4663851770001,-32.715,-38.574,-6.836,-19.531
1626.466385181,-8.789,-31.738000000000003,-16.602,8.789
1626.466385185,-39.062,-55.176,-44.434,-41.504
1626.466385189,-53.223,-66.895,-44.922,-74.219
1626.466385193,-26.855,-52.733999999999995,-25.391,-25.879
1626.4663851960001,1.953,-28.32,-14.648,22.949
1626.4663852,-32.715,-38.574,-37.109,-34.668
1626.466385204,-66.406,-54.199,-40.527,-75.195
1626.466385208,-38.574,-45.41,-16.602,-44.922
1626.4663852120002,4.395,-24.901999999999997,0.488,2.441
1626.4663852160002,-7.812,-33.203,-33.691,-34.18
1626.4663852200001,-57.129,-63.965,-46.387,-76.172
1626.4663852229999,-62.988,-62.988,-30.273000000000003,-63.477
1626.4663852270003,-12.207,-28.32,-12.695,-16.602
1626.466385231,-8.789,-29.296999999999997,-27.831999999999997,-7.324
1626.466385235,-62.988,-61.035,-42.48,-57.617
1626.466385239,-73.242,-64.453,-32.227,-66.895
1626.46638524,-30.761999999999997,-41.992,-12.207,-34.18
1626.4663852439999,-8.301,-33.203,-16.602,-9.277000000000001
1626.4663852479998,-53.223,-61.035,-39.062,-60.547
1626.466385252,-83.984,-73.242,-43.945,-88.867
1626.466385256,-51.758,-51.758,-25.391,-41.992
1626.46638526,-10.742,-23.926,-9.766,6.836
1626.4663852639999,-35.645,-41.504,-50.293,-30.273000000000003
1626.4663852670003,-71.289,-66.406,-55.663999999999994,-69.336
1626.466385271,-53.223,-52.733999999999995,-26.366999999999997,-51.758
1626.466385275,-13.672,-32.227,-14.16,-4.883
1626.466385279,-20.508000000000003,-36.621,-37.598,-5.371
1626.466385283,-64.941,-58.593999999999994,-44.922,-60.547
1626.4663852850001,-58.593999999999994,-55.176,-29.785,-66.895
1626.466385289,4.395,-27.831999999999997,-10.254000000000001,-5.859
1626.466385293,-0.977,-31.25,-26.366999999999997,10.254000000000001
1626.4663852970002,-54.688,-60.547,-42.48,-48.828
1626.4663853010002,-57.129,-67.383,-32.715,-79.102
1626.4663853050001,-26.366999999999997,-38.574,-14.648,-24.901999999999997
1626.466385309,2.93,-20.508000000000003,-17.09,24.414
1626.466385312,-23.438000000000002,-53.711000000000006,-40.039,-30.273000000000003
1626.466385316,-56.641000000000005,-65.43,-41.504,-60.059
1626.46638532,-40.527,-41.504,-27.831999999999997,-31.25
1626.466385324,-1.953,-16.113,-12.207,4.395
1626.466385328,-24.901999999999997,-36.133,-34.668,-17.09
1626.466385345,-65.918,-58.105,-45.898,-63.965
1626.466385349,-41.504,-49.805,-25.391,-58.105
1626.4663853529999,-9.766,-31.738000000000003,-5.859,-8.301
1626.466385357,-30.761999999999997,-32.715,-31.25,-24.414
1626.466385361,-75.195,-56.641000000000005,-41.504,-71.289
1626.466385365,-75.195,-48.828,-27.831999999999997,-70.801
1626.466385369,-25.879,-27.831999999999997,-8.301,-19.043
1626.466385372,-19.531,-39.062,-23.926,-2.93
1626.466385376,-58.593999999999994,-61.523,-51.758,-58.105
1626.46638538,-69.336,-66.895,-45.41,-75.684
1626.4663853839998,-41.504,-45.898,-17.09,-30.761999999999997
1626.4663853879997,-23.926,-21.484,-10.742,-13.672
1626.4663853900001,-40.039,-41.504,-41.992,-65.43
1626.466385394,-62.5,-59.082,-43.945,-78.125
1626.4663853979998,-47.852,-54.199,-23.438000000000002,-54.199
1626.4663854020002,14.16,-38.086,-12.207,-6.836
1626.4663854060002,-6.348,-40.039,-37.598,-17.578
1626.4663854100002,-61.035,-50.781000000000006,-45.898,-71.289
1626.4663854140001,-46.875,-53.223,-36.133,-69.336
1626.466385417,-7.812,-32.227,-19.531,-16.602
1626.466385421,-16.602,-29.296999999999997,-39.062,-15.137
1626.466385425,-75.195,-70.801,-64.941,-76.66
1626.466385429,-81.055,-70.312,-50.781000000000006,-76.66
1626.466385433,-33.203,-39.062,-19.043,-28.809
1626.466385436,-19.531,-35.156,-24.414,-20.02
1626.46638544,-55.176,-53.711000000000006,-46.387,-57.617
1626.466385444,-67.383,-62.012,-51.27,-64.941
1626.466385448,-36.133,-56.641000000000005,-36.621,-41.504
1626.4663854520002,-0.977,-38.574,-25.391,-23.926
1626.4663854560001,-17.09,-40.527,-42.968999999999994,-40.527
1626.46638546,-53.711000000000006,-60.059,-48.828,-55.663999999999994
1626.4663854629998,-44.434,-57.129,-41.504,-49.805
1626.466385467,10.254000000000001,-34.668,-27.831999999999997,-4.883
1626.466385471,-35.156,-48.828,-42.968999999999994,-33.203
1626.466385475,-92.285,-70.312,-41.016000000000005,-97.16799999999999
1626.4663854789999,-52.733999999999995,-67.87100000000001,-32.715,-76.172
1626.46638548,-7.324,-43.945,-21.484,-15.137
1626.466385484,-10.742,-43.945,-35.156,-20.996
1626.466385488,-46.875,-61.523,-43.457,-62.5
1626.4663854920002,-54.199,-62.988,-39.551,-69.336
1626.4663854960002,-12.695,-39.551,-26.366999999999997,-34.668
1626.4663855,9.277000000000001,-16.113,-25.391,-5.859
1626.4663855039998,-19.531,-44.434,-47.852,-35.645
1626.4663855070003,-35.156,-72.266,-47.363,-62.012
1626.4663855110002,-20.996,-53.711000000000006,-27.831999999999997,-36.621
1626.4663855150002,4.395,-27.344,-23.438000000000002,2.93
1626.4663855190001,-23.926,-45.898,-48.34,-24.901999999999997
1626.4663855229999,-50.293,-63.477,-48.34,-61.035
1626.466385526,-38.086,-57.129,-27.344,-51.27
1626.46638553,6.348,-32.715,-7.324,18.066
1626.466385534,-5.859,-36.621,-31.738000000000003,11.719000000000001
1626.466385538,-50.781000000000006,-59.57,-44.922,-39.551
1626.4663855420001,-48.828,-60.547,-28.32,-40.527
1626.466385546,-20.996,-37.598,-13.672,10.742
1626.46638555,-9.277000000000001,-27.831999999999997,-30.761999999999997,17.578
1626.466385553,-47.852,-60.547,-42.968999999999994,-42.968999999999994
1626.4663855570002,-65.43,-64.453,-30.761999999999997,-52.246
1626.4663855610002,-25.879,-41.992,-8.789,-13.184000000000001
1626.466385565,0.488,-32.715,-14.648,11.719000000000001
1626.466385569,-56.152,-62.988,-48.34,-46.387
1626.4663855699998,-83.008,-71.777,-46.387,-75.195
1626.4663855739998,-40.527,-52.733999999999995,-18.555,-34.18
1626.4663855779997,-0.977,-31.738000000000003,-6.836,3.906
1626.466385582,-36.621,-46.875,-34.18,-22.949
1626.466385586,-62.988,-63.965,-39.062,-54.199
1626.4663855899998,-31.738000000000003,-49.805,-25.391,-44.922
1626.4663855939998,0.977,-32.227,-20.02,13.184000000000001
1626.4663855970002,-11.719000000000001,-47.363,-41.992,8.301
1626.4663856010002,-62.012,-75.195,-46.387,-54.688
1626.466385605,-56.152,-71.777,-25.879,-54.688
1626.4663856089999,-11.719000000000001,-39.551,-10.254000000000001,-20.996
1626.4663856129998,-14.16,-34.18,-26.855,-1.465
1626.4663856160003,-56.152,-62.988,-37.598,-41.016000000000005
1626.46638562,-66.895,-74.219,-32.715,-63.965
1626.466385624,-24.901999999999997,-52.733999999999995,-20.508000000000003,-13.672
1626.4663856279997,-2.93,-29.296999999999997,-20.508000000000003,25.879
1626.4663856320003,-56.641000000000005,-55.176,-41.504,-20.508000000000003
1626.4663856360003,-76.172,-66.406,-38.574,-68.848
1626.46638564,-43.945,-56.641000000000005,-21.973000000000003,-39.062
1626.466385643,-16.602,-35.645,-6.836,21.973000000000003
1626.4663856470002,-39.551,-41.504,-36.133,-20.508000000000003
1626.466385651,-76.66,-69.336,-44.434,-58.593999999999994
1626.466385655,-56.152,-60.547,-27.831999999999997,-55.663999999999994
1626.466385659,-8.789,-31.738000000000003,-16.602,-22.461
1626.4663856629998,-10.254000000000001,-29.296999999999997,-34.18,-6.348
1626.4663856670002,-50.781000000000006,-64.453,-54.199,-66.406
1626.466385671,-67.87100000000001,-74.707,-46.875,-82.031
1626.4663856749999,-29.785,-35.156,-15.137,-22.949
1626.4663856789998,-6.348,-18.066,-20.02,-3.418
1626.4663856829998,-40.039,-41.016000000000005,-41.016000000000005,-53.711000000000006
1626.466385687,-70.801,-61.035,-41.504,-66.895
1626.4663856900002,-48.34,-54.199,-21.973000000000003,-24.901999999999997
1626.466385694,-0.488,-21.484,-13.672,20.996
1626.466385698,-37.109,-43.457,-51.758,-36.621
1626.4663857020003,-77.637,-68.848,-53.711000000000006,-86.426
1626.466385706,-50.781000000000006,-59.082,-23.926,-52.733999999999995
1626.46638572,-4.883,-29.296999999999997,-0.977,13.184000000000001
1626.466385724,-20.508000000000003,-36.621,-29.785,-16.113
1626.466385728,-64.941,-62.5,-48.34,-79.59
1626.4663857320002,-87.891,-61.523,-32.227,-75.195
1626.4663857360001,-47.363,-39.062,-15.625,-31.738000000000003
1626.46638574,-24.901999999999997,-28.809,-34.18,-35.645
1626.466385744,-76.66,-61.035,-46.387,-93.75
1626.4663857470002,-91.79700000000001,-73.73,-32.227,-98.633
1626.4663857510002,-48.828,-55.176,-14.16,-48.34
1626.4663857550001,-36.621,-38.574,-26.366999999999997,-26.855
1626.4663857589999,-78.613,-58.593999999999994,-46.875,-93.75
1626.4663857629998,-105.95700000000001,-74.219,-38.574,-111.816
1626.466385765,-63.965,-49.316,-19.043,-60.547
1626.466385769,-31.738000000000003,-25.879,-23.926,-24.901999999999997
1626.4663857729997,-71.289,-48.34,-61.035,-70.801
1626.4663857770001,-104.98,-74.219,-55.663999999999994,-102.539
1626.466385781,-91.79700000000001,-61.035,-28.809,-73.242
1626.466385785,-38.086,-23.438000000000002,-12.695,-7.812
1626.466385789,-56.641000000000005,-34.668,-41.504,-31.738000000000003
1626.466385792,-91.309,-62.988,-56.641000000000005,-101.56200000000001
1626.466385796,-72.266,-48.828,-43.945,-97.656
1626.4663858,-32.715,-43.457,-40.527,-32.227
1626.4663858039999,-28.809,-49.805,-59.082,-18.066
1626.4663858079998,-71.289,-59.082,-62.5,-67.87100000000001
1626.46638581,-86.426,-73.242,-52.246,-93.262
1626.466385814,-34.18,-58.105,-26.855,-43.945
1626.466385818,-4.395,-31.25,-20.996,-6.348
1626.4663858220001,-51.27,-48.34,-43.945,-61.523
1626.466385826,-70.312,-63.477,-44.434,-79.59
1626.46638583,-34.668,-46.387,-31.25,-48.828
1626.4663858339998,-4.395,-15.137,-31.738000000000003,-15.625
1626.4663858370002,-34.668,-27.831999999999997,-60.547,-46.387
1626.4663858410001,-62.5,-54.688,-57.617,-83.49600000000001
1626.466385845,-41.016000000000005,-44.434,-33.203,-66.406
1626.466385849,0.0,-17.578,-12.207,-11.23
1626.466385853,-7.812,-25.879,-34.18,-30.273000000000003
1626.466385855,-42.968999999999994,-57.129,-49.316,-72.75399999999999
1626.466385859,-48.828,-55.663999999999994,-38.574,-63.965
1626.466385863,2.93,-29.296999999999997,-15.137,-25.879
1626.466385867,11.23,-24.414,-33.203,1.953
1626.466385871,-42.968999999999994,-52.733999999999995,-49.316,-46.387
1626.466385875,-49.316,-52.733999999999995,-29.296999999999997,-68.848
1626.466385879,-3.418,-27.344,-17.09,-29.296999999999997
1626.4663858820002,40.039,-13.184000000000001,-17.09,31.25
1626.4663858860001,-14.16,-38.574,-43.457,-11.719000000000001
1626.46638589,-68.359,-62.988,-48.34,-82.52
1626.466385894,-30.273000000000003,-54.688,-21.484,-55.663999999999994
1626.4663858979998,9.277000000000001,-36.621,-12.695,0.977
1626.466385901,-22.461,-45.41,-44.922,-45.41
1626.466385905,-62.012,-67.87100000000001,-49.316,-93.75
1626.4663859089999,-54.199,-54.688,-34.668,-57.129
1626.4663859129998,0.488,-32.715,-20.02,-1.953
1626.466385917,-5.371,-35.156,-35.645,-13.672
1626.466385921,-58.593999999999994,-47.852,-41.016000000000005,-49.316
1626.466385925,-25.879,-48.34,-31.738000000000003,-65.43
1626.466385928,12.695,-41.016000000000005,-20.02,-30.273000000000003
1626.466385932,-18.555,-29.785,-29.785,10.254000000000001
1626.466385936,-48.828,-47.363,-51.758,-35.156
1626.46638594,-66.895,-67.87100000000001,-48.828,-81.055
1626.466385944,-48.828,-47.852,-17.09,-39.551
1626.466385945,5.859,-19.043,-3.418,20.996
1626.466385949,-31.25,-43.457,-34.668,-20.508000000000003
1626.4663859529999,-87.891,-67.87100000000001,-32.227,-74.707
1626.466385957,-53.711000000000006,-56.152,-7.324,-44.434
1626.466385961,-9.766,-33.691,-3.418,15.137
1626.466385965,-26.366999999999997,-37.598,-42.968999999999994,-38.086
1626.466385969,-73.73,-67.87100000000001,-49.316,-84.473
1626.4663859720001,-83.008,-72.266,-37.598,-54.688
1626.466385976,-11.23,-38.574,-20.996,-2.93
1626.46638598,-10.254000000000001,-37.598,-29.785,-8.789
1626.466385984,-88.37899999999999,-76.172,-48.34,-54.688
1626.466385988,-76.66,-84.961,-40.039,-38.086
1626.46638599,-12.207,-46.387,-11.719000000000001,23.438000000000002
1626.466385994,-6.348,-29.785,-15.625,29.296999999999997
1626.4663859979999,-42.968999999999994,-65.43,-41.992,-32.715
1626.466386002,-56.152,-75.684,-40.527,-44.434
1626.466386006,-34.18,-49.805,-17.578,-21.973000000000003
1626.46638601,14.648,-11.719000000000001,-7.812,7.324
1626.466386014,-7.324,-28.32,-43.457,-17.578
1626.466386017,-48.34,-72.75399999999999,-53.223,-61.035
1626.466386021,-27.344,-61.523,-20.02,-28.32
1626.466386025,15.625,-24.901999999999997,3.906,30.273000000000003
1626.466386029,-0.977,-31.738000000000003,-30.761999999999997,6.348
1626.466386033,-42.968999999999994,-62.988,-44.922,-49.316
1626.4663860350001,-24.414,-61.035,-26.366999999999997,-39.551
1626.466386039,17.578,-31.25,1.953,30.273000000000003
1626.466386043,21.484,-23.926,-19.043,37.598
1626.4663860470002,-19.043,-49.316,-50.293,-32.227
1626.4663860510002,-39.551,-61.523,-28.32,-39.551
1626.4663860550002,0.0,-37.109,6.836,28.32
1626.4663860590001,12.207,-20.02,-4.883,36.621
1626.466386062,-38.574,-47.852,-39.551,-36.621
1626.466386066,-54.199,-66.895,-35.156,-49.805
1626.46638607,-24.414,-64.941,-7.324,-4.883
1626.466386074,3.418,-36.133,4.395,30.761999999999997
1626.466386078,-20.508000000000003,-46.875,-33.691,-1.465
1626.4663860839999,-52.246,-76.172,-41.992,-36.621
1626.4663860879998,-46.387,-67.383,-21.484,-23.926
1626.466386092,-5.371,-38.086,-7.812,38.086
1626.466386096,-11.719000000000001,-47.852,-42.48,15.137
1626.4663861,-61.035,-80.078,-58.105,-49.805
1626.4663861039999,-54.688,-75.684,-34.668,-41.992
1626.4663861079998,-2.93,-36.621,-8.789,11.719000000000001
1626.466386111,0.0,-28.809,-24.901999999999997,24.901999999999997
1626.466386115,-50.293,-61.523,-45.41,-38.086
1626.466386119,-61.523,-70.312,-41.016000000000005,-78.613
1626.466386123,-29.296999999999997,-44.922,-15.625,-34.18
1626.466386127,-19.531,-24.414,-9.766,21.484
1626.4663861400002,-63.965,-44.922,-44.434,-40.527
1626.4663861440001,-86.914,-62.988,-47.852,-86.426
1626.4663861479999,-68.848,-47.363,-20.02,-44.434
1626.4663861520003,-7.324,-15.137,-4.883,13.184000000000001
1626.4663861560002,-34.18,-33.203,-43.457,-18.066
1626.4663861600002,-90.33200000000001,-56.152,-48.34,-82.031
1626.4663861640001,-70.801,-53.711000000000006,-23.438000000000002,-80.078
1626.466386167,-12.207,-24.901999999999997,0.0,-10.742
1626.466386171,-8.301,-17.578,-32.227,-12.695
1626.466386175,-65.918,-65.43,-62.012,-89.355
1626.466386179,-63.965,-66.406,-44.922,-87.402
1626.466386183,-22.949,-26.855,-15.137,-32.715
1626.466386185,-18.555,-19.043,-25.391,-24.901999999999997
1626.4663861889999,-82.031,-53.711000000000006,-51.758,-99.12100000000001
1626.4663861929998,-123.535,-62.988,-45.898,-143.555
1626.466386197,-101.074,-37.109,-20.996,-102.539
