timestamps,TP9,AF7,AF8,TP10
1626.466523285,-64.453,-53.223,-22.949,-64.941
1626.466523289,-24.414,-23.438000000000002,-13.672,-1.465
1626.466523293,-27.344,-32.227,-31.738000000000003,-9.766
1626.466523297,-67.383,-62.012,-39.062,-65.43
1626.466523301,-76.172,-59.57,-30.273000000000003,-45.41
1626.466523305,-36.621,-32.227,-6.348,7.324
1626.466523309,-7.324,-23.438000000000002,-14.16,16.113
1626.466523312,-52.246,-56.152,-43.457,-41.016000000000005
1626.466523316,-77.148,-71.289,-56.152,-67.383
1626.4665233199999,-56.641000000000005,-56.641000000000005,-45.898,-30.761999999999997
1626.4665233239998,-32.227,-35.645,-24.901999999999997,9.766
1626.4665233279998,-53.223,-52.733999999999995,-44.434,-33.691
1626.4665233279998,-53.223,-52.733999999999995,-44.434,-33.691
1626.46652333,-71.777,-59.57,-44.922,-69.824
1626.466523334,-43.945,-41.016000000000005,-26.855,-44.922
1626.466523338,7.812,-24.901999999999997,-13.184000000000001,9.766
1626.466523342,-12.207,-40.527,-35.156,-13.672
1626.466523346,-47.852,-58.593999999999994,-44.922,-74.219
1626.46652335,-41.504,-34.668,-27.344,-63.965
1626.466523354,-6.836,-8.301,1.953,-9.766
1626.4665233570001,-3.418,-22.461,-16.113,-23.926
1626.466523361,-51.758,-56.641000000000005,-47.363,-84.473
1626.466523365,-66.406,-59.57,-41.016000000000005,-87.402
1626.466523369,-21.973000000000003,-35.645,-12.695,-42.968999999999994
1626.466523373,-13.184000000000001,-32.227,-25.391,-18.555
1626.466523375,-61.035,-54.688,-45.898,-62.988
1626.466523379,-63.965,-61.035,-39.551,-83.984
1626.4665233829999,-39.062,-45.898,-20.02,-51.758
1626.466523387,-2.441,-24.414,-10.254000000000001,-7.324
1626.466523391,-30.761999999999997,-47.363,-42.48,-32.227
1626.466523395,-79.59,-62.5,-46.875,-54.688
1626.466523399,-46.875,-46.387,-21.973000000000003,-41.504
1626.4665234020001,7.812,-28.809,3.906,-3.906
1626.466523406,-22.949,-45.41,-26.366999999999997,-11.719000000000001
1626.46652341,-80.566,-70.312,-39.551,-48.34
1626.466523414,-69.336,-64.941,-23.438000000000002,-39.062
1626.466523418,-11.719000000000001,-38.086,-9.277000000000001,11.23
1626.4665234200002,-4.883,-30.273000000000003,-20.996,23.926
1626.4665234240001,-47.363,-65.43,-36.621,-33.691
1626.466523428,-51.758,-74.707,-31.738000000000003,-58.105
1626.4665234320003,-10.254000000000001,-48.34,-20.02,-10.742
1626.4665234360002,14.648,-19.531,-17.09,23.438000000000002
1626.46652344,-19.531,-30.273000000000003,-33.691,-32.715
1626.466523444,-35.645,-47.363,-32.227,-70.801
1626.466523447,-21.973000000000003,-48.828,-16.602,-51.27
1626.466523451,3.906,-38.574,-12.207,-17.09
1626.466523455,-11.23,-37.109,-29.296999999999997,-34.668
1626.466523459,-51.27,-48.828,-29.296999999999997,-66.895
1626.466523463,-34.18,-48.34,-20.02,-71.289
1626.466523465,4.395,-18.066,-10.254000000000001,-28.809
1626.4665234689999,-21.973000000000003,-14.648,-36.621,-34.668
1626.4665234729998,-48.34,-48.34,-44.434,-83.008
1626.4665234770002,-27.831999999999997,-52.733999999999995,-37.109,-74.219
1626.466523481,-6.348,-19.043,-26.366999999999997,-24.901999999999997
1626.466523485,-23.438000000000002,-2.93,-34.18,-1.953
1626.4665234889999,-57.617,-40.039,-43.945,-49.316
1626.466523492,-60.059,-58.105,-27.344,-75.684
1626.466523496,-34.18,-38.086,-5.859,-28.809
1626.4665235,-4.395,-18.066,-7.324,18.555
1626.466523504,-28.809,-29.785,-31.25,-29.785
1626.466523508,-64.941,-57.129,-37.109,-62.988
1626.46652351,-31.738000000000003,-47.852,-14.16,-33.203
1626.4665235139998,8.789,-18.066,0.977,14.16
1626.4665235179998,-45.41,-34.668,-35.645,-15.625
1626.466523522,-81.055,-64.453,-40.527,-47.852
1626.466523526,-42.968999999999994,-43.457,-16.602,-28.32
1626.46652353,-2.441,-3.418,3.418,4.883
1626.4665235339999,-24.414,-10.254000000000001,-17.09,-13.672
1626.4665235370003,-46.875,-48.828,-43.457,-77.148
1626.466523541,-48.828,-46.875,-35.156,-70.801
1626.466523545,-32.715,-20.996,-21.484,-20.508000000000003
1626.466523549,-19.531,-17.578,-38.574,-15.625
1626.466523553,-70.801,-48.34,-72.266,-93.262
1626.466523556,-74.707,-32.715,-60.059,-113.77
1626.46652356,-32.715,10.254000000000001,-27.831999999999997,-64.453
1626.466523564,-25.391,8.789,-46.387,-50.781000000000006
1626.4665235679997,-68.848,-25.391,-76.172,-92.773
1626.466523572,-83.008,-34.668,-66.406,-119.62899999999999
1626.4665235759999,-28.809,-20.02,-46.387,-86.426
1626.4665235799998,4.395,-0.488,-33.691,-26.855
1626.466523583,-15.625,-5.859,-54.688,-46.875
1626.4665235870002,-39.062,-35.645,-55.176,-91.309
1626.4665235910002,-44.922,-41.992,-41.992,-90.82
1626.4665235950001,-5.371,-4.395,-21.484,-26.855
1626.466523599,9.277000000000001,0.0,-31.738000000000003,-7.324
1626.4665235999998,-37.109,-34.18,-50.781000000000006,-60.547
1626.4665236039998,-50.293,-40.039,-51.758,-60.059
1626.4665236079998,-9.277000000000001,-15.625,-28.809,6.348
1626.4665236120002,19.531,1.465,-32.715,13.672
1626.4665236160001,-29.296999999999997,-33.203,-61.523,-48.828
1626.4665236199999,-71.289,-57.129,-56.152,-69.336
1626.4665236239998,-43.457,-34.668,-32.715,-49.805
1626.466523627,-11.23,-12.695,-10.254000000000001,10.742
1626.466523631,-40.527,-30.761999999999997,-32.227,-23.438000000000002
1626.466523635,-67.383,-43.945,-41.016000000000005,-71.777
1626.466523639,-42.968999999999994,-30.761999999999997,-20.508000000000003,-39.062
1626.4665236429998,6.348,-10.742,-4.883,8.301
1626.4665236600001,-10.742,-5.371,-30.273000000000003,-15.137
1626.466523664,-64.941,-32.227,-41.504,-53.223
1626.466523668,-62.012,-46.387,-26.366999999999997,-54.199
1626.4665236720002,-14.16,-22.461,-14.648,-13.672
1626.4665236760002,-13.672,-19.043,-32.715,-3.418
1626.4665236800001,-62.012,-36.621,-36.621,-51.758
1626.466523684,-73.73,-36.133,-26.366999999999997,-62.5
1626.466523687,-35.645,-14.16,-5.859,-24.901999999999997
1626.466523691,-11.719000000000001,0.0,-14.16,3.418
1626.466523695,-59.57,-39.062,-55.663999999999994,-43.457
1626.466523699,-71.777,-59.082,-53.223,-83.008
1626.466523703,-18.555,-28.809,-14.16,-47.363
1626.4665237049999,14.16,-3.906,-2.441,2.441
1626.4665237089998,-15.137,-30.273000000000003,-38.086,-44.434
1626.4665237129998,-62.988,-48.34,-39.551,-75.684
1626.466523717,-60.059,-37.109,-25.391,-46.387
1626.466523721,7.324,-10.254000000000001,-19.531,-15.137
1626.466523725,-3.418,-15.137,-36.621,-30.761999999999997
1626.4665237289998,-53.223,-46.387,-36.621,-74.707
1626.466523732,-49.316,-44.922,-15.625,-71.777
1626.466523736,-21.973000000000003,-15.625,1.953,-7.812
1626.46652374,-7.324,-2.93,-13.184000000000001,11.719000000000001
1626.466523744,-54.688,-31.25,-34.18,-39.062
1626.4665237479999,-78.613,-43.945,-33.691,-61.035
1626.46652375,-40.527,-21.484,-16.602,-19.043
1626.466523754,-14.648,-8.789,-11.719000000000001,6.348
1626.466523758,-49.316,-32.227,-42.968999999999994,-45.898
1626.4665237620002,-75.684,-48.34,-44.434,-72.266
1626.4665237660001,-59.082,-34.668,-12.695,-39.062
1626.46652377,-31.25,-6.348,-11.719000000000001,1.465
1626.4665237739998,-41.504,-23.438000000000002,-43.945,-25.879
1626.4665237770002,-65.918,-58.593999999999994,-47.363,-64.453
1626.4665237810002,-59.57,-51.27,-28.809,-55.176
1626.4665237850002,-11.23,-25.879,-16.113,-4.395
1626.4665237890001,-12.695,-25.391,-41.992,-27.344
1626.466523793,-72.75399999999999,-52.733999999999995,-57.617,-85.93799999999999
1626.466523796,-66.895,-47.852,-41.016000000000005,-79.102
1626.4665238,-3.418,-12.207,-13.672,-30.761999999999997
1626.466523804,5.371,-8.301,-32.715,-2.441
1626.466523808,-34.668,-48.828,-58.593999999999994,-56.152
1626.466523812,-54.199,-60.059,-50.781000000000006,-78.125
1626.466523816,-26.855,-18.555,-29.296999999999997,-30.761999999999997
1626.46652382,-0.488,2.441,-20.996,12.695
1626.466523823,-31.738000000000003,-35.156,-45.898,-32.227
1626.4665238270002,-42.968999999999994,-46.387,-45.41,-56.152
1626.4665238310001,-16.602,-26.366999999999997,-24.901999999999997,-29.296999999999997
1626.466523835,3.418,-3.418,-7.812,11.23
1626.466523839,-29.785,-16.602,-32.715,-20.02
1626.4665238399998,-75.684,-48.34,-49.316,-68.359
1626.4665238439998,-66.895,-41.992,-41.504,-49.805
1626.4665238479997,-24.901999999999997,-19.043,-14.648,-4.883
1626.4665238520001,-17.09,-13.672,-24.901999999999997,-14.16
1626.4665238559999,-54.199,-32.715,-41.016000000000005,-52.733999999999995
1626.4665238599998,-64.941,-38.574,-30.761999999999997,-60.547
1626.4665238639998,-30.273000000000003,-15.625,-16.602,-18.555
1626.4665238670002,-16.602,-15.137,-39.062,0.488
1626.4665238710002,-62.5,-47.852,-66.895,-55.663999999999994
1626.466523875,-80.566,-57.129,-44.434,-68.848
1626.4665238789999,-36.621,-30.273000000000003,-24.414,-42.968999999999994
1626.4665238829998,10.254000000000001,-5.371,-20.996,-2.441
1626.466523885,-24.901999999999997,-30.761999999999997,-39.551,-22.461
1626.466523889,-58.593999999999994,-55.663999999999994,-39.551,-47.852
1626.466523893,-31.25,-41.992,-15.625,-22.461
1626.4665238970001,7.812,-12.207,-6.348,12.207
1626.466523901,-9.277000000000001,-26.366999999999997,-40.039,-22.461
1626.466523905,-47.363,-55.176,-41.992,-58.105
1626.466523909,-48.828,-43.945,-30.273000000000003,-49.316
1626.4665239120002,-12.207,-19.531,-24.901999999999997,-3.418
1626.4665239160001,8.789,-13.184000000000001,-29.296999999999997,10.742
1626.46652392,-26.855,-43.457,-44.434,-54.688
1626.466523924,-41.016000000000005,-53.711000000000006,-38.574,-67.87100000000001
1626.466523928,-5.371,-24.414,-8.789,-25.879
1626.46652393,10.742,-6.348,-18.066,1.953
1626.466523934,-36.133,-38.086,-52.246,-42.968999999999994
1626.466523938,-71.289,-62.988,-42.968999999999994,-74.707
1626.466523942,-49.316,-45.898,-12.695,-53.223
1626.466523946,-16.113,-17.578,-7.812,-8.789
1626.46652395,-39.551,-25.879,-33.691,-23.926
1626.466523954,-80.566,-39.062,-30.273000000000003,-61.523
1626.466523957,-67.383,-38.574,-20.996,-52.733999999999995
1626.466523961,-4.883,-20.02,-8.301,-4.395
1626.4665239649999,-20.508000000000003,-18.555,-35.156,-7.324
1626.4665239689998,-70.801,-46.875,-63.965,-58.105
1626.4665239729998,-70.312,-57.617,-45.41,-75.684
1626.466523975,-23.438000000000002,-29.296999999999997,-4.395,-19.043
1626.466523979,5.371,-10.254000000000001,-8.301,15.137
1626.466523983,-47.852,-41.016000000000005,-32.227,-51.758
1626.4665239870003,-79.59,-52.733999999999995,-23.438000000000002,-68.359
1626.4665239910003,-33.691,-31.738000000000003,0.488,-19.531
1626.466523995,-16.113,-11.719000000000001,-6.836,6.348
1626.466523999,-67.383,-40.527,-38.574,-41.016000000000005
1626.4665240020001,-80.078,-69.824,-29.785,-77.148
1626.466524006,-53.711000000000006,-54.199,-13.672,-53.223
1626.46652401,-19.531,-19.531,-10.742,-9.766
1626.466524014,-31.25,-33.203,-43.945,-41.504
1626.466524018,-66.895,-65.918,-55.176,-79.59
1626.466524035,-64.453,-52.733999999999995,-24.901999999999997,-67.87100000000001
1626.466524039,-15.625,-17.578,-5.371,-36.621
1626.466524043,-3.418,-18.555,-31.25,-17.578
1626.4665240470001,-40.039,-48.828,-43.945,-45.898
1626.466524051,-51.758,-54.688,-37.109,-64.453
1626.466524055,-26.855,-20.996,-9.277000000000001,-15.137
1626.466524059,-4.883,-4.883,-18.555,0.488
1626.466524062,-52.246,-42.968999999999994,-44.434,-57.617
1626.466524066,-76.66,-56.641000000000005,-30.273000000000003,-71.289
1626.4665240699999,-52.246,-45.41,-20.508000000000003,-38.574
1626.4665240739998,-21.973000000000003,-30.273000000000003,-25.391,0.977
1626.4665240779998,-32.715,-41.992,-41.504,-31.738000000000003
1626.46652408,-58.593999999999994,-53.711000000000006,-38.086,-71.777
1626.466524084,-40.039,-43.457,-19.043,-43.457
1626.466524088,-8.301,-20.996,-8.789,12.695
1626.466524092,-29.785,-25.391,-35.156,-24.901999999999997
1626.466524096,-68.848,-51.27,-41.992,-65.43
1626.4665241,-43.457,-49.316,-29.785,-53.711000000000006
1626.4665241039997,-1.465,-27.831999999999997,-5.859,-5.859
1626.4665241070002,-13.672,-28.809,-21.973000000000003,8.789
1626.4665241110001,-47.363,-57.129,-53.711000000000006,-47.852
1626.466524115,-50.293,-62.012,-49.316,-57.617
1626.466524119,-9.766,-29.296999999999997,-13.672,6.348
1626.466524123,5.371,-8.789,-13.672,21.973000000000003
1626.466524125,-40.527,-37.598,-40.039,-22.461
1626.466524129,-63.477,-57.617,-33.691,-48.828
1626.466524133,-26.855,-34.668,-18.555,-45.41
1626.466524137,7.324,-8.301,-11.719000000000001,-9.766
1626.466524141,-19.531,-28.809,-36.621,-32.227
1626.466524145,-57.129,-44.434,-48.828,-67.87100000000001
1626.466524149,-58.105,-34.668,-25.879,-47.363
1626.4665241520001,-12.695,-10.742,-9.766,-0.488
1626.466524156,-17.578,-21.484,-50.781000000000006,-21.973000000000003
1626.46652416,-63.477,-51.758,-57.129,-69.824
1626.466524164,-69.336,-42.968999999999994,-27.344,-64.941
1626.466524168,-19.531,-14.16,-10.254000000000001,-8.789
1626.4665241700002,-4.395,-8.301,-31.738000000000003,1.465
1626.466524174,-67.383,-39.062,-42.48,-47.363
1626.4665241779999,-85.93799999999999,-49.316,-28.32,-69.336
1626.466524182,-39.062,-26.855,-17.578,-40.527
1626.466524186,-16.113,-7.324,-30.273000000000003,-14.648
1626.46652419,-70.801,-28.809,-52.733999999999995,-55.663999999999994
1626.466524194,-90.82,-49.805,-40.527,-78.125
1626.4665241970001,-63.477,-45.898,-21.484,-57.617
1626.466524201,-13.672,-22.949,-8.789,-12.207
1626.4665242049998,-25.879,-29.296999999999997,-40.527,-26.855
1626.4665242089998,-65.43,-55.176,-59.57,-72.266
1626.4665242129997,-50.781000000000006,-49.316,-32.227,-74.219
1626.466524215,-9.277000000000001,-10.254000000000001,-9.766,-23.926
1626.466524219,-15.625,-9.766,-38.086,-28.32
1626.4665242229999,-47.852,-41.016000000000005,-41.504,-69.336
1626.4665242270003,-58.105,-44.434,-31.25,-64.941
1626.466524231,-31.738000000000003,-25.391,-23.438000000000002,-20.996
1626.466524235,-1.465,-5.371,-20.02,4.883
1626.466524239,-52.246,-29.296999999999997,-36.621,-33.203
1626.466524242,-70.312,-62.012,-45.41,-55.176
1626.466524246,-29.785,-33.203,-19.043,-17.578
1626.46652425,-0.977,-11.23,-17.09,15.625
1626.466524254,-31.738000000000003,-44.434,-56.152,-30.273000000000003
1626.466524258,-66.406,-56.641000000000005,-42.968999999999994,-61.035
1626.4665242610001,-26.855,-36.621,-3.418,-35.645
1626.466524265,14.648,-9.766,4.395,7.324
1626.466524269,-23.926,-24.414,-38.574,-24.414
1626.4665242729998,-61.035,-55.176,-48.828,-60.059
1626.4665242770002,-56.152,-50.293,-20.02,-46.875
1626.4665242810001,-11.23,-10.742,2.441,4.395
1626.466524285,-31.738000000000003,-14.16,-26.855,1.465
1626.4665242879998,-76.66,-62.012,-44.434,-50.781000000000006
1626.466524292,-73.242,-66.895,-22.461,-60.059
1626.466524296,-47.852,-31.25,1.465,-15.137
1626.4665243,-28.32,-14.16,-13.672,-5.371
1626.466524304,-62.988,-46.387,-45.41,-63.477
1626.4665243050001,-89.355,-55.663999999999994,-45.898,-75.684
1626.466524309,-56.152,-27.831999999999997,-26.855,-50.781000000000006
1626.466524313,-7.812,-17.578,-22.949,-30.761999999999997
1626.4665243170002,-23.926,-42.48,-45.41,-59.082
1626.4665243210002,-45.898,-50.781000000000006,-32.715,-76.172
1626.4665243250001,-37.109,-32.715,-9.277000000000001,-48.34
1626.466524329,-0.488,-15.137,-14.648,2.441
1626.466524332,-18.066,-35.156,-51.27,-15.625
1626.466524336,-37.109,-53.223,-56.152,-57.129
1626.46652434,-25.879,-44.922,-31.25,-41.504
1626.466524344,11.23,-13.672,-9.766,7.812
1626.466524348,17.578,-13.184000000000001,-25.879,12.207
1626.4665243499999,-37.598,-52.246,-37.598,-49.805
1626.4665243539998,-50.781000000000006,-66.895,-31.738000000000003,-74.219
1626.4665243579998,-16.602,-34.668,-10.254000000000001,-22.949
1626.4665243620002,3.418,-11.23,-20.02,-4.395
1626.4665243660002,-41.992,-36.133,-46.387,-48.828
1626.46652437,-71.777,-45.41,-42.48,-66.895
1626.4665243739998,-45.898,-20.508000000000003,-19.531,-25.391
1626.466524377,-2.93,-4.395,-5.371,30.273000000000003
1626.466524381,-48.34,-40.039,-29.296999999999997,-19.531
1626.466524385,-103.027,-66.406,-36.133,-65.918
1626.466524389,-81.543,-49.316,-20.996,-51.758
1626.4665243929999,-29.296999999999997,-15.137,-1.953,-0.977
1626.4665244100001,-25.391,-22.949,-24.901999999999997,-7.324
1626.466524414,-67.383,-53.711000000000006,-37.109,-57.129
1626.466524418,-75.195,-52.733999999999995,-23.926,-55.176
1626.4665244220002,-19.043,-25.391,0.488,-1.953
1626.4665244260002,0.488,-16.602,-14.16,3.418
1626.4665244300002,-41.992,-41.504,-38.574,-40.527
1626.4665244340001,-54.688,-54.688,-34.18,-42.48
1626.466524437,-23.438000000000002,-31.738000000000003,-6.836,-3.906
1626.466524441,14.648,-12.207,-6.348,18.555
1626.466524445,-29.296999999999997,-47.363,-50.293,-43.945
1626.466524449,-52.733999999999995,-57.617,-55.176,-66.406
1626.466524453,-14.648,-33.691,-25.391,-36.133
1626.466524455,9.277000000000001,-9.766,-18.555,10.742
1626.4665244589999,-26.366999999999997,-31.738000000000003,-47.852,-8.789
1626.4665244629998,-66.406,-64.941,-44.922,-67.87100000000001
1626.466524467,-42.968999999999994,-51.27,-18.066,-58.593999999999994
1626.466524471,0.977,-17.578,1.953,-0.977
1626.466524475,-12.695,-19.531,-23.926,-10.254000000000001
1626.4665244789999,-49.316,-45.898,-42.968999999999994,-64.453
1626.466524482,-61.035,-56.641000000000005,-36.621,-62.5
1626.466524486,-25.391,-31.25,-19.531,-17.578
1626.46652449,-0.977,-19.043,-28.32,-2.93
1626.466524494,-45.41,-56.641000000000005,-53.711000000000006,-61.035
1626.466524498,-67.87100000000001,-60.059,-48.34,-77.637
1626.466524501,-18.555,-18.555,-22.949,-27.831999999999997
1626.466524505,21.973000000000003,-8.301,-19.531,5.859
1626.4665245089998,-12.207,-37.598,-40.527,-32.227
1626.4665245129997,-53.711000000000006,-54.199,-45.898,-62.5
1626.4665245170002,-33.691,-37.109,-22.461,-43.457
1626.466524521,11.23,-1.465,-0.488,-0.488
1626.466524525,-11.719000000000001,-14.16,-20.02,-29.785
1626.4665245279998,-60.059,-44.922,-38.086,-70.312
1626.466524532,-61.523,-52.733999999999995,-33.203,-56.641000000000005
1626.466524536,-21.484,-33.691,-18.066,-11.719000000000001
1626.46652454,-20.508000000000003,-29.785,-36.133,-22.949
1626.4665245439999,-56.152,-57.129,-51.27,-73.242
1626.466524545,-51.27,-50.781000000000006,-38.574,-73.73
1626.466524549,-15.625,-25.391,-12.207,-32.715
1626.466524553,-1.465,-22.949,-20.02,-12.695
1626.4665245570002,-44.922,-51.27,-44.434,-55.176
1626.4665245610001,-64.941,-61.523,-39.551,-66.895
1626.466524565,-24.414,-30.761999999999997,-18.555,-35.645
1626.466524569,10.254000000000001,-11.719000000000001,-17.578,-15.625
1626.466524572,-29.785,-47.852,-54.688,-46.387
1626.466524576,-53.711000000000006,-67.383,-54.688,-49.316
1626.46652458,-18.066,-57.617,-21.484,-43.457
1626.466524584,5.859,-32.227,-13.184000000000001,-29.296999999999997
1626.4665245879999,-25.391,-41.504,-40.527,-34.668
1626.4665245899998,-51.27,-75.195,-41.016000000000005,-58.105
1626.4665245939998,-48.34,-73.73,-20.02,-62.988
1626.4665245979998,-9.277000000000001,-38.086,3.418,5.859
1626.4665246020002,9.277000000000001,-36.621,-10.254000000000001,25.879
1626.466524606,-59.082,-70.801,-23.438000000000002,-41.016000000000005
1626.4665246099999,-82.031,-73.73,-10.254000000000001,-48.828
1626.4665246139998,-32.227,-47.363,12.207,-4.883
1626.466524617,-16.602,-33.691,-3.418,32.715
1626.466524621,-56.152,-61.523,-34.18,-5.859
1626.466524625,-72.266,-81.055,-19.531,-35.645
1626.4665246289999,-37.598,-52.246,5.371,-4.395
1626.4665246329998,-6.348,-24.901999999999997,2.441,31.25
1626.466524635,-46.875,-46.387,-30.761999999999997,-11.23
1626.466524639,-66.895,-58.105,-30.273000000000003,-44.434
1626.466524643,-41.016000000000005,-43.457,-4.883,-25.391
1626.4665246470001,-6.836,-24.414,8.789,33.203
1626.466524651,-12.207,-37.598,-24.414,17.578
1626.466524655,-36.133,-44.434,-35.156,-48.828
1626.466524659,-45.898,-41.504,-25.391,-38.086
1626.4665246620002,-17.578,-39.062,-12.695,1.465
1626.4665246660002,0.0,-24.414,-25.879,-1.465
1626.4665246700001,-41.504,-43.457,-46.875,-53.223
1626.466524674,-52.246,-48.34,-34.18,-55.176
1626.466524678,-2.93,-25.391,-12.207,-11.23
1626.4665246829998,34.18,-8.789,-25.879,14.648
1626.466524687,-12.695,-32.227,-51.27,-35.156
1626.466524691,-51.27,-51.27,-46.387,-72.266
1626.4665246949999,-13.184000000000001,-39.551,-22.461,-30.273000000000003
1626.4665246989998,19.531,-24.414,-4.395,19.531
1626.4665247029998,-17.09,-28.809,-29.785,-17.578
1626.466524707,-52.246,-55.176,-39.551,-63.965
1626.46652471,-41.016000000000005,-63.477,-25.391,-52.246
1626.466524714,2.93,-24.901999999999997,-6.836,5.859
1626.4665247179998,-12.207,-24.901999999999997,-29.785,4.395
1626.466524722,-59.57,-45.41,-42.968999999999994,-41.504
1626.466524726,-45.898,-48.828,-28.809,-46.875
1626.466524726,3.418,-25.879,-5.859,0.0
1626.46652473,17.578,-8.301,-20.02,15.137
1626.466524734,-36.621,-41.992,-51.758,-38.574
1626.4665247379999,-47.363,-52.246,-48.34,-52.733999999999995
1626.466524742,-4.883,-28.809,-17.09,-20.996
1626.466524746,12.695,-7.324,-3.418,21.484
1626.46652475,-9.277000000000001,-27.831999999999997,-31.738000000000003,-16.113
1626.4665247529997,-39.062,-54.199,-36.621,-59.082
1626.4665247570001,-27.344,-37.598,-6.348,-36.133
1626.466524761,26.855,-5.859,2.93,38.574
1626.466524765,8.301,-22.461,-44.922,17.578
1626.466524769,-36.621,-51.27,-51.758,-55.176
1626.466524785,-28.809,-44.922,-23.926,-31.25
1626.466524789,11.23,-11.719000000000001,-7.324,20.02
1626.466524793,9.766,-14.16,-32.715,5.371
1626.4665247970001,-26.366999999999997,-41.504,-43.945,-30.761999999999997
1626.466524801,-50.293,-47.363,-29.785,-68.359
1626.466524805,-27.344,-28.32,-20.02,-48.828
1626.466524809,-13.184000000000001,-18.066,-28.809,-5.859
1626.466524812,-49.805,-46.387,-46.875,-40.039
1626.466524816,-54.688,-52.733999999999995,-42.968999999999994,-57.617
1626.46652482,-40.527,-37.109,-23.926,-27.831999999999997
1626.4665248239999,-6.836,-13.672,-12.695,7.812
1626.4665248279998,-19.043,-26.366999999999997,-41.016000000000005,-9.277000000000001
1626.46652483,-47.852,-48.34,-50.293,-44.922
1626.466524834,-29.296999999999997,-35.156,-22.461,-27.831999999999997
1626.4665248379997,11.23,-7.812,-3.418,36.621
1626.466524842,-3.418,-23.926,-32.715,24.414
1626.4665248459999,-41.016000000000005,-53.223,-43.457,-20.996
1626.4665248499998,-23.926,-44.922,-25.391,-23.926
1626.4665248539998,7.324,-26.855,-8.789,28.809
1626.4665248570002,2.441,-22.949,-30.761999999999997,41.992
1626.4665248610002,-29.296999999999997,-55.663999999999994,-55.176,-23.926
1626.466524865,-46.875,-72.266,-45.41,-39.551
1626.466524869,-9.277000000000001,-39.551,-3.418,14.16
1626.4665248729998,11.719000000000001,-20.508000000000003,-9.766,37.598
1626.466524875,-24.414,-46.387,-53.223,-19.531
1626.466524879,-42.968999999999994,-62.5,-57.129,-33.203
1626.466524883,-4.883,-34.18,-23.926,3.906
1626.466524887,41.992,-2.93,-7.324,33.691
1626.466524891,4.395,-26.366999999999997,-34.18,7.812
1626.466524895,-45.898,-44.434,-40.527,-30.273000000000003
1626.466524899,-30.273000000000003,-27.344,-25.391,-24.414
1626.4665249020002,14.648,-5.859,-5.859,30.761999999999997
1626.4665249060001,-9.277000000000001,-21.484,-38.574,-0.488
1626.46652491,-58.105,-42.968999999999994,-57.129,-65.43
1626.466524914,-53.711000000000006,-38.086,-41.992,-55.663999999999994
1626.466524918,-22.461,-29.785,-20.996,-3.418
1626.46652492,-31.738000000000003,-30.273000000000003,-41.992,3.906
1626.466524924,-59.57,-48.828,-61.523,-42.968999999999994
1626.466524928,-61.523,-55.663999999999994,-36.621,-59.57
1626.466524932,-37.109,-34.668,-9.766,-21.973000000000003
1626.466524936,-14.648,-20.02,-18.555,18.066
1626.46652494,-47.363,-34.668,-46.387,-23.926
1626.466524944,-68.359,-39.551,-40.527,-52.733999999999995
1626.466524947,-43.457,-34.668,-25.391,-29.296999999999997
1626.4665249509999,-13.184000000000001,-10.742,-17.578,19.531
1626.4665249549998,-29.296999999999997,-16.602,-39.551,-5.859
1626.4665249589998,-53.223,-40.039,-51.758,-59.082
1626.4665249629998,-48.34,-42.968999999999994,-41.016000000000005,-48.828
1626.466524968,-4.883,-15.625,-17.578,8.789
1626.4665249720001,1.953,-8.789,-41.992,8.301
1626.466524976,-37.598,-42.968999999999994,-64.453,-34.668
1626.46652498,-48.828,-45.898,-44.434,-44.922
1626.466524984,-7.324,-13.672,-18.066,-1.953
1626.466524988,16.602,-3.418,-26.366999999999997,28.809
1626.4665249920001,-43.457,-35.156,-43.945,-47.363
1626.4665249949999,-83.008,-59.082,-44.922,-89.355
1626.4665249989998,-34.668,-39.062,-23.926,-34.18
1626.4665250029998,-12.207,-21.484,-22.949,8.789
1626.4665250070002,-47.852,-44.434,-57.617,-40.039
1626.4665250110002,-54.199,-49.805,-55.663999999999994,-78.125
1626.46652501,-41.016000000000005,-37.598,-31.25,-71.289
1626.466525014,-7.324,-19.531,-13.672,-18.555
1626.4665250179999,-24.901999999999997,-27.831999999999997,-38.086,-29.296999999999997
1626.466525022,-71.777,-46.875,-44.434,-76.66
1626.466525026,-70.312,-41.504,-26.366999999999997,-67.383
1626.46652503,-35.645,-12.207,-15.137,-26.855
1626.466525034,-40.527,-25.391,-54.199,-33.203
1626.466525037,-68.359,-68.848,-72.75399999999999,-85.93799999999999
1626.466525041,-55.663999999999994,-55.663999999999994,-43.945,-76.172
1626.466525045,-17.578,-27.344,-13.672,-20.996
1626.466525049,-7.812,-15.625,-21.484,-9.277000000000001
1626.466525053,-33.691,-37.109,-53.223,-66.406
1626.4665250550001,-41.504,-49.805,-47.852,-83.008
1626.466525059,-26.855,-23.438000000000002,-21.484,-30.273000000000003
1626.466525063,6.836,-1.465,-23.438000000000002,15.625
1626.4665250670002,-31.25,-30.761999999999997,-50.781000000000006,-33.203
1626.4665250710002,-68.359,-55.176,-53.223,-73.73
1626.466525075,-45.898,-31.738000000000003,-36.133,-52.733999999999995
1626.466525079,-6.348,-10.254000000000001,-23.438000000000002,-9.277000000000001
1626.466525082,-11.719000000000001,-23.438000000000002,-46.387,-31.25
1626.466525086,-45.41,-34.668,-52.733999999999995,-81.543
1626.46652509,-41.016000000000005,-42.48,-38.086,-78.125
1626.466525094,-19.043,-36.133,-19.043,-25.391
1626.466525098,-24.414,-25.391,-39.062,-20.508000000000003
1626.466525115,-55.663999999999994,-45.41,-60.059,-65.43
1626.466525119,-56.641000000000005,-56.152,-50.781000000000006,-75.684
1626.4665251229999,-20.508000000000003,-28.32,-21.973000000000003,-24.414
1626.466525127,-7.812,-11.719000000000001,-20.02,15.625
1626.466525131,-49.316,-35.645,-42.48,-46.875
1626.466525135,-61.035,-39.062,-46.387,-86.914
1626.466525139,-43.457,-23.926,-29.296999999999997,-51.758
1626.4665251420001,-20.508000000000003,-16.602,-17.578,-13.672
1626.466525146,-50.781000000000006,-36.133,-51.27,-41.504
1626.46652515,-80.078,-57.129,-56.641000000000005,-75.195
1626.466525154,-56.641000000000005,-41.016000000000005,-23.926,-63.965
1626.466525158,-20.508000000000003,-15.625,-11.719000000000001,-16.602
1626.4665251600002,-39.062,-28.32,-42.968999999999994,-31.25
1626.4665251640001,-65.918,-53.711000000000006,-50.781000000000006,-79.59
1626.466525168,-68.848,-55.176,-38.574,-75.684
1626.4665251720003,-29.296999999999997,-31.25,-17.09,-15.137
1626.466525176,-11.719000000000001,-21.973000000000003,-29.785,-11.719000000000001
1626.46652518,-57.129,-40.527,-52.733999999999995,-83.984
1626.466525184,-65.918,-48.34,-44.434,-87.891
1626.4665251870001,-33.691,-31.738000000000003,-17.09,-37.109
1626.466525191,-6.836,-6.348,-21.484,-17.09
1626.466525195,-39.551,-33.691,-46.387,-69.336
1626.466525199,-63.965,-52.246,-42.48,-90.82
1626.4665252029997,-39.551,-34.668,-25.391,-56.641000000000005
1626.466525205,6.348,-7.812,-11.719000000000001,-9.277000000000001
1626.4665252089999,-20.508000000000003,-16.602,-41.504,-38.574
1626.4665252129998,-65.918,-41.016000000000005,-51.758,-70.801
1626.466525217,-43.945,-39.062,-32.715,-65.918
1626.466525221,-7.812,-19.043,-13.672,-24.414
1626.466525225,-11.23,-11.719000000000001,-27.344,-13.672
1626.466525229,-50.781000000000006,-31.738000000000003,-38.574,-74.219
1626.466525232,-60.059,-46.387,-29.296999999999997,-77.637
1626.466525236,-19.043,-28.32,-18.555,-17.09
1626.46652524,-2.441,-10.254000000000001,-31.25,0.977
1626.466525244,-53.223,-41.992,-43.457,-39.551
1626.466525248,-64.453,-62.5,-40.039,-78.613
1626.46652525,-24.414,-32.227,-14.648,-43.457
1626.4665252539999,-13.184000000000001,-8.301,-10.254000000000001,-1.465
1626.4665252579998,-54.199,-37.109,-43.945,-46.875
1626.466525262,-79.59,-53.711000000000006,-42.968999999999994,-77.637
1626.466525266,-54.688,-37.109,-25.879,-51.27
1626.46652527,-16.113,-11.719000000000001,-18.555,-4.883
1626.4665252739999,-30.273000000000003,-20.02,-46.387,-22.949
1626.4665252770003,-67.87100000000001,-44.922,-44.922,-66.895
1626.466525281,-68.359,-46.387,-35.156,-75.684
1626.466525285,-12.695,-20.02,-27.344,-11.23
1626.466525289,0.977,-20.02,-35.645,2.441
1626.466525293,-41.504,-48.828,-50.781000000000006,-59.082
1626.466525295,-54.199,-48.34,-42.48,-93.262
1626.466525299,-28.32,-30.761999999999997,-17.578,-56.152
1626.466525303,-20.02,-24.901999999999997,-30.273000000000003,-28.809
1626.4665253070002,-57.617,-51.758,-66.895,-96.68
1626.4665253110002,-69.336,-56.641000000000005,-69.824,-125.977
1626.4665253150001,-50.293,-22.949,-49.316,-101.074
1626.466525319,-23.438000000000002,4.883,-31.738000000000003,-59.082
1626.466525322,-75.684,-31.738000000000003,-62.988,-107.91
1626.466525326,-124.023,-59.082,-79.59,-150.879
1626.46652533,-86.914,-37.109,-56.152,-96.68
1626.466525334,-41.992,-2.93,-26.366999999999997,-21.484
1626.4665253379999,-59.082,-19.043,-48.828,-36.133
1626.4665253399999,-92.773,-55.176,-71.289,-99.609
1626.4665253439998,-79.59,-45.898,-50.293,-85.449
1626.4665253479998,-31.738000000000003,-13.672,-32.227,-24.901999999999997
1626.4665253520002,-17.578,-11.23,-58.593999999999994,-17.578
1626.466525356,-66.406,-47.852,-67.87100000000001,-67.87100000000001
1626.4665253599999,-82.031,-41.992,-45.41,-84.961
1626.4665253639998,-33.691,-10.742,-22.461,-25.879
1626.466525367,-16.113,-13.184000000000001,-25.391,6.836
1626.466525371,-55.176,-40.527,-43.945,-56.641000000000005
1626.466525375,-73.242,-51.27,-46.875,-78.613
1626.466525379,-52.246,-36.621,-37.109,-46.387
1626.4665253829999,-21.484,-21.484,-34.18,4.883
1626.466525385,-46.387,-41.992,-60.547,-31.25
1626.466525389,-68.359,-55.663999999999994,-59.082,-90.82
1626.466525393,-29.296999999999997,-43.945,-31.738000000000003,-61.523
1626.4665253970002,4.883,-15.625,-14.16,13.672
1626.4665254010001,-15.625,-16.113,-38.574,-5.859
1626.466525405,-43.945,-38.086,-44.434,-70.312
1626.4665254089998,-41.016000000000005,-41.016000000000005,-36.133,-67.87100000000001
1626.4665254120002,-3.418,-25.391,-13.184000000000001,-6.348
1626.4665254160002,-7.324,-17.578,-24.901999999999997,6.348
1626.4665254200002,-47.852,-45.898,-51.758,-52.733999999999995
1626.466525424,-49.805,-45.898,-39.551,-64.453
1626.466525428,-15.625,-26.366999999999997,-7.812,-26.855
1626.466525431,11.719000000000001,-15.625,-3.418,10.742
1626.466525435,-28.32,-33.203,-42.968999999999994,-31.25
1626.466525439,-50.293,-45.41,-54.688,-52.246
1626.466525443,-20.996,-27.831999999999997,-29.296999999999997,-11.23
1626.466525447,4.395,-8.789,-9.277000000000001,29.296999999999997
1626.466525451,-5.859,-22.461,-39.062,-22.461
1626.466525455,-47.363,-45.898,-60.547,-62.5
1626.466525458,-50.781000000000006,-44.434,-29.785,-33.691
1626.4665254620002,15.625,-14.648,5.859,19.043
1626.4665254660001,5.859,-25.391,-24.901999999999997,2.441
1626.46652547,-60.547,-64.453,-55.176,-59.57
1626.466525474,-51.27,-63.477,-37.109,-68.848
1626.4665254749998,-4.395,-27.344,-4.883,-9.277000000000001
1626.4665254789998,5.859,-14.16,-20.508000000000003,21.484
1626.4665254829997,-30.761999999999997,-46.387,-48.34,-38.574
1626.4665254870001,-48.34,-55.663999999999994,-46.387,-54.199
1626.466525491,-17.578,-20.508000000000003,-7.812,-11.23
1626.4665254949998,9.277000000000001,0.977,-1.953,20.996
1626.4665254989998,-28.32,-36.133,-50.781000000000006,-34.668
1626.4665255020002,-60.547,-63.965,-51.758,-67.87100000000001
1626.4665255060002,-32.715,-46.875,-21.484,-27.344
1626.4665255099999,5.371,-17.09,-13.184000000000001,17.09
1626.4665255139998,-25.391,-29.785,-43.945,-19.531
1626.4665255179998,-67.87100000000001,-57.129,-50.293,-71.777
1626.466525535,-57.129,-53.223,-30.761999999999997,-67.87100000000001
1626.466525539,-9.766,-27.831999999999997,-9.766,-11.719000000000001
1626.466525543,-19.043,-29.785,-38.574,-8.301
1626.4665255470002,-71.289,-56.641000000000005,-62.012,-54.199
1626.4665255510001,-68.848,-61.523,-47.852,-60.059
1626.466525555,-18.066,-31.738000000000003,-18.555,-20.508000000000003
1626.466525559,-8.789,-23.926,-18.555,-11.23
1626.466525562,-56.641000000000005,-59.57,-37.109,-58.105
1626.466525566,-70.312,-67.383,-37.109,-72.266
1626.46652557,-40.527,-60.547,-20.996,-46.875
1626.466525574,-20.996,-39.551,-9.277000000000001,-5.371
1626.4665255779998,-54.199,-56.152,-41.504,-25.879
1626.4665255799998,-82.52,-74.707,-49.316,-60.547
1626.4665255839998,-55.663999999999994,-49.805,-23.926,-52.733999999999995
1626.4665255879997,-5.859,-22.461,-12.695,3.906
1626.466525592,-20.02,-35.645,-36.621,-6.348
1626.4665255959999,-60.059,-67.87100000000001,-46.387,-59.082
1626.4665255999998,-59.57,-62.988,-37.598,-68.848
1626.4665256039998,-13.184000000000001,-29.785,-2.93,-11.719000000000001
1626.4665256070002,-0.488,-28.809,-10.742,11.719000000000001
1626.466525611,-53.711000000000006,-51.27,-43.457,-43.945
1626.466525615,-58.593999999999994,-58.593999999999994,-35.156,-66.895
1626.4665256189999,-0.488,-20.508000000000003,-3.906,-6.348
1626.4665256229998,1.953,-2.441,-24.414,16.602
1626.466525625,-49.805,-40.527,-54.199,-59.57
1626.466525629,-60.547,-54.688,-41.016000000000005,-81.055
1626.466525633,-23.926,-36.621,-17.578,-34.668
1626.4665256370001,3.418,-11.23,-10.742,11.23
1626.466525641,-36.133,-30.273000000000003,-40.527,-31.25
1626.466525645,-56.641000000000005,-47.852,-47.852,-74.707
1626.466525649,-7.812,-33.691,-34.18,-40.039
1626.4665256520002,22.949,-12.695,-7.324,20.02
1626.4665256560002,-24.414,-26.855,-31.738000000000003,-27.344
1626.4665256600001,-70.312,-61.035,-52.733999999999995,-78.613
1626.466525664,-62.5,-53.711000000000006,-30.761999999999997,-66.406
1626.466525668,-42.968999999999994,-25.879,-2.93,-28.32
1626.466525671,-44.434,-24.901999999999997,-19.531,-20.996
1626.466525675,-90.82,-47.852,-44.922,-87.891
1626.466525679,-117.676,-53.711000000000006,-34.18,-116.211
1626.4665256829999,-76.172,-40.039,-18.066,-58.593999999999994
1626.466525687,-43.945,-31.25,-25.391,-11.23
1626.466525691,-69.336,-44.434,-39.062,-62.012
1626.466525695,-93.262,-54.688,-35.645,-92.285
1626.466525698,-78.613,-54.688,-19.043,-74.707
1626.4665257020001,-26.366999999999997,-29.785,-6.348,-42.48
1626.466525706,-34.18,-40.527,-47.363,-64.453
1626.46652571,-70.312,-65.918,-52.246,-88.867
1626.466525714,-59.57,-61.523,-24.414,-73.242
1626.466525715,-9.766,-26.855,-12.695,-17.578
1626.466525719,-4.883,-16.113,-38.086,-20.508000000000003
1626.466525723,-57.129,-43.945,-54.688,-83.984
1626.4665257270003,-63.965,-50.293,-48.828,-91.79700000000001
1626.466525731,-16.602,-32.715,-16.113,-41.992
1626.466525735,0.488,-26.855,-18.555,-17.578
1626.4665257389997,-42.48,-49.805,-46.387,-53.223
1626.4665257420002,-62.988,-54.688,-42.48,-68.848
1626.4665257460001,-22.949,-35.645,-15.137,-21.484
1626.46652575,1.465,-27.344,-13.672,11.719000000000001
1626.466525754,-41.016000000000005,-51.758,-55.176,-41.016000000000005
1626.466525758,-59.082,-61.035,-46.875,-56.152
1626.46652576,-36.621,-43.945,-12.695,-35.645
1626.466525764,1.465,-21.973000000000003,5.371,6.348
1626.4665257679999,-27.344,-36.621,-27.831999999999997,-17.09
1626.466525772,-62.5,-59.082,-44.922,-59.082
1626.466525776,-45.41,-54.688,-23.438000000000002,-40.039
1626.46652578,-18.555,-22.949,3.418,8.789
1626.466525784,-22.461,-21.973000000000003,-23.438000000000002,2.441
1626.4665257870001,-63.965,-61.035,-48.34,-46.875
1626.466525791,-67.87100000000001,-66.406,-30.761999999999997,-55.176
1626.466525795,-25.879,-38.574,-7.812,-24.414
1626.466525799,-15.625,-33.691,-23.438000000000002,-12.695
1626.466525803,-57.617,-62.5,-57.617,-60.059
1626.4665258050002,-72.75399999999999,-62.012,-41.504,-63.965
1626.466525809,-33.691,-38.086,-4.395,-18.555
1626.4665258129999,0.0,-23.438000000000002,-12.695,7.812
1626.466525817,-36.133,-51.758,-48.34,-40.527
1626.466525821,-71.289,-67.383,-34.668,-76.172
1626.466525825,-48.34,-38.574,-5.859,-37.598
1626.466525829,-0.488,-13.672,-2.93,26.366999999999997
1626.4665258320001,-14.648,-36.133,-33.203,-3.906
1626.466525836,-61.035,-70.312,-36.621,-66.406
1626.4665258399998,-50.781000000000006,-69.824,-24.414,-53.223
1626.4665258439998,-12.207,-25.391,-8.789,-11.719000000000001
1626.4665258479997,-18.555,-19.043,-25.879,-21.484
1626.4665258510001,-59.082,-57.617,-43.945,-71.777
1626.466525855,-67.383,-63.477,-42.968999999999994,-93.75
1626.466525859,-22.461,-30.273000000000003,-24.901999999999997,-54.199
1626.466525863,-8.301,-7.324,-32.227,-27.344
1626.4665258670002,-56.641000000000005,-35.645,-65.43,-75.684
1626.4665258710002,-73.73,-49.316,-61.523,-94.727
1626.466525875,-41.992,-33.203,-47.363,-81.055
1626.4665258779999,-13.672,-8.789,-44.434,-37.109
1626.4665258820003,-42.48,-26.855,-67.87100000000001,-58.105
1626.4665258860002,-85.449,-62.988,-71.777,-110.352
1626.4665258900002,-69.336,-50.781000000000006,-48.828,-97.656
1626.4665258940001,-16.113,-24.901999999999997,-26.855,-42.48
1626.46652591,-27.831999999999997,-29.296999999999997,-48.34,-35.156
1626.466525914,-66.895,-43.945,-62.988,-81.055
1626.466525918,-54.688,-43.945,-45.41,-89.844
1626.466525922,-18.066,-19.043,-7.812,-32.227
1626.466525926,-12.207,-8.301,-26.366999999999997,-7.324
1626.46652593,-52.733999999999995,-44.922,-68.848,-70.312
1626.466525934,-68.359,-60.547,-60.059,-95.215
1626.4665259370001,-21.973000000000003,-40.039,-27.831999999999997,-38.574
1626.4665259409999,11.719000000000001,-22.949,-30.273000000000003,1.465
1626.4665259449998,-25.879,-49.316,-61.523,-50.293
1626.4665259489998,-55.663999999999994,-69.336,-53.711000000000006,-79.102
1626.4665259529997,-32.715,-53.223,-26.366999999999997,-43.457
1626.466525955,-0.488,-22.949,-11.719000000000001,5.859
1626.466525959,-16.113,-23.926,-44.434,-12.695
1626.4665259629999,-44.922,-40.039,-51.27,-54.199
1626.466525967,-37.598,-42.48,-24.901999999999997,-54.199
1626.466525971,1.465,-17.09,-8.789,-2.441
1626.466525975,-11.23,-13.184000000000001,-42.968999999999994,-10.254000000000001
1626.466525979,-47.852,-45.898,-60.059,-51.27
1626.4665259820001,-41.992,-61.035,-37.598,-55.663999999999994
1626.466525986,-10.742,-39.062,-16.113,-18.066
1626.46652599,3.906,-22.949,-34.668,8.301
1626.466525994,-36.621,-55.176,-64.453,-41.992
1626.466525998,-56.152,-65.918,-55.663999999999994,-71.289
1626.466526,-22.949,-46.387,-16.602,-25.391
1626.466526004,-1.465,-33.691,-15.625,9.766
1626.4665260079998,-41.504,-52.246,-45.41,-49.805
1626.466526012,-56.152,-63.965,-39.062,-83.008
1626.466526016,-36.621,-40.039,-18.066,-64.453
1626.46652602,-11.23,-15.625,-12.207,-12.695
1626.466526024,-28.32,-38.574,-46.875,-32.227
1626.466526027,-68.848,-69.824,-48.828,-80.566
1626.466526031,-62.5,-63.965,-29.785,-71.289
1626.466526035,-13.672,-45.898,-18.066,-14.648
1626.466526039,-12.207,-39.551,-37.598,1.465
1626.466526043,-57.129,-58.105,-49.316,-48.34
1626.4665260450001,-62.012,-62.988,-31.25,-51.27
1626.466526049,-17.09,-38.574,-8.789,0.0
1626.466526053,-3.906,-29.296999999999997,-19.043,7.324
1626.4665260570002,-55.663999999999994,-64.453,-44.922,-37.598
1626.4665260610002,-69.824,-73.73,-36.133,-47.363
1626.4665260650002,-22.949,-41.992,-5.859,-11.23
1626.466526069,9.277000000000001,-18.066,3.418,37.109
1626.466526072,-21.484,-45.41,-37.598,-7.812
1626.466526076,-62.5,-68.848,-47.363,-62.988
1626.46652608,-40.527,-42.968999999999994,-21.484,-51.758
1626.466526084,11.23,-3.418,-8.789,2.93
1626.466526088,3.906,-20.996,-41.992,-0.977
1626.46652609,-10.254000000000001,-49.316,-51.27,-26.366999999999997
1626.4665260939998,0.0,-33.691,-30.761999999999997,-21.973000000000003
1626.4665260979998,44.922,3.418,-12.695,16.602
1626.4665261020002,62.988,8.301,-34.668,33.203
1626.466526106,18.555,-20.508000000000003,-49.805,-8.301
1626.46652611,21.973000000000003,-13.672,-28.32,3.418
1626.4665261139999,65.43,8.301,-7.324,56.641000000000005
1626.466526117,87.402,13.672,-16.602,76.66
1626.466526121,53.711000000000006,-17.09,-42.968999999999994,38.574
1626.466526125,18.555,-40.527,-35.156,20.508000000000003
1626.466526129,43.945,-23.438000000000002,-7.812,44.434
1626.466526133,77.637,0.977,0.0,84.473
1626.466526136,38.574,-20.508000000000003,-35.156,44.922
1626.46652614,-0.977,-44.434,-41.504,13.672
1626.466526144,19.043,-41.504,-21.484,23.926
1626.4665261479997,65.918,-14.648,-3.418,65.918
1626.4665261520001,43.457,-11.719000000000001,-21.973000000000003,55.176
1626.466526156,0.0,-34.668,-31.738000000000003,2.93
1626.46652616,2.441,-46.387,-27.344,6.836
1626.4665261629998,35.645,-33.203,-15.137,41.016000000000005
1626.466526167,44.434,-15.137,-21.973000000000003,48.34
1626.466526171,1.465,-43.457,-44.434,2.93
1626.466526175,-14.648,-54.688,-35.156,-9.766
1626.4665261789999,22.461,-33.691,-13.184000000000001,26.855
1626.46652618,41.992,-16.602,-18.066,51.758
1626.466526184,7.324,-34.668,-40.039,11.23
1626.466526188,-18.066,-52.246,-30.761999999999997,-10.254000000000001
1626.4665261920002,-1.953,-36.133,-17.09,12.695
1626.4665261960001,42.48,-5.859,-14.648,52.246
1626.4665262,22.949,-15.625,-30.761999999999997,14.16
1626.466526204,-14.16,-50.293,-42.48,-32.227
1626.466526207,-1.465,-46.387,-28.809,-21.484
1626.466526211,33.203,-18.066,-0.488,20.508000000000003
1626.466526215,30.273000000000003,-27.831999999999997,-27.831999999999997,19.531
1626.466526219,-4.395,-56.641000000000005,-56.152,-27.831999999999997
1626.4665262229998,-9.277000000000001,-55.663999999999994,-41.016000000000005,-35.645
1626.4665262249998,25.879,-20.02,-10.254000000000001,14.16
1626.4665262289998,42.48,-7.812,-17.578,36.133
1626.4665262329997,4.395,-40.527,-40.527,-15.137
1626.4665262370002,-33.691,-51.758,-36.621,-45.898
1626.466526241,-27.344,-26.366999999999997,-20.02,-41.504
1626.4665262449998,-9.277000000000001,-0.488,-21.484,-16.113
1626.4665262489998,-46.387,-20.02,-50.781000000000006,-48.34
1626.466526252,-67.383,-37.598,-42.968999999999994,-80.078
1626.466526256,-47.852,-26.855,-23.926,-56.152
1626.46652626,-14.648,-10.742,-22.461,-7.812
1626.4665262639999,-33.691,-29.296999999999997,-47.852,-28.809
1626.4665262679998,-63.965,-52.733999999999995,-51.758,-73.242
1626.466526285,-61.523,-42.48,-36.621,-64.941
1626.466526289,-25.879,-16.113,-16.602,-14.648
1626.466526293,-23.926,-16.602,-38.574,-13.672
1626.4665262970002,-70.312,-43.945,-51.27,-58.105
1626.4665263010002,-74.219,-45.898,-34.18,-58.593999999999994
1626.4665263050001,-21.484,-16.113,-7.324,-15.137
1626.466526309,-0.488,-6.348,-15.137,-2.441
1626.466526312,-46.387,-37.109,-45.898,-43.457
1626.466526316,-75.195,-50.781000000000006,-48.34,-54.199
1626.46652632,-40.527,-37.598,-28.809,-23.438000000000002
1626.466526324,-7.812,-4.883,-9.277000000000001,16.113
1626.4665263279999,-54.199,-15.625,-34.18,-25.879
1626.4665263299999,-82.52,-49.316,-48.34,-75.684
1626.4665263339998,-56.152,-46.875,-27.344,-49.805
1626.4665263379998,-18.066,-11.719000000000001,0.0,-5.371
1626.466526342,-28.32,-20.02,-28.809,-19.043
1626.466526346,-52.733999999999995,-47.852,-39.551,-49.316
1626.4665263499999,-24.901999999999997,-31.738000000000003,-23.926,-50.781000000000006
1626.4665263539998,16.602,-5.371,-14.648,-8.789
1626.466526357,10.254000000000001,-10.742,-31.25,0.488
1626.466526361,-35.645,-46.387,-51.758,-60.059
1626.466526365,-50.293,-56.152,-47.852,-81.543
1626.466526369,-1.465,-23.438000000000002,-17.578,-28.809
1626.4665263729999,18.066,-3.418,-18.066,5.371
1626.4665263760003,-32.715,-33.691,-49.316,-45.41
1626.46652638,-51.27,-45.898,-47.852,-66.895
1626.4665263839997,-20.508000000000003,-23.438000000000002,-23.926,-32.715
1626.4665263879997,16.113,-1.465,-8.301,19.043
1626.466526392,-16.113,-20.02,-37.598,-6.348
1626.466526396,-58.105,-44.922,-47.363,-48.828
1626.4665264,-41.992,-38.086,-23.438000000000002,-43.457
1626.466526403,3.418,-16.113,1.465,-0.488
1626.4665264070002,-1.953,-20.508000000000003,-30.273000000000003,-20.508000000000003
1626.466526411,-31.738000000000003,-47.852,-51.758,-60.547
1626.4665264149999,-17.578,-53.223,-31.25,-38.574
1626.4665264189998,-1.465,-38.086,-1.953,-9.277000000000001
1626.46652642,-20.996,-32.227,-9.766,-20.996
1626.466526424,-86.426,-70.801,-34.668,-94.727
1626.466526428,-120.117,-89.844,-33.691,-110.84
1626.4665264320001,-93.262,-70.312,-6.348,-69.336
1626.466526436,-84.961,-54.199,-0.488,-59.082
1626.46652644,-119.141,-75.684,-19.531,-116.699
1626.466526444,-153.32,-100.586,-10.254000000000001,-150.391
1626.466526447,-152.344,-99.609,-5.371,-119.141
1626.466526451,-125.488,-81.055,-5.371,-83.008
1626.466526455,-148.92600000000002,-94.238,-26.366999999999997,-119.62899999999999
1626.4665264589999,-171.387,-116.699,-30.273000000000003,-140.625
1626.4665264629998,-161.621,-105.469,-10.254000000000001,-137.207
1626.466526465,-111.816,-78.125,12.695,-78.125
1626.466526469,-93.262,-75.684,-9.766,-49.805
1626.4665264729997,-125.0,-95.70299999999999,-37.598,-114.74600000000001
1626.4665264770003,-123.04700000000001,-100.586,-24.901999999999997,-123.04700000000001
1626.4665264809998,-82.031,-76.66,8.789,-55.663999999999994
1626.4665264849998,-56.641000000000005,-55.176,8.789,-46.875
1626.4665264889998,-92.285,-70.801,-23.926,-96.191
1626.4665264920002,-122.07,-85.449,-32.227,-101.56200000000001
1626.4665264960001,-84.961,-64.453,-9.766,-64.941
1626.4665265,-53.711000000000006,-43.457,-10.254000000000001,-26.855
1626.466526504,-93.75,-70.801,-40.039,-66.895
1626.4665265079998,-107.42200000000001,-88.867,-35.156,-91.309
1626.46652651,-84.961,-70.312,-8.789,-60.059
1626.466526514,-49.805,-38.574,-12.695,-22.949
1626.466526518,-60.547,-50.781000000000006,-51.27,-33.691
1626.466526522,-93.75,-77.148,-38.574,-76.66
1626.466526526,-88.37899999999999,-70.312,-7.324,-67.383
1626.46652653,-40.527,-41.016000000000005,10.254000000000001,-16.113
1626.466526534,-39.551,-38.574,-15.625,-14.648
1626.4665265370002,-79.59,-62.988,-31.25,-52.246
1626.4665265410001,-66.895,-65.43,-16.113,-55.176
1626.466526545,-31.25,-47.852,-2.93,-22.949
1626.466526549,-19.531,-33.203,-12.695,-8.789
1626.466526553,-52.733999999999995,-50.293,-28.809,-47.363
1626.466526555,-61.035,-66.895,-24.414,-68.848
1626.466526559,-35.645,-54.199,-20.02,-37.109
1626.466526563,-12.695,-39.551,-28.809,-2.93
1626.466526567,-29.785,-58.593999999999994,-40.039,-20.996
1626.466526571,-58.105,-70.801,-27.344,-43.945
1626.466526575,-33.203,-43.457,-12.695,-41.992
1626.466526579,-0.488,-29.785,-3.418,-3.906
1626.466526582,-22.949,-43.945,-22.949,-10.742
1626.4665265859999,-52.246,-53.223,-35.156,-63.477
1626.4665265899998,-52.246,-52.246,-33.203,-73.242
1626.4665265939998,-24.414,-39.551,-22.949,-21.484
1626.4665265979997,-11.719000000000001,-33.203,-34.18,-3.906
1626.466526615,-43.945,-47.852,-42.968999999999994,-33.691
1626.466526619,-52.246,-54.688,-32.715,-40.527
1626.466526623,-22.949,-40.527,-15.625,-11.23
1626.4665266270001,-7.812,-29.296999999999997,-15.625,3.418
1626.466526631,-36.621,-39.551,-36.621,-40.527
1626.466526635,-63.477,-47.363,-33.203,-53.711000000000006
1626.466526639,-49.805,-41.016000000000005,-24.414,-39.062
1626.4665266420002,-25.391,-27.344,-28.32,-14.648
1626.4665266460001,-43.945,-33.691,-39.062,-35.645
1626.46652665,-74.707,-59.57,-35.156,-66.895
1626.466526654,-52.733999999999995,-55.663999999999994,-22.461,-40.527
1626.466526658,5.859,-21.973000000000003,-7.324,18.555
1626.46652666,-9.766,-22.949,-31.738000000000003,-8.789
1626.466526664,-65.43,-53.711000000000006,-49.805,-75.684
1626.466526668,-62.5,-48.828,-45.41,-67.87100000000001
1626.466526672,-10.742,-20.996,-27.344,-6.348
1626.466526676,9.277000000000001,-8.301,-33.691,-7.812
1626.46652668,-33.691,-31.25,-54.199,-55.663999999999994
1626.466526684,-41.016000000000005,-43.457,-50.781000000000006,-59.57
1626.466526687,-3.906,-26.366999999999997,-23.926,-38.574
1626.466526691,14.648,-10.254000000000001,-27.831999999999997,-6.348
1626.4665266949999,-20.996,-36.133,-66.895,-34.668
1626.4665266989998,-42.48,-54.688,-58.593999999999994,-51.758
1626.4665267029998,-16.113,-30.273000000000003,-20.508000000000003,-15.625
1626.466526705,28.32,-2.441,-16.602,17.09
1626.466526709,4.883,-19.531,-52.246,-9.766
1626.466526713,-33.691,-48.34,-51.27,-45.898
1626.466526717,-21.484,-43.457,-29.785,-39.551
1626.466526721,12.695,-12.695,-10.254000000000001,18.555
1626.466526725,0.488,-13.672,-32.227,14.16
1626.466526729,-36.133,-43.945,-52.733999999999995,-51.27
1626.4665267320001,-43.457,-52.733999999999995,-33.691,-52.246
1626.466526736,-22.949,-30.273000000000003,-10.254000000000001,-6.348
1626.46652674,-7.324,-22.949,-25.391,6.348
1626.466526744,-40.039,-47.852,-46.875,-45.898
1626.466526748,-53.223,-56.152,-43.457,-69.824
1626.46652675,-23.926,-35.156,-20.02,-32.715
1626.466526754,4.395,-7.812,-17.09,7.812
1626.4665267579999,-25.879,-24.414,-51.758,-28.32
1626.466526762,-51.27,-48.828,-54.688,-59.57
1626.466526766,-35.645,-43.945,-28.32,-45.898
1626.46652677,-11.23,-15.625,-11.23,-18.066
1626.466526774,-31.738000000000003,-28.809,-36.621,-36.621
1626.4665267770001,-72.266,-53.223,-40.039,-82.031
1626.466526781,-70.801,-43.457,-22.949,-79.59
1626.466526785,-32.227,-29.785,-12.207,-23.438000000000002
1626.466526789,-21.973000000000003,-29.296999999999997,-22.949,-7.812
1626.466526793,-53.711000000000006,-54.199,-33.691,-31.25
1626.4665267950002,-52.246,-54.199,-35.645,-47.363
1626.4665267990001,-8.301,-27.344,-23.438000000000002,-46.875
1626.466526803,23.438000000000002,-7.812,-22.949,-11.719000000000001
1626.4665268070003,-12.207,-28.809,-44.434,-50.293
1626.4665268110002,-24.414,-44.434,-48.828,-54.199
1626.466526815,9.277000000000001,-17.09,-30.273000000000003,-8.301
1626.466526819,46.875,9.277000000000001,-19.043,24.901999999999997
1626.466526822,31.25,-10.742,-42.968999999999994,24.414
1626.466526826,9.766,-26.855,-46.387,13.672
1626.46652683,44.434,-15.625,-26.366999999999997,36.133
1626.466526834,88.37899999999999,8.301,-13.184000000000001,85.449
1626.4665268379997,76.66,-1.953,-37.109,72.266
1626.4665268410001,50.293,-27.831999999999997,-41.992,40.527
1626.466526845,51.758,-23.926,-25.879,30.761999999999997
1626.466526849,77.637,-1.953,-8.789,60.059
1626.466526853,87.402,-6.348,-25.879,61.035
1626.4665268570002,44.922,-34.18,-40.039,4.883
1626.4665268610001,15.625,-35.156,-31.25,-8.789
1626.466526865,52.733999999999995,-17.578,-17.09,31.738000000000003
1626.4665268679998,68.359,-4.395,-21.973000000000003,55.176
1626.4665268720003,23.926,-19.531,-45.41,2.93
1626.4665268760002,-1.465,-41.016000000000005,-51.27,-20.02
1626.4665268800002,8.301,-36.133,-37.598,-0.977
1626.466526884,31.25,-16.602,-17.09,38.086
1626.466526885,5.859,-21.973000000000003,-31.738000000000003,13.184000000000001
1626.4665268889999,-30.761999999999997,-41.992,-39.062,-27.344
1626.4665268929998,-3.906,-35.156,-18.555,-5.859
1626.466526897,36.621,-15.625,3.906,39.062
1626.466526901,24.901999999999997,-24.414,-21.973000000000003,12.695
1626.466526905,-12.207,-36.621,-39.551,-27.344
1626.4665269089999,-27.344,-37.109,-30.273000000000003,-24.901999999999997
1626.4665269120003,3.418,-26.855,-12.695,1.953
1626.466526916,18.066,-20.996,-23.438000000000002,17.09
1626.46652692,-18.066,-43.945,-45.898,-12.207
1626.466526924,-27.344,-51.758,-38.086,-30.273000000000003
1626.466526928,6.348,-30.273000000000003,-19.531,-9.277000000000001
1626.46652693,26.366999999999997,-18.066,-24.414,24.901999999999997
1626.466526934,-17.578,-40.039,-39.062,-15.137
1626.466526938,-53.711000000000006,-57.129,-33.203,-42.968999999999994
1626.4665269420002,-35.156,-52.246,-28.32,-19.531
1626.4665269460002,3.906,-27.344,-21.484,21.484
1626.4665269500001,-0.977,-30.273000000000003,-31.738000000000003,3.906
1626.466526954,-39.062,-52.733999999999995,-35.156,-38.086
1626.466526957,-38.086,-47.363,-24.901999999999997,-26.366999999999997
1626.466526961,9.277000000000001,-15.625,-12.207,18.555
1626.466526965,-0.488,-18.066,-37.598,7.324
1626.466526969,-62.012,-60.059,-60.059,-49.805
1626.4665269729999,-62.988,-58.593999999999994,-43.457,-43.457
1626.46652699,-17.578,-27.344,-22.461,-9.766
1626.4665269939999,-16.113,-19.043,-32.715,-21.973000000000003
1626.4665269979998,-52.246,-41.992,-46.875,-62.012
1626.466527002,-61.523,-48.34,-42.48,-59.57
1626.466527006,-27.831999999999997,-28.32,-19.043,-20.996
1626.46652701,0.977,-13.672,-15.625,7.324
1626.466527014,-29.785,-33.203,-45.41,-19.043
1626.466527017,-50.293,-57.617,-49.805,-51.27
1626.466527021,-31.25,-47.852,-38.086,-41.992
1626.466527025,3.906,-24.414,-26.855,5.859
1626.466527029,-17.09,-30.273000000000003,-44.922,-9.277000000000001
1626.466527033,-46.875,-43.457,-50.781000000000006,-57.129
1626.4665270350001,-31.25,-46.387,-42.48,-58.593999999999994
1626.466527039,-2.441,-30.273000000000003,-23.438000000000002,-20.02
1626.466527043,-4.395,-25.879,-33.691,-13.184000000000001
1626.4665270470002,-41.504,-48.828,-44.922,-45.41
1626.4665270510002,-41.016000000000005,-51.27,-40.039,-59.57
1626.4665270550001,4.883,-16.602,-17.578,-22.461
1626.466527059,13.672,-6.348,-24.414,-6.836
1626.466527062,-29.296999999999997,-42.48,-46.387,-45.41
1626.466527066,-47.363,-53.711000000000006,-40.039,-60.059
1626.46652707,-36.133,-44.922,-44.434,-46.387
1626.466527074,-18.555,-27.831999999999997,-52.733999999999995,-17.09
1626.466527078,-35.156,-42.968999999999994,-60.059,-41.504
1626.466527081,-63.965,-56.152,-47.363,-65.43
1626.466527085,-54.688,-44.922,-28.809,-57.129
1626.466527089,-14.648,-24.414,-16.113,-16.602
1626.466527093,-29.296999999999997,-36.621,-36.621,-27.831999999999997
1626.4665270970002,-70.312,-68.848,-47.852,-70.312
1626.466527101,-65.43,-52.733999999999995,-33.691,-63.477
1626.466527105,-21.484,-20.508000000000003,-16.113,-15.137
1626.4665271079998,0.977,-25.879,-34.668,-14.16
1626.4665271120002,-38.086,-54.688,-56.152,-64.941
1626.4665271160002,-48.828,-54.199,-43.945,-60.059
1626.46652712,-5.859,-27.831999999999997,-22.949,-26.855
1626.4665271239999,5.859,-12.695,-28.809,-1.953
1626.466527125,-36.621,-32.715,-46.387,-46.387
1626.466527129,-57.617,-52.733999999999995,-44.922,-63.477
1626.466527133,-31.738000000000003,-38.574,-24.901999999999997,-34.18
1626.4665271370002,-11.23,-17.578,-12.695,1.953
1626.4665271410001,-37.598,-30.761999999999997,-36.133,-28.809
1626.4665271449999,-69.824,-48.828,-46.875,-77.637
1626.4665271489998,-76.66,-46.875,-31.25,-61.523
1626.4665271520003,-28.809,-22.949,-8.789,-14.16
1626.4665271560002,-38.086,-36.621,-32.715,-33.691
1626.4665271600002,-72.266,-69.824,-45.41,-67.383
1626.4665271640001,-57.617,-63.477,-30.273000000000003,-58.593999999999994
1626.466527168,-23.926,-39.551,-10.742,-21.973000000000003
1626.46652717,-17.578,-34.18,-17.578,-8.789
1626.466527174,-65.918,-59.082,-37.109,-63.477
1626.466527178,-72.266,-65.918,-31.738000000000003,-78.613
1626.4665271820002,-38.086,-44.922,-14.16,-40.527
1626.4665271860001,-7.812,-24.901999999999997,-12.207,-14.16
1626.46652719,-28.809,-34.668,-34.18,-40.039
1626.466527194,-59.57,-50.781000000000006,-37.598,-61.523
1626.466527197,-51.27,-46.875,-23.926,-42.968999999999994
1626.466527201,-16.602,-27.344,-17.578,-1.465
1626.466527205,-28.809,-36.621,-40.527,-30.273000000000003
1626.4665272089999,-65.43,-53.711000000000006,-35.156,-71.289
1626.4665272129998,-55.176,-52.246,-21.973000000000003,-47.852
1626.4665272149998,-12.695,-31.25,-22.461,-3.418
1626.4665272189998,-11.719000000000001,-24.414,-38.574,-17.578
1626.4665272229997,-54.688,-50.293,-46.387,-66.895
1626.4665272270001,-60.547,-53.711000000000006,-36.133,-74.219
1626.4665272309999,-21.973000000000003,-27.831999999999997,-17.09,-32.227
1626.4665272349998,-14.648,-17.09,-26.855,-12.207
1626.4665272389998,-52.733999999999995,-36.133,-45.41,-41.016000000000005
1626.4665272420002,-64.453,-47.363,-44.434,-63.965
1626.466527246,-32.715,-28.809,-22.461,-37.109
1626.46652725,-16.113,-14.648,-18.066,-6.348
1626.4665272539999,-41.016000000000005,-35.645,-43.945,-47.363
1626.4665272579998,-67.87100000000001,-56.641000000000005,-45.898,-75.195
1626.46652726,-52.246,-41.992,-34.18,-51.27
1626.466527264,-0.977,-11.719000000000001,-18.066,0.977
1626.466527268,-26.366999999999997,-17.578,-29.296999999999997,-27.344
1626.4665272720001,-69.336,-46.875,-32.715,-62.5
1626.466527276,-72.75399999999999,-50.293,-30.761999999999997,-62.5
1626.46652728,-42.968999999999994,-21.973000000000003,-21.484,-30.761999999999997
1626.466527284,-19.531,-18.066,-38.086,-18.066
1626.4665272870002,-57.129,-53.711000000000006,-52.733999999999995,-68.359
1626.4665272910001,-79.102,-62.5,-45.41,-74.707
1626.466527295,-44.434,-41.016000000000005,-32.227,-41.016000000000005
1626.466527299,-14.16,-30.761999999999997,-28.32,-23.438000000000002
1626.466527303,-56.152,-53.711000000000006,-44.922,-60.059
1626.4665273199998,-76.172,-57.129,-39.062,-76.172
1626.4665273239998,-46.387,-36.133,-11.719000000000001,-45.41
1626.4665273279998,-13.672,-20.02,-7.812,-5.371
1626.466527332,-41.016000000000005,-42.48,-36.133,-42.968999999999994
1626.466527336,-74.219,-59.57,-41.504,-76.172
1626.4665273399999,-41.504,-41.016000000000005,-31.25,-45.898
1626.4665273439998,11.23,-13.184000000000001,-19.531,-3.418
1626.466527347,-3.906,-21.973000000000003,-34.18,-20.508000000000003
1626.466527351,-51.27,-44.922,-42.48,-61.035
1626.466527355,-49.805,-50.293,-34.668,-49.805
1626.4665273589999,-17.09,-39.062,-12.695,-10.742
1626.4665273629998,-15.625,-31.738000000000003,-22.949,-9.277000000000001
1626.46652735,-60.547,-52.733999999999995,-42.48,-51.27
1626.466527354,-72.75399999999999,-62.988,-38.086,-75.195
1626.466527358,-24.414,-30.761999999999997,-15.625,-31.738000000000003
1626.4665273620003,2.441,-12.207,-16.113,5.371
1626.4665273660003,-51.758,-42.968999999999994,-41.504,-50.781000000000006
1626.46652737,-74.219,-54.688,-44.434,-69.824
1626.4665273739997,-34.668,-36.621,-26.855,-39.551
1626.4665273770001,3.906,-20.996,-12.207,-12.695
1626.466527381,-31.738000000000003,-47.852,-36.133,-51.27
1626.466527385,-78.125,-72.75399999999999,-51.27,-77.637
1626.466527389,-67.87100000000001,-65.43,-38.086,-62.5
1626.466527393,-35.156,-39.062,-21.484,-18.555
1626.46652741,-35.156,-35.156,-46.387,-17.09
1626.466527414,-70.312,-50.781000000000006,-44.434,-68.359
1626.466527418,-67.87100000000001,-49.805,-28.32,-73.73
1626.4665274220001,-25.879,-33.691,-19.043,-29.296999999999997
1626.466527426,-28.809,-29.296999999999997,-28.809,-31.738000000000003
1626.46652743,-72.75399999999999,-54.199,-44.922,-82.031
1626.466527434,-75.684,-70.312,-34.668,-87.402
1626.466527437,-35.156,-46.387,-15.625,-55.176
1626.466527441,-7.324,-14.648,-23.438000000000002,-27.831999999999997
1626.4665274449999,-42.48,-41.992,-56.641000000000005,-62.988
1626.4665274489998,-69.336,-70.312,-59.082,-83.984
1626.4665274529998,-30.761999999999997,-51.27,-23.926,-55.663999999999994
1626.466527455,4.883,-25.879,-8.789,-8.789
1626.466527459,-73.242,-54.199,-53.711000000000006,-57.617
1626.466527463,-125.488,-86.426,-53.711000000000006,-112.79299999999999
1626.466527467,-102.539,-81.543,-14.16,-107.91
1626.466527471,-81.543,-56.641000000000005,9.277000000000001,-85.93799999999999
1626.4665274749998,-98.145,-52.733999999999995,-18.555,-100.098
1626.4665274789998,-157.715,-75.195,-32.715,-156.738
1626.4665274820002,-185.05900000000003,-88.867,-32.715,-176.27
1626.4665274860001,-155.273,-81.543,-13.672,-149.90200000000002
1626.46652749,-177.24599999999998,-68.359,-3.418,-142.09
1626.466527494,-221.19099999999997,-85.449,-28.32,-179.199
1626.466527498,-226.074,-95.70299999999999,-36.133,-203.613
1626.4665275,-187.5,-79.59,-13.672,-160.156
1626.466527504,-133.30100000000002,-60.059,-5.371,-91.79700000000001
1626.466527508,-150.879,-76.66,-21.973000000000003,-113.77
1626.466527512,-166.50400000000002,-85.93799999999999,-26.366999999999997,-144.043
1626.466527516,-135.74200000000002,-61.035,-15.625,-121.58200000000001
1626.46652752,-92.773,-32.227,11.719000000000001,-64.453
1626.466527524,-105.469,-44.434,-9.766,-86.914
1626.4665275270002,-149.90200000000002,-74.707,-30.273000000000003,-133.789
1626.466527531,-139.16,-71.777,-20.996,-114.74600000000001
1626.466527535,-70.312,-50.781000000000006,6.836,-61.035
1626.466527539,-70.801,-54.688,-9.277000000000001,-57.617
1626.466527543,-112.305,-85.449,-39.551,-97.16799999999999
1626.466527546,-100.098,-90.82,-36.621,-94.727
1626.46652755,-54.688,-56.641000000000005,-14.16,-62.012
1626.4665275539999,-32.227,-28.32,-15.137,-32.715
1626.4665275579998,-71.289,-60.547,-39.551,-71.289
1626.466527562,-93.75,-82.031,-33.203,-103.027
1626.466527566,-62.012,-56.152,-8.789,-73.73
1626.46652757,-18.555,-30.273000000000003,-5.859,-26.855
1626.466527573,-54.199,-62.988,-41.504,-43.945
1626.466527577,-79.102,-81.055,-41.992,-67.383
1626.466527581,-51.758,-55.663999999999994,-21.484,-65.43
1626.466527585,-11.23,-28.809,-6.836,-10.742
1626.466527589,-14.16,-35.156,-26.855,-11.719000000000001
1626.46652759,-37.109,-63.477,-36.133,-59.082
1626.466527594,-44.922,-65.918,-22.461,-52.246
1626.4665275979999,-6.836,-34.668,-6.348,2.93
1626.4665276020003,4.395,-28.809,-26.366999999999997,-0.488
1626.466527606,-62.988,-57.129,-46.875,-57.617
1626.46652761,-84.473,-57.617,-41.504,-66.895
1626.466527614,-31.738000000000003,-28.32,-3.906,-36.621
1626.466527617,-12.695,-16.602,1.465,-12.207
1626.466527621,-67.87100000000001,-52.246,-39.062,-59.082
1626.466527625,-100.098,-71.289,-41.016000000000005,-77.148
1626.466527629,-61.035,-47.852,-24.414,-60.547
1626.466527633,-16.602,-21.973000000000003,-8.301,0.977
1626.466527635,-38.574,-45.41,-34.668,-19.043
1626.4665276389999,-72.75399999999999,-61.523,-43.945,-74.707
1626.4665276429998,-74.219,-44.922,-27.831999999999997,-50.293
1626.466527647,-30.761999999999997,-24.414,-15.625,-6.836
1626.466527651,-23.926,-23.438000000000002,-36.133,-19.043
1626.466527655,-69.824,-42.968999999999994,-46.387,-71.289
1626.466527659,-70.312,-57.617,-23.926,-63.965
1626.466527662,-20.508000000000003,-42.968999999999994,-5.859,-18.066
1626.466527666,11.719000000000001,-20.996,-27.831999999999997,-0.488
1626.46652767,-26.855,-42.968999999999994,-44.922,-36.133
1626.466527674,-69.336,-62.988,-37.109,-70.801
1626.466527678,-39.062,-44.922,-13.672,-29.785
1626.4665276800001,-4.395,-19.531,-6.836,30.761999999999997
1626.466527684,-33.691,-46.875,-40.039,-21.973000000000003
1626.466527688,-52.733999999999995,-68.359,-44.434,-63.477
1626.4665276920002,-31.25,-41.016000000000005,-19.531,-35.645
1626.4665276960002,1.953,-7.812,2.93,19.043
1626.4665277000001,-12.695,-23.926,-26.366999999999997,-12.207
1626.466527704,-63.477,-57.129,-42.48,-64.453
1626.466527707,-60.547,-47.852,-32.715,-48.34
1626.466527711,-13.184000000000001,-15.625,-16.113,1.465
1626.466527715,-6.348,-25.879,-27.344,-5.371
1626.466527719,-57.129,-62.5,-43.457,-64.453
1626.466527723,-57.617,-65.43,-31.738000000000003,-57.129
1626.466527726,-6.836,-36.133,-3.418,-15.625
1626.46652773,-12.207,-27.831999999999997,-20.508000000000003,-13.672
1626.466527734,-67.383,-53.711000000000006,-48.34,-62.5
1626.466527738,-85.93799999999999,-65.43,-47.852,-83.984
1626.4665277420002,-58.593999999999994,-41.504,-30.273000000000003,-48.828
1626.466527746,-48.828,-11.23,-15.137,-14.648
1626.46652775,-66.406,-36.621,-52.733999999999995,-62.012
1626.4665277529998,-91.79700000000001,-66.406,-60.547,-91.79700000000001
1626.4665277570002,-85.93799999999999,-55.176,-25.879,-60.547
1626.4665277610002,-32.715,-25.391,-4.883,-10.742
1626.4665277650001,-50.781000000000006,-28.809,-36.133,-38.574
1626.466527769,-90.33200000000001,-47.363,-49.316,-78.125
1626.4665277850002,-72.75399999999999,-46.387,-30.761999999999997,-58.593999999999994
1626.466527789,-26.855,-19.531,-3.906,-20.02
1626.466527793,-38.086,-7.324,-24.414,-10.254000000000001
1626.4665277970003,-76.66,-38.086,-47.852,-48.828
1626.4665278010002,-75.684,-49.805,-42.48,-62.5
1626.4665278050002,-34.18,-20.996,-21.973000000000003,-21.973000000000003
1626.4665278090001,-3.418,-4.395,-10.254000000000001,3.418
1626.466527812,-57.617,-32.227,-25.391,-36.621
1626.466527816,-75.195,-47.363,-28.32,-63.965
1626.46652782,-28.809,-38.086,-12.207,-30.273000000000003
1626.466527824,1.953,-10.742,-7.812,10.254000000000001
1626.466527828,-39.551,-25.391,-44.434,-36.133
1626.46652783,-65.918,-46.875,-41.504,-77.637
1626.4665278339999,-40.039,-36.133,-18.066,-57.129
1626.4665278379998,-2.441,-11.23,-7.812,-0.488
1626.466527842,-20.02,-19.043,-37.109,-23.438000000000002
1626.466527846,-61.523,-53.223,-51.27,-71.777
1626.46652785,-46.387,-46.875,-27.344,-66.406
1626.4665278539999,-26.366999999999997,-13.672,5.859,-19.531
1626.466527857,-22.461,-16.602,-20.02,-12.207
1626.466527861,-55.176,-53.223,-58.593999999999994,-77.148
1626.466527865,-71.777,-53.223,-52.246,-85.93799999999999
1626.466527869,-24.901999999999997,-23.438000000000002,-21.973000000000003,-28.809
1626.466527873,-2.93,-11.719000000000001,-17.578,1.465
1626.466527875,-40.527,-37.109,-40.527,-47.363
1626.4665278789998,-58.593999999999994,-49.805,-43.457,-70.312
1626.4665278829998,-34.668,-31.25,-19.531,-27.344
1626.466527887,1.465,-13.184000000000001,1.953,19.043
1626.466527891,-5.859,-30.761999999999997,-22.949,-19.531
1626.466527895,-45.898,-47.363,-37.109,-41.992
1626.4665278989999,-54.199,-42.968999999999994,-28.32,-37.598
1626.4665279020003,-12.695,-14.16,-1.953,-1.953
1626.4665279060002,-13.184000000000001,-12.207,-23.926,-0.977
1626.4665279100002,-55.176,-56.641000000000005,-46.387,-56.641000000000005
1626.466527914,-53.223,-55.176,-27.344,-44.434
1626.4665279179999,-4.395,-22.949,1.953,7.324
1626.46652792,0.488,-17.578,-9.277000000000001,10.742
1626.466527924,-31.738000000000003,-36.621,-42.48,-34.668
1626.466527928,-41.016000000000005,-45.898,-47.852,-62.012
1626.4665279320002,-25.391,-28.32,-25.879,-32.227
1626.4665279360001,16.113,-8.789,-17.09,20.996
1626.46652794,-18.066,-34.18,-43.945,-32.715
1626.466527944,-46.387,-53.223,-41.992,-79.59
1626.466527947,-38.574,-49.805,-20.508000000000003,-70.312
1626.466527951,-2.93,-24.414,-16.113,-24.414
1626.466527955,-2.93,-25.879,-36.621,-23.438000000000002
1626.466527959,-47.852,-58.105,-46.387,-64.941
1626.4665279629999,-52.246,-62.988,-36.621,-60.547
1626.4665279649998,-4.883,-27.831999999999997,-16.602,-15.625
1626.4665279689998,21.484,-19.043,-30.761999999999997,-12.695
1626.4665279729998,-29.296999999999997,-51.27,-37.598,-59.082
1626.4665279770002,-59.082,-66.406,-32.227,-66.895
1626.466527981,-18.555,-37.109,-15.137,-31.738000000000003
1626.4665279849999,5.859,-12.207,-16.113,-5.371
1626.4665279889998,-39.551,-37.598,-35.645,-50.293
1626.466527992,-66.406,-46.387,-37.109,-65.43
1626.466527996,-46.875,-30.761999999999997,-24.901999999999997,-26.855
1626.466528,-1.953,-9.277000000000001,-14.648,14.16
1626.4665280039999,-3.906,-24.414,-38.574,-24.901999999999997
1626.4665280079998,-39.062,-52.733999999999995,-36.621,-55.663999999999994
1626.46652801,-26.366999999999997,-32.227,-15.137,-38.574
1626.466528014,2.93,-7.812,-7.324,6.348
1626.466528018,-20.02,-18.066,-30.273000000000003,1.465
1626.4665280220001,-61.523,-40.527,-49.805,-53.223
1626.466528026,-48.828,-37.598,-36.621,-57.129
1626.46652803,6.836,0.0,-6.836,-11.23
1626.466528034,-3.418,-5.371,-27.831999999999997,0.0
1626.4665280370002,-53.711000000000006,-43.457,-49.805,-39.551
1626.4665280410002,-47.363,-38.574,-37.598,-53.223
1626.4665280450001,-7.812,-18.066,-16.602,-19.531
1626.466528049,11.23,-10.254000000000001,-20.02,4.883
1626.466528053,-16.602,-37.109,-52.246,-27.831999999999997
1626.466528055,-48.828,-53.223,-45.41,-48.34
1626.466528059,-20.508000000000003,-37.109,-13.184000000000001,-24.901999999999997
1626.466528063,14.16,-11.719000000000001,-3.418,4.883
1626.4665280670001,-31.738000000000003,-24.414,-29.296999999999997,-20.996
1626.466528071,-52.733999999999995,-44.922,-29.296999999999997,-45.898
1626.466528075,-15.137,-23.438000000000002,-10.254000000000001,-36.621
1626.466528079,-0.977,-3.418,-7.812,-3.418
1626.466528082,-20.508000000000003,-23.438000000000002,-23.926,-3.906
1626.466528086,-43.457,-41.504,-30.273000000000003,-40.039
1626.4665280899999,-46.875,-43.945,-36.621,-59.57
1626.4665280939998,-27.831999999999997,-29.785,-21.484,-24.901999999999997
1626.4665280979998,-25.879,-28.32,-29.785,-4.395
1626.4665281,-62.5,-53.223,-47.363,-43.945
1626.466528104,-68.359,-52.733999999999995,-31.25,-68.359
1626.4665281079997,-17.09,-28.32,-15.137,-34.668
1626.4665281120003,13.184000000000001,-17.578,-22.949,-6.348
1626.466528116,-21.973000000000003,-40.527,-42.48,-41.016000000000005
1626.4665281199998,-51.758,-48.828,-39.062,-57.617
1626.4665281239998,-20.508000000000003,-33.203,-21.484,-34.18
1626.4665281270002,14.648,-22.949,-9.766,4.883
1626.4665281310001,-22.949,-33.691,-27.344,-30.273000000000003
1626.466528135,-43.945,-48.828,-39.062,-74.219
1626.466528139,-29.296999999999997,-43.945,-29.296999999999997,-62.012
1626.4665281429998,0.977,-19.043,-9.277000000000001,-29.296999999999997
1626.46652816,-10.742,-28.32,-30.273000000000003,-29.785
1626.466528164,-47.852,-62.5,-43.457,-60.059
1626.466528168,-34.18,-59.082,-32.227,-53.223
1626.4665281720002,-0.488,-28.32,-7.812,-16.113
1626.466528176,11.23,-26.855,-13.672,-16.602
1626.46652818,-45.41,-54.688,-40.039,-55.663999999999994
1626.466528184,-66.895,-62.988,-40.527,-62.5
1626.466528187,-3.418,-35.156,-22.949,-39.062
1626.466528191,14.16,-15.137,-26.855,-19.043
1626.466528195,-48.34,-58.593999999999994,-56.641000000000005,-55.176
1626.4665281989999,-70.801,-81.543,-47.363,-83.49600000000001
1626.4665282029998,-41.016000000000005,-48.828,-13.672,-47.363
1626.466528205,-27.831999999999997,-21.484,-9.277000000000001,-11.23
1626.4665282089998,-45.41,-40.527,-44.434,-34.18
1626.4665282129997,-67.87100000000001,-59.082,-46.875,-47.852
1626.466528217,-51.27,-61.035,-24.414,-31.738000000000003
1626.4665282209999,-6.348,-40.527,-4.883,0.977
1626.4665282249998,-20.508000000000003,-30.761999999999997,-30.761999999999997,3.418
1626.4665282289998,-59.57,-50.781000000000006,-47.363,-36.621
1626.4665282320002,-55.176,-50.293,-34.18,-62.012
1626.4665282360002,-18.555,-23.926,-15.625,-25.391
1626.4665282400001,-18.066,-21.973000000000003,-20.508000000000003,4.883
1626.4665282439998,-55.176,-45.41,-39.062,-55.663999999999994
1626.4665282479998,-66.895,-52.733999999999995,-40.039,-82.031
1626.46652825,-46.875,-32.227,-17.578,-35.156
1626.466528254,-17.09,-11.23,4.395,16.113
1626.466528258,-24.414,-27.344,-32.715,-23.438000000000002
1626.466528262,-71.289,-51.27,-58.105,-71.777
1626.466528266,-73.242,-50.781000000000006,-31.25,-66.895
1626.46652827,-13.672,-17.578,-9.277000000000001,-12.695
1626.466528274,-26.855,-22.949,-32.227,-12.695
1626.4665282770002,-70.801,-48.34,-42.48,-62.988
1626.4665282810001,-62.012,-36.621,-32.715,-68.359
1626.466528285,-20.996,-12.207,-6.348,-19.531
1626.466528289,-23.438000000000002,-12.695,-17.578,-6.348
1626.466528293,-83.49600000000001,-41.016000000000005,-40.039,-58.105
1626.466528295,-89.355,-43.945,-33.203,-70.801
1626.466528299,-41.992,-21.484,-14.648,-30.761999999999997
1626.466528303,-33.203,-8.301,-18.066,3.418
1626.466528307,-52.246,-29.785,-47.363,-41.504
1626.466528311,-49.805,-43.945,-47.363,-71.777
1626.466528315,-20.996,-22.949,-19.043,-41.504
1626.466528319,-6.348,13.184000000000001,-6.836,-10.742
1626.466528322,-43.945,-12.207,-45.41,-36.133
1626.466528326,-47.363,-49.316,-52.246,-81.543
1626.4665283299998,-25.879,-33.691,-20.508000000000003,-60.059
1626.4665283339998,7.324,-2.93,-6.836,11.23
1626.4665283379998,12.207,-4.395,-30.273000000000003,-6.836
1626.4665283379998,12.207,-4.395,-30.273000000000003,-6.836
1626.46652834,-31.25,-22.949,-38.574,-61.523
1626.466528344,-29.296999999999997,-25.391,-29.785,-57.129
1626.4665283479999,9.277000000000001,3.418,-1.953,-5.371
1626.4665283520003,18.555,11.23,-17.578,13.184000000000001
1626.466528356,-26.855,-27.831999999999997,-49.316,-51.27
1626.46652836,-44.922,-25.391,-34.668,-57.617
1626.466528364,-16.602,-0.977,-15.137,-11.23
1626.4665283670001,1.953,-4.883,-21.484,5.859
1626.466528371,-25.391,-25.879,-36.621,-33.203
1626.466528375,-50.781000000000006,-40.039,-35.645,-58.105
1626.466528379,-45.41,-38.574,-22.949,-36.621
1626.466528383,-19.043,-14.648,-18.066,-6.836
1626.466528385,-34.18,-18.555,-34.668,-23.438000000000002
1626.466528389,-70.801,-46.387,-35.645,-57.617
1626.4665283929999,-59.57,-37.109,-19.531,-76.66
1626.466528397,-6.836,-0.977,9.766,-21.484
1626.466528401,-19.531,-11.719000000000001,-13.672,10.742
1626.466528405,-66.406,-37.598,-43.457,-50.293
1626.466528409,-66.895,-42.48,-49.805,-68.359
1626.4665284120001,-24.414,-22.949,-28.809,-18.555
1626.466528416,-14.16,-5.371,-28.32,2.441
1626.46652842,-61.035,-32.715,-41.504,-56.152
1626.466528424,-62.5,-47.852,-28.809,-69.336
1626.466528428,-26.855,-27.831999999999997,-12.695,-24.901999999999997
1626.466528433,-15.137,-3.418,-20.508000000000003,-4.883
1626.466528437,-50.293,-27.344,-47.852,-49.316
1626.466528441,-63.477,-50.293,-45.41,-69.824
1626.466528445,-45.898,-32.227,-22.949,-50.293
1626.466528449,9.277000000000001,2.441,-13.184000000000001,1.953
1626.466528453,-20.508000000000003,-12.695,-45.41,-15.137
1626.466528457,-79.59,-46.875,-56.152,-64.941
1626.46652846,-69.336,-39.551,-34.18,-70.801
1626.466528464,-18.066,-4.395,-12.207,-13.184000000000001
1626.466528468,-0.488,-6.348,-37.598,-11.719000000000001
1626.4665284720002,-54.199,-42.968999999999994,-46.875,-62.988
1626.4665284760001,-73.73,-49.805,-37.598,-62.012
1626.466528475,-37.109,-13.672,-15.137,-19.531
1626.4665284789999,-9.766,2.441,-5.371,12.695
1626.4665284829998,-52.733999999999995,-26.855,-37.109,-33.691
1626.4665284870002,-78.613,-42.48,-50.781000000000006,-65.918
1626.4665284910002,-31.738000000000003,-26.855,-18.066,-25.879
1626.466528495,-2.93,-1.953,-11.719000000000001,16.602
1626.4665284989999,-46.875,-28.809,-53.711000000000006,-19.531
1626.466528502,-83.008,-49.805,-51.758,-62.988
1626.466528506,-50.781000000000006,-35.645,-24.901999999999997,-40.527
1626.46652851,-2.441,-21.973000000000003,-12.207,11.23
1626.466528514,-12.695,-20.996,-38.574,-14.16
1626.466528518,-44.922,-32.715,-42.968999999999994,-56.152
1626.4665285350002,-27.344,-38.086,-30.761999999999997,-53.223
1626.4665285390001,13.672,-10.254000000000001,-11.23,3.418
1626.466528543,10.742,-6.348,-22.461,4.883
1626.4665285470003,-31.25,-42.968999999999994,-48.34,-55.176
1626.466528551,-45.41,-46.875,-43.457,-80.078
1626.466528555,-0.977,-11.719000000000001,-10.254000000000001,-37.598
1626.466528559,12.207,9.766,-20.02,-5.859
1626.4665285620001,-33.691,-18.555,-47.363,-56.152
1626.466528566,-41.504,-36.621,-36.621,-79.59
1626.46652857,-17.578,-28.32,-26.855,-45.41
1626.466528574,14.16,-9.277000000000001,-23.926,1.953
1626.4665285779997,-8.301,-20.02,-41.992,-31.738000000000003
1626.46652858,-49.805,-41.016000000000005,-39.551,-78.125
1626.466528584,-32.227,-32.715,-19.043,-61.523
1626.4665285879998,-4.883,-4.883,0.488,-0.488
1626.466528592,-34.18,-13.184000000000001,-20.996,-11.719000000000001
1626.466528596,-55.176,-44.922,-45.41,-64.453
1626.4665286,-55.176,-48.34,-33.691,-67.383
1626.466528604,-30.761999999999997,-22.461,-4.883,-11.23
1626.466528607,-8.301,-21.973000000000003,-17.578,4.883
1626.466528611,-62.5,-50.781000000000006,-41.504,-45.41
1626.466528615,-92.285,-64.941,-33.203,-63.965
1626.466528619,-41.016000000000005,-41.992,-5.371,-17.09
1626.466528623,-4.883,-12.695,-9.766,43.945
1626.466528625,-41.992,-40.039,-38.574,2.93
1626.4665286289999,-73.73,-63.477,-36.133,-49.316
1626.4665286329998,-59.082,-44.434,-16.113,-27.344
1626.466528637,-8.301,-20.996,-1.953,4.883
1626.466528641,-18.066,-33.691,-27.831999999999997,-18.555
1626.466528645,-47.363,-40.039,-33.691,-41.504
1626.4665286489999,-37.109,-31.25,-24.414,-41.992
1626.466528652,-11.23,-21.973000000000003,-7.812,-4.395
1626.466528656,-6.348,-21.973000000000003,-27.831999999999997,-13.184000000000001
1626.46652866,-47.852,-45.41,-48.828,-72.266
1626.466528664,-46.875,-45.898,-39.062,-72.266
1626.466528668,4.883,-20.996,-14.648,-25.879
1626.4665286700001,11.719000000000001,-9.277000000000001,-31.738000000000003,-15.625
1626.466528674,-35.645,-39.551,-59.082,-58.593999999999994
1626.466528678,-49.805,-58.105,-40.527,-83.984
1626.4665286820002,-12.207,-33.691,-6.836,-54.199
1626.4665286860002,-0.977,-8.789,-6.836,-2.93
1626.4665286900001,-48.34,-21.484,-31.738000000000003,-27.831999999999997
1626.466528694,-64.453,-41.504,-32.227,-52.733999999999995
1626.466528697,-50.293,-48.34,-22.949,-38.574
1626.466528701,-18.555,-21.973000000000003,-11.719000000000001,-1.465
1626.466528705,-35.156,-25.391,-39.062,-24.414
1626.466528709,-85.93799999999999,-53.223,-45.898,-60.547
1626.466528713,-74.219,-53.223,-28.809,-48.34
1626.4665287149999,-31.25,-19.043,-5.859,8.301
1626.4665287189998,-36.133,-9.277000000000001,-20.996,7.324
1626.4665287229998,-64.941,-41.504,-34.18,-47.363
1626.4665287270002,-58.105,-50.781000000000006,-29.296999999999997,-46.387
1626.466528731,-27.831999999999997,-30.273000000000003,-17.578,-13.184000000000001
1626.4665287349999,-30.761999999999997,-11.23,-20.996,7.324
1626.4665287389998,-64.941,-39.062,-48.34,-38.574
1626.466528742,-74.219,-66.406,-46.875,-67.383
1626.466528746,-41.016000000000005,-44.434,-15.137,-31.25
1626.46652875,3.418,-14.648,-3.418,12.207
1626.466528754,-28.809,-36.133,-43.945,-18.555
1626.4665287579999,-71.289,-68.359,-52.733999999999995,-61.035
1626.466528761,-53.223,-50.293,-23.438000000000002,-53.223
1626.466528765,1.465,-12.207,-10.742,-11.23
1626.466528769,-13.184000000000001,-24.901999999999997,-42.968999999999994,-29.296999999999997
1626.4665287729997,-54.688,-52.733999999999995,-50.293,-77.148
1626.4665287770001,-45.898,-43.945,-28.32,-71.777
1626.466528781,8.789,-10.254000000000001,-0.488,-3.418
1626.466528785,13.672,-4.883,-23.926,5.371
1626.4665287879998,-36.621,-42.48,-57.617,-45.898
1626.466528792,-48.828,-51.758,-41.016000000000005,-55.176
1626.466528796,-1.953,-15.625,-12.695,-15.625
1626.4665287999999,9.277000000000001,-1.953,-15.137,18.555
1626.4665288039998,-52.733999999999995,-38.574,-41.016000000000005,-32.715
1626.466528805,-64.941,-49.805,-41.992,-67.87100000000001
1626.466528809,-17.578,-23.926,-16.113,-38.574
1626.466528813,14.648,3.906,-11.719000000000001,13.672
1626.4665288170002,-25.391,-14.16,-42.968999999999994,-16.113
1626.466528821,-64.453,-40.039,-39.551,-58.593999999999994
1626.466528825,-52.733999999999995,-25.391,-15.137,-39.551
1626.466528829,-14.648,-0.488,-4.395,7.812
1626.466528832,-28.32,-17.578,-39.551,-5.371
1626.466528836,-66.406,-43.457,-56.152,-60.547
1626.46652884,-89.844,-42.48,-35.156,-64.453
1626.4665288439999,-28.32,-15.625,-2.93,-14.648
1626.4665288479998,6.348,-3.418,-16.602,-10.254000000000001
1626.4665288499998,-49.805,-27.344,-48.34,-58.593999999999994
1626.4665288539998,-83.008,-41.504,-43.457,-80.078
1626.4665288579997,-35.645,-23.438000000000002,-11.719000000000001,-44.434
1626.4665288620001,8.789,-2.441,-14.648,-4.395
1626.466528866,-44.434,-27.831999999999997,-46.387,-56.641000000000005
1626.4665288699998,-69.336,-39.551,-42.48,-94.727
1626.4665288739998,-45.41,-24.414,-19.043,-54.688
1626.4665288770002,-5.859,-3.418,-1.953,2.441
1626.466528881,-21.484,-14.16,-42.968999999999994,-48.828
1626.466528885,-50.781000000000006,-35.645,-61.035,-88.37899999999999
1626.4665288889998,-40.039,-34.18,-38.574,-54.688
1626.4665288929998,8.789,-10.742,-17.09,-13.184000000000001
1626.46652891,0.488,-0.977,-41.016000000000005,-33.203
1626.466528914,-48.34,-28.809,-60.059,-81.543
1626.466528918,-58.105,-41.504,-43.457,-69.824
1626.4665289220002,-20.508000000000003,-14.16,-14.16,-25.879
1626.4665289260001,6.836,8.789,-29.296999999999997,-3.418
1626.46652893,-30.273000000000003,-15.625,-53.711000000000006,-50.293
1626.466528934,-76.66,-40.527,-42.48,-72.266
1626.466528937,-52.246,-22.949,-18.555,-22.949
1626.466528941,12.207,3.418,-20.508000000000003,24.901999999999997
1626.466528945,-36.133,-30.273000000000003,-59.082,-23.926
1626.466528949,-70.801,-49.316,-51.27,-63.965
1626.4665289529999,-40.527,-28.809,-24.901999999999997,-37.109
1626.4665289549998,-10.254000000000001,-2.441,-27.344,15.137
1626.4665289589998,-27.344,-16.602,-52.733999999999995,-10.742
1626.4665289629997,-62.5,-47.363,-44.434,-81.055
1626.466528967,-58.593999999999994,-45.41,-17.09,-63.477
1626.466528971,-20.996,-23.438000000000002,4.883,-5.859
1626.4665289749998,-23.438000000000002,-19.531,-21.484,-4.883
1626.4665289789998,-50.293,-46.387,-44.434,-44.922
1626.466528982,-42.968999999999994,-54.688,-30.761999999999997,-67.383
1626.466528986,-3.906,-30.761999999999997,-7.324,-15.137
1626.46652899,13.672,-14.16,-13.184000000000001,24.414
1626.4665289939999,-20.508000000000003,-35.645,-36.621,-29.785
1626.4665289979998,-47.363,-52.733999999999995,-32.715,-52.733999999999995
1626.4665290010003,-8.789,-30.761999999999997,-12.207,-21.973000000000003
1626.4665290050002,25.879,-11.719000000000001,-12.207,4.883
1626.4665290089997,-25.879,-34.668,-44.922,-33.691
1626.4665290129997,-61.523,-46.875,-44.922,-74.219
1626.4665290170003,-28.32,-33.203,-23.438000000000002,-52.733999999999995
1626.466529021,-1.953,-6.836,-7.812,-1.465
1626.466529025,-27.344,-17.578,-35.156,-16.602
1626.466529028,-43.457,-42.48,-45.41,-62.5
1626.4665290320002,-46.387,-42.48,-34.18,-64.453
1626.466529036,-23.926,-32.227,-24.901999999999997,-10.254000000000001
1626.46652904,-20.508000000000003,-32.715,-41.992,-0.977
1626.4665290439998,-62.012,-50.293,-57.129,-45.898
1626.466529045,-71.777,-58.593999999999994,-39.062,-49.316
1626.466529049,-29.296999999999997,-33.691,-5.859,-10.254000000000001
1626.466529053,-16.602,-16.602,-15.625,18.555
1626.4665290570001,-59.57,-45.41,-47.363,-35.156
1626.466529061,-80.078,-58.105,-40.039,-63.965
1626.466529065,-40.527,-30.273000000000003,-21.973000000000003,-31.25
1626.466529069,-4.395,-4.395,-15.625,18.066
1626.466529072,-49.805,-33.691,-48.34,-24.901999999999997
1626.466529076,-77.148,-56.152,-52.733999999999995,-73.242
1626.4665290799999,-48.34,-38.574,-28.809,-54.688
1626.4665290839998,0.977,-10.254000000000001,-18.555,-4.883
1626.4665290879998,-1.465,-16.113,-52.733999999999995,-17.09
1626.46652909,-37.109,-42.968999999999994,-62.5,-67.383
1626.466529094,-48.34,-47.852,-36.133,-62.5
1626.466529098,-6.836,-22.461,-10.254000000000001,-21.973000000000003
1626.4665291020003,7.324,-11.719000000000001,-32.227,-20.996
1626.466529106,-46.875,-46.875,-56.641000000000005,-64.941
1626.4665291099998,-63.965,-49.805,-46.387,-94.238
1626.4665291139997,-34.18,-17.09,-20.508000000000003,-54.688
1626.4665291170002,-15.137,-13.184000000000001,-24.414,-15.137
1626.4665291210001,-63.477,-48.828,-56.152,-67.383
1626.466529125,-89.844,-62.5,-52.246,-90.33200000000001
1626.466529129,-57.617,-43.457,-21.484,-54.199
1626.466529133,-23.438000000000002,-14.16,-6.836,8.789
1626.4665291360002,-52.733999999999995,-30.761999999999997,-45.41,-14.648
1626.4665291400001,-88.37899999999999,-58.105,-48.34,-68.848
1626.466529144,-69.336,-48.828,-26.855,-58.593999999999994
1626.4665291479998,-34.18,-26.366999999999997,-12.695,-5.859
1626.4665291520002,-26.366999999999997,-29.296999999999997,-31.25,4.883
1626.4665291560002,-56.152,-54.688,-33.203,-41.992
1626.4665291600002,-70.312,-55.663999999999994,-23.926,-54.199
1626.466529163,-32.715,-35.156,-17.09,-4.883
1626.466529167,-12.695,-23.438000000000002,-28.32,17.578
1626.466529171,-48.34,-51.27,-46.387,-47.852
1626.466529175,-69.336,-65.918,-41.016000000000005,-70.312
1626.466529179,-33.203,-39.062,-21.973000000000003,-31.738000000000003
1626.4665291800002,-3.906,-12.695,-17.578,9.277000000000001
1626.466529184,-41.992,-35.645,-41.992,-32.227
1626.4665291879999,-45.898,-43.945,-43.945,-79.59
1626.466529192,-23.926,-29.785,-30.761999999999997,-60.059
1626.466529196,8.301,-10.254000000000001,-5.859,1.465
1626.4665292,6.348,-20.996,-30.273000000000003,-27.831999999999997
1626.466529204,-50.293,-52.246,-54.199,-74.707
1626.4665292070001,-51.27,-52.246,-33.691,-68.848
1626.466529211,16.602,-23.926,-7.324,-34.18
1626.4665292149998,-0.977,-27.831999999999997,-26.366999999999997,-31.25
1626.4665292189998,-63.477,-58.593999999999994,-53.223,-69.824
1626.4665292229997,-55.663999999999994,-57.617,-45.41,-64.941
1626.4665292270001,-10.254000000000001,-21.973000000000003,-6.348,-18.066
1626.4665292309999,-1.953,-7.812,-17.09,3.906
1626.4665292349998,-56.641000000000005,-41.992,-44.922,-41.504
1626.4665292389998,-75.195,-57.129,-31.738000000000003,-66.895
1626.4665292429997,-24.414,-33.203,-4.883,-17.09
1626.4665292470002,17.09,1.465,4.883,35.156
1626.466529251,-29.785,-20.02,-33.203,-23.926
1626.4665292539999,-57.129,-50.781000000000006,-48.828,-63.477
1626.4665292579998,-37.109,-41.992,-32.715,-28.809
1626.466529262,-3.906,-15.137,-14.16,14.648
1626.466529266,-25.391,-22.461,-34.668,-14.16
1626.46652927,-63.965,-52.733999999999995,-39.551,-50.781000000000006
1626.466529285,-39.062,-45.41,-22.949,-41.992
1626.466529289,2.441,-8.789,-2.441,3.906
1626.466529293,-0.488,-9.766,-20.02,12.207
1626.466529297,-42.48,-43.945,-41.504,-39.062
1626.466529301,-58.593999999999994,-53.223,-41.504,-57.617
1626.466529305,-17.578,-24.414,-24.414,-28.809
1626.466529309,13.184000000000001,-7.324,-24.901999999999997,5.859
1626.4665293120001,-30.761999999999997,-29.296999999999997,-45.41,-39.062
1626.4665293159999,-46.387,-31.25,-36.621,-66.895
1626.4665293199998,-30.273000000000003,-35.645,-29.296999999999997,-49.316
1626.4665293239998,-4.883,-24.414,-27.831999999999997,-12.207
1626.4665293279998,-18.555,-34.668,-41.992,-35.156
1626.46652933,-50.781000000000006,-56.641000000000005,-40.039,-82.52
1626.466529334,-34.18,-37.109,-22.461,-64.453
1626.4665293379999,15.137,-13.672,-5.371,-6.348
1626.466529342,-15.625,-26.855,-31.25,-10.742
1626.466529346,-68.848,-51.758,-47.363,-69.824
1626.46652935,-57.617,-43.945,-36.133,-79.59
1626.466529354,-16.113,-27.831999999999997,-19.043,-34.668
1626.4665293570001,-10.254000000000001,-29.296999999999997,-39.551,-15.137
1626.466529361,-60.547,-58.105,-68.359,-59.57
1626.466529365,-70.312,-76.172,-58.105,-90.82
1626.466529369,-31.25,-51.27,-19.531,-48.34
1626.466529373,-9.766,-20.02,-10.254000000000001,5.371
1626.466529375,-51.27,-47.363,-54.688,-31.25
1626.466529379,-77.148,-73.242,-51.758,-74.219
1626.4665293829999,-37.598,-48.828,-11.719000000000001,-45.898
1626.466529387,15.625,-16.602,-4.395,9.766
1626.466529391,-5.859,-31.738000000000003,-44.922,-16.113
1626.466529395,-52.733999999999995,-45.41,-54.688,-61.035
1626.466529399,-50.781000000000006,-40.039,-37.598,-73.242
1626.466529402,4.883,-11.23,-15.137,-13.184000000000001
1626.466529406,19.531,-9.277000000000001,-38.086,7.812
1626.46652941,-22.461,-49.316,-56.152,-46.387
1626.466529414,-32.715,-52.246,-34.18,-66.895
1626.466529418,1.953,-25.879,-11.719000000000001,-22.461
1626.4665294200001,7.812,-4.883,-27.344,2.93
1626.466529424,-38.574,-32.715,-55.176,-51.27
1626.466529428,-45.41,-53.223,-44.922,-61.523
1626.4665294320002,-2.93,-30.761999999999997,-16.113,-23.438000000000002
1626.4665294360002,22.949,-7.812,-20.02,14.16
1626.4665294400002,-17.09,-23.926,-59.082,-26.366999999999997
1626.4665294440001,-41.504,-42.968999999999994,-52.246,-64.453
1626.466529447,-39.062,-45.41,-23.438000000000002,-36.133
1626.466529451,-9.277000000000001,-23.926,-20.02,14.16
1626.466529455,-23.438000000000002,-33.691,-42.968999999999994,-14.16
1626.466529459,-69.824,-61.035,-44.922,-50.781000000000006
1626.466529463,-52.733999999999995,-52.733999999999995,-28.32,-40.527
1626.466529465,-20.508000000000003,-22.461,-3.906,7.324
1626.4665294689999,-24.901999999999997,-22.949,-17.578,14.648
1626.4665294729998,-54.688,-52.733999999999995,-40.039,-27.831999999999997
1626.4665294770002,-64.941,-55.176,-41.504,-39.062
1626.466529481,-14.648,-27.831999999999997,-20.996,-2.93
1626.466529485,11.23,-11.719000000000001,-20.02,11.719000000000001
1626.4665294889999,-39.062,-33.691,-37.598,-43.945
1626.466529492,-72.75399999999999,-53.223,-30.761999999999997,-64.453
1626.466529496,-47.852,-51.27,-14.648,-29.296999999999997
1626.4665295,-9.766,-25.879,-19.531,13.672
1626.466529504,-38.574,-34.18,-41.504,-14.16
1626.466529508,-81.543,-54.199,-37.109,-51.758
1626.46652951,-47.852,-37.109,-26.855,-34.668
1626.4665295139998,20.02,-5.859,-7.324,14.16
1626.4665295179998,-2.441,-20.02,-31.738000000000003,-8.301
1626.466529522,-57.129,-51.27,-47.363,-49.316
1626.466529526,-57.617,-53.223,-25.391,-57.129
1626.46652953,-11.719000000000001,-14.16,-5.371,-13.672
1626.4665295339998,-15.137,-12.695,-38.086,-8.789
1626.4665295370003,-69.336,-60.547,-63.965,-72.266
1626.4665295410002,-55.663999999999994,-56.641000000000005,-37.109,-64.941
1626.4665295450002,-22.949,-26.855,-6.348,-18.066
1626.466529549,-24.414,-17.09,-18.555,1.465
1626.4665295529999,-51.758,-42.48,-46.387,-40.527
1626.466529555,-87.891,-61.523,-36.621,-71.289
1626.466529559,-62.988,-42.968999999999994,-20.996,-41.016000000000005
1626.466529563,0.0,-20.996,-14.648,3.906
1626.4665295670002,-33.203,-42.48,-40.527,-17.578
1626.4665295710001,-72.75399999999999,-61.035,-52.733999999999995,-58.105
1626.466529575,-58.105,-43.945,-28.809,-54.199
1626.466529579,-21.484,-13.184000000000001,-10.254000000000001,-4.395
1626.466529582,-21.973000000000003,-20.996,-33.203,-16.113
1626.466529586,-62.5,-48.828,-37.598,-77.148
1626.46652959,-71.289,-52.733999999999995,-31.738000000000003,-85.449
1626.466529594,-20.02,-28.32,-19.043,-32.715
1626.4665295979999,-12.695,-22.461,-30.273000000000003,-10.254000000000001
1626.466529603,-53.223,-41.992,-47.852,-69.336
1626.4665296070002,-48.34,-54.199,-37.598,-80.566
1626.4665296110002,-20.02,-38.086,-12.695,-39.551
1626.466529615,-8.789,-18.555,-20.02,-14.16
1626.4665296189999,-41.016000000000005,-42.968999999999994,-53.711000000000006,-57.129
1626.4665296229998,-66.895,-53.711000000000006,-43.945,-82.031
1626.466529627,-39.551,-40.527,-20.996,-48.828
1626.4665296300002,-12.207,-22.461,-14.648,-10.254000000000001
1626.466529634,-27.831999999999997,-35.156,-42.48,-39.062
1626.4665296379999,-65.43,-63.477,-44.922,-85.93799999999999
1626.4665296420003,-68.848,-58.593999999999994,-26.855,-77.637
1626.4665296460003,-15.625,-22.949,-4.395,-18.066
1626.46652966,-15.625,-20.508000000000003,-29.296999999999997,-11.719000000000001
1626.466529664,-65.43,-56.641000000000005,-46.387,-59.57
1626.466529668,-80.566,-60.547,-32.227,-62.012
1626.4665296720002,-35.156,-32.715,-8.301,-7.812
1626.4665296760002,-22.949,-20.996,-12.695,13.672
1626.4665296800001,-73.73,-46.875,-46.875,-50.781000000000006
1626.466529684,-77.637,-57.129,-39.062,-69.824
1626.466529687,-40.039,-30.761999999999997,0.488,-27.831999999999997
1626.466529691,-24.901999999999997,-17.09,-8.301,-19.043
1626.466529695,-50.293,-46.875,-45.898,-52.246
1626.466529699,-74.707,-61.523,-48.34,-68.848
1626.4665297029999,-47.852,-42.48,-21.973000000000003,-55.176
1626.4665297049999,8.301,-7.324,-2.93,-12.207
1626.4665297089998,-35.645,-23.438000000000002,-32.715,-39.551
1626.4665297129998,-85.449,-55.663999999999994,-41.016000000000005,-76.66
1626.466529717,-52.733999999999995,-52.733999999999995,-20.996,-60.059
1626.466529721,-7.812,-16.602,0.0,-16.602
1626.4665297249999,-10.254000000000001,-7.812,-23.926,-18.066
1626.4665297289998,-59.57,-34.18,-52.733999999999995,-74.219
1626.466529732,-78.125,-41.504,-46.875,-86.914
1626.466529736,-39.062,-23.438000000000002,-20.02,-29.296999999999997
1626.46652974,-24.414,-12.207,-23.926,-9.277000000000001
1626.466529744,-69.824,-37.598,-47.852,-64.941
1626.4665297479999,-74.219,-45.41,-39.551,-83.008
1626.46652975,-35.156,-25.879,-17.09,-43.945
1626.466529754,-8.301,-9.277000000000001,-12.207,1.465
1626.466529758,-47.852,-34.668,-41.504,-21.484
1626.4665297620002,-79.102,-53.711000000000006,-50.293,-50.293
1626.4665297660001,-63.477,-39.551,-35.645,-43.945
1626.46652977,-18.555,-14.16,-14.648,-6.836
1626.466529774,-38.086,-24.901999999999997,-32.227,-18.066
1626.4665297770002,-83.984,-56.152,-44.922,-60.059
1626.4665297810002,-75.195,-53.711000000000006,-31.738000000000003,-59.57
1626.4665297850001,-26.366999999999997,-29.296999999999997,-6.836,-5.859
1626.466529789,-15.137,-32.715,-17.09,5.859
1626.466529793,-57.617,-58.105,-41.504,-47.363
1626.466529795,-62.988,-55.663999999999994,-46.387,-68.848
1626.466529799,-34.668,-26.366999999999997,-20.02,-29.785
1626.466529803,-5.371,-9.766,-8.789,8.789
1626.4665298070001,-42.48,-39.551,-37.109,-46.875
1626.466529811,-78.613,-55.663999999999994,-39.062,-75.684
1626.466529815,-42.968999999999994,-33.691,-16.602,-36.621
1626.466529819,-1.953,-8.301,-6.836,-2.93
1626.466529822,-31.25,-31.25,-45.898,-35.156
1626.466529826,-58.593999999999994,-54.688,-50.781000000000006,-79.59
1626.46652983,-42.968999999999994,-39.551,-21.484,-62.5
1626.4665298339999,-12.695,-9.277000000000001,-4.395,-0.977
1626.4665298379998,-24.901999999999997,-14.648,-32.715,-18.555
1626.466529841,-64.941,-46.387,-51.27,-84.961
1626.466529845,-62.988,-55.176,-36.133,-81.055
1626.466529849,-28.32,-29.785,-14.648,-22.949
1626.4665298529999,-29.785,-26.366999999999997,-36.621,-17.578
1626.466529857,-64.453,-48.828,-54.199,-63.965
1626.466529861,-64.453,-45.41,-37.109,-68.848
1626.466529865,-24.414,-24.901999999999997,-24.901999999999997,-38.086
1626.4665298679997,-1.465,-19.043,-43.457,-8.789
1626.4665298720001,-34.18,-45.41,-58.593999999999994,-51.27
1626.466529876,-62.012,-57.129,-39.062,-82.52
1626.46652988,-37.109,-46.875,-21.484,-51.758
1626.4665298839998,-0.488,-20.508000000000003,-11.719000000000001,0.977
1626.466529885,-15.625,-25.879,-34.668,-24.901999999999997
1626.466529889,-54.688,-47.852,-42.48,-72.75399999999999
1626.466529893,-47.363,-49.805,-35.156,-50.781000000000006
1626.466529897,-11.23,-24.901999999999997,-10.742,1.953
1626.466529901,-14.16,-19.043,-27.344,-12.695
1626.466529905,-41.016000000000005,-45.41,-54.199,-53.711000000000006
1626.466529909,-72.266,-54.688,-50.781000000000006,-57.129
1626.4665299120002,-23.438000000000002,-42.48,-26.855,-31.25
1626.4665299160001,6.836,-24.414,-18.555,-4.883
1626.46652992,-44.434,-41.992,-36.133,-51.758
1626.466529924,-51.27,-54.688,-40.039,-82.031
1626.466529928,-7.812,-35.645,-24.414,-41.016000000000005
1626.46652993,17.578,-18.066,-18.066,-0.488
1626.466529934,-30.273000000000003,-39.551,-44.434,-44.434
1626.466529938,-69.336,-57.617,-38.574,-85.449
1626.466529942,-48.34,-47.363,-10.742,-59.082
1626.466529946,-7.812,-19.043,-8.301,0.977
1626.46652995,-18.555,-24.901999999999997,-36.133,-22.461
1626.466529954,-54.688,-58.593999999999994,-45.41,-80.566
1626.466529957,-51.758,-59.57,-32.715,-61.523
1626.4665299609999,-5.859,-25.391,-12.207,-3.418
1626.4665299649998,-20.508000000000003,-39.551,-27.344,-19.531
1626.4665299689998,-73.242,-77.148,-50.781000000000006,-78.125
1626.4665299729998,-70.801,-71.777,-44.434,-83.008
1626.466529975,-34.668,-42.968999999999994,-18.555,-26.366999999999997
1626.466529979,-19.531,-33.691,-28.32,-2.93
1626.4665299829999,-61.523,-61.523,-47.852,-57.129
1626.4665299870003,-73.242,-72.266,-44.922,-68.359
1626.4665299910002,-44.434,-56.152,-26.855,-40.039
1626.466529995,-21.484,-36.133,-16.602,-16.602
1626.466529999,-48.34,-56.641000000000005,-38.086,-37.598
1626.4665300020001,-83.984,-74.219,-34.668,-69.824
1626.466530006,-58.105,-52.246,-23.438000000000002,-51.758
1626.46653001,-5.371,-25.391,-17.09,3.418
1626.466530014,-28.32,-39.551,-38.086,-23.438000000000002
1626.466530018,-80.078,-64.453,-50.293,-75.195
1626.466530035,-62.012,-55.663999999999994,-41.992,-67.383
1626.466530039,-9.766,-21.484,-13.184000000000001,-19.531
1626.466530043,-3.906,-11.23,-20.508000000000003,-10.742
1626.466530047,-44.434,-47.852,-41.992,-66.895
1626.466530051,-50.293,-57.617,-40.527,-81.055
1626.466530055,-12.695,-22.949,-20.996,-47.363
1626.466530059,-7.812,-6.836,-23.438000000000002,-7.812
1626.466530062,-46.387,-40.039,-44.434,-43.945
1626.466530066,-73.242,-59.57,-55.663999999999994,-83.49600000000001
1626.4665300699999,-65.43,-49.805,-45.41,-47.363
1626.4665300739998,-24.414,-23.926,-23.438000000000002,-15.137
1626.4665300779998,-41.992,-40.039,-45.41,-52.246
1626.46653008,-74.219,-64.941,-42.968999999999994,-86.426
1626.466530084,-65.918,-55.176,-25.391,-70.312
1626.466530088,-34.18,-30.273000000000003,-11.719000000000001,-2.93
1626.466530092,-40.527,-37.598,-34.668,-14.16
1626.466530096,-66.406,-57.617,-49.805,-62.988
1626.4665301,-66.895,-46.387,-36.133,-70.312
1626.466530104,-44.922,-28.32,-18.066,-23.438000000000002
1626.4665301070002,-29.296999999999997,-20.02,-22.461,3.906
1626.466530111,-56.152,-48.828,-39.062,-47.852
1626.466530115,-97.16799999999999,-72.75399999999999,-41.992,-71.289
1626.466530119,-75.195,-56.641000000000005,-19.531,-25.391
1626.466530123,-28.32,-33.691,-19.043,4.395
1626.466530125,-62.988,-48.34,-52.733999999999995,-50.781000000000006
1626.466530129,-98.633,-61.035,-51.758,-73.242
1626.4665301329999,-71.777,-38.574,-21.973000000000003,-44.434
1626.466530137,-31.25,-17.578,-11.719000000000001,1.953
1626.466530141,-62.012,-42.968999999999994,-45.898,-33.691
1626.466530145,-91.309,-56.641000000000005,-50.293,-89.844
1626.466530149,-68.359,-42.968999999999994,-31.25,-65.918
1626.4665301520001,-34.668,-20.508000000000003,-14.648,-12.207
1626.466530156,-41.016000000000005,-23.926,-40.527,-19.531
1626.46653016,-72.75399999999999,-61.523,-58.593999999999994,-60.059
1626.466530164,-76.66,-58.593999999999994,-42.48,-70.312
1626.466530168,-24.414,-29.785,-24.414,-38.574
1626.4665301700002,-8.789,-20.508000000000003,-32.227,-2.93
1626.4665301740001,-59.57,-49.805,-50.781000000000006,-50.781000000000006
1626.466530178,-63.477,-60.547,-49.805,-78.125
1626.4665301820003,-31.25,-42.968999999999994,-28.809,-42.48
1626.466530186,-5.859,-20.996,-14.16,0.488
1626.46653019,-22.461,-38.086,-35.156,-41.504
1626.466530194,-49.316,-48.828,-34.668,-68.359
1626.466530197,-41.504,-38.574,-23.438000000000002,-38.574
1626.466530201,-2.93,-23.438000000000002,-21.484,-3.906
1626.466530205,-18.555,-31.25,-47.363,-19.531
1626.466530209,-58.593999999999994,-53.711000000000006,-50.781000000000006,-66.406
1626.4665302129997,-39.551,-52.246,-26.366999999999997,-52.246
1626.466530215,3.418,-25.391,-8.789,-6.348
1626.4665302189999,-5.371,-24.901999999999997,-37.598,-3.418
1626.4665302229998,-48.34,-56.641000000000005,-55.176,-54.199
1626.4665302270002,-55.176,-62.012,-34.668,-58.593999999999994
1626.466530231,-17.09,-36.133,-5.371,-1.953
1626.466530235,10.742,-14.16,-14.16,25.879
1626.466530239,-37.109,-38.086,-55.663999999999994,-36.621
1626.466530242,-74.707,-58.593999999999994,-59.57,-59.57
1626.466530246,-31.738000000000003,-42.968999999999994,-31.738000000000003,-22.949
1626.46653025,15.625,-11.719000000000001,-14.648,14.648
1626.466530254,-15.137,-31.25,-44.922,-24.901999999999997
1626.466530258,-45.898,-60.547,-57.129,-63.965
1626.46653026,-41.992,-44.922,-35.156,-35.645
1626.4665302639999,9.766,-9.277000000000001,-8.301,5.371
1626.4665302679998,-0.488,-21.484,-44.922,-5.859
1626.466530272,-46.387,-53.711000000000006,-64.941,-50.781000000000006
1626.466530276,-32.227,-47.363,-39.551,-64.941
1626.46653028,7.324,-13.672,-2.441,-9.766
1626.4665302839999,16.113,-8.301,-23.926,4.883
1626.466530287,-36.621,-44.922,-57.129,-50.293
1626.466530291,-56.152,-54.688,-43.945,-72.266
1626.466530295,-6.836,-39.062,-23.438000000000002,-47.852
1626.466530299,17.578,-20.996,-29.296999999999997,-20.996
1626.466530303,-22.461,-38.086,-55.176,-60.547
1626.466530306,-40.039,-46.387,-52.733999999999995,-77.637
1626.46653031,-15.137,-23.926,-34.18,-48.34
1626.4665303139998,12.207,-7.324,-28.809,-2.441
1626.4665303179997,-10.742,-29.785,-63.965,-29.296999999999997
1626.466530322,-41.992,-51.27,-57.617,-65.918
1626.4665303259999,-29.296999999999997,-37.598,-19.531,-48.828
1626.4665303299998,9.766,-10.742,-7.812,1.953
1626.466530333,-5.859,-20.996,-30.761999999999997,3.418
1626.4665303370002,-47.363,-48.828,-35.645,-41.504
1626.4665303410002,-51.27,-62.5,-22.461,-48.828
1626.4665303450001,-15.625,-39.062,-2.93,-13.184000000000001
1626.4665303489999,4.883,-14.648,-13.672,1.465
1626.4665303499999,-30.273000000000003,-38.574,-44.922,-40.527
1626.4665303539998,-52.733999999999995,-60.059,-43.457,-63.477
1626.4665303579998,-18.555,-39.551,-13.184000000000001,-29.785
1626.4665303620002,-6.348,-14.648,-5.859,4.883
1626.4665303660001,-52.246,-43.945,-30.761999999999997,-35.645
1626.4665303699999,-76.172,-58.105,-38.086,-78.125
1626.4665303739998,-50.293,-33.203,-23.438000000000002,-45.41
1626.466530377,-7.812,-14.648,-6.836,7.324
1626.466530381,-34.668,-31.738000000000003,-25.879,-34.668
1626.466530385,-93.262,-58.105,-36.133,-70.801
1626.466530389,-59.082,-52.246,-30.761999999999997,-64.941
1626.4665303929999,-6.348,-21.484,-16.113,-22.461
1626.4665304100001,-25.879,-13.672,-30.273000000000003,-16.113
1626.466530414,-65.43,-44.922,-48.828,-80.566
1626.466530418,-73.242,-58.105,-38.574,-69.336
1626.4665304220002,-33.691,-26.855,-7.324,-22.461
1626.4665304260002,-3.906,-8.301,-20.508000000000003,-21.484
1626.4665304300001,-47.363,-35.156,-50.781000000000006,-67.383
1626.466530434,-65.43,-47.852,-36.621,-69.336
1626.466530437,-30.761999999999997,-24.414,-6.348,-27.831999999999997
1626.466530441,5.371,-0.977,-12.207,-0.488
1626.466530445,-20.996,-33.203,-53.223,-38.574
1626.466530449,-54.199,-56.641000000000005,-60.059,-65.43
1626.466530453,-31.25,-41.992,-31.25,-43.945
1626.4665304549999,6.836,-14.648,-14.648,-6.348
1626.4665304589998,-19.531,-17.578,-48.34,-17.578
1626.4665304629998,-64.453,-47.363,-52.246,-51.758
1626.466530467,-59.082,-50.293,-28.32,-46.387
1626.466530471,-19.531,-21.973000000000003,-9.277000000000001,-0.488
1626.466530475,-8.789,-5.371,-28.32,8.789
1626.4665304789999,-53.711000000000006,-28.809,-55.663999999999994,-39.551
1626.466530482,-64.941,-49.805,-48.828,-65.43
1626.466530486,-19.531,-34.18,-18.066,-22.949
1626.46653049,-7.324,-14.648,-22.949,5.859
1626.466530494,-41.016000000000005,-40.039,-47.852,-40.527
1626.4665304979999,-58.105,-62.5,-41.992,-67.383
1626.4665305,-41.992,-46.875,-18.066,-39.062
1626.466530504,1.953,-31.738000000000003,-13.672,5.859
1626.466530508,-37.109,-44.922,-36.621,-29.296999999999997
1626.4665305120002,-79.102,-58.105,-38.574,-56.641000000000005
1626.466530516,-38.086,-47.852,-16.602,-44.434
1626.4665305199999,1.465,-11.23,-1.465,-9.277000000000001
1626.4665305239998,-22.461,-18.555,-47.852,-20.508000000000003
1626.4665305270003,-61.523,-54.688,-54.199,-72.75399999999999
1626.4665305310002,-75.195,-59.57,-29.785,-82.031
1626.4665305350002,-24.901999999999997,-37.598,-12.207,-43.457
1626.4665305390001,-4.395,-19.043,-20.02,-30.273000000000003
1626.466530543,-53.223,-46.387,-44.922,-81.055
1626.466530545,-49.316,-55.176,-39.062,-80.078
1626.466530549,-20.508000000000003,-28.32,-15.625,-27.344
1626.466530553,-2.441,-15.137,-9.277000000000001,11.719000000000001
1626.4665305570002,-30.273000000000003,-41.992,-39.551,-30.273000000000003
1626.4665305610001,-53.223,-60.059,-50.293,-66.406
1626.466530565,-29.785,-39.551,-25.879,-41.992
1626.466530569,1.953,-7.812,-10.742,17.578
1626.466530572,-25.391,-26.855,-42.968999999999994,-9.766
1626.466530576,-63.965,-51.758,-62.5,-66.406
1626.46653058,-46.387,-42.968999999999994,-41.504,-50.293
1626.4665305839999,9.766,-16.113,-6.836,-0.488
1626.4665305879998,-5.859,-20.02,-32.715,-4.883
1626.4665305899998,-48.828,-42.48,-47.363,-54.199
1626.4665305939998,-41.016000000000005,-47.852,-26.366999999999997,-57.617
1626.4665305979997,-12.695,-32.715,-6.836,-4.883
1626.4665306020001,-6.836,-20.996,-21.973000000000003,19.531
1626.4665306059999,-49.805,-48.828,-40.527,-39.062
1626.4665306099998,-68.359,-51.27,-32.227,-63.965
1626.4665306139998,-41.016000000000005,-20.508000000000003,-20.996,-19.043
1626.466530617,-23.926,-8.301,-24.901999999999997,12.207
1626.466530621,-38.086,-31.25,-44.434,-56.641000000000005
1626.466530625,-59.57,-51.758,-53.711000000000006,-86.426
1626.4665306289999,-52.246,-39.062,-42.48,-57.129
1626.4665306329998,-4.883,-10.254000000000001,-17.578,-9.766
1626.466530635,-36.133,-23.926,-36.621,-21.484
1626.466530639,-73.73,-59.57,-41.992,-60.547
1626.466530643,-52.733999999999995,-59.082,-19.043,-55.663999999999994
1626.4665306470001,-11.23,-28.32,2.441,-2.93
1626.466530651,-12.207,-26.366999999999997,-20.996,-5.371
1626.466530655,-58.105,-46.875,-41.504,-75.684
1626.466530659,-66.406,-43.457,-39.062,-83.49600000000001
1626.4665306620002,-30.761999999999997,-31.25,-22.461,-31.738000000000003
1626.4665306660002,-11.23,-26.366999999999997,-26.366999999999997,-7.812
1626.46653067,-51.27,-47.363,-44.922,-41.992
1626.466530674,-60.547,-63.477,-38.574,-64.453
1626.466530678,-28.32,-43.945,-20.02,-37.598
1626.46653068,-6.348,-20.02,-9.277000000000001,0.0
1626.466530684,-39.551,-40.527,-33.691,-39.551
1626.466530688,-74.707,-60.547,-42.48,-70.801
1626.466530692,-47.852,-47.852,-33.203,-53.711000000000006
1626.466530696,-0.488,-23.438000000000002,-19.043,-5.371
1626.4665307,-35.156,-27.831999999999997,-42.968999999999994,-20.996
1626.466530704,-74.219,-51.758,-61.035,-67.87100000000001
1626.466530707,-60.059,-50.781000000000006,-39.062,-76.66
1626.466530711,-18.066,-23.926,-8.301,-28.809
1626.4665307149999,-20.02,-27.344,-28.809,-24.901999999999997
1626.4665307189998,-67.87100000000001,-54.688,-53.223,-92.285
1626.4665307229998,-77.148,-59.57,-46.875,-94.238
1626.466530725,-31.738000000000003,-28.809,-20.508000000000003,-41.016000000000005
1626.466530729,-7.812,-1.465,-20.02,-9.766
1626.466530733,-53.223,-33.691,-51.27,-58.105
1626.4665307370003,-71.289,-59.57,-43.457,-78.613
1626.4665307410003,-40.527,-39.062,-16.602,-40.527
1626.4665307449998,-10.254000000000001,-9.766,-22.461,0.0
1626.4665307489997,-36.621,-30.761999999999997,-45.41,-41.016000000000005
1626.4665307520002,-64.941,-55.663999999999994,-43.945,-87.891
1626.466530756,-42.48,-40.039,-40.527,-68.359
1626.46653076,5.371,-24.414,-27.344,-16.113
1626.466530764,-6.836,-35.645,-35.645,-22.949
1626.466530768,-71.777,-62.012,-42.968999999999994,-69.824
1626.466530785,-69.824,-55.663999999999994,-32.227,-72.266
1626.466530789,-21.484,-29.785,-14.648,-23.926
1626.466530793,-16.113,-32.227,-30.761999999999997,-1.953
1626.4665307970001,-50.781000000000006,-57.617,-57.617,-46.875
1626.466530801,-70.801,-67.383,-52.733999999999995,-69.336
1626.466530805,-36.621,-36.621,-24.414,-22.949
1626.466530809,-10.742,-17.09,-19.531,3.418
1626.466530812,-42.48,-45.41,-46.875,-41.992
1626.466530816,-61.035,-66.895,-52.246,-66.406
1626.46653082,-44.922,-60.059,-28.32,-42.968999999999994
1626.4665308239998,-3.418,-27.344,-11.23,0.977
1626.4665308279998,-32.227,-44.922,-34.18,-20.508000000000003
1626.46653083,-62.988,-69.336,-44.922,-59.57
1626.466530834,-41.016000000000005,-50.293,-28.32,-57.617
1626.466530838,-4.395,-26.366999999999997,-7.812,-11.23
1626.466530842,-11.719000000000001,-32.715,-32.227,-22.461
1626.466530846,-50.781000000000006,-55.176,-50.293,-70.801
1626.4665308499998,-57.617,-54.688,-41.504,-77.148
1626.4665308539998,-21.484,-30.761999999999997,-19.531,-38.574
1626.4665308570002,-8.301,-31.738000000000003,-25.391,-13.672
1626.4665308610001,-63.965,-63.477,-48.828,-54.199
1626.466530865,-81.543,-72.75399999999999,-44.434,-75.684
1626.466530869,-34.18,-49.316,-22.949,-43.457
1626.466530873,8.301,-17.09,-11.719000000000001,9.766
1626.466530875,-32.227,-37.109,-29.296999999999997,-35.156
1626.466530879,-72.266,-59.57,-35.645,-87.891
1626.466530883,-45.41,-46.387,-24.901999999999997,-58.105
1626.466530887,-10.254000000000001,-24.414,-25.879,-10.742
1626.466530891,-43.457,-34.18,-44.434,-26.855
1626.466530895,-76.172,-52.733999999999995,-46.875,-70.801
1626.466530899,-55.663999999999994,-41.016000000000005,-36.621,-58.593999999999994
1626.4665309020002,-16.602,-11.719000000000001,-11.719000000000001,-11.23
1626.4665309060001,-26.366999999999997,-27.344,-27.831999999999997,-20.508000000000003
1626.46653091,-77.148,-64.941,-46.875,-59.57
1626.466530914,-68.359,-59.57,-34.668,-67.87100000000001
1626.466530918,-17.578,-28.32,-10.254000000000001,-28.32
1626.46653092,6.348,-16.113,-25.879,7.324
1626.466530924,-32.227,-49.805,-53.223,-39.062
1626.4665309279999,-57.129,-69.336,-40.039,-45.898
1626.466530932,-18.555,-38.086,-16.602,-14.16
1626.466530936,-10.254000000000001,-13.184000000000001,-16.602,-5.371
1626.46653094,-45.41,-27.344,-42.968999999999994,-39.062
1626.466530944,-62.988,-38.574,-44.922,-72.75399999999999
1626.4665309470001,-54.688,-39.551,-29.785,-65.918
1626.4665309509999,-17.09,-16.602,-21.484,-9.277000000000001
1626.4665309549998,-24.901999999999997,-16.602,-46.387,-27.831999999999997
1626.4665309589998,-68.848,-45.898,-56.152,-93.262
1626.4665309629997,-65.918,-50.781000000000006,-43.945,-78.613
1626.466530965,-6.836,-20.996,-22.949,-17.09
1626.466530969,0.0,-11.719000000000001,-37.598,-16.113
1626.4665309729999,-48.34,-36.133,-58.593999999999994,-76.172
1626.4665309770003,-57.617,-41.992,-51.758,-88.867
1626.466530981,-9.766,-18.555,-20.996,-27.831999999999997
1626.466530985,18.066,2.441,-15.625,0.977
1626.466530989,-17.578,-25.391,-44.434,-26.855
1626.4665309920001,-41.504,-45.41,-50.293,-51.758
1626.466530996,-25.879,-23.438000000000002,-20.508000000000003,-29.296999999999997
1626.466531,8.301,-2.93,-2.93,24.414
1626.466531004,-12.207,-34.18,-43.945,-27.831999999999997
1626.466531008,-45.41,-59.57,-45.898,-69.824
1626.4665310110001,-41.016000000000005,-38.086,-22.949,-48.34
1626.466531015,0.977,-9.277000000000001,-11.719000000000001,5.859
1626.466531019,-11.719000000000001,-21.484,-41.504,14.16
1626.4665310229998,-59.082,-55.176,-54.199,-31.25
1626.4665310270002,-38.086,-53.711000000000006,-33.203,-41.504
1626.4665310310002,-4.883,-13.184000000000001,-8.789,-3.418
1626.4665310350001,-3.906,-6.348,-24.414,14.648
1626.4665310379999,-38.086,-49.316,-50.781000000000006,-40.527
1626.466531042,-36.133,-59.57,-30.761999999999997,-54.199
1626.466531046,7.812,-31.25,1.465,-4.883
1626.46653105,29.785,0.977,-5.371,38.086
1626.466531054,-1.953,-22.461,-38.574,-5.371
1626.4665310550001,-24.414,-48.34,-41.504,-42.968999999999994
1626.466531059,7.324,-31.738000000000003,-15.625,-2.93
1626.466531063,60.059,-4.883,-1.953,38.086
1626.4665310670002,33.691,-20.996,-34.668,1.465
1626.4665310710002,-17.09,-46.387,-43.457,-30.761999999999997
1626.4665310750001,-8.789,-35.645,-21.484,-20.508000000000003
1626.466531079,25.391,-20.02,-19.043,20.508000000000003
1626.466531082,22.461,-28.809,-48.34,13.672
1626.466531086,-28.32,-46.387,-52.246,-40.527
1626.46653109,-48.828,-53.711000000000006,-36.133,-56.152
1626.466531094,-10.742,-34.668,-14.16,-2.441
1626.466531098,8.301,-26.366999999999997,-23.926,24.901999999999997
1626.4665310999999,-35.156,-52.733999999999995,-44.922,-27.344
1626.4665311039998,-58.593999999999994,-64.453,-41.016000000000005,-49.316
1626.4665311079998,-20.02,-36.133,-22.461,-9.277000000000001
1626.4665311120002,14.16,-12.695,-13.672,27.831999999999997
1626.4665311160002,-15.625,-37.598,-42.968999999999994,-24.901999999999997
1626.46653112,-50.781000000000006,-52.733999999999995,-48.34,-43.457
1626.4665311239999,-37.598,-43.457,-22.949,-17.578
1626.466531127,15.137,-26.855,-4.883,21.973000000000003
1626.466531131,-10.254000000000001,-42.48,-33.691,-0.977
1626.466531135,-61.523,-72.266,-46.387,-46.387
1626.466531139,-51.27,-65.918,-30.761999999999997,-41.016000000000005
1626.4665311429999,5.371,-34.18,-4.883,8.789
1626.4665311600002,11.719000000000001,-28.32,-20.996,15.137
1626.4665311640001,-41.992,-53.711000000000006,-43.945,-41.016000000000005
1626.466531168,-41.504,-59.082,-35.645,-42.968999999999994
1626.4665311720003,0.0,-36.621,-4.395,6.836
1626.4665311760002,15.625,-21.484,-13.672,24.901999999999997
1626.4665311800002,-24.414,-35.156,-42.48,-25.879
1626.466531184,-41.016000000000005,-49.316,-38.086,-42.968999999999994
1626.466531187,-10.254000000000001,-37.598,-7.324,-6.836
1626.466531191,19.043,-17.09,2.441,23.926
1626.466531195,-20.508000000000003,-47.852,-46.387,-22.949
1626.466531199,-48.34,-71.289,-60.547,-58.593999999999994
1626.466531203,-20.02,-59.082,-32.715,-28.809
1626.466531205,17.09,-25.879,-8.789,27.831999999999997
1626.4665312089999,-4.395,-28.809,-31.25,6.836
1626.4665312129998,-46.387,-55.176,-45.898,-40.039
1626.466531217,-32.715,-54.199,-31.25,-33.691
1626.466531221,2.441,-28.32,-5.859,13.672
1626.466531225,-28.32,-20.02,-20.508000000000003,12.695
1626.4665312289999,-73.73,-54.688,-42.48,-37.109
1626.466531232,-65.43,-68.848,-31.738000000000003,-54.688
1626.466531236,-31.738000000000003,-41.992,-5.371,-14.16
1626.46653124,-2.441,-22.949,-12.207,22.949
1626.466531244,-35.645,-39.551,-38.086,-25.391
1626.466531248,-71.777,-60.547,-40.527,-58.105
1626.46653125,-38.574,-43.457,-20.996,-20.02
1626.4665312539998,7.324,-13.184000000000001,-0.977,28.32
1626.4665312579998,-22.461,-37.109,-28.809,-7.324
1626.466531262,-62.5,-68.359,-46.387,-48.34
1626.466531266,-46.875,-59.082,-28.809,-41.504
1626.46653127,-7.324,-25.879,2.93,17.09
1626.4665312739999,-12.695,-37.598,-19.043,16.602
1626.4665312770003,-48.34,-75.195,-42.48,-41.992
1626.4665312810002,-50.293,-71.777,-38.086,-54.688
1626.466531285,-10.254000000000001,-49.316,-18.066,-11.719000000000001
1626.466531289,3.906,-42.968999999999994,-31.738000000000003,-0.488
1626.466531293,-38.574,-69.824,-57.129,-47.363
1626.466531295,-43.457,-77.148,-36.133,-60.059
1626.466531299,-17.09,-50.781000000000006,-7.324,-18.066
1626.466531303,4.395,-20.996,-16.602,22.461
1626.4665313070002,-27.344,-42.48,-46.387,-25.391
1626.4665313110002,-59.57,-67.87100000000001,-40.527,-54.688
1626.466531315,-43.945,-49.805,-22.949,-32.715
1626.466531319,-14.16,-21.973000000000003,-13.672,0.0
1626.466531322,-29.785,-41.992,-37.109,-27.831999999999997
1626.466531326,-64.941,-65.43,-41.992,-54.199
1626.46653133,-64.941,-55.176,-20.508000000000003,-41.992
1626.466531334,-10.254000000000001,-27.344,-9.766,12.207
1626.4665313379999,-20.02,-27.344,-37.109,7.812
1626.4665313399998,-74.707,-53.711000000000006,-54.688,-60.059
1626.4665313439998,-67.383,-59.082,-40.039,-57.129
1626.4665313479998,-30.273000000000003,-37.109,-8.789,-11.23
1626.4665313520002,-11.719000000000001,-23.438000000000002,-29.296999999999997,8.789
1626.466531356,-56.641000000000005,-50.293,-57.617,-35.645
1626.4665313599999,-67.87100000000001,-59.082,-42.48,-69.824
1626.4665313639998,-19.043,-35.645,-15.625,-31.738000000000003
1626.466531367,-2.441,-20.996,-12.695,4.883
1626.466531371,-45.41,-49.316,-42.48,-54.199
1626.466531375,-79.102,-79.102,-37.109,-94.727
1626.466531379,-56.641000000000005,-65.918,-12.695,-45.41
1626.4665313829998,-20.02,-34.18,-11.719000000000001,-3.418
1626.466531385,-44.434,-45.898,-38.086,-41.504
1626.466531389,-78.125,-73.242,-35.156,-78.613
1626.466531393,-72.75399999999999,-65.918,-20.02,-79.59
1626.4665313970002,-27.344,-30.273000000000003,-3.418,-20.508000000000003
1626.466531401,-12.207,-24.901999999999997,-23.926,-11.719000000000001
1626.466531405,-48.828,-42.48,-40.527,-56.152
1626.466531409,-53.711000000000006,-55.176,-36.621,-57.617
1626.4665314120002,-8.789,-44.922,-17.578,-15.137
1626.4665314160002,20.508000000000003,-25.879,-18.066,16.113
1626.4665314200001,-30.761999999999997,-51.27,-50.293,-37.109
1626.466531424,-69.824,-69.336,-49.805,-78.613
1626.466531428,-40.527,-47.363,-22.461,-40.527
1626.46653143,-2.93,-17.578,-14.16,15.137
1626.466531434,-28.32,-35.156,-37.598,-25.391
1626.466531438,-62.5,-54.199,-37.109,-74.219
1626.4665314420001,-34.668,-43.457,-12.695,-47.363
1626.466531446,1.953,-16.113,5.371,7.324
1626.46653145,-29.296999999999997,-20.996,-29.785,-9.277000000000001
1626.466531454,-75.684,-52.246,-50.293,-63.477
1626.466531457,-78.613,-62.012,-30.761999999999997,-63.965
1626.466531461,-23.438000000000002,-25.879,-7.324,0.0
1626.466531465,-12.207,-15.137,-28.809,0.488
1626.4665314689998,-57.129,-51.27,-55.176,-53.711000000000006
1626.4665314729998,-62.5,-58.105,-42.48,-66.406
1626.466531476,-19.531,-24.901999999999997,-8.301,-44.922
1626.46653148,0.0,-11.719000000000001,-15.137,-11.719000000000001
1626.466531484,-41.992,-50.781000000000006,-55.176,-47.363
1626.4665314879999,-56.641000000000005,-67.87100000000001,-52.246,-83.984
1626.466531492,-44.434,-47.363,-9.277000000000001,-39.551
1626.466531496,-6.836,-22.949,7.812,21.973000000000003
1626.4665315,-27.831999999999997,-34.668,-34.18,-11.23
1626.4665315029997,-59.57,-47.852,-44.434,-50.781000000000006
1626.4665315070001,-34.18,-41.016000000000005,-25.879,-41.504
1626.466531511,1.465,-24.414,-10.254000000000001,-4.395
1626.466531515,-8.301,-30.273000000000003,-31.25,-12.695
1626.466531519,-48.828,-52.246,-39.062,-51.758
1626.466531535,-52.733999999999995,-53.223,-22.461,-60.547
1626.466531539,-12.207,-32.715,-0.488,-14.648
1626.466531543,-5.859,-26.366999999999997,-20.996,6.348
1626.4665315470002,-55.663999999999994,-43.945,-46.387,-46.387
1626.4665315510001,-61.523,-51.27,-39.551,-71.289
1626.466531555,-22.949,-24.901999999999997,-23.438000000000002,-28.809
1626.466531559,-3.906,-8.789,-28.32,24.901999999999997
1626.466531562,-40.527,-40.527,-43.457,-34.668
1626.466531566,-56.152,-49.805,-26.855,-87.402
1626.46653157,-40.039,-42.968999999999994,-11.23,-57.129
1626.4665315739999,-13.672,-22.461,-7.812,-3.418
1626.4665315779998,-32.715,-29.785,-42.968999999999994,-23.926
1626.46653158,-77.148,-55.176,-47.363,-57.617
1626.4665315839998,-57.617,-44.922,-23.926,-53.711000000000006
1626.4665315879997,-11.719000000000001,-16.113,-8.301,1.465
1626.466531592,-16.602,-20.996,-27.831999999999997,11.23
1626.4665315959999,-60.547,-49.316,-39.551,-48.34
1626.4665315999998,-66.895,-53.223,-29.296999999999997,-67.87100000000001
1626.4665316039998,-27.831999999999997,-30.761999999999997,-11.719000000000001,-14.648
1626.4665316070002,-13.672,-23.438000000000002,-27.344,10.742
1626.4665316110002,-48.828,-48.34,-44.434,-50.293
1626.4665316150001,-69.824,-64.453,-38.574,-73.242
1626.4665316189999,-34.668,-51.758,-22.949,-30.761999999999997
