timestamps,TP9,AF7,AF8,TP10
1626465601.237,35.156,-33.691,-53.223,-26.855
1626465601.241,-36.621,-32.715,-46.387,-57.617
1626465601.245,-106.445,-33.691,-8.301,-37.598
1626465601.249,-43.457,-33.203,-6.836,0.488
1626465601.253,28.320,-38.574,-40.527,-17.090
1626465601.257,-1.465,-42.480,-46.387,-46.387
1626465601.261,-86.914,-45.410,-18.066,-44.922
1626465601.264,-52.246,-40.527,-12.207,0.977
1626465601.268,16.113,-36.621,-51.270,-2.930
1626465601.272,8.301,-40.527,-65.918,-50.781
1626465601.276,-88.867,-40.039,-30.273,-66.406
1626465601.280,-77.148,-28.809,-2.930,-15.625
1626465601.283,8.301,-29.297,-23.438,3.906
1626465601.287,37.598,-38.086,-48.340,-29.785
1626465601.291,-54.688,-41.992,-39.062,-54.199
1626465601.295,-88.867,-41.992,-8.301,-17.090
1626465601.299,-11.230,-37.109,-16.602,7.812
1626465601.303,48.828,-33.691,-46.875,-15.137
1626465601.307,-12.207,-41.504,-51.270,-50.781
1626465601.310,-86.426,-42.969,-12.695,-33.691
1626465601.314,-37.598,-40.039,-8.789,8.301
1626465601.318,24.414,-46.387,-44.434,-11.230
1626465601.322,-0.977,-47.363,-57.129,-46.387
1626465601.326,-83.496,-45.898,-20.996,-48.340
1626465601.328,-55.176,-41.504,-3.418,-6.348
1626465601.332,22.461,-40.527,-28.809,0.488
1626465601.336,23.926,-46.875,-46.875,-35.156
1626465601.340,-79.590,-43.945,-26.855,-60.547
1626465601.344,-75.195,-33.691,0.488,-17.578
1626465601.348,4.883,-34.668,-25.391,-0.488
1626465601.352,23.438,-43.945,-61.035,-35.645
1626465601.355,-64.941,-53.711,-51.758,-69.336
1626465601.359,-97.168,-48.340,-11.230,-41.992
1626465601.363,-24.414,-48.828,-18.555,-3.418
1626465601.367,30.273,-47.363,-52.246,-29.297
1626465601.371,-25.879,-39.551,-49.316,-61.523
1626465601.372,-100.586,-33.203,-9.277,-44.922
1626465601.376,-45.898,-31.250,-4.395,-1.465
1626465601.380,19.531,-39.062,-40.527,-9.766
1626465601.384,7.324,-44.922,-57.129,-56.152
1626465601.388,-74.219,-38.574,-18.555,-62.012
1626465601.392,-54.199,-23.926,9.766,-3.418
1626465601.396,10.742,-37.598,-33.203,-2.930
1626465601.399,20.508,-46.875,-60.547,-43.945
1626465601.403,-62.500,-29.785,-27.832,-56.152
1626465601.407,-67.383,-26.367,7.324,-13.672
1626465601.411,1.953,-34.668,-14.648,6.348
1626465601.415,30.762,-35.156,-54.688,-30.762
1626465601.417,-46.387,-41.016,-46.387,-62.500
1626465601.421,-87.891,-32.715,-6.348,-36.133
1626465601.425,-16.113,-20.508,-16.113,-5.371
1626465601.429,44.434,-24.414,-48.828,-22.461
1626465601.433,0.000,-33.203,-58.105,-60.059
1626465601.437,-80.566,-35.156,-14.160,-46.387
1626465601.441,-39.551,-36.621,-5.371,-1.953
1626465601.444,25.879,-40.527,-38.574,-11.230
1626465601.448,21.484,-37.598,-42.969,-42.480
1626465601.452,-83.984,-48.340,-24.902,-61.035
1626465601.456,-79.102,-53.223,-8.301,-17.090
1626465601.460,7.812,-34.668,-22.949,5.371
1626465601.477,23.438,-35.645,-46.387,-32.227
1626465601.481,-69.824,-45.410,-28.809,-58.105
1626465601.485,-86.914,-39.551,4.395,-20.508
1626465601.489,-10.254,-31.738,-22.461,3.906
1626465601.493,35.156,-34.180,-58.105,-18.555
1626465601.497,-29.297,-40.039,-45.410,-49.805
1626465601.501,-81.543,-37.109,-2.930,-23.926
1626465601.504,-23.926,-32.715,-10.742,6.836
1626465601.508,22.949,-37.109,-49.805,-20.996
1626465601.512,-27.344,-46.875,-51.758,-58.105
1626465601.516,-112.793,-41.992,-17.578,-56.152
1626465601.520,-67.383,-26.367,-7.324,-12.695
1626465601.522,15.625,-22.461,-38.574,-16.602
1626465601.526,5.371,-44.922,-58.105,-56.152
1626465601.530,-90.820,-51.270,-28.809,-68.359
1626465601.534,-71.289,-28.809,4.395,-19.531
1626465601.538,3.418,-31.250,-19.043,-9.277
1626465601.542,29.785,-37.598,-47.363,-38.574
1626465601.546,-59.082,-38.574,-37.598,-66.406
1626465601.549,-83.984,-27.832,-5.859,-29.785
1626465601.553,-4.883,-16.113,-20.020,0.488
1626465601.557,33.691,-20.996,-57.617,-38.086
1626465601.561,-31.250,-20.020,-56.641,-72.754
1626465601.565,-103.027,-32.715,-23.926,-52.246
1626465601.567,-54.688,-35.645,-22.949,-18.066
1626465601.571,16.602,-26.367,-53.711,-34.180
1626465601.575,-12.695,-40.039,-63.477,-70.801
1626465601.579,-104.980,-43.945,-24.414,-60.059
1626465601.583,-68.359,-36.621,-10.742,-15.137
1626465601.587,12.695,-30.273,-37.109,-8.301
1626465601.591,20.020,-24.902,-57.129,-29.785
1626465601.594,-76.172,-34.180,-43.945,-52.734
1626465601.598,-75.195,-40.527,-13.184,-17.090
1626465601.602,-1.465,-34.668,-25.879,0.488
1626465601.606,29.785,-27.344,-53.223,-29.297
1626465601.610,-47.363,-33.691,-42.969,-65.918
1626465601.612,-78.613,-30.762,-4.395,-36.133
1626465601.616,-6.348,-19.043,-14.160,0.488
1626465601.620,49.316,-18.066,-54.199,-22.949
1626465601.624,-2.441,-18.066,-57.129,-58.105
1626465601.628,-82.031,-20.508,-18.555,-40.039
1626465601.632,-27.344,-25.391,-16.113,0.000
1626465601.636,48.828,-18.066,-52.246,-17.578
1626465601.639,24.902,-19.043,-62.988,-54.199
1626465601.643,-84.473,-38.086,-32.227,-56.641
1626465601.647,-62.012,-32.227,-1.953,-2.930
1626465601.651,25.391,-22.949,-26.367,7.324
1626465601.655,32.227,-44.922,-60.059,-35.156
1626465601.657,-67.383,-57.129,-36.133,-63.477
1626465601.661,-68.848,-40.039,0.000,-14.160
1626465601.665,12.695,-23.926,-20.996,21.484
1626465601.669,50.293,-23.438,-51.758,-15.137
1626465601.673,-30.762,-26.367,-40.039,-59.082
1626465601.677,-73.730,-22.461,-0.488,-41.016
1626465601.681,-12.207,-21.484,-13.184,-5.859
1626465601.684,32.227,-23.926,-43.457,-17.578
1626465601.688,-13.184,-36.621,-46.387,-53.223
1626465601.692,-86.914,-37.598,-15.625,-50.293
1626465601.696,-43.945,-29.297,-14.160,-9.277
1626465601.700,33.691,-24.414,-49.316,-11.230
1626465601.702,30.273,-20.996,-58.594,-41.992
1626465601.706,-67.871,-32.227,-24.414,-52.246
1626465601.710,-46.875,-28.809,-2.441,-6.348
1626465601.714,25.879,-21.484,-31.250,-0.977
1626465601.718,40.039,-26.855,-53.223,-36.133
1626465601.722,-53.711,-35.645,-31.738,-53.711
1626465601.726,-91.797,-44.434,-15.625,-29.297
1626465601.729,-26.367,-41.504,-33.691,-8.789
1626465601.733,30.762,-34.180,-45.898,-23.438
1626465601.737,-39.062,-36.621,-41.016,-58.594
1626465601.741,-97.656,-30.273,-7.812,-34.668
1626465601.745,-43.457,-29.297,-16.602,6.348
1626465601.748,21.484,-28.320,-48.828,-8.789
1626465601.752,-11.230,-33.203,-53.223,-45.410
1626465601.756,-92.285,-35.645,-21.973,-39.551
1626465601.760,-56.641,-28.320,-8.789,0.488
1626465601.764,11.719,-24.414,-36.621,-8.301
1626465601.768,17.090,-25.391,-52.734,-40.527
1626465601.772,-81.055,-34.668,-32.227,-57.129
1626465601.775,-72.754,-27.832,-12.695,-14.648
1626465601.779,8.789,-17.090,-33.691,0.977
1626465601.783,32.227,-29.297,-56.152,-27.344
1626465601.787,-67.383,-40.039,-39.551,-61.523
1626465601.791,-94.238,-38.086,-7.324,-33.691
1626465601.792,-7.812,-27.344,-18.066,-2.930
1626465601.796,45.898,-22.461,-45.898,-22.949
1626465601.800,-18.555,-30.273,-47.852,-55.664
1626465601.804,-80.078,-28.320,-11.230,-39.551
1626465601.808,-20.020,-20.020,-6.836,3.906
1626465601.812,40.039,-29.297,-46.387,-10.254
1626465601.816,6.836,-41.504,-65.430,-49.805
1626465601.819,-81.055,-36.133,-23.438,-47.852
1626465601.823,-50.781,-29.297,-5.371,-4.395
1626465601.827,15.625,-38.086,-44.434,-15.137
1626465601.831,13.672,-41.992,-55.176,-51.270
1626465601.835,-84.961,-38.574,-20.508,-63.477
1626465601.852,-75.684,-31.738,-1.465,-23.926
1626465601.856,5.371,-31.738,-31.738,-10.254
1626465601.860,28.320,-36.133,-57.129,-40.039
1626465601.864,-63.477,-41.016,-47.852,-70.312
1626465601.868,-89.355,-36.621,-5.371,-33.691
1626465601.872,-11.230,-29.785,-6.836,-0.488
1626465601.876,45.898,-34.668,-40.527,-26.855
1626465601.879,-9.766,-41.016,-42.969,-58.105
1626465601.883,-88.379,-37.598,-3.418,-37.598
1626465601.887,-48.340,-35.645,-6.348,-4.395
1626465601.891,24.414,-43.945,-52.246,-19.531
1626465601.895,15.137,-46.875,-60.547,-47.852
1626465601.898,-82.031,-41.504,-24.414,-49.805
1626465601.902,-50.781,-35.645,-0.488,-7.812
1626465601.906,32.715,-34.180,-24.414,0.000
1626465601.910,37.598,-39.551,-46.875,-31.738
1626465601.914,-70.801,-45.898,-28.320,-58.105
1626465601.918,-68.848,-31.250,6.836,-12.695
1626465601.922,12.695,-31.250,-18.066,5.371
1626465601.925,40.527,-35.156,-54.199,-27.344
1626465601.929,-42.969,-33.203,-44.434,-60.547
1626465601.933,-87.402,-38.574,-6.836,-37.109
1626465601.937,-19.043,-31.250,-15.137,-3.906
1626465601.941,48.340,-26.855,-49.316,-22.461
1626465601.942,-0.488,-38.574,-49.805,-46.875
1626465601.946,-92.773,-40.039,-2.930,-39.551
1626465601.950,-44.434,-41.016,2.930,-1.465
1626465601.954,27.832,-47.852,-28.809,-5.371
1626465601.958,2.930,-51.270,-40.039,-46.875
1626465601.962,-99.609,-51.270,-10.742,-62.500
1626465601.966,-78.613,-52.246,7.324,-17.578
1626465601.969,-2.441,-50.293,-22.461,-11.719
1626465601.973,11.230,-49.805,-43.457,-45.898
1626465601.977,-83.008,-51.270,-27.832,-70.801
1626465601.981,-92.285,-48.828,10.254,-25.879
1626465601.985,-0.488,-41.504,-2.441,14.160
1626465601.988,54.688,-31.738,-33.691,-10.254
1626465601.992,-26.367,-36.621,-31.738,-45.898
1626465601.996,-97.656,-41.992,3.906,-22.949
1626465602.000,-35.645,-41.504,-0.488,6.836
1626465602.004,22.461,-44.922,-40.039,-16.602
1626465602.008,-19.043,-42.480,-44.434,-46.875
1626465602.012,-90.820,-48.340,-9.766,-39.551
1626465602.015,-44.922,-47.363,8.789,0.000
1626465602.019,17.578,-41.992,-20.508,-2.441
1626465602.023,9.766,-48.828,-46.875,-37.598
1626465602.027,-80.078,-49.316,-20.020,-55.176
1626465602.031,-68.848,-40.527,1.465,-13.184
1626465602.033,13.672,-31.738,-25.879,0.000
1626465602.037,54.199,-31.250,-50.293,-28.320
1626465602.041,-35.156,-30.273,-35.156,-52.734
1626465602.045,-74.707,-27.344,-0.977,-18.066
1626465602.049,-13.184,-25.391,-16.602,-0.488
1626465602.053,42.969,-16.602,-42.480,-30.273
1626465602.057,-21.484,-33.691,-43.945,-59.570
1626465602.060,-98.145,-53.223,-18.555,-52.734
1626465602.064,-45.410,-40.527,-14.160,-20.996
1626465602.068,17.090,-29.785,-40.039,-29.297
1626465602.072,-7.324,-28.809,-49.316,-57.617
1626465602.076,-94.238,-35.156,-12.695,-52.734
1626465602.077,-51.270,-32.227,0.488,-2.441
1626465602.081,32.715,-21.973,-36.133,5.371
1626465602.085,26.367,-28.809,-52.246,-36.621
1626465602.089,-82.031,-43.457,-23.926,-59.082
1626465602.093,-76.172,-37.598,2.441,-13.184
1626465602.097,3.418,-30.762,-19.531,0.000
1626465602.101,24.414,-39.551,-49.316,-41.992
1626465602.104,-70.312,-51.270,-34.668,-78.613
1626465602.108,-104.980,-45.898,-0.977,-48.340
1626465602.112,-26.855,-45.898,-23.438,-7.812
1626465602.116,35.645,-45.410,-48.340,-22.949
1626465602.120,-45.898,-46.387,-38.574,-69.336
1626465602.122,-115.234,-46.875,-2.441,-50.293
1626465602.126,-42.969,-47.852,-2.930,0.000
1626465602.130,20.508,-54.199,-28.809,-15.137
1626465602.134,-9.766,-62.012,-38.574,-55.176
1626465602.138,-111.328,-58.594,-2.441,-51.270
1626465602.142,-75.684,-45.410,25.879,-0.977
1626465602.146,4.395,-51.270,-9.766,-4.395
1626465602.149,9.766,-53.223,-40.039,-36.133
1626465602.153,-80.078,-51.270,-18.066,-51.758
1626465602.157,-79.590,-45.898,15.625,-17.578
1626465602.161,-4.883,-43.945,0.000,11.719
1626465602.165,17.090,-55.176,-32.227,-19.531
1626465602.182,-64.941,-55.176,-21.973,-58.105
1626465602.186,-108.398,-51.270,14.648,-23.926
1626465602.190,-44.922,-49.805,-0.977,6.348
1626465602.194,20.508,-46.875,-40.039,-20.020
1626465602.198,-32.715,-46.875,-48.340,-58.594
1626465602.202,-114.258,-45.898,-11.719,-45.410
1626465602.206,-52.734,-37.598,-3.418,4.883
1626465602.209,23.926,-39.062,-31.738,-0.488
1626465602.213,7.812,-48.828,-44.434,-34.180
1626465602.217,-93.262,-50.781,-20.020,-46.387
1626465602.221,-72.754,-46.875,-4.395,-5.859
1626465602.225,11.230,-41.992,-26.367,5.371
1626465602.227,30.273,-38.574,-47.852,-29.785
1626465602.231,-68.359,-41.992,-33.203,-51.758
1626465602.235,-88.379,-38.086,-4.395,-16.113
1626465602.239,-11.719,-35.645,-20.996,8.301
1626465602.243,36.621,-48.828,-48.340,-17.090
1626465602.247,-36.133,-57.617,-38.086,-46.875
1626465602.251,-97.168,-59.082,-7.812,-20.996
1626465602.254,-28.809,-48.828,-17.578,21.484
1626465602.258,40.039,-44.434,-46.875,1.465
1626465602.262,-8.301,-56.152,-53.223,-46.387
1626465602.266,-90.820,-49.316,-15.625,-33.691
1626465602.270,-34.668,-36.621,-6.348,22.461
1626465602.272,41.504,-41.016,-42.480,10.742
1626465602.276,24.414,-51.270,-49.805,-31.738
1626465602.280,-70.312,-48.828,-20.508,-37.598
1626465602.284,-58.105,-41.016,0.000,5.859
1626465602.288,17.578,-36.133,-23.926,10.254
1626465602.292,42.969,-33.691,-53.223,-25.879
1626465602.296,-48.340,-37.598,-36.133,-46.875
1626465602.299,-62.012,-34.180,8.301,-9.277
1626465602.303,11.230,-31.738,-8.789,15.137
1626465602.307,52.246,-34.668,-49.316,-13.672
1626465602.311,-10.742,-37.109,-47.363,-48.828
1626465602.315,-72.754,-41.992,-11.719,-29.297
1626465602.317,-12.695,-34.180,-17.090,10.742
1626465602.321,52.246,-34.180,-47.852,3.418
1626465602.325,7.324,-38.574,-52.246,-29.297
1626465602.329,-88.379,-33.691,-15.137,-35.645
1626465602.333,-43.945,-35.156,-4.883,15.625
1626465602.337,45.898,-31.250,-39.062,14.160
1626465602.341,39.551,-30.273,-59.570,-37.598
1626465602.344,-75.195,-42.969,-40.039,-57.617
1626465602.348,-68.359,-47.852,-18.555,-18.066
1626465602.352,14.648,-40.527,-41.016,-0.488
1626465602.356,39.062,-40.039,-59.082,-26.367
1626465602.360,-55.664,-47.363,-41.504,-54.688
1626465602.362,-87.402,-38.086,-1.953,-21.973
1626465602.366,-17.090,-30.762,-13.184,8.789
1626465602.370,33.691,-40.527,-52.246,-19.531
1626465602.374,-16.602,-45.898,-52.246,-50.293
1626465602.378,-84.473,-46.875,-11.719,-28.320
1626465602.382,-21.484,-37.598,-5.859,17.090
1626465602.386,55.664,-38.086,-39.551,5.371
1626465602.389,25.391,-46.387,-48.828,-32.715
1626465602.393,-66.406,-47.852,-14.648,-37.598
1626465602.397,-44.922,-42.480,-2.441,-1.465
1626465602.401,28.320,-39.551,-24.414,7.812
1626465602.405,39.551,-38.574,-44.922,-23.926
1626465602.407,-75.195,-36.133,-29.785,-49.316
1626465602.411,-83.496,-30.273,-2.930,-10.254
1626465602.415,-2.930,-29.785,-24.414,3.418
1626465602.419,29.785,-34.180,-54.688,-31.738
1626465602.423,-44.922,-36.133,-42.969,-54.688
1626465602.427,-81.055,-33.691,-3.906,-19.043
1626465602.431,-9.766,-32.227,-17.578,11.719
1626465602.434,39.551,-38.574,-54.688,-10.742
1626465602.438,-11.719,-43.457,-48.340,-42.969
1626465602.442,-75.684,-36.133,-1.953,-22.949
1626465602.446,-31.738,-27.344,-3.906,15.625
1626465602.450,30.273,-35.156,-38.574,-3.418
1626465602.453,23.926,-38.086,-52.246,-31.250
1626465602.457,-72.266,-31.738,-30.273,-43.457
1626465602.461,-70.801,-28.320,-16.602,-20.508
1626465602.465,6.836,-30.273,-45.898,-14.160
1626465602.469,17.578,-38.086,-66.895,-47.852
1626465602.473,-95.703,-40.527,-42.969,-81.055
1626465602.477,-109.375,-37.109,-11.719,-39.062
1626465602.480,-25.879,-33.203,-31.738,-6.348
1626465602.484,25.879,-29.297,-51.758,-26.367
1626465602.488,-55.176,-36.133,-48.340,-63.477
1626465602.492,-104.492,-34.180,-19.531,-44.922
1626465602.496,-29.297,-28.320,-20.996,-5.859
1626465602.497,43.457,-24.414,-53.711,-18.555
1626465602.501,5.859,-29.785,-53.223,-53.711
1626465602.505,-92.285,-36.621,-17.090,-49.805
1626465602.509,-52.734,-37.598,-7.324,-8.301
1626465602.513,24.902,-35.156,-32.715,-16.113
1626465602.517,12.695,-39.062,-49.316,-50.781
1626465602.521,-90.332,-45.898,-28.809,-64.941
1626465602.524,-70.801,-38.086,-8.301,-18.555
1626465602.528,10.254,-35.645,-32.227,-8.301
1626465602.532,29.785,-35.645,-56.641,-44.434
1626465602.536,-69.336,-34.668,-44.922,-66.406
1626465602.540,-93.262,-35.156,-18.066,-27.832
1626465602.542,-6.836,-25.879,-28.809,0.488
1626465602.546,39.551,-29.785,-56.641,-26.367
1626465602.550,-35.645,-40.039,-58.105,-62.988
1626465602.554,-87.891,-38.574,-25.879,-43.945
1626465602.558,-21.484,-34.180,-24.902,-1.465
1626465602.562,39.551,-33.691,-55.664,-18.555
1626465602.566,-1.953,-36.621,-55.176,-62.988
1626465602.569,-87.402,-35.156,-13.672,-58.594
1626465602.573,-39.062,-31.738,-7.324,-6.836
1626465602.577,33.691,-37.109,-49.805,-16.113
1626465602.581,17.090,-47.852,-65.918,-55.176
1626465602.585,-88.867,-59.570,-34.668,-72.266
1626465602.602,-79.102,-50.781,-10.254,-28.809
1626465602.606,3.906,-32.227,-22.949,-4.395
1626465602.610,21.973,-35.645,-42.480,-42.480
1626465602.614,-70.801,-39.551,-31.738,-72.266
1626465602.618,-92.285,-30.273,2.930,-30.762
1626465602.622,-20.508,-20.996,-15.625,-3.418
1626465602.626,19.043,-18.555,-56.641,-28.809
1626465602.629,-54.688,-34.668,-57.617,-67.383
1626465602.633,-113.770,-41.992,-19.531,-57.617
1626465602.637,-43.945,-31.250,-12.207,-12.695
1626465602.641,20.996,-29.785,-46.387,-19.043
1626465602.645,-6.348,-36.133,-50.781,-60.059
1626465602.647,-104.492,-35.645,-7.812,-60.547
1626465602.651,-76.172,-32.715,5.371,-14.648
1626465602.655,10.742,-29.297,-25.879,-12.207
1626465602.659,3.418,-37.598,-47.363,-52.734
1626465602.663,-94.238,-43.457,-23.438,-67.871
1626465602.667,-77.148,-33.203,7.324,-13.184
1626465602.671,2.930,-28.320,-21.484,2.930
1626465602.674,35.645,-25.879,-54.199,-31.250
1626465602.678,-51.270,-32.715,-45.410,-58.594
1626465602.682,-88.379,-37.598,-15.625,-36.621
1626465602.686,-16.113,-30.762,-26.367,-10.254
1626465602.690,40.527,-29.297,-56.152,-30.762
1626465602.693,-10.254,-26.367,-47.363,-57.129
1626465602.697,-86.914,-32.227,-9.277,-45.898
1626465602.701,-40.039,-42.969,-13.672,-16.602
1626465602.705,24.414,-47.852,-46.387,-22.461
1626465602.709,3.418,-47.852,-55.664,-61.523
1626465602.713,-93.750,-42.969,-27.344,-69.336
1626465602.717,-64.941,-37.109,-11.230,-13.672
1626465602.720,22.949,-34.668,-32.227,0.000
1626465602.724,25.391,-43.945,-56.152,-43.457
1626465602.728,-75.195,-47.852,-33.691,-78.125
1626465602.732,-79.102,-34.668,-0.977,-39.551
1626465602.736,-3.906,-32.715,-24.414,-16.113
1626465602.737,26.855,-33.691,-58.594,-47.363
1626465602.741,-49.805,-35.645,-54.688,-78.613
1626465602.745,-91.309,-28.320,-17.090,-47.852
1626465602.749,-31.250,-25.879,-25.879,-9.766
1626465602.753,26.855,-30.273,-54.199,-25.391
1626465602.757,-25.391,-28.320,-54.199,-61.523
1626465602.761,-113.770,-29.785,-22.949,-59.570
1626465602.764,-64.941,-29.785,-15.137,-20.508
1626465602.768,0.488,-38.574,-56.152,-28.809
1626465602.772,-9.277,-45.898,-69.824,-62.500
1626465602.776,-91.797,-39.551,-24.414,-62.012
1626465602.780,-64.453,-26.855,3.906,-8.789
1626465602.782,12.695,-37.109,-26.855,-1.953
1626465602.786,31.738,-42.969,-54.688,-42.480
1626465602.790,-57.129,-28.809,-38.574,-68.359
1626465602.794,-78.613,-27.832,-14.648,-26.855
1626465602.798,-2.930,-25.391,-30.273,-3.418
1626465602.802,42.480,-22.949,-51.270,-34.668
1626465602.806,-30.273,-35.156,-44.434,-64.941
1626465602.809,-88.379,-41.504,-6.836,-36.133
1626465602.813,-37.598,-39.062,-14.160,4.395
1626465602.817,16.113,-38.086,-53.223,-17.578
1626465602.821,-22.949,-37.598,-56.152,-56.641
1626465602.825,-112.793,-37.109,-16.113,-46.875
1626465602.827,-65.430,-32.227,-9.766,-0.488
1626465602.831,17.578,-24.414,-44.922,-0.977
1626465602.835,11.719,-35.645,-61.523,-38.086
1626465602.839,-83.008,-41.504,-30.762,-58.594
1626465602.843,-60.059,-35.645,0.977,-13.184
1626465602.847,23.438,-35.645,-23.438,-3.906
1626465602.851,32.227,-35.156,-59.570,-44.922
1626465602.854,-63.477,-40.039,-37.598,-68.359
1626465602.858,-91.797,-38.574,-3.418,-37.109
1626465602.862,-29.297,-39.551,-22.949,-15.137
1626465602.866,18.066,-49.316,-54.199,-42.480
1626465602.870,-49.316,-58.105,-55.176,-72.266
1626465602.872,-110.840,-50.781,-11.230,-44.434
1626465602.876,-43.457,-39.062,-8.301,-9.277
1626465602.880,22.461,-42.480,-53.223,-30.762
1626465602.884,-13.184,-46.875,-64.941,-62.988
1626465602.888,-104.004,-39.062,-27.832,-62.500
1626465602.892,-64.941,-26.855,-8.301,-15.137
1626465602.896,4.395,-33.691,-41.504,-13.184
1626465602.899,-4.883,-55.176,-60.547,-55.176
1626465602.903,-104.980,-56.152,-27.832,-70.801
1626465602.907,-97.168,-42.969,1.953,-12.207
1626465602.911,-11.719,-36.133,-22.949,3.418
1626465602.915,17.090,-41.016,-55.176,-41.016
1626465602.918,-60.547,-37.109,-40.527,-68.848
1626465602.922,-94.238,-37.109,-5.859,-36.133
1626465602.926,-21.484,-41.992,-19.043,-8.301
1626465602.930,29.785,-43.945,-55.176,-38.086
1626465602.934,-41.504,-51.270,-55.176,-73.242
1626465602.938,-113.770,-46.387,-14.648,-62.988
1626465602.942,-54.199,-41.992,-17.578,-21.484
1626465602.945,26.855,-38.574,-49.316,-18.555
1626465602.949,7.812,-38.086,-54.688,-51.270
1626465602.953,-95.703,-46.875,-19.531,-59.082
1626465602.957,-75.195,-48.828,-6.348,-11.230
1626465602.961,-6.348,-51.758,-40.527,-5.859
1626465602.977,7.324,-44.434,-52.246,-35.645
1626465602.981,-82.031,-37.598,-28.320,-58.105
1626465602.985,-90.820,-31.738,-2.930,-26.367
1626465602.989,-27.832,-28.320,-20.020,-10.742
1626465602.993,15.137,-36.621,-41.504,-37.109
1626465602.997,-59.082,-47.363,-35.156,-59.082
1626465603.001,-108.887,-49.316,-1.953,-28.809
1626465603.004,-50.293,-46.875,-8.301,-1.953
1626465603.008,0.488,-47.852,-41.504,-26.855
1626465603.012,-41.992,-44.922,-42.480,-61.523
1626465603.016,-113.281,-41.992,-5.371,-49.316
1626465603.020,-62.988,-39.551,-9.277,-4.395
1626465603.022,9.277,-42.969,-46.875,-9.277
1626465603.026,-0.488,-38.574,-50.293,-41.504
1626465603.030,-92.773,-35.156,-18.555,-52.246
1626465603.034,-74.219,-40.527,-1.953,-12.207
1626465603.038,10.254,-34.180,-28.320,0.977
1626465603.042,32.715,-29.785,-50.293,-26.367
1626465603.046,-64.453,-35.645,-30.273,-50.293
1626465603.049,-74.707,-25.879,12.695,-11.230
1626465603.053,3.906,-24.414,-4.395,9.766
1626465603.057,32.227,-41.504,-45.410,-23.926
1626465603.061,-38.086,-34.668,-35.645,-51.758
1626465603.065,-76.660,-22.461,4.395,-16.602
1626465603.067,-19.531,-24.414,-1.953,24.902
1626465603.071,36.133,-27.344,-37.109,5.371
1626465603.075,-1.953,-27.832,-41.016,-35.156
1626465603.079,-79.590,-29.785,-2.930,-32.227
1626465603.083,-36.133,-30.273,0.977,8.301
1626465603.087,31.250,-26.855,-41.016,-3.418
1626465603.091,26.855,-28.320,-61.035,-34.668
1626465603.094,-67.383,-33.203,-25.879,-44.922
1626465603.098,-52.246,-34.180,-0.977,-8.301
1626465603.102,23.438,-37.109,-27.344,5.371
1626465603.106,41.016,-40.527,-54.199,-37.598
1626465603.110,-59.570,-44.922,-40.527,-78.125
1626465603.112,-80.566,-40.039,-3.906,-37.109
1626465603.116,-1.953,-29.297,-21.484,-1.953
1626465603.120,38.574,-28.320,-61.523,-31.738
1626465603.124,-25.391,-30.762,-59.570,-66.895
1626465603.128,-83.496,-35.645,-15.625,-46.875
1626465603.132,-21.484,-24.902,-16.113,-6.348
1626465603.136,41.992,-20.996,-52.734,-14.160
1626465603.139,9.277,-40.527,-58.594,-56.641
1626465603.143,-74.707,-41.016,-22.461,-62.988
1626465603.147,-41.992,-27.832,-13.672,-16.602
1626465603.151,35.156,-23.438,-49.805,-13.184
1626465603.155,26.855,-35.645,-60.059,-44.434
1626465603.158,-73.242,-38.086,-30.762,-57.129
1626465603.162,-60.547,-24.414,-4.395,-13.184
1626465603.166,12.695,-29.297,-24.902,1.953
1626465603.170,36.621,-29.297,-50.293,-17.578
1626465603.174,-41.992,-28.320,-38.086,-42.480
1626465603.178,-63.477,-24.414,-10.254,-19.043
1626465603.182,-9.766,-28.320,-26.367,9.766
1626465603.185,33.691,-40.039,-62.988,-19.531
1626465603.189,-19.531,-37.598,-52.734,-48.340
1626465603.193,-80.566,-22.949,-7.324,-17.090
1626465603.197,-19.531,-14.648,-9.277,14.160
1626465603.201,36.133,-18.555,-47.852,-15.137
1626465603.202,13.184,-20.508,-55.176,-47.852
1626465603.206,-70.801,-23.438,-19.043,-41.992
1626465603.210,-40.527,-19.043,-10.254,4.883
1626465603.214,29.785,-16.602,-45.410,0.977
1626465603.218,23.438,-23.926,-63.965,-39.551
1626465603.222,-73.730,-29.297,-36.621,-54.688
1626465603.226,-67.871,-30.273,-11.719,-6.836
1626465603.229,0.488,-38.086,-36.133,3.906
1626465603.233,23.926,-41.504,-62.500,-37.109
1626465603.237,-56.152,-40.039,-47.363,-67.871
1626465603.241,-80.078,-29.297,-8.301,-31.250
1626465603.245,-1.465,-20.020,-11.230,4.883
1626465603.247,38.086,-19.531,-49.805,-21.484
1626465603.251,-24.902,-36.621,-54.688,-60.059
1626465603.255,-82.031,-46.875,-6.348,-41.016
1626465603.259,-17.090,-32.715,0.000,13.672
1626465603.263,41.016,-27.832,-37.109,4.883
1626465603.267,14.160,-31.738,-45.898,-36.133
1626465603.271,-68.848,-33.203,-10.742,-41.504
1626465603.274,-33.691,-20.020,7.324,4.395
1626465603.278,35.156,-20.020,-32.227,1.953
1626465603.282,32.227,-33.691,-59.570,-40.039
1626465603.286,-61.523,-38.574,-41.016,-60.059
1626465603.290,-57.129,-36.133,-2.930,-19.043
1626465603.292,20.508,-26.367,-15.137,5.859
1626465603.296,48.340,-20.996,-50.781,-20.508
1626465603.300,-29.785,-28.809,-40.039,-49.316
1626465603.304,-76.172,-38.574,7.324,-16.602
1626465603.308,-12.207,-41.016,3.906,22.461
1626465603.312,37.598,-41.992,-34.668,-5.859
1626465603.316,-13.672,-45.898,-38.574,-43.457
1626465603.319,-80.566,-41.016,2.441,-30.762
1626465603.323,-22.461,-31.738,10.254,8.789
1626465603.327,36.621,-30.762,-29.785,-0.488
1626465603.331,5.371,-27.344,-51.270,-45.898
1626465603.335,-83.984,-24.902,-21.973,-58.105
1626465603.352,-57.129,-27.832,-2.930,-8.789
1626465603.356,17.578,-34.180,-28.809,-0.488
1626465603.360,28.320,-40.527,-48.828,-41.504
1626465603.364,-69.824,-41.504,-32.715,-64.453
1626465603.368,-75.195,-36.621,7.324,-24.902
1626465603.372,4.883,-33.203,-11.230,-4.883
1626465603.376,31.738,-34.180,-46.875,-33.691
1626465603.379,-49.316,-38.086,-40.039,-62.988
1626465603.383,-99.609,-37.109,-7.324,-39.551
1626465603.387,-29.297,-28.320,-11.230,-2.441
1626465603.391,24.414,-23.926,-48.340,-16.113
1626465603.395,-22.949,-36.133,-52.246,-56.152
1626465603.397,-97.656,-43.457,-4.395,-54.688
1626465603.401,-31.738,-32.715,10.254,6.836
1626465603.405,42.480,-31.250,-26.855,4.883
1626465603.409,14.160,-43.457,-50.781,-47.363
1626465603.413,-75.195,-41.504,-18.066,-50.781
1626465603.417,-43.945,-19.531,10.254,-1.465
1626465603.421,23.926,-19.531,-24.414,-3.418
1626465603.424,21.973,-23.926,-56.641,-42.969
1626465603.428,-67.383,-31.738,-45.898,-63.965
1626465603.432,-82.031,-38.086,-8.301,-29.297
1626465603.436,-0.488,-24.902,-20.020,5.371
1626465603.440,32.227,-36.133,-56.152,-24.414
1626465603.442,-36.133,-39.062,-46.387,-55.176
1626465603.446,-78.613,-27.832,0.000,-31.250
1626465603.450,-13.672,-21.973,-3.418,9.766
1626465603.454,32.227,-19.531,-43.457,-0.977
1626465603.458,-15.137,-31.250,-49.805,-44.922
1626465603.462,-84.473,-36.621,-8.301,-35.645
1626465603.466,-38.086,-39.551,2.441,8.789
1626465603.469,17.090,-45.410,-36.133,-0.488
1626465603.473,2.930,-44.922,-61.523,-40.527
1626465603.477,-76.660,-44.922,-30.273,-48.340
1626465603.481,-62.500,-37.109,7.812,-4.395
1626465603.485,-4.395,-36.621,-18.066,1.465
1626465603.487,20.508,-39.551,-50.781,-36.621
1626465603.491,-72.266,-41.992,-36.133,-81.055
1626465603.495,-103.027,-40.527,4.883,-41.504
1626465603.499,-20.020,-35.645,-6.348,3.906
1626465603.503,9.766,-38.574,-47.852,-29.785
1626465603.507,-48.828,-40.527,-45.410,-62.988
1626465603.511,-97.656,-37.109,-3.906,-43.945
1626465603.514,-40.039,-33.691,-7.812,-7.324
1626465603.518,12.695,-44.922,-49.805,-26.855
1626465603.522,-20.020,-48.828,-60.059,-64.453
1626465603.526,-96.680,-32.227,-14.648,-57.617
1626465603.530,-57.129,-24.902,2.441,-8.301
1626465603.532,14.160,-33.691,-38.086,-9.277
1626465603.536,2.441,-43.945,-63.477,-52.734
1626465603.540,-95.703,-51.270,-31.250,-83.496
1626465603.544,-86.426,-41.016,0.000,-40.039
1626465603.548,-14.648,-33.203,-20.020,-12.695
1626465603.552,7.324,-35.156,-48.340,-42.480
1626465603.556,-70.312,-36.621,-49.316,-72.266
1626465603.559,-112.305,-44.434,-17.090,-45.410
1626465603.563,-32.715,-42.969,-27.344,-12.695
1626465603.567,22.461,-38.086,-64.941,-35.645
1626465603.571,-38.086,-45.898,-63.965,-68.848
1626465603.575,-110.352,-48.828,-25.879,-55.176
1626465603.577,-42.969,-35.156,-10.742,0.000
1626465603.581,22.949,-31.738,-39.062,-7.812
1626465603.585,-0.977,-41.992,-50.293,-47.363
1626465603.589,-85.938,-54.199,-21.484,-64.941
1626465603.593,-55.176,-47.852,-6.348,-25.391
1626465603.597,22.949,-22.949,-30.762,-9.277
1626465603.601,22.949,-26.855,-53.223,-40.527
1626465603.604,-73.242,-43.945,-42.480,-67.871
1626465603.608,-84.473,-42.480,-20.020,-41.992
1626465603.612,-17.578,-35.645,-40.039,-24.902
1626465603.616,12.695,-28.809,-62.988,-50.781
1626465603.620,-66.895,-27.344,-38.574,-76.172
1626465603.623,-117.188,-22.461,10.742,-58.594
1626465603.627,-57.129,-19.531,0.000,-28.809
1626465603.631,-16.602,-22.949,-39.062,-52.246
1626465603.635,-82.031,-28.809,-32.715,-103.027
1626465603.639,-157.227,-26.367,15.625,-99.121
1626465603.643,-113.281,-24.414,24.414,-59.082
1626465603.647,-63.965,-33.203,-16.113,-77.148
1626465603.650,-85.938,-42.969,-33.691,-120.605
1626465603.654,-169.434,-35.645,-2.441,-126.953
1626465603.658,-141.602,-26.367,24.414,-71.289
1626465603.662,-61.523,-27.832,-11.230,-61.523
1626465603.666,-55.664,-40.039,-47.363,-102.051
1626465603.667,-132.324,-41.016,-18.066,-116.699
1626465603.671,-132.812,-39.062,7.812,-72.266
1626465603.675,-55.176,-41.992,-20.020,-39.551
1626465603.679,-2.930,-35.156,-48.828,-54.688
1626465603.683,-57.129,-33.203,-38.574,-74.707
1626465603.687,-109.863,-32.227,-1.953,-52.246
1626465603.691,-43.945,-33.691,-9.277,-10.254
1626465603.694,20.020,-30.273,-35.645,-19.043
1626465603.698,-22.949,-35.645,-39.551,-50.293
1626465603.702,-99.121,-44.434,-8.301,-40.527
1626465603.706,-42.480,-41.504,0.488,14.160
1626465603.710,22.949,-41.016,-37.598,1.953
1626465603.727,8.301,-47.363,-60.547,-47.852
1626465603.731,-72.266,-55.176,-27.832,-50.781
1626465603.735,-52.246,-48.340,3.906,3.418
1626465603.739,19.043,-41.504,-22.949,22.461
1626465603.743,31.738,-51.270,-51.270,-19.531
1626465603.747,-46.875,-52.734,-36.621,-51.758
1626465603.751,-64.453,-47.852,-9.277,-12.695
1626465603.754,12.207,-41.016,-18.555,26.855
1626465603.758,50.781,-42.480,-55.664,-5.371
1626465603.762,-18.066,-58.105,-57.129,-48.828
1626465603.766,-78.613,-46.875,-9.766,-25.879
1626465603.770,-21.484,-40.527,-2.930,21.973
1626465603.772,42.480,-40.527,-46.387,7.812
1626465603.776,11.719,-42.480,-60.547,-31.738
1626465603.780,-71.289,-49.316,-24.902,-26.855
1626465603.784,-34.180,-40.527,-12.695,11.230
1626465603.788,35.645,-30.762,-38.574,8.789
1626465603.792,42.969,-28.320,-61.035,-21.973
1626465603.796,-48.340,-41.016,-49.316,-41.992
1626465603.799,-40.039,-40.527,-13.184,9.766
1626465603.803,45.898,-33.203,-35.156,31.250
1626465603.807,53.711,-40.527,-71.289,-11.719
1626465603.811,-15.137,-39.062,-48.340,-32.715
1626465603.815,-36.133,-35.156,-11.230,-0.488
1626465603.817,16.113,-32.227,-22.461,33.691
1626465603.821,54.688,-34.180,-54.688,14.160
1626465603.825,1.465,-43.457,-54.688,-28.809
1626465603.829,-55.176,-41.992,-13.184,-16.113
1626465603.833,1.465,-33.203,-6.348,31.250
1626465603.837,51.758,-34.180,-49.316,25.879
1626465603.841,20.996,-43.945,-64.941,-19.043
1626465603.844,-61.035,-43.945,-24.902,-22.949
1626465603.848,-26.367,-37.598,-1.465,27.832
1626465603.852,39.551,-37.109,-39.062,20.996
1626465603.856,43.457,-35.645,-61.523,-16.113
1626465603.860,-34.180,-34.180,-28.809,-29.297
1626465603.863,-35.156,-25.879,10.254,15.625
1626465603.867,28.320,-26.367,-19.043,29.297
1626465603.871,44.434,-35.645,-63.965,-9.277
1626465603.875,-30.762,-46.387,-52.246,-37.598
1626465603.879,-53.223,-39.551,-11.719,-0.977
1626465603.883,25.879,-16.602,-15.625,35.645
1626465603.887,67.871,-17.090,-56.641,-5.371
1626465603.890,8.789,-18.555,-59.570,-52.734
1626465603.894,-69.824,-18.066,-24.414,-46.387
1626465603.898,-20.020,-16.113,-22.461,7.812
1626465603.902,45.898,-17.090,-57.617,6.836
1626465603.906,23.438,-25.391,-76.172,-38.086
1626465603.907,-59.570,-23.438,-43.945,-46.875
1626465603.911,-26.367,-16.602,-12.695,9.766
1626465603.915,46.875,-17.090,-37.109,29.297
1626465603.919,48.340,-26.367,-63.477,-4.395
1626465603.923,-36.621,-23.926,-42.969,-25.879
1626465603.927,-52.246,-17.578,-8.301,1.465
1626465603.931,10.742,-27.832,-36.133,8.789
1626465603.934,29.785,-41.992,-70.312,-26.855
1626465603.938,-44.434,-37.109,-55.664,-56.152
1626465603.942,-79.102,-30.273,-16.113,-27.344
1626465603.946,-16.113,-39.062,-16.602,11.230
1626465603.950,38.086,-35.156,-52.246,-8.301
1626465603.952,0.000,-29.297,-62.500,-46.875
1626465603.956,-80.566,-30.762,-31.250,-53.711
1626465603.960,-34.668,-24.902,-23.926,-16.602
1626465603.964,40.039,-15.625,-57.129,-9.766
1626465603.968,22.461,-23.926,-70.801,-48.828
1626465603.972,-74.707,-31.738,-36.621,-68.359
1626465603.976,-69.824,-31.738,-20.996,-26.367
1626465603.979,-6.348,-32.715,-45.898,-15.625
1626465603.983,25.391,-25.391,-65.918,-44.434
1626465603.987,-55.176,-28.809,-49.805,-57.129
1626465603.991,-77.148,-34.668,-10.742,-18.555
1626465603.995,4.883,-29.297,-28.320,8.789
1626465603.997,46.875,-25.879,-57.617,-12.207
1626465604.001,-18.066,-36.621,-49.316,-45.410
1626465604.005,-68.848,-32.715,-3.906,-22.461
1626465604.009,-5.371,-27.344,-4.883,13.672
1626465604.013,45.410,-31.250,-44.922,-4.395
1626465604.017,1.465,-33.691,-51.270,-45.410
1626465604.021,-84.473,-35.645,-22.461,-54.688
1626465604.024,-43.945,-21.484,-5.371,-2.930
1626465604.028,22.461,-15.625,-32.715,0.488
1626465604.032,12.207,-34.668,-54.199,-38.574
1626465604.036,-68.848,-36.621,-27.344,-42.480
1626465604.040,-60.059,-34.668,0.977,0.000
1626465604.043,4.395,-39.551,-15.625,10.742
1626465604.047,23.926,-38.086,-44.922,-20.996
1626465604.051,-54.688,-39.062,-34.668,-52.246
1626465604.055,-79.102,-39.551,2.930,-15.137
1626465604.059,-1.953,-31.738,-9.277,19.531
1626465604.063,42.969,-34.180,-48.340,-11.719
1626465604.067,-31.250,-47.363,-60.547,-57.129
1626465604.070,-95.215,-39.551,-18.066,-37.109
1626465604.074,-24.902,-26.367,-2.930,21.973
1626465604.078,30.762,-37.598,-44.922,1.953
1626465604.082,-1.465,-41.992,-58.594,-48.340
1626465604.086,-86.914,-27.832,-18.066,-51.270
1626465604.105,-53.223,-24.414,2.441,0.488
1626465604.109,18.066,-27.344,-27.832,7.812
1626465604.113,19.043,-25.879,-57.129,-36.133
1626465604.117,-81.055,-43.457,-40.527,-69.336
1626465604.121,-79.102,-29.785,-6.836,-32.227
1626465604.125,17.578,-9.277,-21.973,-3.418
1626465604.129,30.762,-33.203,-58.594,-38.574
1626465604.132,-55.664,-34.180,-47.363,-74.707
1626465604.136,-80.566,-24.414,-6.348,-35.645
1626465604.140,-20.020,-36.621,-27.832,-5.371
1626465604.144,14.160,-38.086,-67.383,-40.039
1626465604.148,-33.691,-36.621,-59.082,-65.430
1626465604.147,-107.422,-44.922,-17.578,-51.270
1626465604.151,-59.082,-39.062,-15.625,-12.695
1626465604.155,15.137,-33.691,-52.246,-22.949
1626465604.159,4.883,-38.086,-60.059,-56.641
1626465604.163,-75.195,-34.668,-22.949,-59.570
1626465604.167,-51.758,-26.367,0.000,-7.812
1626465604.171,18.066,-31.738,-32.715,10.254
1626465604.174,19.043,-37.598,-59.570,-32.715
1626465604.178,-75.195,-45.898,-46.387,-67.383
1626465604.182,-79.102,-49.805,-16.113,-23.926
1626465604.186,3.418,-36.621,-31.250,5.859
1626465604.190,38.086,-34.180,-56.641,-24.414
1626465604.192,-27.832,-37.598,-41.016,-50.293
1626465604.196,-80.078,-34.668,-11.230,-27.344
1626465604.200,-17.578,-26.855,-12.695,15.137
1626465604.204,41.992,-30.273,-42.969,-0.488
1626465604.208,-0.977,-38.086,-50.293,-44.922
1626465604.212,-70.312,-31.250,-11.230,-31.250
1626465604.216,-28.320,-38.086,-2.441,12.695
1626465604.219,30.762,-40.527,-41.016,-2.930
1626465604.223,12.695,-40.039,-62.012,-49.805
1626465604.227,-84.473,-41.016,-27.832,-63.965
1626465604.231,-71.289,-34.180,3.906,-6.836
1626465604.235,3.418,-34.668,-29.785,3.418
1626465604.237,24.902,-31.738,-55.176,-36.621
1626465604.241,-72.266,-36.133,-43.945,-61.523
1626465604.245,-96.680,-34.668,-8.789,-23.438
1626465604.249,-15.137,-30.762,-11.719,5.371
1626465604.253,22.461,-32.715,-46.875,-21.973
1626465604.257,-28.809,-28.320,-36.621,-51.270
1626465604.261,-84.473,-24.414,7.812,-36.621
1626465604.264,-26.367,-23.926,0.000,0.977
1626465604.268,29.785,-39.551,-51.758,-16.602
1626465604.272,-6.836,-43.945,-61.035,-58.594
1626465604.276,-87.891,-39.062,-12.207,-56.641
1626465604.280,-53.711,-41.016,-0.488,-9.277
1626465604.282,20.996,-34.180,-35.156,-0.488
1626465604.286,8.301,-38.086,-51.758,-35.645
1626465604.290,-88.379,-43.945,-24.902,-63.477
1626465604.294,-76.172,-34.180,3.906,-20.508
1626465604.298,-1.953,-29.785,-16.602,-1.465
1626465604.302,21.973,-36.621,-45.410,-38.574
1626465604.306,-68.848,-41.504,-39.551,-67.871
1626465604.309,-108.398,-40.039,-9.766,-40.039
1626465604.313,-26.367,-29.785,-13.184,-1.953
1626465604.317,26.367,-30.273,-43.457,-17.578
1626465604.321,-34.180,-41.504,-49.805,-57.617
1626465604.325,-101.074,-47.852,-12.207,-54.688
1626465604.329,-40.039,-39.062,-7.812,-7.324
1626465604.333,31.250,-23.438,-39.062,-4.883
1626465604.337,7.324,-24.902,-54.199,-42.480
1626465604.341,-78.613,-27.344,-19.531,-44.922
1626465604.345,-29.785,-16.113,8.301,14.648
1626465604.349,49.805,-9.277,-28.320,22.949
1626465604.353,38.574,-24.414,-60.059,-30.762
1626465604.356,-56.641,-32.715,-34.668,-56.152
1626465604.360,-49.316,-27.344,0.977,-1.953
1626465604.364,20.508,-27.832,-10.742,23.438
1626465604.368,37.109,-28.809,-40.039,-16.113
1626465604.372,-39.551,-30.762,-40.039,-53.711
1626465604.372,-69.824,-24.902,-2.441,-19.531
1626465604.376,-7.324,-28.809,-7.324,12.695
1626465604.380,35.645,-38.574,-54.199,-20.508
1626465604.384,-15.625,-34.668,-56.641,-60.547
1626465604.388,-83.008,-29.297,-5.371,-35.645
1626465604.392,-24.414,-23.438,-0.977,17.578
1626465604.396,29.785,-34.180,-41.016,-0.977
1626465604.399,-1.465,-44.922,-55.176,-45.410
1626465604.403,-75.195,-36.621,-19.043,-39.062
1626465604.407,-41.992,-34.180,4.883,11.230
1626465604.411,34.180,-35.156,-28.809,12.207
1626465604.415,31.738,-45.410,-50.781,-25.391
1626465604.417,-73.730,-46.387,-28.320,-52.734
1626465604.421,-74.219,-27.344,-3.418,-4.883
1626465604.425,25.391,-19.531,-19.043,33.691
1626465604.429,39.062,-30.762,-47.363,-18.066
1626465604.433,-66.406,-40.039,-36.621,-69.336
1626465604.437,-116.211,-41.016,6.836,-48.828
1626465604.441,-59.082,-42.969,-12.207,-29.297
1626465604.444,-12.695,-56.152,-53.711,-58.594
1626465604.448,-71.777,-64.941,-48.828,-104.004
1626465604.452,-150.391,-56.152,-11.230,-99.121
1626465604.456,-109.863,-53.223,0.000,-56.641
1626465604.460,-49.316,-51.758,-36.133,-60.059
1626465604.477,-40.039,-43.945,-51.758,-84.961
1626465604.481,-118.652,-47.363,-22.949,-93.262
1626465604.485,-103.027,-52.246,-6.348,-45.410
1626465604.489,-27.832,-52.246,-35.645,-34.668
1626465604.493,-12.695,-51.270,-65.430,-75.684
1626465604.497,-83.496,-45.410,-44.434,-99.121
1626465604.501,-92.285,-40.039,-8.789,-49.805
1626465604.504,-39.062,-49.805,-32.227,-20.508
1626465604.508,5.859,-52.734,-59.570,-43.945
1626465604.512,-49.316,-46.387,-45.898,-77.148
1626465604.516,-98.145,-40.039,-12.207,-55.664
1626465604.520,-41.504,-37.598,-19.531,-10.742
1626465604.522,13.672,-37.598,-48.828,-30.273
1626465604.526,-12.207,-42.969,-54.199,-76.660
1626465604.530,-102.051,-43.457,-25.391,-71.289
1626465604.534,-69.824,-41.992,-18.066,-23.438
1626465604.538,1.953,-43.945,-47.852,-31.738
1626465604.542,-0.488,-35.645,-57.617,-73.242
1626465604.546,-91.309,-38.086,-31.738,-86.914
1626465604.549,-79.102,-33.203,-3.418,-35.645
1626465604.553,0.000,-30.762,-33.203,-14.648
1626465604.557,11.719,-45.898,-74.707,-52.246
1626465604.561,-62.988,-40.039,-48.340,-74.707
1626465604.565,-87.402,-27.832,-4.395,-38.574
1626465604.568,-18.555,-29.785,-13.184,-11.230
1626465604.572,36.133,-31.738,-38.574,-34.180
1626465604.576,-30.273,-38.086,-51.270,-68.848
1626465604.580,-105.957,-47.363,-21.484,-62.012
1626465604.584,-49.805,-37.109,-16.113,-19.043
1626465604.588,19.043,-27.344,-49.316,-27.832
1626465604.592,-2.441,-32.715,-63.965,-66.406
1626465604.595,-103.027,-47.363,-30.762,-74.707
1626465604.599,-70.312,-51.270,-12.207,-30.273
1626465604.603,11.230,-36.133,-39.062,-25.391
1626465604.607,11.230,-25.879,-56.152,-58.594
1626465604.611,-87.891,-29.297,-31.250,-75.195
1626465604.612,-91.309,-33.203,-3.906,-41.016
1626465604.616,-11.230,-39.551,-31.250,-33.203
1626465604.620,11.230,-49.805,-69.824,-67.383
1626465604.624,-71.777,-52.734,-52.734,-86.914
1626465604.628,-102.539,-44.434,-4.883,-58.105
1626465604.632,-29.785,-40.527,-15.625,-26.367
1626465604.636,9.277,-44.434,-59.082,-44.434
1626465604.639,-42.969,-42.969,-62.012,-77.637
1626465604.643,-106.445,-52.734,-23.926,-57.617
1626465604.647,-56.641,-51.758,-18.555,-8.301
1626465604.651,11.230,-40.039,-43.457,-11.719
1626465604.655,-4.395,-40.527,-54.688,-43.945
1626465604.672,-88.379,-30.762,-20.996,-43.945
1626465604.676,-53.223,-26.367,3.418,17.090
1626465604.680,18.066,-37.598,-36.133,19.043
1626465604.684,16.602,-43.457,-64.453,-34.668
1626465604.688,-69.336,-43.457,-38.574,-58.594
1626465604.692,-67.871,-32.715,6.348,-13.184
1626465604.696,3.906,-26.367,-14.160,15.625
1626465604.699,20.020,-50.781,-67.383,-21.973
1626465604.703,-58.105,-62.012,-63.965,-56.152
1626465604.707,-83.496,-38.574,-8.301,-20.996
1626465604.711,-5.859,-22.461,-14.648,18.066
1626465604.715,39.062,-28.809,-62.988,-7.324
1626465604.702,-6.836,-30.273,-58.594,-51.758
1626465604.706,-67.871,-31.250,-15.625,-48.340
1626465604.710,-15.625,-38.574,-12.695,2.930
1626465604.714,32.227,-36.133,-57.129,-13.672
1626465604.718,-1.465,-40.039,-67.871,-63.965
1626465604.722,-82.031,-41.992,-21.484,-54.199
1626465604.726,-47.363,-29.785,6.348,6.836
1626465604.729,18.555,-28.809,-24.902,8.789
1626465604.733,13.184,-43.457,-51.758,-34.180
1626465604.737,-69.336,-52.734,-31.738,-51.270
1626465604.741,-73.730,-41.504,-4.883,-9.766
1626465604.745,-7.812,-36.133,-25.391,8.301
1626465604.747,18.066,-40.527,-52.734,-21.484
1626465604.751,-44.922,-42.480,-37.109,-50.781
1626465604.755,-89.355,-38.574,0.488,-34.180
1626465604.759,-11.719,-31.738,-15.625,2.930
1626465604.763,42.969,-31.250,-56.152,-23.438
1626465604.767,-14.160,-33.691,-59.570,-66.406
1626465604.771,-86.914,-36.133,-19.043,-54.688
1626465604.774,-26.367,-26.367,-2.441,1.465
1626465604.778,39.062,-22.461,-42.969,-0.488
1626465604.782,12.207,-27.344,-59.082,-42.969
1626465604.786,-75.684,-34.668,-31.738,-48.340
1626465604.790,-51.758,-35.156,-14.648,0.977
1626465604.794,15.137,-33.691,-38.574,11.719
1626465604.798,16.113,-42.480,-62.988,-39.062
1626465604.802,-76.660,-43.457,-46.875,-74.219
1626465604.806,-85.938,-34.668,-13.672,-28.809
1626465604.810,-10.254,-31.738,-30.762,1.465
1626465604.814,24.902,-32.715,-63.477,-32.227
1626465604.818,-40.039,-46.875,-60.547,-74.707
1626465604.821,-101.562,-50.293,-12.695,-55.664
1626465604.825,-40.039,-38.574,-4.883,-9.277
1626465604.829,1.465,-45.898,-50.781,-35.156
1626465604.833,-41.504,-53.711,-62.988,-72.266
1626465604.837,-104.004,-39.062,-22.461,-57.617
1626465604.852,-44.922,-21.484,-3.418,1.953
1626465604.856,16.602,-29.297,-37.109,11.230
1626465604.860,-7.812,-46.387,-62.500,-37.109
1626465604.864,-93.750,-43.457,-29.297,-48.828
1626465604.868,-67.871,-25.391,7.812,0.977
1626465604.872,11.719,-25.879,-28.320,6.348
1626465604.876,9.277,-37.598,-77.637,-33.691
1626465604.879,-71.289,-35.645,-49.805,-58.105
1626465604.883,-79.590,-34.180,-4.395,-25.391
1626465604.887,-7.812,-33.203,-19.531,10.254
1626465604.891,22.461,-31.250,-62.012,-12.207
1626465604.895,-39.551,-39.551,-61.523,-61.035
1626465604.897,-96.680,-37.109,-7.812,-49.316
1626465604.901,-30.762,-25.391,-4.883,0.977
1626465604.905,21.973,-20.996,-47.852,-21.484
1626465604.909,-23.926,-29.297,-60.547,-70.801
1626465604.913,-100.586,-44.922,-26.855,-72.754
1626465604.917,-57.617,-34.668,-7.324,-22.461
1626465604.921,4.395,-28.809,-45.410,-14.160
1626465604.924,3.906,-35.156,-66.406,-45.410
1626465604.928,-81.543,-39.062,-33.203,-62.988
1626465604.932,-83.496,-37.598,-2.441,-25.879
1626465604.936,-11.719,-34.668,-29.785,-8.789
1626465604.940,2.930,-45.898,-69.824,-40.039
1626465604.942,-70.312,-46.387,-51.758,-64.941
1626465604.946,-91.797,-39.062,-8.301,-34.180
1626465604.950,-20.996,-40.039,-19.531,0.488
1626465604.954,19.043,-35.645,-53.223,-21.484
1626465604.958,-33.691,-35.156,-54.199,-63.965
1626465604.962,-88.379,-29.785,-16.602,-47.363
1626465604.966,-32.715,-27.344,-7.812,1.465
1626465604.969,18.066,-33.691,-52.734,-10.742
1626465604.973,-22.949,-37.598,-74.707,-56.641
1626465604.977,-106.445,-34.668,-31.250,-67.871
1626465604.981,-50.293,-24.902,-3.418,-15.137
1626465604.985,29.297,-19.043,-32.715,0.977
1626465604.987,27.832,-25.391,-66.406,-43.457
1626465604.991,-55.664,-29.297,-40.527,-71.289
1626465604.995,-59.082,-20.996,2.441,-25.879
1626465604.999,17.090,-25.879,-19.531,7.324
1626465605.003,44.434,-30.273,-54.199,-28.809
1626465605.007,-33.203,-29.297,-40.527,-67.383
1626465605.011,-71.289,-20.996,0.977,-32.715
1626465605.014,-8.789,-14.160,-6.836,5.371
1626465605.018,20.508,-37.598,-54.688,-15.137
1626465605.022,-25.879,-49.316,-58.105,-47.363
1626465605.026,-87.402,-41.992,-10.254,-35.156
1626465605.030,-30.762,-30.273,4.395,14.160
1626465605.034,23.926,-27.344,-35.645,11.719
1626465605.038,-1.465,-38.574,-59.082,-34.668
1626465605.042,-88.867,-36.133,-27.832,-56.641
1626465605.046,-70.312,-23.926,2.930,-7.324
1626465605.050,14.160,-21.484,-21.973,13.184
1626465605.054,20.996,-34.668,-55.664,-30.762
1626465605.058,-60.547,-33.691,-27.832,-58.594
1626465605.061,-75.195,-33.691,0.000,-32.227
1626465605.065,-0.977,-27.832,-25.391,-13.672
1626465605.069,41.992,-15.137,-60.547,-41.504
1626465605.073,-31.250,-27.344,-60.059,-72.754
1626465605.077,-77.148,-22.949,-8.301,-41.016
1626465605.077,-8.301,-10.742,-5.371,8.789
1626465605.081,39.062,-29.297,-49.805,-9.277
1626465605.085,-7.324,-40.527,-59.082,-51.270
1626465605.089,-83.008,-39.062,-19.531,-41.992
1626465605.093,-28.809,-29.297,-0.488,14.648
1626465605.097,49.805,-28.809,-40.039,10.742
1626465605.101,29.785,-42.969,-67.383,-41.992
1626465605.104,-84.961,-51.270,-33.203,-59.570
1626465605.108,-57.129,-32.715,0.488,4.395
1626465605.112,14.648,-30.762,-27.832,14.160
1626465605.116,15.137,-39.062,-64.941,-35.156
1626465605.120,-58.105,-33.691,-52.734,-64.941
1626465605.122,-74.707,-35.645,-13.672,-27.832
1626465605.126,-13.184,-35.645,-24.414,6.836
1626465605.130,26.855,-31.250,-53.711,-23.438
1626465605.134,-24.414,-37.109,-44.922,-61.523
1626465605.138,-78.613,-29.785,0.977,-37.109
1626465605.142,-18.555,-17.578,0.488,7.324
1626465605.146,31.250,-28.809,-47.363,-7.324
1626465605.149,1.953,-34.180,-53.223,-47.363
1626465605.153,-71.777,-32.715,-10.254,-51.758
1626465605.157,-38.574,-36.133,6.348,3.906
1626465605.161,28.809,-30.273,-25.879,15.137
1626465605.165,21.484,-28.320,-46.875,-23.926
1626465605.167,-76.172,-34.668,-25.391,-54.199
1626465605.171,-63.965,-31.738,5.371,-13.184
1626465605.175,13.184,-32.227,-15.137,13.184
1626465605.179,24.902,-39.551,-51.758,-25.391
1626465605.183,-55.176,-43.457,-39.062,-65.918
1626465605.187,-90.332,-39.551,3.906,-32.715
1626465605.191,-20.508,-43.457,-9.766,6.348
1626465605.194,29.297,-42.969,-45.410,-20.508
1626465605.198,-18.555,-32.227,-44.922,-54.199
1626465605.202,-83.984,-37.109,-9.766,-31.738
1626465605.206,-22.461,-29.785,7.324,20.020
1626465605.210,38.574,-29.785,-35.156,5.859
1626465605.227,4.883,-40.527,-57.617,-37.598
1626465605.231,-77.637,-28.809,-14.648,-45.410
1626465605.235,-48.828,-29.297,-1.465,-1.953
1626465605.239,17.090,-37.109,-32.715,1.953
1626465605.243,25.879,-30.762,-52.246,-33.203
1626465605.247,-52.734,-28.809,-29.785,-54.688
1626465605.251,-55.664,-25.391,6.836,-12.207
1626465605.254,14.648,-29.297,-7.812,17.090
1626465605.258,39.062,-40.527,-45.410,-15.137
1626465605.262,-33.203,-45.898,-45.898,-51.758
1626465605.266,-73.242,-33.691,1.953,-28.320
1626465605.270,-14.648,-22.461,-3.418,14.160
1626465605.273,34.668,-32.227,-47.363,-2.930
1626465605.277,-7.812,-32.715,-48.340,-47.852
1626465605.281,-99.609,-31.250,-10.254,-45.898
1626465605.285,-53.223,-35.156,2.930,4.883
1626465605.289,20.020,-32.227,-27.832,5.859
1626465605.293,11.230,-31.250,-42.969,-35.645
1626465605.297,-70.801,-24.414,-13.184,-49.805
1626465605.300,-48.340,-20.020,11.230,0.977
1626465605.304,20.020,-38.086,-24.902,10.742
1626465605.308,20.508,-42.480,-64.453,-33.691
1626465605.312,-59.082,-30.762,-33.691,-55.176
1626465605.316,-68.848,-31.738,9.277,-14.648
1626465605.317,6.348,-30.762,-6.836,14.160
1626465605.321,31.250,-32.227,-42.480,-18.066
1626465605.325,-28.809,-37.598,-39.062,-51.270
1626465605.329,-68.848,-34.180,0.488,-24.902
1626465605.333,-8.789,-22.461,5.371,14.160
1626465605.337,46.387,-18.066,-30.762,0.488
1626465605.341,9.277,-26.855,-37.109,-33.203
1626465605.344,-79.102,-34.180,-4.883,-43.945
1626465605.348,-43.457,-40.527,-4.883,1.953
1626465605.352,26.855,-44.434,-36.621,2.930
1626465605.356,10.742,-39.062,-49.805,-40.039
1626465605.360,-71.289,-33.203,-18.555,-51.270
1626465605.363,-51.270,-25.391,6.348,-6.348
1626465605.367,16.602,-22.949,-20.020,9.766
1626465605.371,32.227,-20.020,-39.062,-25.391
1626465605.375,-53.223,-20.020,-35.156,-64.941
1626465605.379,-77.637,-30.273,-8.301,-35.156
1626465605.383,-3.906,-34.668,-9.766,4.395
1626465605.387,27.832,-40.039,-57.129,-26.855
1626465605.390,-30.273,-41.992,-55.664,-62.012
1626465605.394,-81.055,-31.738,-10.742,-39.062
1626465605.398,-27.344,-26.367,-20.020,-1.465
1626465605.402,21.484,-30.762,-50.293,-18.066
1626465605.406,-16.602,-41.992,-58.105,-63.477
1626465605.408,-87.402,-44.922,-21.973,-63.965
1626465605.412,-41.504,-30.273,6.836,5.371
1626465605.416,24.902,-33.691,-28.320,19.043
1626465605.420,15.137,-41.016,-61.523,-32.227
1626465605.424,-68.848,-26.367,-34.668,-56.641
1626465605.428,-54.688,-20.996,-7.324,-15.625
1626465605.432,7.812,-32.715,-34.668,-8.789
1626465605.435,9.766,-41.016,-65.430,-44.922
1626465605.439,-66.895,-44.434,-47.363,-69.336
1626465605.443,-85.938,-42.969,-4.883,-30.762
1626465605.447,-5.859,-34.180,-18.555,7.812
1626465605.451,27.344,-33.203,-58.105,-22.949
1626465605.452,-43.945,-37.598,-56.152,-62.012
1626465605.456,-94.238,-32.715,-12.695,-42.480
1626465605.460,-37.598,-41.504,-13.184,0.000
1626465605.464,23.438,-35.645,-47.852,-7.324
1626465605.468,7.324,-34.668,-52.246,-36.133
1626465605.472,-74.219,-41.992,-19.531,-43.457
1626465605.476,-43.945,-41.504,-0.488,-3.906
1626465605.479,20.508,-42.480,-33.203,-0.488
1626465605.483,16.113,-35.645,-63.477,-39.551
1626465605.487,-76.660,-40.039,-46.875,-63.965
1626465605.491,-69.336,-39.062,-6.836,-21.973
1626465605.495,7.812,-39.062,-16.602,5.859
1626465605.498,27.832,-46.875,-51.758,-26.367
1626465605.502,-46.387,-51.758,-44.434,-60.547
1626465605.506,-76.172,-45.898,-1.465,-26.855
1626465605.510,-8.301,-39.062,-11.719,9.766
1626465605.514,34.180,-30.762,-54.688,-17.578
1626465605.518,-18.066,-31.250,-43.945,-54.688
1626465605.522,-84.473,-36.133,-4.883,-45.898
1626465605.525,-25.879,-33.691,-11.719,-1.465
1626465605.529,26.367,-36.133,-43.457,-6.836
1626465605.533,-5.859,-37.109,-49.805,-49.805
1626465605.537,-82.031,-35.156,-17.578,-62.012
1626465605.541,-51.758,-30.273,4.395,-11.719
1626465605.542,28.320,-19.531,-21.973,11.230
1626465605.546,36.621,-27.832,-51.270,-32.227
1626465605.550,-62.500,-41.992,-31.738,-70.801
1626465605.554,-73.242,-36.133,7.324,-21.484
1626465605.558,-0.977,-26.367,-10.742,12.695
1626465605.562,35.645,-35.156,-50.293,-12.207
1626465605.566,-36.621,-53.711,-53.223,-51.758
1626465605.569,-96.191,-53.711,-12.695,-41.992
1626465605.573,-33.203,-40.527,-9.277,0.977
1626465605.577,22.949,-36.621,-51.758,-12.207
1626465605.581,-12.695,-42.480,-54.199,-50.293
1626465605.585,-87.402,-41.504,-4.395,-39.551
1626465605.602,-47.363,-39.551,6.836,9.766
1626465605.606,27.832,-34.668,-28.809,11.719
1626465605.610,13.184,-39.062,-56.152,-23.438
1626465605.614,-90.332,-49.316,-32.227,-55.664
1626465605.618,-62.988,-32.715,1.465,-7.812
1626465605.622,25.879,-17.090,-19.531,22.949
1626465605.626,41.016,-27.832,-47.852,-17.090
1626465605.629,-48.340,-32.715,-33.203,-53.711
1626465605.633,-64.453,-24.414,4.395,-16.113
1626465605.637,-3.418,-32.715,-20.020,6.836
1626465605.641,19.043,-41.016,-61.035,-29.297
1626465605.645,-48.828,-41.992,-61.035,-67.871
1626465605.647,-98.145,-35.156,-12.695,-43.457
1626465605.651,-32.227,-32.715,-2.930,-0.488
1626465605.655,20.996,-38.086,-43.457,-25.879
1626465605.659,-10.742,-42.969,-54.199,-62.988
1626465605.663,-90.332,-43.945,-19.043,-56.641
1626465605.667,-53.223,-41.016,-3.906,-8.789
1626465605.671,15.137,-34.180,-39.551,-4.395
1626465605.674,12.207,-38.086,-61.035,-40.039
1626465605.678,-79.102,-42.480,-33.691,-57.129
1626465605.682,-71.777,-35.645,-5.371,-17.578
1626465605.686,14.648,-32.715,-12.695,1.953
1626465605.690,31.738,-39.062,-41.992,-28.320
1626465605.707,-60.059,-47.852,-46.875,-66.406
1626465605.711,-90.820,-41.504,-10.742,-45.898
1626465605.715,-7.812,-27.832,-11.719,-1.953
1626465605.719,42.969,-25.391,-46.875,-17.090
1626465605.723,-16.602,-33.691,-47.363,-56.152
1626465605.727,-68.848,-32.715,1.465,-42.969
1626465605.731,-23.926,-35.156,-6.348,7.812
1626465605.734,23.438,-41.992,-49.805,-5.371
1626465605.738,0.977,-44.922,-59.082,-56.152
1626465605.742,-92.285,-47.363,-19.043,-56.641
1626465605.746,-60.059,-41.504,1.953,-11.230
1626465605.750,18.555,-42.969,-29.785,-5.859
1626465605.738,24.414,-41.992,-49.805,-39.551
1626465605.742,-69.336,-43.945,-30.273,-65.430
1626465605.746,-72.754,-44.922,-0.977,-18.066
1626465605.750,0.488,-38.574,-25.391,4.395
1626465605.754,31.250,-36.133,-54.688,-36.133
1626465605.758,-49.316,-37.109,-45.410,-67.383
1626465605.762,-99.609,-45.898,-11.719,-42.969
1626465605.765,-18.555,-46.387,-9.277,-0.977
1626465605.769,32.715,-40.039,-47.852,-13.184
1626465605.773,-26.855,-53.711,-63.477,-59.570
1626465605.777,-90.332,-49.805,-17.578,-58.594
1626465605.781,-44.434,-38.086,-4.395,-13.184
1626465605.782,11.230,-39.062,-41.992,-14.648
1626465605.786,11.719,-37.109,-45.410,-44.922
1626465605.790,-69.336,-41.016,-10.254,-47.852
1626465605.794,-51.270,-38.574,4.883,0.000
1626465605.798,14.160,-41.504,-33.203,9.766
1626465605.802,22.461,-43.457,-58.105,-17.578
1626465605.806,-63.477,-40.527,-32.715,-46.875
1626465605.809,-83.008,-39.062,-3.418,-20.996
1626465605.813,-13.672,-37.598,-24.414,8.789
1626465605.817,17.578,-39.062,-53.711,-19.043
1626465605.821,-43.945,-41.504,-45.410,-53.223
1626465605.825,-98.145,-51.270,-6.836,-37.109
1626465605.829,-41.992,-54.199,-18.066,-10.742
1626465605.833,22.949,-41.504,-52.734,-29.297
1626465605.837,-11.230,-38.574,-54.199,-63.477
1626465605.841,-91.309,-39.551,-18.066,-62.500
1626465605.845,-32.715,-25.391,2.930,-2.930
1626465605.849,43.945,-22.949,-37.598,1.953
1626465605.853,15.625,-42.480,-66.895,-47.363
1626465605.856,-86.914,-52.246,-34.668,-66.406
1626465605.860,-75.195,-44.922,-1.953,-28.320
1626465605.864,-5.371,-44.434,-27.344,-19.043
1626465605.868,12.207,-35.156,-55.176,-44.922
1626465605.872,-70.312,-35.645,-34.180,-66.895
1626465605.887,-96.191,-48.828,0.488,-41.504
1626465605.891,-29.785,-43.457,-18.555,-17.090
1626465605.895,16.602,-31.738,-56.152,-34.668
1626465605.899,-45.898,-40.527,-49.805,-77.148
1626465605.903,-93.750,-40.039,-5.371,-57.129
1626465605.907,-20.508,-29.785,-7.812,-1.953
1626465605.911,30.273,-33.203,-44.922,-14.648
1626465605.914,-9.277,-39.551,-48.828,-58.105
1626465605.918,-89.844,-41.504,-15.137,-54.688
1626465605.922,-51.270,-36.133,-3.906,-2.441
1626465605.926,21.484,-28.809,-33.691,-0.977
1626465605.930,22.949,-23.926,-59.570,-38.086
1626465605.918,-67.383,-25.879,-35.645,-52.734
1626465605.922,-62.500,-35.156,-6.348,-11.719
1626465605.926,19.531,-34.180,-35.645,14.648
1626465605.930,39.551,-32.227,-61.523,-16.113
1626465605.934,-56.641,-41.016,-38.086,-55.664
1626465605.938,-90.332,-48.340,6.836,-22.949
1626465605.942,-14.648,-41.992,-2.930,14.160
1626465605.945,25.391,-42.969,-47.852,-13.672
1626465605.949,-19.531,-46.387,-50.293,-50.781
1626465605.953,-76.660,-42.969,-9.277,-39.551
1626465605.957,-30.273,-42.969,-13.184,-3.906
1626465605.961,41.016,-28.809,-39.551,-5.859
1626465605.978,24.902,-20.020,-40.527,-33.691
1626465605.982,-60.059,-27.832,-5.859,-38.574
1626465605.986,-41.992,-34.668,5.371,1.953
1626465605.990,20.508,-34.180,-33.691,-2.441
1626465605.994,22.461,-34.668,-55.664,-52.246
1626465605.998,-70.312,-46.387,-32.715,-70.801
1626465606.002,-64.453,-39.551,-0.488,-15.625
1626465606.005,12.207,-23.438,-20.996,16.113
1626465606.009,25.879,-27.344,-55.176,-23.926
1626465606.013,-46.387,-26.855,-38.086,-60.547
1626465606.017,-76.172,-15.137,9.277,-28.809
1626465606.021,-8.789,-22.461,-4.395,6.836
1626465606.022,38.574,-34.180,-51.758,-23.438
1626465606.026,-15.625,-34.668,-55.664,-65.918
1626465606.030,-77.148,-17.578,-9.277,-46.875
1626465606.034,-20.996,-15.137,-3.418,0.488
1626465606.038,27.832,-31.738,-44.922,-14.160
1626465606.042,16.602,-29.785,-53.223,-49.316
1626465606.046,-68.848,-30.762,-26.367,-55.664
1626465606.049,-62.500,-34.668,-5.371,-14.648
1626465606.053,6.836,-39.551,-32.227,-5.859
1626465606.057,17.578,-41.992,-61.523,-45.410
1626465606.061,-70.801,-32.715,-41.504,-73.242
1626465606.065,-81.055,-26.367,-3.418,-28.320
1626465606.067,0.488,-31.250,-13.672,1.465
1626465606.071,41.016,-32.227,-46.875,-22.461
1626465606.075,-34.668,-33.203,-43.945,-59.570
1626465606.079,-84.961,-33.691,-9.277,-43.945
1626465606.083,-26.367,-33.691,-13.184,0.977
1626465606.087,28.320,-22.461,-43.945,-4.883
1626465606.091,-14.648,-25.879,-52.246,-44.922
1626465606.094,-104.004,-39.551,-13.672,-43.457
1626465606.098,-65.918,-41.016,-5.859,-1.953
1626465606.102,8.301,-41.016,-49.316,-8.789
1626465606.106,9.766,-40.039,-67.871,-52.246
1626465606.110,-87.402,-49.316,-35.645,-78.125
1626465606.112,-74.707,-46.875,-1.953,-24.902
1626465606.116,11.230,-35.645,-28.809,-1.953
1626465606.120,35.645,-27.344,-58.594,-32.715
1626465606.124,-54.199,-30.762,-38.086,-58.105
1626465606.128,-81.543,-35.156,-4.883,-29.297
1626465606.132,-3.906,-32.227,-20.508,-2.930
1626465606.136,36.133,-35.645,-55.664,-29.297
1626465606.139,-35.645,-41.504,-59.082,-57.129
1626465606.143,-103.027,-52.246,-21.484,-45.898
1626465606.147,-45.410,-46.875,-19.531,-15.137
1626465606.151,12.695,-39.551,-55.176,-26.855
1626465606.155,-23.438,-40.039,-58.594,-62.500
1626465606.157,-95.703,-28.320,-15.137,-57.617
1626465606.161,-51.758,-27.832,-4.395,-15.137
1626465606.165,17.090,-31.250,-41.504,-20.996
1626465606.169,8.301,-39.551,-57.617,-53.223
1626465606.173,-79.102,-46.875,-28.809,-59.082
1626465606.177,-63.965,-29.297,3.418,-17.090
1626465606.181,13.184,-15.625,-18.555,-0.977
1626465606.184,29.297,-29.297,-58.105,-32.227
1626465606.188,-53.711,-41.504,-53.711,-65.918
1626465606.192,-76.172,-39.062,-10.742,-23.926
1626465606.196,-19.531,-34.668,-14.160,13.672
1626465606.200,14.648,-41.992,-51.270,-18.066
1626465606.204,-40.527,-51.270,-55.176,-54.199
1626465606.208,-104.980,-42.969,-11.230,-45.410
1626465606.212,-48.828,-42.969,-6.348,-6.836
1626465606.216,12.695,-44.922,-54.688,-15.137
1626465606.220,-14.648,-41.016,-72.754,-54.688
1626465606.224,-97.656,-45.410,-27.344,-61.523
1626465606.228,-59.082,-41.992,-6.836,-22.461
1626465606.231,11.230,-40.527,-43.457,-23.438
1626465606.235,14.648,-42.480,-62.988,-55.176
1626465606.239,-70.312,-42.480,-38.086,-67.383
1626465606.243,-72.266,-41.016,-9.766,-22.461
1626465606.247,10.742,-28.809,-35.156,5.371
1626465606.247,42.480,-21.973,-62.500,-21.484
1626465606.251,-38.574,-36.133,-41.504,-55.176
1626465606.255,-72.754,-37.598,-0.977,-21.973
1626465606.259,-7.812,-36.133,-14.648,6.836
1626465606.263,29.785,-33.203,-50.781,-16.602
1626465606.267,-14.160,-33.691,-46.875,-50.293
1626465606.271,-84.961,-53.711,-21.484,-53.711
1626465606.274,-30.273,-53.223,-20.508,-6.836
1626465606.278,41.504,-37.598,-48.828,0.977
1626465606.282,9.766,-41.504,-67.383,-40.039
1626465606.286,-77.637,-39.551,-32.227,-47.852
1626465606.290,-47.852,-30.762,0.000,6.348
1626465606.295,22.461,-30.762,-28.320,18.066
1626465606.299,20.508,-41.504,-58.594,-25.879
1626465606.303,-83.984,-51.758,-43.945,-56.152
1626465606.307,-83.008,-46.387,-4.883,-8.301
1626465606.311,5.371,-37.598,-12.695,15.137
1626465606.315,33.203,-34.668,-52.246,-23.438
1626465606.319,-32.715,-32.715,-52.734,-50.293
1626465606.322,-68.848,-31.738,-5.859,-24.902
1626465606.326,-3.906,-31.250,-10.742,7.812
1626465606.330,33.203,-42.480,-54.199,-11.719
1626465606.334,-26.855,-57.617,-58.105,-50.781
1626465606.338,-89.844,-52.734,-11.719,-47.363
1626465606.352,-32.715,-40.039,0.488,-1.953
1626465606.356,20.996,-33.691,-38.574,-4.395
1626465606.360,-1.465,-35.645,-62.012,-46.875
1626465606.364,-84.961,-41.016,-38.086,-54.688
1626465606.368,-59.082,-39.062,-18.066,-8.301
1626465606.372,8.789,-40.527,-45.898,-7.812
1626465606.376,14.160,-41.504,-67.871,-43.945
1626465606.379,-74.219,-38.086,-49.316,-68.359
1626465606.383,-89.355,-33.691,-6.836,-25.391
1626465606.387,-12.207,-30.273,-19.043,3.906
1626465606.391,16.602,-36.621,-56.152,-38.086
1626465606.395,-60.059,-43.945,-45.898,-69.336
1626465606.397,-107.422,-36.621,-1.465,-41.992
1626465606.401,-37.598,-35.645,0.977,-6.836
1626465606.405,18.066,-36.133,-46.387,-24.414
1626465606.409,-27.344,-37.109,-64.941,-69.824
1626465606.413,-97.656,-34.668,-22.461,-61.035
1626465606.417,-37.598,-22.949,-5.859,-4.395
1626465606.421,24.414,-22.461,-45.410,-12.207
1626465606.424,13.672,-27.344,-62.012,-51.758
1626465606.428,-72.266,-21.484,-26.855,-62.500
1626465606.432,-65.430,-28.809,4.883,-19.043
1626465606.436,9.277,-46.387,-20.020,-11.230
1626465606.440,24.414,-45.410,-50.781,-43.945
1626465606.442,-61.035,-38.574,-31.738,-68.848
1626465606.446,-77.637,-35.645,2.930,-37.109
1626465606.450,0.488,-25.391,-17.090,1.465
1626465606.454,34.180,-27.344,-56.152,-20.020
1626465606.458,-23.926,-36.133,-46.875,-56.641
1626465606.462,-76.660,-20.508,1.465,-37.598
1626465606.466,-35.156,-23.438,-4.883,-9.766
1626465606.469,16.113,-42.969,-49.805,-31.250
1626465606.473,-16.602,-40.039,-62.500,-69.824
1626465606.477,-104.980,-41.504,-29.785,-79.590
1626465606.481,-52.734,-35.645,-5.371,-19.043
1626465606.485,26.367,-29.297,-34.180,-5.859
1626465606.487,21.484,-35.645,-54.688,-41.504
1626465606.491,-69.824,-37.109,-25.879,-59.570
1626465606.495,-66.895,-24.902,-3.418,-19.531
1626465606.499,6.348,-21.484,-30.273,2.441
1626465606.503,27.832,-31.738,-56.152,-28.809
1626465606.507,-53.711,-34.668,-43.457,-54.688
1626465606.511,-86.426,-28.809,0.000,-30.273
1626465606.514,-26.855,-40.039,-11.719,1.465
1626465606.518,19.531,-61.035,-61.523,-19.043
1626465606.522,-27.832,-58.594,-60.547,-60.547
1626465606.526,-98.633,-41.016,-3.906,-43.945
1626465606.530,-33.691,-22.461,0.977,14.648
1626465606.532,37.109,-21.973,-53.223,5.371
1626465606.536,14.160,-33.691,-66.895,-37.598
1626465606.540,-88.867,-39.551,-31.250,-56.641
1626465606.544,-66.895,-37.598,-13.184,-20.996
1626465606.548,15.137,-29.785,-41.992,-14.648
1626465606.552,27.832,-26.855,-64.453,-51.758
1626465606.556,-51.758,-32.227,-41.016,-62.988
1626465606.559,-62.012,-38.574,-6.836,-23.926
1626465606.563,-5.371,-37.109,-26.367,-14.160
1626465606.567,23.926,-38.574,-60.547,-43.457
1626465606.571,-44.922,-41.016,-57.617,-69.336
1626465606.575,-95.703,-36.621,-25.879,-39.551
1626465606.577,-30.273,-31.250,-23.438,-0.488
1626465606.581,26.367,-37.109,-57.617,-22.949
1626465606.585,-12.695,-39.551,-61.035,-53.711
1626465606.589,-72.754,-29.297,-13.672,-33.691
1626465606.593,-17.578,-24.902,-0.488,12.695
1626465606.597,45.410,-30.273,-44.434,-3.418
1626465606.601,18.555,-41.016,-67.871,-46.387
1626465606.604,-70.801,-45.410,-29.785,-59.082
1626465606.608,-51.270,-37.598,-3.906,-14.648
1626465606.612,15.625,-37.598,-33.203,-1.953
1626465606.616,25.879,-40.039,-67.383,-38.574
1626465606.620,-57.617,-34.668,-50.781,-68.848
1626465606.623,-64.453,-25.391,-9.277,-29.785
1626465606.627,3.418,-27.832,-30.273,-6.348
1626465606.631,26.367,-40.039,-65.430,-36.133
1626465606.635,-32.715,-44.434,-52.246,-61.523
1626465606.639,-76.660,-33.691,-2.441,-42.969
1626465606.643,-16.602,-26.855,-1.465,-9.277
1626465606.647,30.762,-27.832,-49.316,-27.832
1626465606.650,-22.949,-34.180,-57.129,-57.617
1626465606.654,-93.750,-30.762,-4.395,-44.434
1626465606.658,-42.969,-23.926,6.836,5.371
1626465606.662,23.926,-29.297,-36.133,-0.977
1626465606.666,19.043,-28.320,-49.316,-41.504
1626465606.667,-65.918,-29.785,-15.137,-54.199
1626465606.671,-50.293,-28.320,5.859,-9.766
1626465606.675,20.508,-21.973,-23.926,5.371
1626465606.679,36.133,-22.461,-62.988,-28.809
1626465606.683,-48.340,-35.645,-49.316,-58.594
1626465606.687,-64.941,-31.250,3.906,-16.113
1626465606.691,-1.953,-28.320,-17.578,11.230
1626465606.694,37.598,-27.832,-58.594,-28.320
1626465606.698,-14.648,-24.902,-42.480,-55.664
1626465606.702,-93.262,-29.297,-4.883,-41.016
1626465606.706,-56.152,-36.133,-7.324,-7.812
1626465606.710,-4.395,-47.852,-40.039,-27.832
1626465606.727,-21.973,-40.527,-42.480,-54.199
1626465606.731,-103.027,-32.715,-5.371,-58.594
1626465606.735,-65.430,-38.086,0.977,-25.391
1626465606.739,8.789,-41.016,-38.086,-20.020
1626465606.743,8.789,-36.621,-58.105,-55.176
1626465606.747,-83.008,-40.527,-27.832,-72.754
1626465606.751,-83.984,-38.086,2.441,-22.461
1626465606.754,-13.672,-37.598,-21.973,4.883
1626465606.758,11.230,-36.621,-53.223,-25.391
1626465606.762,-65.918,-44.434,-44.434,-59.082
1626465606.766,-90.820,-48.828,1.953,-28.809
1626465606.770,-15.625,-39.062,-6.836,12.695
1626465606.772,31.738,-35.645,-53.223,-8.301
1626465606.776,-21.484,-40.527,-60.059,-49.805
1626465606.780,-90.820,-38.574,-16.602,-41.016
1626465606.784,-35.645,-34.668,-10.742,0.977
1626465606.788,30.273,-34.668,-44.434,-7.812
1626465606.792,15.137,-36.133,-46.875,-44.922
1626465606.796,-69.336,-37.598,-11.719,-51.270
1626465606.799,-33.203,-24.414,6.836,0.488
1626465606.803,35.645,-30.762,-33.691,7.324
1626465606.807,10.742,-60.059,-72.754,-49.316
1626465606.811,-79.102,-56.641,-39.551,-67.383
1626465606.815,-73.730,-44.922,0.977,-21.484
1626465606.817,-9.766,-45.410,-19.531,1.465
1626465606.821,13.672,-44.922,-52.246,-32.715
1626465606.825,-62.988,-44.922,-48.340,-70.801
1626465606.829,-94.238,-35.156,-0.977,-40.039
1626465606.833,-13.672,-25.391,-5.859,0.000
1626465606.837,36.621,-29.297,-43.945,-24.902
1626465606.841,-13.672,-34.180,-45.898,-63.965
1626465606.844,-93.262,-41.504,-14.160,-61.523
1626465606.848,-53.223,-49.316,-11.719,-15.625
1626465606.852,20.508,-32.227,-43.945,-10.742
1626465606.856,6.836,-32.227,-49.316,-45.410
1626465606.860,-87.402,-41.992,-13.672,-59.570
1626465606.862,-56.641,-32.227,5.859,-14.648
1626465606.866,14.160,-30.762,-22.461,-5.859
1626465606.870,11.230,-37.109,-50.293,-43.945
1626465606.874,-78.125,-50.781,-34.668,-67.383
1626465606.878,-81.543,-42.480,0.000,-29.785
1626465606.882,-4.395,-24.902,-20.996,-3.418
1626465606.886,28.809,-29.297,-57.129,-32.227
1626465606.889,-41.992,-38.574,-48.828,-69.336
1626465606.893,-88.867,-37.109,-8.789,-42.969
1626465606.897,-32.715,-33.691,-17.578,0.000
1626465606.901,19.043,-36.621,-47.363,-16.602
1626465606.905,-21.484,-39.551,-46.875,-55.664
1626465606.907,-99.121,-41.504,-12.695,-53.711
1626465606.911,-48.828,-39.062,-2.441,-7.324
1626465606.915,18.066,-36.621,-40.527,-16.113
1626465606.919,-2.441,-41.016,-51.758,-56.641
1626465606.923,-86.426,-40.039,-20.508,-61.035
1626465606.927,-53.711,-32.715,0.000,-9.277
1626465606.931,11.230,-36.621,-36.621,3.418
1626465606.934,11.230,-49.316,-71.289,-36.621
1626465606.938,-55.176,-39.551,-44.922,-61.035
1626465606.942,-63.965,-27.832,-0.488,-21.484
1626465606.946,4.395,-27.344,-12.695,11.230
1626465606.950,41.992,-24.414,-53.223,-19.531
1626465606.952,-27.832,-35.156,-49.805,-63.477
1626465606.956,-86.426,-35.645,-7.324,-33.691
1626465606.960,-25.391,-23.438,-5.859,18.555
1626465606.964,33.691,-25.879,-38.086,-2.930
1626465606.968,-2.441,-34.668,-41.016,-40.527
1626465606.972,-87.402,-39.062,-9.766,-47.363
1626465606.976,-39.551,-28.809,-4.395,-0.977
1626465606.979,32.715,-26.855,-41.992,3.906
1626465606.983,11.719,-37.598,-66.895,-43.945
1626465606.987,-76.172,-46.875,-33.203,-61.523
1626465606.991,-64.941,-33.203,-3.906,-6.836
1626465606.995,9.277,-23.438,-29.785,2.930
1626465606.997,27.344,-38.574,-61.035,-38.574
1626465607.001,-59.082,-40.527,-43.945,-60.547
1626465607.005,-79.590,-38.086,1.465,-24.902
1626465607.009,-7.324,-35.156,-16.602,7.324
1626465607.013,20.996,-28.320,-56.152,-23.926
1626465607.017,-30.273,-26.855,-42.969,-58.105
1626465607.021,-83.008,-29.785,-7.324,-49.316
1626465607.024,-30.273,-27.344,-17.090,-10.742
1626465607.028,39.062,-18.066,-54.199,-10.742
1626465607.032,-3.418,-25.391,-62.012,-52.246
1626465607.036,-92.773,-31.738,-24.414,-66.406
1626465607.040,-42.480,-20.996,-4.395,-12.207
1626465607.042,22.461,-26.855,-36.621,-5.859
1626465607.046,7.324,-37.598,-57.129,-50.781
1626465607.050,-78.613,-33.691,-26.855,-63.477
1626465607.054,-65.918,-19.531,6.836,-5.859
1626465607.058,12.207,-17.090,-19.531,6.836
1626465607.062,38.574,-25.391,-62.988,-37.109
1626465607.066,-42.969,-31.250,-60.059,-62.012
1626465607.069,-80.566,-24.902,-17.090,-28.320
1626465607.073,-2.441,-19.531,-16.113,6.348
1626465607.077,33.203,-29.297,-56.641,-23.926
1626465607.081,-32.715,-43.457,-61.523,-67.871
1626465607.085,-81.055,-33.203,-15.137,-48.340
1626465607.102,-12.207,-23.438,-15.137,0.977
1626465607.106,40.527,-28.320,-60.059,-10.742
1626465607.110,5.371,-37.109,-69.824,-51.270
1626465607.114,-68.848,-38.086,-19.043,-56.641
1626465607.118,-37.109,-27.344,4.395,-10.254
1626465607.122,30.273,-25.391,-35.645,1.465
1626465607.126,34.180,-30.273,-67.871,-34.180
1626465607.129,-66.895,-36.621,-45.410,-68.848
1626465607.133,-68.848,-35.156,-5.859,-32.227
1626465607.137,-0.488,-32.715,-33.203,-6.348
1626465607.141,10.254,-37.109,-71.289,-41.504
1626465607.145,-61.035,-42.969,-49.316,-78.125
1626465607.147,-89.355,-38.086,-4.395,-44.434
1626465607.151,-19.043,-31.738,-19.531,-2.441
1626465607.155,29.297,-33.203,-62.988,-27.344
1626465607.159,-19.043,-33.691,-68.848,-62.012
1626465607.163,-86.426,-28.320,-20.508,-54.688
1626465607.167,-25.391,-19.531,-10.254,-9.766
1626465607.171,27.832,-24.414,-44.434,-13.184
1626465607.174,0.000,-36.133,-50.293,-52.246
1626465607.178,-84.473,-43.945,-19.531,-56.641
1626465607.182,-59.570,-44.434,-2.441,-6.348
1626465607.186,13.184,-39.551,-29.297,-2.930
1626465607.190,21.973,-34.180,-56.152,-38.086
1626465607.192,-59.082,-25.391,-31.250,-63.477
1626465607.196,-65.430,-25.879,5.859,-24.414
1626465607.200,1.465,-31.738,-16.113,6.836
1626465607.204,26.367,-28.809,-54.688,-28.320
1626465607.208,-44.922,-35.645,-50.293,-69.824
1626465607.212,-87.891,-38.086,-8.789,-45.898
1626465607.216,-15.137,-28.320,-15.137,-5.371
1626465607.219,31.250,-27.832,-55.176,-26.367
1626465607.223,-21.484,-41.016,-69.824,-66.895
1626465607.227,-99.121,-38.574,-36.621,-52.734
1626465607.231,-45.410,-28.320,-13.672,-2.930
1626465607.235,28.809,-27.344,-41.992,-9.766
1626465607.237,17.578,-26.855,-65.918,-44.922
1626465607.241,-80.566,-37.109,-41.992,-64.453
1626465607.245,-62.988,-37.598,-11.719,-21.973
1626465607.249,18.066,-25.879,-37.109,-3.906
1626465607.253,29.785,-30.273,-66.406,-35.156
1626465607.257,-52.734,-27.832,-44.434,-53.711
1626465607.261,-72.266,-19.531,-3.418,-8.789
1626465607.264,-11.230,-35.156,-23.438,14.648
1626465607.268,13.184,-46.875,-72.266,-18.066
1626465607.272,-40.527,-46.387,-62.012,-49.805
1626465607.276,-85.938,-45.410,-7.324,-29.297
1626465607.280,-21.973,-26.367,-5.859,10.742
1626465607.284,36.621,-22.949,-50.293,-2.441
1626465607.288,-2.441,-40.527,-68.359,-47.363
1626465607.292,-85.938,-38.574,-25.879,-47.852
1626465607.296,-43.457,-33.203,-8.301,4.883
1626465607.300,31.738,-37.109,-45.410,0.977
1626465607.304,34.668,-36.621,-58.105,-43.457
1626465607.308,-56.152,-35.156,-32.227,-51.270
1626465607.311,-57.129,-41.992,-3.906,-0.488
1626465607.315,15.137,-36.133,-19.531,15.137
1626465607.319,30.762,-27.344,-55.664,-13.672
1626465607.323,-52.734,-35.645,-47.363,-44.922
1626465607.327,-75.195,-25.879,0.000,-13.672
1626465607.328,-0.488,-15.137,-7.812,26.367
1626465607.332,36.133,-28.320,-53.711,-4.395
1626465607.336,-20.996,-37.109,-56.152,-42.480
1626465607.340,-94.727,-39.062,-19.043,-33.203
1626465607.344,-41.016,-33.691,-8.789,13.184
1626465607.348,29.785,-33.203,-42.969,1.465
1626465607.352,2.441,-39.551,-59.570,-36.133
1626465607.355,-79.102,-42.969,-21.973,-37.109
1626465607.359,-45.410,-38.574,-1.953,4.883
1626465607.363,22.461,-36.133,-28.320,7.324
1626465607.367,22.461,-40.039,-56.641,-34.180
1626465607.371,-66.895,-45.410,-30.762,-52.246
1626465607.372,-65.918,-42.969,4.395,-6.836
1626465607.376,0.000,-33.203,-20.020,13.672
1626465607.380,24.414,-31.250,-55.176,-22.461
1626465607.384,-45.410,-42.969,-46.387,-59.082
1626465607.388,-86.914,-44.922,-0.977,-26.367
1626465607.392,-15.625,-34.180,-3.418,12.207
1626465607.396,34.668,-34.180,-47.363,-8.789
1626465607.399,-20.020,-42.480,-58.594,-49.316
1626465607.403,-89.355,-35.156,-9.766,-47.363
1626465607.407,-36.621,-20.508,0.977,0.488
1626465607.411,27.832,-21.973,-36.133,2.441
1626465607.415,15.137,-32.715,-55.176,-45.410
1626465607.417,-77.148,-33.691,-26.855,-63.477
1626465607.421,-50.781,-20.020,6.836,0.977
1626465607.425,27.344,-15.625,-23.438,13.184
1626465607.429,31.250,-24.902,-55.664,-27.832
1626465607.433,-52.246,-31.250,-24.414,-47.363
1626465607.437,-64.941,-36.621,4.395,-14.160
1626465607.441,1.465,-37.109,-33.203,8.789
1626465607.444,31.738,-41.016,-66.895,-25.391
1626465607.448,-45.410,-46.387,-56.152,-72.754
1626465607.452,-111.816,-41.992,-18.066,-60.547
1626465607.456,-44.434,-40.039,-22.461,-11.719
1626465607.460,14.160,-39.551,-53.223,-26.367
1626465607.477,-30.762,-42.969,-54.688,-73.730
1626465607.481,-93.262,-42.969,-10.254,-61.523
1626465607.485,-42.480,-38.574,-1.953,-4.395
1626465607.489,24.414,-31.738,-47.363,-1.465
1626465607.493,8.301,-32.715,-62.500,-47.363
1626465607.497,-75.684,-34.668,-21.484,-58.594
1626465607.501,-56.641,-35.645,9.766,-11.230
1626465607.504,5.371,-40.527,-20.996,-1.465
1626465607.508,20.996,-42.480,-48.340,-35.645
1626465607.512,-62.988,-46.875,-31.250,-64.941
1626465607.516,-84.961,-43.457,8.789,-27.344
1626465607.520,-11.719,-26.367,-9.277,4.883
1626465607.522,18.066,-20.508,-45.898,-20.996
1626465607.526,-39.062,-27.832,-33.691,-55.664
1626465607.530,-87.891,-34.668,-8.301,-46.387
1626465607.534,-37.109,-38.086,-16.602,-1.953
1626465607.538,18.066,-30.273,-45.898,-11.230
1626465607.542,-10.742,-32.227,-54.688,-45.410
1626465607.546,-96.191,-44.922,-18.555,-48.340
1626465607.549,-60.059,-47.852,3.418,-11.230
1626465607.553,7.324,-47.363,-38.086,-16.602
1626465607.557,-1.953,-47.852,-68.848,-57.129
1626465607.561,-81.543,-41.504,-35.645,-64.941
1626465607.565,-64.941,-34.180,-0.488,-20.996
1626465607.567,4.395,-31.250,-29.785,-7.812
1626465607.571,16.113,-42.969,-63.965,-41.016
1626465607.575,-60.547,-44.922,-42.969,-63.965
1626465607.579,-83.496,-37.109,-4.883,-31.738
1626465607.583,-8.789,-31.250,-16.113,0.488
1626465607.587,22.949,-28.320,-57.617,-22.461
1626465607.591,-46.387,-47.363,-59.082,-63.965
1626465607.594,-103.516,-49.316,-7.324,-50.293
1626465607.598,-34.668,-36.621,3.906,1.953
1626465607.602,20.996,-36.621,-38.086,-10.742
1626465607.606,-17.090,-42.969,-54.688,-55.664
1626465607.610,-96.680,-42.480,-23.438,-56.641
1626465607.612,-62.012,-43.457,-1.465,-5.371
1626465607.616,7.812,-41.016,-32.715,0.000
1626465607.620,7.812,-35.645,-59.082,-38.574
1626465607.624,-69.336,-40.039,-33.691,-61.523
1626465607.628,-60.547,-37.109,2.441,-18.066
1626465607.632,6.836,-29.297,-17.090,8.301
1626465607.636,21.973,-33.203,-60.059,-25.391
1626465607.639,-53.711,-37.598,-52.246,-58.105
1626465607.643,-91.309,-40.527,-12.207,-32.715
1626465607.647,-30.762,-45.898,-20.020,-2.930
1626465607.651,21.484,-44.434,-51.270,-24.902
1626465607.655,-26.367,-37.598,-48.828,-54.688
1626465607.657,-95.215,-44.922,-3.418,-36.621
1626465607.661,-32.715,-41.016,2.930,11.719
1626465607.665,32.227,-28.320,-42.480,-2.930
1626465607.669,3.418,-34.668,-65.430,-45.898
1626465607.673,-86.426,-35.156,-29.297,-56.641
1626465607.677,-53.223,-23.438,-0.977,-14.648
1626465607.681,32.227,-22.461,-25.879,8.301
1626465607.684,32.715,-34.668,-57.129,-25.391
1626465607.688,-68.359,-45.898,-39.551,-61.035
1626465607.692,-61.523,-28.809,5.371,-14.160
1626465607.696,24.902,-14.160,-9.766,16.602
1626465607.700,35.156,-26.855,-48.828,-22.949
1626465607.702,-47.852,-36.133,-41.504,-56.641
1626465607.706,-86.914,-30.273,2.930,-34.180
1626465607.710,-20.020,-34.180,-7.812,7.324
1626465607.714,32.715,-30.762,-47.852,-10.254
1626465607.718,-8.789,-24.414,-54.688,-57.617
1626465607.722,-73.242,-23.926,-8.301,-49.316
1626465607.726,-25.879,-25.391,-1.465,-5.859
1626465607.729,21.973,-28.809,-51.270,-16.113
1626465607.733,-2.930,-21.484,-67.871,-48.828
1626465607.737,-91.797,-27.344,-33.691,-59.082
1626465607.741,-62.500,-37.109,-3.906,-15.137
1626465607.745,15.625,-38.574,-28.320,-5.371
1626465607.747,17.578,-33.691,-55.664,-40.039
1626465607.751,-66.406,-37.598,-35.645,-62.012
1626465607.755,-82.031,-39.062,-0.977,-29.785
1626465607.759,-8.789,-32.715,-13.184,-3.906
1626465607.763,29.297,-24.414,-44.434,-30.762
1626465607.767,-32.715,-27.344,-45.410,-65.430
1626465607.771,-92.773,-41.016,-15.625,-47.363
1626465607.774,-37.109,-37.109,-16.113,3.418
1626465607.778,15.625,-39.551,-49.316,-25.391
1626465607.782,-24.414,-39.551,-66.406,-69.336
1626465607.786,-90.820,-39.062,-24.414,-48.828
1626465607.790,-36.133,-38.086,1.465,4.395
1626465607.794,32.227,-24.902,-38.086,1.465
1626465607.798,1.465,-29.297,-63.477,-49.805
1626465607.802,-87.402,-37.598,-27.832,-73.730
1626465607.806,-60.059,-28.809,1.953,-21.484
1626465607.810,14.648,-30.762,-24.902,-2.441
1626465607.814,24.902,-28.320,-55.664,-41.016
1626465607.818,-56.641,-34.668,-39.062,-62.500
1626465607.821,-70.312,-43.945,5.371,-23.438
1626465607.825,9.766,-38.574,-9.766,12.695
1626465607.829,33.691,-46.387,-56.641,-16.113
1626465607.833,-33.203,-50.781,-49.316,-58.105
1626465607.837,-63.477,-36.133,0.977,-33.203
1626465607.852,-0.977,-33.691,-5.371,14.648
1626465607.856,30.273,-37.598,-46.387,-8.301
1626465607.860,-18.555,-44.434,-52.734,-61.035
1626465607.864,-86.426,-45.898,-15.137,-54.199
1626465607.868,-37.109,-32.227,2.930,2.930
1626465607.872,32.227,-28.809,-35.645,0.488
1626465607.876,4.395,-39.551,-67.383,-49.316
1626465607.879,-91.797,-39.062,-30.273,-71.289
1626465607.883,-70.801,-34.668,8.301,-26.367
1626465607.887,2.930,-32.715,-17.578,-0.488
1626465607.891,8.789,-40.039,-57.129,-43.945
1626465607.895,-60.547,-53.711,-44.434,-81.055
1626465607.897,-58.594,-46.387,1.953,-30.273
1626465607.901,-5.859,-40.527,-15.137,8.301
1626465607.905,10.254,-44.434,-53.711,-17.578
1626465607.909,-30.762,-42.480,-40.527,-46.875
1626465607.913,-73.242,-36.621,2.441,-24.902
1626465607.917,-14.648,-27.344,0.000,13.672
1626465607.921,30.273,-26.855,-47.852,-1.953
1626465607.924,-4.395,-33.691,-64.941,-45.898
1626465607.928,-90.332,-43.945,-22.949,-59.082
1626465607.932,-57.129,-43.457,-3.418,-12.695
1626465607.936,22.461,-37.109,-37.109,-5.371
1626465607.940,19.531,-34.668,-58.105,-48.828
1626465607.942,-66.406,-30.273,-33.691,-68.848
1626465607.946,-57.129,-33.203,0.977,-19.531
1626465607.950,16.113,-37.109,-21.973,0.977
1626465607.954,26.855,-36.621,-59.082,-32.227
1626465607.958,-44.434,-41.504,-41.992,-63.477
1626465607.962,-75.195,-38.574,2.441,-33.691
1626465607.966,-17.090,-22.949,-17.578,14.160
1626465607.969,18.066,-28.320,-61.523,-15.137
1626465607.973,-22.949,-35.156,-62.988,-56.641
1626465607.977,-82.520,-34.180,-25.879,-47.363
1626465607.981,-36.621,-33.691,-10.742,0.000
1626465607.985,21.484,-34.180,-46.875,-4.883
1626465607.987,1.953,-38.086,-57.129,-42.969
1626465607.991,-78.125,-32.715,-12.695,-45.898
1626465607.995,-48.340,-22.461,3.906,2.930
1626465607.999,8.789,-30.273,-33.691,8.301
1626465608.003,3.906,-35.645,-59.082,-41.992
1626465608.007,-65.918,-33.691,-29.785,-63.965
1626465608.011,-67.383,-38.574,6.836,-13.184
1626465608.014,5.859,-31.250,-13.672,16.602
1626465608.018,29.785,-38.574,-56.152,-26.367
1626465608.022,-42.480,-46.387,-49.316,-67.871
1626465608.026,-81.055,-33.203,2.441,-35.156
1626465608.030,-10.742,-20.020,-1.465,14.160
1626465608.033,25.879,-31.738,-46.387,-11.230
1626465608.037,-30.273,-48.340,-53.711,-64.453
1626465608.041,-91.797,-41.504,-11.230,-61.035
1626465608.045,-31.250,-31.250,9.277,-3.418
1626465608.049,34.180,-22.461,-25.879,10.742
1626465608.053,18.066,-18.066,-59.570,-29.297
1626465608.057,-69.824,-37.109,-38.086,-57.617
1626465608.060,-59.570,-47.363,-9.766,-16.602
1626465608.064,4.395,-36.621,-27.344,-4.395
1626465608.068,7.324,-33.203,-58.594,-46.387
1626465608.072,-71.289,-39.062,-43.457,-77.637
1626465608.076,-79.590,-31.738,0.000,-34.668
1626465608.077,-7.324,-24.414,-19.043,0.977
1626465608.081,19.043,-30.273,-59.082,-33.691
1626465608.085,-46.387,-38.574,-45.898,-72.266
1626465608.089,-90.332,-39.062,-2.441,-44.434
1626465608.093,-30.273,-35.156,-11.719,-0.977
1626465608.097,22.949,-31.250,-42.969,-20.508
1626465608.101,-1.953,-33.691,-49.805,-52.246
1626465608.104,-85.449,-43.457,-16.113,-56.641
1626465608.108,-52.246,-36.621,-1.465,-16.602
1626465608.112,15.625,-42.480,-40.039,-8.301
1626465608.116,5.371,-46.875,-68.359,-48.828
1626465608.120,-90.820,-43.945,-41.992,-68.359
1626465608.122,-75.684,-33.203,-2.930,-21.973
1626465608.126,9.277,-28.320,-23.438,-5.859
1626465608.130,31.250,-28.320,-57.129,-35.645
1626465608.134,-50.293,-36.133,-47.852,-69.336
1626465608.138,-66.406,-35.645,-7.324,-33.691
1626465608.142,-0.977,-27.832,-10.254,1.953
1626465608.146,22.461,-34.180,-48.828,-24.902
1626465608.149,-27.344,-44.922,-49.316,-48.828
1626465608.153,-83.008,-37.598,-2.930,-30.762
1626465608.157,-33.691,-28.809,0.000,7.812
1626465608.161,29.785,-37.598,-37.598,-5.859
1626465608.165,16.113,-39.062,-54.688,-41.016
1626465608.168,-78.125,-36.621,-22.461,-52.246
1626465608.172,-46.387,-37.109,1.465,-7.812
1626465608.176,27.832,-32.227,-27.832,4.395
1626465608.180,24.414,-24.902,-53.223,-25.879
1626465608.184,-56.641,-26.855,-28.320,-43.945
1626465608.188,-55.176,-30.273,7.812,-4.883
1626465608.192,10.742,-32.227,-17.578,8.301
1626465608.195,29.297,-32.715,-57.129,-25.391
1626465608.199,-45.898,-28.809,-48.340,-49.805
1626465608.203,-81.055,-33.691,-7.324,-23.926
1626465608.207,-9.766,-36.133,-13.184,7.324
1626465608.211,36.133,-30.273,-52.734,-13.184
1626465608.242,-24.902,-37.598,-50.781,-51.270
1626465608.246,-99.121,-40.039,-6.348,-47.363
1626465608.250,-30.762,-31.250,1.953,7.812
1626465608.254,35.645,-37.109,-36.621,3.906
1626465608.258,10.254,-41.016,-60.547,-41.504
1626465608.262,-75.684,-39.551,-30.273,-56.641
1626465608.266,-51.758,-37.109,-2.930,-3.418
1626465608.269,19.043,-31.250,-25.879,13.672
1626465608.273,24.902,-34.180,-55.176,-27.832
1626465608.277,-59.082,-41.992,-38.086,-57.129
1626465608.281,-63.477,-40.039,2.930,-9.766
1626465608.285,-1.953,-35.645,-14.160,13.184
1626465608.272,29.297,-34.668,-57.617,-20.996
1626465608.276,-27.344,-39.062,-52.246,-48.340
1626465608.280,-69.336,-43.457,0.488,-24.414
1626465608.284,-7.324,-35.645,3.906,15.625
1626465608.288,44.922,-24.414,-30.273,-0.977
1626465608.292,3.906,-27.832,-43.457,-47.852
1626465608.296,-81.055,-33.691,-8.301,-46.875
1626465608.299,-41.504,-24.414,9.277,10.254
1626465608.303,25.879,-25.879,-34.180,0.488
1626465608.307,11.230,-33.203,-64.941,-41.992
1626465608.311,-73.730,-32.715,-27.832,-48.340
1626465608.315,-57.129,-32.715,6.348,-10.254
1626465608.317,10.742,-29.785,-26.855,2.930
1626465608.321,15.137,-37.109,-59.570,-39.062
1626465608.325,-70.312,-33.203,-37.598,-73.242
1626465608.329,-71.289,-25.391,3.418,-26.855
1626465608.333,-1.465,-30.762,-15.137,9.766
1626465608.337,30.273,-33.203,-55.664,-24.902
1626465608.341,-28.320,-34.180,-52.734,-62.500
1626465608.344,-82.031,-35.645,-5.859,-30.762
1626465608.348,-17.578,-32.227,-2.441,7.812
1626465608.352,33.691,-35.645,-41.504,-8.789
1626465608.356,-5.371,-34.180,-52.246,-41.504
1626465608.360,-81.055,-23.438,-12.207,-45.410
1626465608.362,-42.969,-23.926,8.301,-1.465
1626465608.366,17.090,-32.715,-34.668,-5.859
1626465608.370,18.066,-33.691,-65.918,-45.410
1626465608.374,-68.848,-26.367,-29.785,-54.199
1626465608.378,-67.871,-39.551,2.441,-8.789
1626465608.382,7.324,-39.062,-29.297,8.789
1626465608.386,30.762,-24.414,-54.199,-18.555
1626465608.389,-48.340,-34.180,-39.551,-49.316
1626465608.393,-87.891,-43.945,-12.695,-25.879
1626465608.397,-21.973,-35.645,-25.391,2.930
1626465608.401,25.391,-25.391,-57.617,-19.043
1626465608.405,-32.715,-29.297,-53.223,-59.082
1626465608.407,-93.262,-35.645,-8.301,-47.363
1626465608.411,-23.926,-30.273,-8.301,-0.977
1626465608.415,25.391,-32.715,-51.270,-22.949
1626465608.419,-20.996,-41.016,-58.105,-59.570
1626465608.423,-93.750,-35.156,-12.695,-55.664
1626465608.427,-59.082,-28.809,-0.977,-11.719
1626465608.431,8.301,-30.273,-42.969,-6.348
1626465608.434,1.953,-41.504,-66.406,-51.270
1626465608.438,-85.449,-42.480,-35.156,-70.312
1626465608.442,-72.266,-30.762,4.395,-24.902
1626465608.446,1.465,-28.320,-26.855,-9.766
1626465608.450,16.113,-34.668,-67.383,-45.898
1626465608.452,-57.617,-32.227,-44.922,-68.359
1626465608.456,-85.938,-28.320,-0.488,-39.062
1626465608.460,-24.902,-31.250,-22.461,-7.324
1626465608.464,20.996,-28.320,-63.477,-29.785
1626465608.468,-25.391,-33.691,-57.617,-62.500
1626465608.472,-93.750,-39.062,-11.230,-48.828
1626465608.476,-41.992,-34.180,-5.859,-7.324
1626465608.479,14.648,-40.527,-49.805,-16.113
1626465608.483,-10.254,-46.875,-68.359,-59.570
1626465608.487,-88.867,-43.945,-30.273,-55.664
1626465608.491,-63.965,-42.969,-6.348,-6.348
1626465608.495,9.277,-38.574,-33.691,-4.883
1626465608.498,19.531,-37.598,-51.270,-37.598
1626465608.502,-68.359,-42.480,-31.250,-56.152
1626465608.506,-70.801,-34.668,1.465,-19.531
1626465608.510,5.371,-23.438,-20.996,3.906
1626465608.514,21.973,-25.879,-61.523,-23.438
1626465608.518,-55.176,-37.109,-49.805,-65.918
1626465608.522,-92.773,-39.551,-8.301,-44.434
1626465608.525,-31.250,-37.109,-14.160,1.953
1626465608.529,25.391,-31.250,-46.387,-11.230
1626465608.533,-15.625,-29.785,-49.316,-42.480
1626465608.537,-92.285,-33.203,-9.277,-35.645
1626465608.541,-46.387,-26.855,-2.930,0.000
1626465608.542,17.578,-26.367,-41.504,-7.324
1626465608.546,-1.465,-38.086,-59.082,-47.363
1626465608.550,-86.426,-44.434,-19.043,-57.617
1626465608.554,-48.828,-40.039,9.277,-3.906
1626465608.558,25.879,-28.320,-29.785,2.930
1626465608.562,20.996,-29.297,-64.453,-40.039
1626465608.566,-75.195,-45.410,-46.387,-69.336
1626465608.569,-85.938,-38.086,3.418,-28.320
1626465608.573,-4.395,-24.414,-5.859,10.742
1626465608.577,26.367,-28.320,-50.781,-21.973
1626465608.581,-41.016,-42.480,-47.363,-59.570
1626465608.585,-82.520,-43.945,-4.883,-30.273
1626465608.602,-8.789,-28.320,-4.395,13.672
1626465608.606,42.969,-30.273,-40.527,-3.906
1626465608.610,-4.883,-35.156,-51.758,-45.410
1626465608.614,-82.520,-28.809,-4.883,-47.363
1626465608.618,-30.762,-22.949,14.648,-3.418
1626465608.622,38.086,-22.949,-27.832,-0.977
1626465608.626,20.996,-22.461,-54.688,-38.574
1626465608.629,-70.801,-23.438,-28.320,-50.293
1626465608.633,-66.406,-36.621,4.395,-6.836
1626465608.637,-4.883,-51.758,-26.855,-2.441
1626465608.641,13.184,-48.340,-54.688,-32.227
1626465608.645,-64.941,-40.039,-31.738,-57.129
1626465608.648,-91.309,-32.715,1.465,-31.738
1626465608.652,-25.879,-27.832,-14.648,0.977
1626465608.656,18.066,-24.414,-54.688,-20.996
1626465608.660,-30.273,-24.414,-52.246,-55.664
1626465608.664,-93.750,-29.785,-11.719,-39.062
1626465608.668,-25.879,-20.996,-9.277,2.441
1626465608.672,36.621,-19.531,-43.945,-4.883
1626465608.675,4.395,-32.227,-50.781,-42.969
1626465608.679,-76.172,-37.598,-16.602,-50.781
1626465608.683,-48.340,-41.504,-9.277,-6.348
1626465608.687,17.578,-41.016,-43.945,-3.906
1626465608.691,8.301,-33.203,-63.477,-46.875
1626465608.693,-74.219,-29.297,-30.273,-60.059
1626465608.697,-71.777,-29.297,0.000,-11.719
1626465608.701,-2.930,-28.320,-30.273,6.836
1626465608.705,17.090,-36.133,-63.477,-34.668
1626465608.709,-59.570,-37.598,-47.363,-62.012
1626465608.713,-83.496,-29.785,-0.488,-17.578
1626465608.717,-8.301,-31.250,-11.719,9.766
1626465608.720,37.109,-36.133,-49.805,-17.578
1626465608.724,-28.320,-43.945,-52.734,-61.035
1626465608.728,-96.191,-43.945,-14.160,-54.688
1626465608.732,-30.762,-31.738,-3.906,7.324
1626465608.736,32.715,-31.738,-36.133,-6.836
1626465608.737,5.859,-41.504,-53.711,-58.105
1626465608.741,-77.637,-39.551,-21.484,-52.734
1626465608.745,-56.152,-34.180,-3.906,-4.395
1626465608.749,12.207,-34.180,-38.574,-5.371
1626465608.753,24.902,-33.203,-55.664,-39.551
1626465608.757,-57.617,-33.691,-28.809,-57.617
1626465608.761,-62.012,-39.551,-0.488,-15.625
1626465608.764,-3.418,-42.480,-22.949,4.395
1626465608.768,14.160,-44.434,-60.059,-33.691
1626465608.772,-51.758,-48.340,-53.711,-68.848
1626465608.776,-86.914,-42.969,-15.137,-38.574
1626465608.780,-26.855,-34.668,-22.949,9.277
1626465608.782,21.973,-37.109,-53.711,-17.578
1626465608.786,-11.230,-43.457,-43.945,-59.570
1626465608.790,-85.449,-48.828,-6.836,-50.781
1626465608.794,-42.480,-41.016,-7.324,-10.254
1626465608.798,24.414,-27.832,-40.527,-8.301
1626465608.802,11.719,-35.156,-52.246,-49.805
1626465608.806,-70.801,-41.504,-22.949,-62.012
1626465608.809,-64.453,-38.574,-3.906,-21.973
1626465608.813,4.883,-36.621,-28.320,-14.648
1626465608.817,30.273,-37.109,-47.852,-38.574
1626465608.821,-53.711,-41.016,-23.926,-58.594
1626465608.825,-67.383,-31.738,12.207,-27.344
1626465608.827,4.883,-27.344,-13.672,-2.441
1626465608.831,41.992,-35.645,-52.246,-20.996
1626465608.835,-31.250,-41.016,-41.016,-55.176
1626465608.839,-95.215,-46.387,-5.859,-38.086
1626465608.843,-29.785,-41.504,-7.324,6.836
1626465608.847,27.832,-33.203,-42.480,-12.207
1626465608.851,-9.277,-40.039,-48.828,-53.223
1626465608.854,-87.402,-40.039,-4.883,-48.828
1626465608.858,-48.828,-29.785,-2.441,-3.906
1626465608.862,11.719,-38.574,-35.156,-9.766
1626465608.866,7.324,-42.480,-41.992,-44.922
1626465608.870,-78.613,-37.109,-20.508,-56.152
1626465608.872,-63.477,-36.621,4.395,-6.348
1626465608.876,15.137,-34.180,-17.578,11.719
1626465608.880,39.062,-28.320,-42.969,-23.926
1626465608.884,-48.340,-32.715,-25.391,-60.059
1626465608.888,-77.148,-21.973,15.137,-22.461
1626465608.892,-0.977,-12.695,3.418,19.531
1626465608.896,38.086,-24.414,-37.598,-5.371
1626465608.899,-36.621,-36.621,-42.969,-46.387
1626465608.903,-98.145,-40.527,-0.488,-37.598
1626465608.907,-24.414,-28.320,-3.418,-0.488
1626465608.911,32.227,-31.250,-53.223,-19.043
1626465608.915,-3.418,-38.574,-63.477,-51.270
1626465608.917,-83.008,-31.250,-10.742,-44.434
1626465608.921,-43.945,-23.926,5.859,4.883
1626465608.925,22.949,-32.227,-38.086,6.348
1626465608.929,18.555,-39.062,-58.594,-34.180
1626465608.933,-71.289,-31.738,-31.738,-55.176
1626465608.937,-72.754,-30.273,0.977,-15.625
1626465608.941,-2.441,-41.992,-31.250,5.859
1626465608.944,27.344,-35.645,-61.523,-21.484
1626465608.948,-46.875,-26.367,-37.109,-53.223
1626465608.952,-84.961,-33.203,0.488,-24.414
1626465608.956,-23.926,-37.598,-18.066,6.836
1626465608.960,23.926,-32.227,-51.270,-11.230
1626465608.977,-31.250,-35.645,-46.387,-52.734
1626465608.981,-105.957,-39.551,-16.602,-49.805
1626465608.985,-52.246,-36.621,-12.695,-8.301
1626465608.989,10.254,-41.992,-48.340,-20.020
1626465608.993,-10.742,-39.551,-65.918,-59.570
1626465608.997,-84.961,-37.109,-34.668,-62.500
1626465609.001,-52.246,-36.621,-14.160,-15.625
1626465609.004,22.949,-31.250,-41.016,-7.324
1626465609.008,26.367,-30.273,-62.988,-37.109
1626465609.012,-75.684,-37.109,-32.715,-56.152
1626465609.016,-77.148,-30.762,4.883,-17.578
1626465609.020,-3.906,-31.738,-24.414,-7.812
1626465609.022,20.996,-41.016,-62.500,-40.039
1626465609.026,-41.016,-38.574,-44.922,-62.500
1626465609.030,-83.008,-35.156,-6.836,-39.062
1626465609.034,-18.555,-23.926,-10.254,-2.930
1626465609.038,40.039,-25.391,-43.457,-25.879
1626465609.042,-3.906,-30.273,-41.992,-57.617
1626465609.046,-84.473,-25.391,-5.859,-46.875
1626465609.049,-36.621,-14.160,3.906,0.488
1626465609.053,28.809,-25.391,-36.133,-5.859
1626465609.057,3.906,-45.410,-66.895,-50.293
1626465609.061,-94.727,-50.293,-35.645,-62.500
1626465609.065,-62.988,-41.016,-1.465,-13.672
1626465609.067,21.973,-26.855,-17.578,5.371
1626465609.071,34.180,-28.809,-49.805,-30.273
1626465609.075,-58.105,-32.227,-34.180,-65.430
1626465609.079,-78.613,-37.598,3.418,-35.645
1626465609.083,-6.348,-41.504,-14.648,-5.859
1626465609.087,34.668,-38.086,-57.129,-36.133
1626465609.091,-18.066,-42.480,-48.828,-60.547
1626465609.094,-72.754,-38.086,1.953,-26.367
1626465609.098,-30.762,-43.945,-1.953,8.789
1626465609.102,14.648,-50.781,-41.504,-18.066
1626465609.106,-14.648,-43.457,-46.387,-49.316
1626465609.110,-98.145,-44.922,-11.719,-44.434
1626465609.112,-58.105,-38.086,-0.977,-3.418
1626465609.116,20.020,-32.715,-32.227,-2.930
1626465609.120,5.371,-45.898,-46.875,-41.504
1626465609.124,-83.984,-45.410,-10.254,-46.387
1626465609.128,-63.477,-36.133,20.508,2.441
1626465609.132,17.090,-34.668,-13.184,7.812
1626465609.136,21.484,-41.992,-56.641,-35.156
1626465609.139,-75.195,-54.688,-45.898,-65.918
1626465609.143,-89.844,-53.223,-4.395,-26.367
1626465609.147,-5.371,-39.551,-14.648,8.301
1626465609.151,39.062,-33.203,-52.246,-19.531
1626465609.155,-21.484,-41.016,-52.734,-55.176
1626465609.157,-82.520,-42.480,-8.789,-38.574
1626465609.161,-27.344,-30.273,-6.836,3.906
1626465609.165,27.344,-32.715,-48.340,-7.812
1626465609.169,-8.301,-39.551,-53.223,-51.270
1626465609.173,-89.355,-39.062,-9.766,-57.617
1626465609.177,-45.410,-29.785,12.695,-3.418
1626465609.181,29.785,-28.809,-33.203,-7.324
1626465609.184,13.672,-42.969,-64.941,-56.152
1626465609.188,-82.031,-40.039,-26.855,-71.289
1626465609.192,-59.570,-25.391,3.906,-20.508
1626465609.196,14.648,-25.879,-25.879,-7.812
1626465609.200,31.250,-28.809,-50.293,-42.480
1626465609.203,-49.805,-30.273,-36.133,-62.988
1626465609.207,-79.590,-29.785,-5.371,-32.227
1626465609.211,-5.859,-30.273,-19.043,3.418
1626465609.215,29.785,-29.297,-55.176,-16.602
1626465609.219,-29.785,-33.203,-53.711,-57.617
1626465609.223,-89.355,-35.645,-11.719,-50.781
1626465609.227,-27.832,-26.367,-7.812,-5.371
1626465609.230,20.996,-33.691,-44.434,-22.949
1626465609.234,-20.020,-39.551,-55.176,-68.848
1626465609.238,-97.656,-34.668,-16.602,-69.336
1626465609.242,-56.641,-31.738,1.465,-11.230
1626465609.246,10.742,-31.738,-34.668,-1.953
1626465609.247,5.371,-29.785,-62.988,-44.922
1626465609.251,-75.684,-34.668,-31.738,-63.965
1626465609.255,-65.430,-34.180,-0.488,-22.461
1626465609.259,5.371,-28.320,-30.762,0.977
1626465609.263,23.438,-23.926,-54.688,-23.438
1626465609.267,-37.598,-16.113,-27.832,-39.551
1626465609.271,-71.777,-23.438,8.301,-19.531
1626465609.274,-15.625,-31.250,-7.812,1.953
1626465609.278,33.203,-28.809,-43.945,-13.184
1626465609.282,-17.578,-39.551,-53.223,-58.105
1626465609.286,-77.148,-35.156,-15.625,-51.270
1626465609.290,-33.691,-29.785,-13.184,-0.977
1626465609.293,15.137,-33.203,-49.805,-14.648
1626465609.297,-8.789,-38.086,-56.152,-53.711
1626465609.301,-96.191,-44.434,-14.160,-53.711
1626465609.305,-65.918,-39.551,9.766,-7.324
1626465609.309,6.348,-42.480,-25.391,-7.812
1626465609.313,10.254,-44.922,-56.152,-48.340
1626465609.317,-77.637,-33.691,-36.133,-66.895
1626465609.320,-80.566,-26.367,5.371,-20.996
1626465609.324,-16.602,-29.297,-19.531,-3.418
1626465609.328,1.465,-35.645,-60.059,-33.691
1626465609.332,-61.035,-43.945,-43.945,-60.547
1626465609.336,-91.309,-33.691,3.418,-36.133
1626465609.352,-27.344,-32.227,-7.812,0.977
1626465609.356,19.043,-41.504,-53.223,-20.996
1626465609.360,-21.484,-44.922,-60.059,-62.988
1626465609.364,-98.633,-39.062,-16.602,-58.105
1626465609.368,-40.527,-23.438,6.836,-1.465
1626465609.372,34.668,-20.508,-29.785,-4.395
1626465609.376,12.695,-33.203,-59.570,-54.199
1626465609.379,-88.867,-44.922,-32.227,-68.848
1626465609.383,-62.988,-39.551,-4.883,-12.207
1626465609.387,25.879,-34.180,-31.250,10.254
1626465609.391,21.973,-37.109,-60.059,-27.832
1626465609.395,-70.801,-44.922,-39.062,-62.500
1626465609.397,-70.312,-37.598,-0.488,-19.531
1626465609.401,0.000,-27.832,-21.484,15.625
1626465609.405,38.086,-33.203,-58.105,-13.184
1626465609.409,-30.273,-32.227,-51.270,-52.246
1626465609.413,-84.473,-26.367,-2.441,-23.438
1626465609.417,-3.906,-16.113,2.441,27.344
1626465609.421,32.227,-25.879,-50.781,-8.301
1626465609.424,-21.973,-33.691,-60.059,-48.828
1626465609.428,-77.148,-36.133,-11.719,-32.227
1626465609.432,-34.180,-41.016,-13.672,4.883
1626465609.436,30.273,-27.832,-47.363,4.395
1626465609.440,21.973,-25.391,-55.664,-43.457
1626465609.442,-69.824,-26.367,-26.855,-66.406
1626465609.446,-52.246,-21.484,5.859,-3.418
1626465609.450,20.508,-25.879,-25.879,12.695
1626465609.454,31.738,-27.344,-58.105,-25.879
1626465609.458,-44.434,-25.879,-38.574,-47.363
1626465609.462,-59.570,-25.879,1.465,-10.254
1626465609.466,6.836,-29.785,-20.508,17.090
1626465609.469,41.016,-37.598,-62.500,-19.043
1626465609.473,-25.879,-36.133,-58.594,-59.082
1626465609.477,-73.242,-25.879,-13.184,-34.668
1626465609.481,-6.836,-20.996,-8.789,3.906
1626465609.485,48.828,-24.902,-45.898,-10.254
1626465609.487,11.230,-34.668,-52.246,-44.434
1626465609.491,-76.172,-40.039,-10.742,-44.434
1626465609.495,-31.250,-32.715,1.953,3.418
1626465609.499,24.414,-33.691,-46.387,1.465
1626465609.503,10.254,-31.738,-77.637,-38.574
1626465609.507,-58.594,-18.066,-36.133,-50.781
1626465609.511,-42.969,-8.789,1.953,-7.812
1626465609.514,17.578,-16.602,-25.879,4.883
1626465609.518,29.785,-25.391,-58.105,-27.344
1626465609.522,-58.105,-32.715,-54.688,-59.082
1626465609.526,-86.914,-29.297,-15.625,-25.879
1626465609.530,-11.230,-23.438,-23.438,8.789
1626465609.532,27.344,-22.949,-61.035,-18.555
1626465609.536,-28.809,-23.926,-62.500,-62.988
1626465609.540,-90.332,-23.438,-17.578,-51.758
1626465609.544,-31.250,-20.508,-8.789,-4.883
1626465609.548,23.926,-32.227,-45.898,-14.160
1626465609.552,-4.883,-41.992,-58.105,-56.152
1626465609.556,-82.520,-32.227,-20.996,-64.941
1626465609.559,-57.129,-32.715,-11.719,-18.066
1626465609.563,10.254,-35.156,-48.340,-5.859
1626465609.567,29.297,-24.902,-64.941,-31.738
1626465609.571,-57.129,-20.996,-38.086,-48.828
1626465609.575,-68.359,-24.414,-7.812,-17.090
1626465609.577,6.836,-22.949,-29.785,0.000
1626465609.581,31.250,-24.414,-62.012,-29.785
1626465609.585,-42.480,-32.227,-51.758,-57.617
1626465609.589,-78.125,-33.691,-9.766,-28.320
1626465609.593,-11.719,-35.156,-13.184,2.930
1626465609.597,30.762,-32.715,-41.504,-20.508
1626465609.601,-28.809,-43.945,-54.688,-63.477
1626465609.604,-89.844,-51.270,-29.297,-54.688
1626465609.608,-25.391,-35.645,-16.602,3.418
1626465609.612,24.902,-35.645,-54.688,-2.930
1626465609.616,-7.324,-51.758,-72.754,-44.922
1626465609.620,-86.914,-55.664,-30.762,-53.223
1626465609.622,-53.711,-42.969,-4.395,-6.836
1626465609.626,8.301,-39.062,-38.574,5.371
1626465609.630,14.648,-42.969,-63.477,-32.227
1626465609.634,-71.289,-41.992,-44.434,-55.664
1626465609.638,-76.660,-31.250,-5.859,-7.324
1626465609.642,5.859,-21.484,-13.672,20.020
1626465609.646,28.809,-24.902,-56.152,-17.578
1626465609.649,-42.969,-41.992,-54.688,-55.664
1626465609.653,-77.148,-39.551,-5.371,-23.438
1626465609.657,-16.602,-37.109,-10.254,18.555
1626465609.661,15.625,-41.504,-56.152,-10.742
1626465609.665,-36.621,-46.387,-59.082,-58.105
1626465609.668,-106.934,-40.527,-12.695,-55.664
1626465609.672,-48.828,-26.855,-10.254,-8.789
1626465609.676,17.090,-30.762,-52.734,-19.043
1626465609.680,-5.371,-40.039,-66.406,-60.547
1626465609.684,-99.609,-48.340,-31.250,-79.102
1626465609.688,-79.102,-40.039,-1.465,-28.320
1626465609.692,6.836,-32.715,-27.344,-1.465
1626465609.695,22.949,-37.598,-58.594,-39.062
1626465609.699,-67.871,-36.621,-40.039,-69.336
1626465609.703,-85.938,-34.668,-3.906,-33.691
1626465609.707,-15.137,-38.574,-22.949,-0.488
1626465609.711,21.484,-37.109,-51.758,-30.273
1626465609.728,-39.062,-39.062,-53.223,-69.824
1626465609.732,-85.449,-37.598,-12.695,-45.898
1626465609.736,-21.973,-30.762,-8.789,-2.441
1626465609.740,29.297,-29.297,-51.758,-11.719
1626465609.744,-5.859,-29.785,-62.988,-53.223
1626465609.748,-89.355,-35.156,-24.414,-58.594
1626465609.752,-46.875,-41.016,-10.254,-9.766
1626465609.755,28.320,-35.645,-45.410,-2.441
1626465609.759,14.648,-38.086,-64.453,-48.340
1626465609.763,-79.102,-42.480,-32.227,-76.172
1626465609.767,-64.941,-40.527,-7.812,-25.391
1626465609.771,9.277,-31.250,-35.645,-0.488
1626465609.772,24.414,-28.809,-66.895,-37.109
1626465609.776,-58.105,-34.668,-41.992,-60.059
1626465609.780,-79.590,-33.691,-6.836,-30.273
1626465609.784,-8.789,-31.738,-31.250,1.953
1626465609.788,33.203,-29.297,-59.082,-20.020
1626465609.792,-20.996,-26.367,-53.711,-61.523
1626465609.796,-80.078,-23.438,-11.719,-42.480
1626465609.799,-21.973,-15.625,0.488,8.789
1626465609.803,30.762,-22.949,-45.410,-9.277
1626465609.807,-12.695,-43.457,-71.777,-60.059
1626465609.811,-82.520,-38.574,-27.832,-49.805
1626465609.815,-41.504,-32.227,-10.742,0.977
1626465609.817,23.926,-29.785,-45.410,-1.953
1626465609.821,21.484,-20.020,-65.430,-43.945
1626465609.825,-74.219,-31.250,-35.645,-72.266
1626465609.829,-60.547,-34.668,6.836,-21.973
1626465609.833,13.184,-30.762,-22.949,1.465
1626465609.837,15.137,-34.668,-63.965,-38.086
1626465609.841,-58.594,-42.480,-52.734,-69.824
1626465609.844,-76.660,-32.715,-2.441,-33.691
1626465609.848,-20.508,-28.809,-8.789,-0.977
1626465609.852,7.812,-32.715,-56.641,-28.320
1626465609.856,-40.527,-40.527,-60.547,-64.941
1626465609.860,-99.121,-43.945,-14.160,-51.758
1626465609.862,-38.086,-36.621,-7.324,-1.465
1626465609.866,13.672,-51.758,-55.176,-15.625
1626465609.870,-15.625,-55.176,-62.012,-56.152
1626465609.874,-95.215,-46.387,-16.113,-61.523
1626465609.878,-59.570,-36.621,2.441,-11.719
1626465609.882,12.695,-26.367,-28.320,0.488
1626465609.886,7.812,-27.832,-61.523,-44.434
1626465609.889,-83.496,-40.039,-47.363,-74.707
1626465609.893,-82.031,-40.039,-14.160,-38.086
1626465609.897,-1.465,-40.039,-32.227,-9.766
1626465609.901,34.180,-37.598,-55.176,-25.879
1626465609.905,-40.527,-36.621,-40.039,-54.688
1626465609.908,-83.008,-28.809,7.324,-31.250
1626465609.912,-24.414,-29.785,-0.977,3.418
1626465609.916,11.230,-39.551,-50.781,-24.414
1626465609.920,-35.645,-40.527,-57.617,-66.406
1626465609.924,-91.309,-35.645,-16.602,-50.781
1626465609.928,-33.203,-28.809,-4.883,2.930
1626465609.932,24.414,-32.227,-39.551,0.977
1626465609.935,11.719,-36.621,-54.199,-41.504
1626465609.939,-74.219,-39.551,-13.184,-53.223
1626465609.943,-55.664,-39.551,12.207,-4.883
1626465609.947,15.137,-33.203,-21.973,4.883
1626465609.951,18.555,-38.574,-54.199,-38.574
1626465609.952,-75.684,-45.410,-40.527,-73.730
1626465609.956,-91.309,-41.016,-0.977,-33.691
1626465609.960,-14.648,-36.133,-16.113,-3.418
1626465609.964,23.926,-33.203,-55.664,-35.645
1626465609.968,-39.551,-34.180,-49.805,-65.918
1626465609.972,-78.125,-21.973,1.953,-34.668
1626465609.976,-20.996,-29.785,-2.441,2.441
1626465609.979,11.230,-49.805,-48.340,-30.762
1626465609.983,-31.250,-45.898,-55.176,-69.824
1626465609.987,-101.562,-35.156,-1.953,-51.758
1626465609.991,-55.664,-33.691,14.648,0.977
1626465609.995,7.324,-38.086,-34.668,-3.418
1626465609.997,2.930,-32.715,-53.223,-45.898
1626465610.001,-80.566,-27.344,-24.414,-66.895
1626465610.005,-63.965,-26.855,-0.488,-13.672
1626465610.009,12.695,-31.738,-24.414,8.301
1626465610.013,23.926,-40.527,-55.664,-32.715
1626465610.017,-53.711,-35.156,-30.273,-61.035
1626465610.021,-72.754,-33.691,9.766,-20.508
1626465610.024,-6.348,-39.551,-5.859,9.277
1626465610.028,23.438,-30.273,-38.574,-27.344
1626465610.032,-41.504,-32.227,-38.086,-64.941
1626465610.036,-94.727,-38.086,3.906,-43.457
1626465610.040,-37.109,-34.668,2.441,0.488
1626465610.042,24.414,-34.180,-38.086,-0.977
1626465610.046,-2.441,-32.715,-43.457,-33.691
1626465610.050,-89.355,-39.062,-4.883,-52.246
1626465610.054,-55.664,-42.969,3.906,-9.277
1626465610.058,4.395,-46.387,-36.133,-5.371
1626465610.062,-1.953,-46.387,-56.641,-49.316
1626465610.066,-75.684,-41.016,-28.320,-69.824
1626465610.069,-70.312,-42.969,5.859,-22.949
1626465610.073,-0.488,-33.203,-13.184,4.395
1626465610.077,20.020,-34.180,-53.711,-28.320
1626465610.081,-59.082,-49.805,-47.363,-63.477
1626465610.085,-87.402,-42.480,-6.836,-31.738
1626465610.102,-19.531,-40.039,-20.020,1.953
1626465610.106,23.926,-48.340,-52.734,-17.090
1626465610.110,-35.156,-48.340,-46.387,-49.805
1626465610.114,-99.609,-45.898,-6.836,-34.180
1626465610.118,-42.480,-36.621,-4.883,12.695
1626465610.122,23.438,-30.762,-42.480,-0.977
1626465610.126,-0.488,-39.062,-59.082,-45.898
1626465610.129,-95.215,-42.480,-17.090,-60.547
1626465610.133,-59.082,-37.598,9.766,-20.020
1626465610.137,15.137,-40.039,-31.738,-16.602
1626465610.141,8.789,-40.527,-64.453,-48.340
1626465610.145,-76.660,-35.156,-31.738,-65.918
1626465610.147,-68.359,-24.414,2.441,-22.949
1626465610.151,0.488,-28.320,-27.344,5.371
1626465610.155,23.926,-28.809,-60.059,-21.484
1626465610.159,-40.527,-23.438,-43.945,-55.664
1626465610.163,-86.914,-32.715,-6.836,-34.668
1626465610.167,-20.996,-30.273,-20.508,6.348
1626465610.171,34.180,-29.785,-66.406,-10.254
1626465610.174,-10.254,-35.645,-60.059,-43.945
1626465610.178,-90.820,-33.691,-19.043,-52.246
1626465610.182,-56.152,-38.574,-19.531,-20.020
1626465610.186,11.230,-34.668,-47.852,-17.578
1626465610.190,-16.113,-42.969,-66.895,-62.500
1626465610.192,-98.145,-45.410,-33.203,-66.406
1626465610.196,-59.082,-25.391,-3.418,-9.766
1626465610.200,13.184,-32.715,-41.504,-11.719
1626465610.204,21.973,-39.062,-68.359,-38.574
1626465610.208,-61.035,-37.598,-40.039,-50.293
1626465610.212,-56.641,-31.250,2.441,-10.742
1626465610.216,15.625,-28.809,-18.555,15.137
1626465610.219,29.785,-45.898,-60.547,-19.043
1626465610.223,-32.227,-48.828,-51.758,-54.688
1626465610.227,-90.820,-40.039,-13.184,-39.551
1626465610.231,-26.367,-28.809,-10.742,7.812
1626465610.235,33.203,-31.738,-44.922,-17.578
1626465610.237,-20.508,-49.316,-61.035,-63.965
1626465610.241,-88.867,-42.969,-21.484,-46.387
1626465610.245,-31.250,-25.391,-6.836,4.395
1626465610.249,28.320,-15.137,-46.387,-1.465
1626465610.253,13.184,-20.508,-62.500,-43.457
1626465610.257,-71.289,-36.133,-26.855,-60.059
1626465610.261,-58.594,-35.156,-2.930,-14.648
1626465610.264,9.766,-38.086,-32.227,2.441
1626465610.268,4.395,-50.293,-74.219,-39.062
1626465610.272,-82.520,-44.434,-55.176,-71.289
1626465610.276,-75.684,-34.668,-1.953,-26.855
1626465610.280,0.488,-32.227,-21.484,6.836
1626465610.282,28.320,-30.762,-57.129,-19.043
1626465610.286,-29.785,-35.645,-49.316,-62.500
1626465610.290,-77.637,-32.715,-6.348,-34.180
1626465610.294,-11.719,-31.250,-3.418,12.207
1626465610.298,34.180,-33.691,-49.316,-29.785
1626465610.302,-12.695,-40.527,-54.688,-67.871
1626465610.306,-83.008,-37.598,-12.207,-55.176
1626465610.309,-42.480,-25.391,-11.230,-14.160
1626465610.313,25.391,-18.066,-49.805,-15.625
1626465610.317,14.648,-20.996,-63.965,-53.711
1626465610.321,-74.219,-25.391,-38.086,-71.777
1626465610.325,-57.129,-29.297,-10.742,-27.832
1626465610.327,23.926,-25.879,-36.133,-9.766
1626465610.331,43.945,-28.809,-66.895,-38.086
1626465610.335,-24.414,-34.668,-41.016,-54.199
1626465610.339,-54.199,-30.762,9.277,-22.949
1626465610.343,-2.930,-23.438,-0.488,5.859
1626465610.347,38.574,-21.973,-37.598,-11.230
1626465610.351,-24.414,-39.551,-45.410,-59.082
1626465610.354,-75.684,-35.156,-10.254,-46.875
1626465610.358,4.395,-18.066,-4.395,18.066
1626465610.362,49.316,-20.508,-40.527,10.254
1626465610.366,2.441,-36.133,-56.152,-33.691
1626465610.370,-77.637,-42.969,-13.184,-39.551
1626465610.373,-31.738,-27.832,18.066,9.766
1626465610.377,45.898,-19.043,-21.484,21.484
1626465610.381,33.203,-27.344,-54.688,-21.973
1626465610.385,-60.059,-43.457,-32.227,-54.688
1626465610.389,-48.828,-42.969,5.859,-10.742
1626465610.393,23.926,-26.367,-6.836,11.230
1626465610.397,35.645,-31.738,-46.387,-26.855
1626465610.400,-40.039,-47.363,-35.645,-53.223
1626465610.404,-61.523,-40.039,12.207,-12.207
1626465610.408,13.184,-30.762,3.418,26.855
1626465610.412,52.246,-22.949,-34.668,2.441
1626465610.416,-16.113,-23.926,-49.316,-42.480
1626465610.417,-83.984,-27.832,-20.996,-33.203
1626465610.421,-23.438,-28.320,-0.977,19.531
1626465610.425,28.320,-33.691,-30.273,7.812
1626465610.429,-1.953,-38.574,-50.781,-41.992
1626465610.433,-83.496,-39.062,-15.625,-53.711
1626465610.437,-45.410,-30.273,15.137,-0.977
1626465610.441,25.391,-29.297,-26.855,-0.488
1626465610.444,20.996,-33.203,-58.105,-43.945
1626465610.448,-66.406,-30.762,-32.227,-64.453
1626465610.452,-75.195,-38.086,-5.371,-26.855
1626465610.456,-5.859,-38.086,-18.066,6.348
1626465610.460,20.020,-38.574,-52.734,-23.438
1626465610.477,-55.176,-43.457,-48.340,-60.547
1626465610.481,-96.191,-33.691,1.953,-29.297
1626465610.485,-23.926,-26.367,-3.906,18.066
1626465610.489,15.625,-30.273,-48.340,-4.395
1626465610.493,-28.320,-35.156,-53.711,-42.480
1626465610.497,-89.355,-30.762,-12.695,-35.645
1626465610.501,-42.969,-35.156,-6.836,11.719
1626465610.504,21.973,-37.598,-46.875,2.441
1626465610.508,-0.977,-36.133,-68.359,-50.781
1626465610.512,-89.355,-40.527,-38.574,-67.383
1626465610.516,-55.664,-26.855,-7.812,-25.391
1626465610.520,16.113,-20.020,-33.203,-12.695
1626465610.522,14.160,-32.227,-62.988,-53.223
1626465610.526,-65.430,-30.762,-37.598,-76.172
1626465610.530,-76.172,-27.344,-3.906,-33.203
1626465610.534,-7.324,-24.902,-16.113,-1.953
1626465610.538,18.555,-29.785,-47.852,-27.832
1626465610.542,-51.758,-34.668,-48.340,-64.941
1626465610.546,-90.820,-28.809,-8.789,-43.945
1626465610.549,-21.973,-24.414,-9.277,8.789
1626465610.553,18.555,-33.203,-47.852,-8.301
1626465610.557,-24.414,-43.945,-62.988,-57.617
1626465610.561,-88.867,-44.434,-26.367,-60.547
1626465610.565,-40.039,-39.062,-2.441,-13.184
1626465610.567,12.207,-34.180,-44.434,-12.695
1626465610.571,-11.230,-35.645,-70.312,-61.035
1626465610.575,-88.867,-39.062,-31.250,-72.266
1626465610.579,-67.871,-31.738,-1.953,-22.461
1626465610.583,-1.465,-30.762,-29.785,-9.766
1626465610.587,14.648,-28.809,-56.641,-39.551
1626465610.591,-61.035,-26.855,-36.133,-58.594
1626465610.594,-77.637,-31.738,0.488,-30.273
1626465610.598,-8.789,-39.062,-23.438,-9.766
1626465610.602,18.555,-45.410,-63.965,-36.621
1626465610.606,-40.039,-36.621,-53.223,-67.871
1626465610.610,-88.867,-38.574,-12.695,-42.480
1626465610.613,-25.879,-41.016,-5.859,10.742
1626465610.617,35.645,-36.621,-31.738,6.836
1626465610.621,0.000,-34.668,-42.969,-30.762
1626465610.625,-83.984,-37.109,-4.395,-33.203
1626465610.629,-45.410,-39.062,16.113,10.254
1626465610.633,20.020,-36.621,-20.508,8.301
1626465610.637,5.371,-37.598,-57.617,-34.668
1626465610.640,-89.355,-42.969,-39.062,-57.129
1626465610.644,-83.984,-50.293,-0.488,-6.348
1626465610.648,-8.789,-52.246,-20.508,11.719
1626465610.652,8.301,-49.316,-55.176,-36.621
1626465610.656,-68.359,-38.086,-43.457,-76.660
1626465610.657,-94.238,-33.203,-2.441,-44.922
1626465610.661,-17.578,-35.156,-6.836,-11.230
1626465610.665,34.180,-38.086,-39.551,-34.668
1626465610.669,-17.578,-44.434,-40.039,-65.918
1626465610.673,-73.242,-39.062,-0.977,-44.434
1626465610.677,-6.836,-28.320,5.859,8.789
1626465610.681,45.898,-34.668,-36.621,-2.930
1626465610.684,9.277,-43.457,-60.059,-51.758
1626465610.688,-89.844,-41.504,-23.926,-63.477
1626465610.692,-61.523,-35.156,1.465,-12.207
1626465610.696,22.949,-27.832,-22.949,3.418
1626465610.700,12.207,-36.621,-45.410,-34.180
1626465610.702,-87.891,-46.875,-28.320,-61.035
1626465610.706,-81.543,-32.227,10.742,-11.230
1626465610.710,-4.883,-29.785,-12.207,18.066
1626465610.714,13.672,-37.109,-53.711,-20.020
1626465610.718,-51.758,-32.715,-42.969,-58.105
1626465610.722,-79.102,-22.949,-0.977,-32.227
1626465610.726,-18.555,-25.879,-13.184,0.977
1626465610.729,33.691,-42.480,-62.012,-31.738
1626465610.733,-9.277,-49.805,-68.848,-73.730
1626465610.737,-85.938,-43.457,-19.043,-61.523
1626465610.741,-34.668,-33.203,-2.930,-7.324
1626465610.745,26.367,-25.879,-39.551,-17.090
1626465610.747,3.906,-31.738,-58.594,-57.617
1626465610.751,-92.285,-41.504,-28.809,-64.941
1626465610.755,-62.500,-27.832,0.488,-15.625
1626465610.759,25.879,-22.949,-24.414,0.000
1626465610.763,29.785,-40.527,-54.199,-30.762
1626465610.767,-61.035,-37.598,-27.344,-53.711
1626465610.771,-77.148,-38.574,10.254,-21.973
1626465610.774,-4.395,-41.992,-14.160,5.371
1626465610.778,29.297,-38.086,-49.805,-15.625
1626465610.782,-43.945,-38.574,-46.875,-58.105
1626465610.786,-87.891,-33.691,-10.254,-40.039
1626465610.790,-29.297,-28.320,-11.230,9.766
1626465610.793,13.184,-28.320,-44.434,-7.324
1626465610.797,-23.438,-39.551,-54.688,-55.664
1626465610.801,-102.051,-47.852,-20.508,-59.082
1626465610.805,-54.199,-36.621,-11.230,-8.789
1626465610.809,27.832,-24.414,-42.480,-5.371
1626465610.813,18.066,-28.809,-56.641,-46.387
1626465610.817,-75.684,-39.062,-40.039,-65.430
1626465610.820,-65.430,-35.156,-8.301,-20.020
1626465610.824,19.531,-21.484,-20.020,-5.859
1626465610.828,36.621,-22.461,-60.059,-41.016
1626465610.832,-60.547,-33.691,-54.688,-64.941
1626465610.836,-76.172,-29.785,-13.184,-28.809
1626465610.852,7.812,-22.461,-16.602,1.953
1626465610.856,43.457,-27.832,-53.711,-23.438
1626465610.860,-18.066,-30.273,-48.828,-61.523
1626465610.864,-71.289,-30.273,0.000,-44.922
1626465610.868,-19.531,-35.156,0.488,0.488
1626465610.872,32.715,-32.227,-41.992,-17.090
1626465610.876,-0.977,-34.668,-58.594,-50.781
1626465610.879,-87.891,-40.527,-21.484,-46.875
1626465610.883,-51.270,-39.062,-4.883,-3.418
1626465610.887,30.273,-29.297,-28.809,9.277
1626465610.891,30.273,-24.414,-49.805,-20.508
1626465610.895,-73.730,-32.227,-33.203,-48.340
1626465610.897,-70.312,-31.250,-1.465,-11.230
1626465610.901,6.836,-29.297,-21.484,9.277
1626465610.905,19.531,-37.109,-58.594,-32.715
1626465610.909,-59.570,-42.480,-41.992,-68.848
1626465610.913,-90.820,-38.574,6.836,-45.410
1626465610.917,-22.461,-31.250,-7.812,-18.066
1626465610.921,32.227,-23.438,-50.293,-29.785
1626465610.924,-11.719,-23.438,-47.852,-58.594
1626465610.928,-71.289,-24.902,-1.953,-45.410
1626465610.932,-18.066,-22.461,-1.465,5.371
1626465610.936,37.109,-19.043,-39.062,0.488
1626465610.940,1.465,-37.598,-45.898,-45.410
1626465610.942,-75.684,-44.434,-7.324,-51.270
1626465610.946,-42.969,-36.621,11.230,5.859
1626465610.950,15.625,-32.227,-26.855,14.648
1626465610.954,19.531,-33.691,-53.223,-30.762
1626465610.958,-82.520,-44.922,-32.715,-59.082
1626465610.962,-87.891,-32.227,5.859,-12.695
1626465610.966,2.930,-23.926,-11.230,17.578
1626465610.969,24.414,-41.992,-51.758,-17.090
1626465610.973,-69.336,-66.406,-48.828,-64.453
1626465610.977,-109.863,-61.035,-4.883,-36.133
1626465610.981,-40.039,-42.480,-16.602,5.371
1626465610.985,8.789,-41.016,-52.246,-19.531
1626465610.987,-30.762,-36.621,-43.945,-51.758
1626465610.991,-97.656,-33.203,-6.348,-43.945
1626465610.995,-42.969,-28.809,-3.906,-2.930
1626465610.999,31.250,-20.508,-32.227,-1.953
1626465611.003,7.812,-33.691,-46.387,-43.457
1626465611.007,-83.008,-42.480,-19.043,-60.059
1626465611.011,-49.316,-33.203,8.301,-3.906
1626465611.014,20.508,-31.250,-24.414,4.395
1626465611.018,25.391,-38.086,-64.453,-35.156
1626465611.022,-58.594,-34.668,-46.875,-51.758
1626465611.026,-63.477,-19.043,-4.883,-14.160
1626465611.030,14.648,-24.902,-28.320,1.953
1626465611.032,44.434,-27.832,-62.988,-28.320
1626465611.036,-19.531,-26.855,-49.805,-56.152
1626465611.040,-69.824,-36.621,2.441,-33.691
1626465611.044,-10.254,-28.320,-4.883,9.277
1626465611.048,44.922,-23.438,-51.270,-10.254
1626465611.052,2.441,-33.691,-50.781,-48.828
1626465611.056,-74.219,-31.250,-6.348,-36.133
1626465611.059,-34.668,-28.320,-1.953,7.812
1626465611.063,23.926,-35.645,-39.551,-1.465
1626465611.067,26.855,-32.715,-57.129,-32.227
1626465611.071,-49.316,-29.297,-23.926,-42.969
1626465611.075,-43.945,-27.344,11.719,-6.836
1626465611.080,16.113,-36.621,-12.207,1.465
1626465611.084,21.484,-47.852,-42.480,-36.621
1626465611.088,-72.266,-49.316,-29.297,-65.430
1626465611.092,-97.656,-48.828,2.930,-36.133
1626465611.096,-24.414,-42.480,-16.113,-20.020
1626465611.100,17.578,-45.410,-47.363,-41.992
1626465611.104,-40.039,-51.758,-46.875,-64.453
1626465611.107,-98.145,-44.922,-5.859,-43.457
1626465611.111,-42.969,-38.086,-1.465,-6.348
1626465611.115,17.090,-32.715,-49.805,-18.555
1626465611.119,-17.578,-37.598,-69.824,-59.082
1626465611.123,-103.516,-46.875,-31.738,-62.012
1626465611.122,-59.570,-44.434,-9.766,-11.719
1626465611.126,11.719,-45.898,-47.363,-14.160
1626465611.130,7.324,-41.992,-67.383,-45.410
1626465611.134,-78.125,-36.133,-31.250,-54.199
1626465611.138,-58.594,-28.320,0.488,-14.160
1626465611.142,11.719,-26.367,-29.785,0.000
1626465611.146,28.809,-32.715,-72.754,-38.086
1626465611.149,-54.688,-39.551,-60.547,-80.566
1626465611.153,-80.566,-38.086,-14.160,-43.945
1626465611.157,-6.836,-35.156,-26.855,-4.395
1626465611.161,23.926,-31.738,-65.918,-31.738
1626465611.165,-35.645,-34.180,-59.082,-73.242
1626465611.167,-87.402,-33.203,-17.090,-54.199
1626465611.171,-25.879,-25.879,-15.625,-0.488
1626465611.175,24.414,-28.320,-53.711,-13.672
1626465611.179,-10.254,-42.969,-68.359,-59.082
1626465611.183,-98.145,-40.039,-24.902,-64.941
1626465611.187,-62.012,-24.902,-4.395,-6.836
1626465611.191,19.531,-30.273,-37.598,1.465
1626465611.194,13.184,-37.598,-56.152,-32.227
1626465611.198,-74.707,-35.645,-36.621,-39.551
1626465611.202,-65.430,-35.156,-6.348,-6.348
1626465611.206,8.789,-33.203,-22.461,13.672
1626465611.210,31.738,-31.250,-54.688,-18.066
1626465611.229,-43.457,-41.992,-46.875,-54.688
1626465611.233,-65.430,-36.621,-1.953,-23.926
1626465611.237,0.977,-30.273,-13.184,11.719
1626465611.241,35.645,-34.668,-57.617,-16.113
1626465611.245,-17.090,-38.086,-58.594,-70.801
1626465611.249,-82.031,-29.785,-16.113,-58.105
1626465611.253,-39.551,-27.344,-18.555,-10.254
