timestamps,TP9,AF7,AF8,TP10
1628133107.264,13.184,-16.602,-41.016,9.766
1628133107.268,-37.109,-15.137,-44.922,-23.926
1628133107.272,-63.477,-13.184,-49.316,-50.781
1628133107.276,1.953,-43.945,-31.250,-6.348
1628133107.280,38.086,-70.312,-20.996,29.297
1628133107.284,-21.484,-37.109,-21.973,-15.625
1628133107.288,-65.430,-3.906,-18.066,-57.617
1628133107.291,-36.133,-20.996,-27.344,-42.480
1628133107.295,19.043,-35.645,-34.668,-0.488
1628133107.299,5.371,-29.785,-39.062,-4.395
1628133107.303,-71.289,-29.785,-45.410,-55.176
1628133107.307,-74.707,-17.578,-38.574,-60.547
1628133107.310,-44.922,-43.457,-40.527,-41.016
1628133107.314,-68.848,-33.203,-27.832,-62.988
1628133107.318,-13.184,-29.785,-30.762,-11.719
1628133107.322,30.273,-27.832,-27.832,22.461
1628133107.326,-18.066,-32.227,-25.879,-22.461
1628133107.329,-65.918,-21.484,-20.508,-65.918
1628133107.333,-33.203,-13.672,-13.672,-35.156
1628133107.337,0.000,-38.574,-26.855,-4.883
1628133107.341,-22.949,-50.293,-48.340,-15.625
1628133107.345,-70.312,-37.598,-48.828,-60.059
1628133107.358,-67.383,-42.969,-34.180,-67.871
1628133107.362,-18.555,-31.250,-39.062,-28.809
1628133107.366,-15.137,-26.367,-43.945,-21.484
1628133107.370,-62.500,-23.438,-38.574,-49.316
1628133107.374,-62.500,-3.906,-39.062,-47.852
1628133107.378,9.766,3.906,-24.414,2.441
1628133107.382,27.832,-15.137,-12.207,17.578
1628133107.385,-46.875,-33.691,-29.785,-40.527
1628133107.389,-91.309,-43.945,-37.109,-75.195
1628133107.393,-32.715,-44.922,-29.785,-38.086
1628133107.397,19.531,-33.203,-22.461,6.348
1628133107.401,-31.738,-23.926,-23.438,-27.832
1628133107.394,-88.867,-24.414,-43.945,-76.660
1628133107.398,-41.016,-21.973,-39.551,-41.016
1628133107.402,25.391,-21.484,-25.879,10.254
1628133107.406,-16.113,-31.250,-20.020,-18.555
1628133107.410,-88.379,-32.715,-24.414,-71.289
1628133107.414,-65.430,-17.578,-41.016,-49.316
1628133107.418,4.395,-17.578,-47.852,-0.977
1628133107.421,-0.488,-47.852,-53.223,-11.719
1628133107.425,-65.430,-56.152,-42.480,-51.758
1628133107.429,-76.172,-42.480,-24.414,-61.523
1628133107.433,-14.648,-46.387,-24.414,-23.438
1628133107.437,14.648,-37.109,-18.555,2.441
1628133107.451,-46.875,-24.902,-15.625,-41.504
1628133107.455,-93.750,-14.648,-20.508,-76.172
1628133107.459,-35.156,-3.418,-29.785,-34.668
1628133107.463,19.531,-14.160,-46.875,9.277
1628133107.467,-15.625,-30.273,-41.992,-20.508
1628133107.471,-77.148,-41.992,-24.902,-67.871
1628133107.475,-62.500,-49.316,-27.344,-56.641
1628133107.478,-3.418,-38.574,-40.039,-14.648
1628133107.482,-21.973,-28.809,-37.598,-22.949
1628133107.486,-71.289,-29.297,-22.461,-64.941
1628133107.490,-61.523,-26.855,-25.879,-64.453
1628133107.494,-14.648,-22.461,-30.273,-24.414
1628133107.489,-1.465,-30.762,-29.297,-10.254
1628133107.493,-58.105,-43.945,-21.973,-53.711
1628133107.497,-72.754,-35.645,-7.812,-63.965
1628133107.501,-15.625,-23.438,-11.230,-15.625
1628133107.505,5.371,-33.203,-32.227,2.930
1628133107.509,-49.805,-41.016,-48.828,-42.969
1628133107.513,-83.008,-24.414,-45.898,-70.801
1628133107.516,-36.621,-30.273,-27.832,-37.598
1628133107.520,8.789,-43.457,-29.297,-5.371
1628133107.524,-27.344,-32.715,-38.086,-28.809
1628133107.528,-83.008,-24.902,-42.480,-65.430
1628133107.532,-54.688,-28.809,-46.875,-45.410
1628133107.544,15.137,-22.461,-37.109,6.348
1628133107.548,11.230,-21.973,-24.902,3.418
1628133107.552,-67.871,-45.410,-16.602,-59.570
1628133107.556,-82.031,-39.062,-17.090,-77.148
1628133107.560,-12.695,-20.020,-20.996,-15.625
1628133107.564,-10.254,-37.598,-36.621,-11.230
1628133107.568,-72.266,-61.035,-51.758,-66.406
1628133107.571,-83.008,-52.246,-60.547,-75.684
1628133107.575,-31.738,-30.762,-52.734,-29.785
1628133107.579,4.883,-33.203,-37.598,1.953
1628133107.583,-33.691,-35.156,-30.273,-29.785
1628133107.587,-82.031,-30.273,-32.715,-72.754
1628133107.581,-44.434,-34.668,-34.180,-47.852
1628133107.585,12.207,-32.227,-12.207,-4.395
1628133107.589,-20.020,-30.762,-20.020,-22.949
1628133107.593,-68.359,-32.227,-37.598,-61.035
1628133107.597,-39.551,-25.391,-40.527,-46.387
1628133107.601,5.371,-28.809,-54.199,-8.301
1628133107.605,-4.883,-41.992,-39.551,-17.090
1628133107.608,-61.035,-44.434,-15.137,-64.941
1628133107.612,-71.289,-27.344,-19.531,-68.848
1628133107.616,-4.395,-21.484,-45.410,-15.625
1628133107.620,30.762,-30.762,-38.574,18.555
1628133107.624,-26.855,-59.082,-17.578,-21.973
1628133107.641,-62.012,-50.293,-19.043,-55.176
1628133107.645,-13.184,0.977,-38.086,-19.043
1628133107.649,14.160,-5.859,-49.805,6.836
1628133107.653,-44.434,-40.039,-42.480,-37.598
1628133107.657,-73.730,-35.156,-17.578,-71.777
1628133107.661,-34.668,-39.062,-16.113,-46.387
1628133107.665,8.789,-39.551,-33.203,-4.395
1628133107.668,-12.695,-25.879,-39.551,-20.508
1628133107.672,-74.219,-27.344,-48.828,-70.801
1628133107.676,-72.754,-27.832,-49.316,-73.730
1628133107.680,-16.602,-31.250,-38.574,-28.809
1628133107.684,-8.301,-32.227,-28.809,-10.254
1628133107.695,-47.363,-24.414,-28.809,-45.898
1628133107.699,-52.246,-36.133,-25.879,-65.430
1628133107.703,-4.883,-41.992,-14.648,-18.555
1628133107.707,20.020,-25.879,-16.602,14.648
1628133107.711,-43.457,-28.320,-28.809,-40.039
1628133107.715,-81.543,-17.578,-26.855,-76.172
1628133107.719,-34.180,-7.812,-20.020,-33.203
1628133107.722,-6.348,-26.855,-27.344,-5.371
1628133107.726,-46.387,-44.922,-22.949,-27.832
1628133107.730,-97.656,-44.434,-24.902,-62.988
1628133107.734,-60.547,-34.180,-30.762,-44.434
1628133107.738,11.719,-51.270,-28.809,11.230
1628133107.751,-18.066,-57.617,-35.156,-15.137
1628133107.755,-71.289,-16.602,-29.297,-61.035
1628133107.759,-60.547,-19.531,-25.391,-54.688
1628133107.763,-8.301,-50.293,-49.805,-16.113
1628133107.767,-10.742,-41.504,-57.617,-12.695
1628133107.771,-65.918,-27.832,-27.832,-55.176
1628133107.775,-84.473,-32.227,-13.672,-71.777
1628133107.778,-30.762,-35.645,-13.184,-31.738
1628133107.782,10.742,-39.062,-26.855,-4.883
1628133107.786,-37.109,-42.480,-38.086,-37.598
1628133107.790,-87.402,-36.621,-42.480,-75.684
1628133107.794,-41.504,-13.184,-36.133,-43.945
1628133107.774,24.902,-3.906,-19.531,14.160
1628133107.778,0.000,-20.996,-21.484,2.441
1628133107.782,-60.059,-33.691,-50.781,-50.781
1628133107.786,-36.621,-41.504,-58.105,-33.691
1628133107.790,25.879,-26.367,-27.344,11.230
1628133107.794,1.465,-26.367,-20.020,-7.324
1628133107.798,-70.801,-53.223,-30.273,-62.988
1628133107.801,-70.312,-44.922,-27.344,-64.453
1628133107.805,-2.930,-16.602,-21.973,-5.371
1628133107.809,16.113,-13.184,-29.297,9.766
1628133107.813,-44.922,-23.438,-38.086,-41.992
1628133107.817,-68.848,-31.738,-31.250,-65.918
1628133107.826,-18.066,-39.062,-33.691,-27.344
1628133107.830,15.625,-44.922,-45.898,-2.441
1628133107.834,-18.066,-54.199,-49.316,-33.691
1628133107.838,-64.453,-42.969,-44.922,-67.383
1628133107.842,-34.180,-29.785,-27.832,-45.898
1628133107.846,28.320,-26.367,-21.484,-0.977
1628133107.850,-8.789,-29.785,-38.574,-30.273
1628133107.853,-90.332,-38.574,-49.805,-88.867
1628133107.857,-72.754,-27.344,-36.133,-75.195
1628133107.861,16.113,-7.812,-32.227,-9.766
1628133107.865,23.926,-8.301,-44.922,0.000
1628133107.869,-48.828,-37.598,-40.527,-58.105
1628133107.863,-69.824,-55.664,-40.039,-75.684
1628133107.867,-9.766,-34.668,-39.551,-30.762
1628133107.871,21.484,-30.762,-28.320,-0.977
1628133107.875,-30.762,-50.781,-31.250,-41.992
1628133107.879,-65.430,-48.828,-41.992,-67.383
1628133107.883,-15.625,-37.598,-45.898,-27.832
1628133107.887,30.273,-27.832,-33.691,1.953
1628133107.890,-16.113,-24.902,-36.621,-31.250
1628133107.894,-80.078,-21.484,-45.898,-74.219
1628133107.898,-43.457,-26.367,-31.250,-48.828
1628133107.902,19.043,-29.297,-9.277,-5.371
1628133107.906,-3.418,-20.020,-22.461,-19.043
1628133107.923,-64.941,-26.855,-50.293,-57.129
1628133107.927,-50.293,-41.504,-43.457,-46.387
1628133107.931,34.668,-31.738,-29.297,13.184
1628133107.935,22.949,-28.809,-35.156,11.230
1628133107.939,-62.988,-38.086,-44.434,-54.199
1628133107.943,-78.125,-34.668,-38.086,-67.871
1628133107.947,-16.602,-16.602,-31.250,-21.973
1628133107.950,12.695,-9.766,-21.973,3.418
1628133107.954,-39.551,-19.043,-4.395,-31.738
1628133107.958,-77.637,-26.855,-30.273,-66.895
1628133107.962,-33.691,-37.109,-52.246,-29.297
1628133107.966,12.695,-54.199,-40.039,9.277
1628133107.957,-21.973,-35.156,-26.855,-24.414
1628133107.961,-72.266,-2.930,1.953,-65.430
1628133107.965,-48.340,-2.441,-10.742,-45.410
1628133107.969,4.395,-31.738,-37.598,0.000
1628133107.973,-13.672,-39.551,-42.480,-20.020
1628133107.977,-66.895,-15.137,-41.504,-66.895
1628133107.981,-62.988,-20.020,-25.879,-56.641
1628133107.984,3.906,-32.715,-17.090,1.465
1628133107.988,-0.488,-38.574,-37.598,-6.836
1628133107.992,-81.055,-44.922,-69.824,-71.289
1628133107.996,-86.426,-35.645,-50.293,-70.801
1628133108.000,-16.602,-27.344,-20.020,-14.648
1628133108.090,10.254,-39.551,-17.090,2.441
1628133108.094,-53.223,-37.109,-17.578,-49.805
1628133108.098,-95.703,-28.320,-25.391,-82.520
1628133108.102,-41.992,-34.668,-50.293,-41.016
1628133108.106,17.090,-47.363,-50.781,0.000
1628133108.110,-9.277,-40.527,-29.297,-22.461
1628133108.114,-71.289,-35.645,-37.598,-62.012
1628133108.117,-51.758,-35.156,-45.898,-46.387
1628133108.121,19.043,-36.133,-44.434,0.000
1628133108.125,-11.230,-44.922,-37.598,-27.344
1628133108.129,-26.367,-40.527,-26.855,-35.645
1628133108.133,17.090,-24.414,-31.738,2.441
1628133108.108,-49.316,-25.391,-34.180,-47.363
1628133108.112,-86.914,-24.414,-35.156,-71.289
1628133108.116,-23.926,-17.578,-25.391,-21.973
1628133108.120,9.766,-29.785,-25.879,-4.883
1628133108.124,-42.480,-42.480,-35.156,-38.574
1628133108.128,-83.496,-36.133,-41.504,-71.289
1628133108.132,-44.434,-25.391,-51.758,-49.805
1628133108.135,23.438,-18.555,-51.270,5.371
1628133108.139,-1.465,-47.852,-25.391,-12.207
1628133108.143,-70.312,-60.547,1.465,-65.918
1628133108.147,-64.453,-35.645,-17.578,-58.594
1628133108.151,-5.371,-36.133,-37.109,-11.719
1628133108.127,12.695,-33.203,-30.762,2.930
1628133108.131,-33.203,-14.648,-29.297,-26.855
1628133108.135,-63.477,-21.973,-34.668,-50.781
1628133108.139,-24.414,-31.250,-40.527,-31.738
1628133108.143,5.859,-31.738,-31.738,-7.324
1628133108.147,-42.480,-35.645,-26.367,-44.922
1628133108.151,-67.871,-36.133,-28.809,-67.383
1628133108.154,-18.066,-35.156,-24.902,-22.949
1628133108.158,26.367,-24.902,-14.648,13.672
1628133108.162,-20.996,-39.551,-26.855,-28.809
1628133108.166,-71.777,-54.688,-38.086,-73.730
1628133108.170,-16.113,-30.762,-24.902,-34.668
1628133108.173,46.875,-17.090,-25.391,20.020
1628133108.177,11.719,-18.555,-25.879,5.371
1628133108.181,-60.547,-22.461,-9.277,-47.852
1628133108.185,-47.363,-8.789,-8.789,-43.457
1628133108.189,13.184,-7.812,-28.809,-1.953
1628133108.193,15.625,-26.855,-26.367,2.441
1628133108.197,-51.270,-48.828,-29.297,-42.480
1628133108.200,-57.129,-63.965,-24.902,-46.387
1628133108.204,0.977,-36.133,-16.602,0.488
1628133108.208,4.395,-25.391,-45.898,-7.812
1628133108.212,-62.500,-36.621,-47.852,-61.035
1628133108.216,-99.609,-27.344,-32.715,-84.473
1628133108.216,-33.203,-20.020,-18.066,-41.504
1628133108.220,34.668,-19.043,-5.859,12.695
1628133108.224,-0.488,-23.438,-13.184,-2.930
1628133108.228,-74.707,-31.738,-26.855,-63.477
1628133108.232,-48.828,-33.203,-46.875,-44.922
1628133108.236,27.344,-28.320,-40.527,19.043
1628133108.240,11.230,-19.043,-20.508,9.277
1628133108.243,-60.059,-27.344,-29.297,-47.363
1628133108.247,-67.383,-51.758,-33.691,-59.082
1628133108.251,-7.812,-37.109,-7.812,-18.555
1628133108.255,11.719,-14.648,-11.230,-0.488
1628133108.259,-52.246,-25.879,-27.832,-52.734
1628133108.262,-85.938,-37.109,-19.531,-76.172
1628133108.266,-14.648,-21.973,-29.785,-13.672
1628133108.270,31.738,-24.414,-46.387,19.531
1628133108.274,-37.109,-52.734,-41.016,-31.250
1628133108.278,-81.055,-44.922,-24.902,-56.641
1628133108.282,-11.719,-29.785,0.977,-6.348
1628133108.286,34.668,-29.785,-18.066,20.508
1628133108.289,-18.066,-20.020,-45.410,-16.113
1628133108.293,-73.730,-15.625,-35.156,-60.547
1628133108.297,-47.852,2.441,-40.039,-43.945
1628133108.301,9.277,8.301,-32.715,2.930
1628133108.305,-16.113,-30.762,-23.438,-19.043
1628133108.295,-77.148,-56.152,-22.461,-67.871
1628133108.299,-62.500,-43.457,-11.230,-47.363
1628133108.303,-5.371,-27.344,-28.809,0.977
1628133108.307,9.766,-38.574,-41.992,9.277
1628133108.311,-35.156,-41.016,-31.250,-22.461
1628133108.315,-73.730,-20.508,-37.598,-54.688
1628133108.319,-36.621,-12.207,-36.621,-36.621
1628133108.322,-1.953,-5.859,-37.598,-11.719
1628133108.326,-52.734,-24.414,-37.598,-53.223
1628133108.330,-92.773,-31.250,-19.531,-79.102
1628133108.334,-42.480,-24.902,-14.648,-39.062
1628133108.338,16.602,-31.738,-35.156,2.441
1628133108.351,-25.391,-38.574,-44.922,-21.973
1628133108.355,-83.496,-35.156,-40.039,-66.895
1628133108.359,-47.363,-25.391,-36.133,-45.410
1628133108.363,14.648,-42.969,-31.738,0.488
1628133108.367,-4.883,-55.664,-35.156,-11.719
1628133108.371,-70.801,-34.180,-27.832,-60.059
1628133108.375,-82.031,-33.691,-22.949,-74.219
1628133108.378,-24.414,-49.805,-14.648,-38.574
1628133108.382,-4.883,-51.270,-24.902,-16.602
1628133108.386,-62.500,-37.598,-38.086,-51.758
1628133108.390,-81.055,-29.785,-25.879,-73.242
1628133108.394,-19.531,-16.602,-24.414,-23.926
1628133108.394,30.762,-0.488,-35.156,16.602
1628133108.398,-12.207,-18.066,-35.645,-19.531
1628133108.402,-65.430,-23.438,-21.484,-62.012
1628133108.406,-40.039,-20.996,-7.812,-43.457
1628133108.410,5.371,-32.715,-12.695,-15.625
1628133108.414,-15.625,-31.250,-21.484,-31.250
1628133108.418,-80.566,-27.344,-31.250,-79.590
1628133108.421,-65.918,-31.738,-20.020,-68.848
1628133108.425,5.371,-53.223,-24.902,-14.160
1628133108.429,6.348,-31.738,-63.477,-14.160
1628133108.433,-56.641,-9.766,-59.082,-62.500
1628133108.437,-67.871,-14.160,-29.785,-72.754
1628133108.448,-4.395,-15.625,-29.785,-22.461
1628133108.452,38.086,-11.719,-24.414,16.602
1628133108.456,-27.832,-17.090,-17.090,-33.691
1628133108.460,-95.703,-39.062,-28.809,-91.309
1628133108.464,-33.691,-32.715,-42.969,-46.875
1628133108.468,21.973,-33.691,-40.527,5.371
1628133108.472,-24.902,-61.523,-32.227,-27.832
1628133108.475,-90.820,-64.453,-36.133,-84.961
1628133108.479,-75.195,-45.410,-49.316,-69.824
1628133108.483,-2.441,-29.297,-44.922,-12.695
1628133108.487,-5.371,-42.480,-26.855,-14.160
1628133108.491,-73.730,-45.898,-31.250,-58.105
1628133108.482,-68.848,-17.578,-29.785,-60.059
1628133108.486,4.883,1.953,-8.301,-1.953
1628133108.490,5.371,-33.691,-15.137,5.859
1628133108.494,-60.059,-51.758,-41.504,-53.223
1628133108.498,-75.195,-24.902,-57.129,-75.684
1628133108.502,-17.578,-8.301,-37.109,-29.785
1628133108.506,15.625,-12.207,-16.113,1.953
1628133108.509,-31.738,-26.367,-21.973,-30.762
1628133108.513,-58.105,-13.672,-44.434,-41.992
1628133108.517,-8.789,-3.418,-52.246,-13.184
1628133108.521,9.277,-31.250,-32.715,-10.254
1628133108.525,-36.133,-44.434,-20.020,-36.621
1628133108.539,-81.543,-30.273,-27.832,-69.336
1628133108.543,-57.617,-26.855,-29.297,-51.758
1628133108.547,13.184,-20.996,-20.020,2.441
1628133108.551,-2.930,-41.504,-31.250,-15.625
1628133108.555,-79.102,-57.129,-45.898,-69.824
1628133108.559,-68.359,-21.484,-36.133,-53.223
1628133108.563,-6.348,-9.766,-26.367,-9.277
1628133108.566,3.906,-34.180,-22.461,-5.859
1628133108.570,-40.527,-41.016,-27.832,-40.527
1628133108.574,-69.336,-22.461,-40.527,-59.570
1628133108.578,-24.902,-20.508,-41.016,-16.602
1628133108.582,34.180,-28.809,-26.367,34.668
1628133108.580,-20.508,-30.762,-16.113,-5.859
1628133108.584,-99.609,-43.457,-31.738,-76.172
1628133108.588,-64.941,-41.992,-34.180,-56.641
1628133108.592,-0.977,-33.203,-29.297,-7.812
1628133108.596,-22.461,-29.297,-35.645,-26.367
1628133108.600,-75.684,-18.555,-31.738,-62.988
1628133108.604,-50.293,-10.254,-18.555,-42.969
1628133108.607,4.395,-12.207,-47.852,-6.836
1628133108.611,-2.930,-29.297,-85.449,-7.812
1628133108.615,-58.594,-46.875,-49.805,-49.316
1628133108.619,-72.266,-48.340,-15.625,-60.547
1628133108.623,-16.113,-65.430,-39.062,-19.531
1628133108.632,13.184,-47.852,-35.645,-1.465
1628133108.636,-49.805,-7.324,-17.578,-45.898
1628133108.640,-98.145,-21.973,-29.297,-85.449
1628133108.644,-36.621,-27.832,-17.578,-29.785
1628133108.648,12.207,-15.625,-25.391,13.184
1628133108.652,-34.668,-20.508,-50.781,-29.785
1628133108.656,-87.402,-19.531,-54.688,-73.242
1628133108.659,-64.453,-24.902,-49.316,-63.965
1628133108.663,5.371,-30.762,-24.902,-8.789
1628133108.667,9.277,-20.508,-6.348,6.348
1628133108.671,-46.387,-48.340,-12.207,-30.762
1628133108.675,-55.664,-65.430,-31.738,-42.969
1628133108.669,-6.836,-34.668,-49.805,-12.207
1628133108.673,2.930,-26.367,-51.270,-5.371
1628133108.677,-62.012,-30.273,-41.016,-52.734
1628133108.681,-90.332,-22.949,-42.480,-72.266
1628133108.685,-30.762,-10.742,-55.176,-22.461
1628133108.689,12.207,-15.137,-45.410,16.113
1628133108.693,-33.691,-32.715,-37.598,-17.578
1628133108.696,-70.801,-37.109,-30.762,-53.223
1628133108.700,-22.949,-29.297,-17.090,-20.020
1628133108.704,28.809,-35.645,-10.742,11.230
1628133108.708,7.812,-39.551,-6.836,-7.324
1628133108.712,-56.641,-35.156,-25.391,-48.340
1628133108.725,-55.664,-40.527,-36.133,-52.246
1628133108.729,-1.953,-40.527,-26.855,-14.160
1628133108.733,-14.160,-23.438,-48.340,-21.484
1628133108.737,-77.148,-27.832,-65.430,-75.684
1628133108.741,-74.707,-41.504,-49.805,-76.172
1628133108.745,0.000,-29.785,-40.527,-15.137
1628133108.749,28.320,-25.879,-41.016,21.973
1628133108.752,-41.016,-39.062,-18.066,-25.391
1628133108.756,-79.102,-33.203,-3.906,-61.523
1628133108.760,-14.648,0.488,-6.348,-14.160
1628133108.764,23.926,-11.230,-18.555,13.184
1628133108.768,-46.387,-42.480,-52.734,-36.621
1628133108.764,-98.145,-41.016,-54.199,-77.637
1628133108.768,-41.016,-22.949,-26.367,-40.039
1628133108.772,19.043,-40.527,-19.531,5.371
1628133108.776,-18.555,-64.941,-32.227,-20.020
1628133108.780,-82.520,-35.645,-41.504,-65.430
1628133108.784,-46.875,2.930,-34.180,-41.992
1628133108.788,28.809,3.906,-29.297,14.648
1628133108.791,10.742,-40.039,-24.414,2.441
1628133108.795,-53.711,-48.828,-19.043,-45.410
1628133108.799,-64.453,-32.227,-29.785,-60.059
1628133108.803,3.418,-20.508,-38.574,-3.906
1628133108.807,30.273,-20.996,-68.359,24.414
1628133108.820,-36.133,-32.715,-63.965,-34.180
1628133108.824,-78.613,-27.832,-22.461,-69.824
1628133108.828,-25.391,-18.555,-1.465,-38.086
1628133108.832,28.320,-16.113,-4.395,10.254
1628133108.836,-16.113,-24.902,-21.484,-12.695
1628133108.840,-82.031,-28.320,-40.039,-67.871
1628133108.844,-60.547,-21.484,-43.457,-57.617
1628133108.847,4.883,-34.668,-24.414,-4.395
1628133108.851,3.418,-39.062,-18.555,8.789
1628133108.855,-58.594,-33.691,-62.988,-39.062
1628133108.859,-62.988,-29.785,-61.523,-48.828
1628133108.863,-9.277,-17.578,-22.949,-5.859
1628133108.857,5.859,-22.949,-4.883,-5.371
1628133108.861,-50.293,-33.203,-13.184,-48.828
1628133108.865,-69.824,-37.109,-58.105,-54.688
1628133108.869,-11.719,-32.715,-47.852,-7.324
1628133108.873,19.043,-21.484,-12.695,5.371
1628133108.877,-35.156,-32.227,-30.762,-37.598
1628133108.881,-80.566,-38.574,-48.340,-59.570
1628133108.884,-44.922,-12.695,-46.875,-35.645
1628133108.888,0.488,-20.020,-37.109,-6.348
1628133108.892,-33.691,-38.086,-32.227,-36.621
1628133108.896,-83.008,-31.738,-22.461,-69.824
1628133108.900,-49.316,-16.113,-20.996,-34.668
1628133108.934,11.719,-11.719,-30.762,18.555
1628133108.938,-10.254,-36.133,-30.273,-3.906
1628133108.942,-76.172,-39.062,-36.621,-60.059
1628133108.946,-77.148,-21.484,-39.551,-59.082
1628133108.950,-18.066,-25.391,-38.574,-14.160
1628133108.954,-3.418,-35.645,-53.711,-19.043
1628133108.958,-62.500,-47.852,-64.941,-68.848
1628133108.961,-90.332,-43.457,-42.480,-80.078
1628133108.965,-9.277,-26.855,-7.812,-22.461
1628133108.969,36.621,-32.227,-15.137,14.160
1628133108.973,-36.621,-29.297,-30.762,-43.945
1628133108.977,-96.680,-27.832,-30.273,-96.680
1628133108.951,-53.223,-36.621,-30.762,-61.523
1628133108.955,14.648,-25.391,-22.949,-2.930
1628133108.959,-10.742,-32.715,-27.832,-18.555
1628133108.963,-70.801,-48.828,-36.621,-62.988
1628133108.967,-44.434,-31.250,-44.434,-33.691
1628133108.971,32.715,-8.789,-57.129,30.273
1628133108.975,19.043,-24.414,-47.852,17.578
1628133108.978,-46.875,-35.156,-11.719,-31.250
1628133108.982,-64.453,-36.621,-3.906,-41.992
1628133108.986,-17.578,-32.227,-21.973,-17.090
1628133108.990,12.695,-23.926,-35.156,-2.930
1628133108.994,-44.434,-24.414,-49.316,-38.574
1628133109.007,-62.988,-15.137,-36.133,-44.922
1628133109.011,-9.766,-24.902,-37.109,-5.859
1628133109.015,31.738,-24.902,-58.105,17.090
1628133109.019,-0.488,-20.508,-36.133,-7.812
1628133109.023,-58.105,-37.598,-24.902,-62.988
1628133109.027,-16.602,-14.160,-23.926,-39.551
1628133109.031,20.020,-17.578,-31.738,-10.254
1628133109.034,-22.461,-38.574,-20.508,-39.062
1628133109.038,-52.734,-35.645,-4.883,-64.453
1628133109.042,-48.340,-42.480,-45.410,-65.918
1628133109.046,-6.836,-28.809,-52.246,-26.855
1628133109.050,5.371,-21.973,-20.020,-11.230
1628133109.044,-51.270,-35.156,-22.461,-62.988
1628133109.048,-72.266,-36.621,-30.273,-82.031
1628133109.052,11.230,-11.719,-13.184,-11.719
1628133109.056,34.180,-11.230,-12.695,13.184
1628133109.060,-44.434,-42.969,-21.484,-46.387
1628133109.064,-78.125,-45.898,-23.438,-69.824
1628133109.068,-21.484,-24.902,-18.555,-24.414
1628133109.071,27.344,-18.555,-29.297,15.625
1628133109.075,-14.648,-26.367,-49.805,-17.578
1628133109.079,-86.914,-37.598,-51.270,-70.312
1628133109.083,-49.805,-52.246,-25.879,-36.621
1628133109.087,26.367,-59.570,1.465,19.531
1628133109.102,2.441,-25.391,-4.883,5.859
1628133109.106,-56.152,-3.418,-21.973,-35.156
1628133109.110,-49.316,-8.789,-28.809,-39.062
1628133109.114,-6.348,-32.227,-27.832,-20.996
1628133109.118,-5.859,-47.852,-34.180,-12.695
1628133109.122,-41.504,-38.574,-61.035,-34.180
1628133109.126,-49.805,-36.133,-43.945,-47.363
1628133109.129,-7.812,-56.641,-27.344,-15.625
1628133109.133,26.855,-44.922,-34.180,13.184
1628133109.137,-29.297,-33.203,-26.855,-24.414
1628133109.141,-74.707,-34.668,-15.137,-63.965
1628133109.145,-22.461,-27.344,-18.066,-23.926
1628133109.142,28.320,-14.648,-30.273,23.438
1628133109.146,-24.414,-13.672,-35.645,-10.254
1628133109.150,-88.379,-24.902,-22.461,-58.105
1628133109.154,-53.711,-38.086,-14.160,-41.504
1628133109.158,14.160,-44.922,-14.160,3.418
1628133109.162,2.930,-46.387,-28.809,-13.184
1628133109.166,-63.965,-59.082,-33.691,-58.594
1628133109.169,-56.152,-45.410,-26.367,-42.480
1628133109.173,-2.930,-29.785,-31.250,-2.441
1628133109.177,10.254,-33.691,-39.551,9.277
1628133109.181,-56.152,-44.434,-29.785,-40.039
1628133109.185,-85.449,-36.133,-23.438,-68.848
1628133109.197,-23.438,-21.973,-32.227,-21.484
1628133109.201,-0.488,-32.715,-45.898,6.836
1628133109.205,-52.734,-50.293,-52.734,-36.133
1628133109.209,-89.355,-44.434,-44.922,-72.266
1628133109.213,-40.039,-30.762,-41.504,-30.762
1628133109.217,12.695,-19.531,-41.992,5.859
1628133109.221,-19.531,-27.832,-16.602,-22.949
1628133109.224,-82.520,-50.781,-16.602,-67.383
1628133109.228,-49.805,-41.016,-32.227,-38.574
1628133109.232,29.785,-25.391,-17.090,28.320
1628133109.236,6.348,-28.809,-20.020,7.324
1628133109.240,-56.641,-38.574,-37.109,-53.711
1628133109.246,-59.570,-43.457,-56.152,-61.035
1628133109.250,-20.996,-24.414,-54.199,-32.227
1628133109.254,-5.859,-32.227,-34.180,-23.926
1628133109.258,-58.594,-48.828,-23.438,-66.895
1628133109.262,-89.355,-31.250,-19.043,-90.820
1628133109.266,-33.203,-25.879,-23.926,-46.875
1628133109.270,16.113,-41.016,-25.391,-7.812
1628133109.273,-22.461,-50.293,-34.180,-29.297
1628133109.277,-61.035,-29.785,-35.645,-53.711
1628133109.281,-29.297,-12.695,-38.086,-26.367
1628133109.285,12.207,-40.527,-40.527,8.301
1628133109.289,-17.090,-65.430,-37.109,-23.926
1628133109.299,-91.797,-39.551,-44.434,-83.984
1628133109.303,-73.242,-4.883,-8.789,-57.129
1628133109.307,13.184,0.977,7.324,3.906
1628133109.311,14.648,-22.949,-20.996,-2.441
1628133109.315,-48.828,-48.340,-28.809,-42.969
1628133109.319,-58.594,-33.203,-20.020,-49.805
1628133109.323,-1.465,-12.695,-31.250,-7.812
1628133109.326,11.719,-51.758,-68.359,1.465
1628133109.330,-52.246,-49.805,-49.805,-43.457
1628133109.334,-97.656,-9.277,-28.320,-77.148
1628133109.338,-36.621,3.418,-34.668,-30.273
1628133109.342,24.414,0.488,-25.391,7.324
1628133109.325,-26.367,-24.414,-26.367,-31.250
1628133109.329,-82.520,-32.715,-33.203,-64.453
1628133109.333,-45.410,-27.344,-20.508,-41.504
1628133109.337,15.625,-39.062,-11.230,-0.977
1628133109.341,-14.160,-53.711,-13.184,-18.066
1628133109.345,-82.520,-42.969,-20.996,-65.430
1628133109.349,-64.941,-16.602,-18.066,-62.012
1628133109.352,-4.883,-13.672,-21.484,-20.508
1628133109.356,-9.766,-27.344,-42.480,-14.160
1628133109.360,-75.195,-55.664,-40.527,-58.105
1628133109.364,-87.891,-57.617,-38.086,-60.547
1628133109.368,-22.461,-31.250,-56.152,-10.254
1628133109.441,13.184,-24.414,-52.734,14.648
1628133109.445,-44.434,-38.574,-30.273,-23.438
1628133109.449,-98.633,-34.180,-23.926,-74.219
1628133109.453,-43.457,-15.625,-25.391,-31.250
1628133109.457,25.391,-19.043,-25.879,31.738
1628133109.461,-3.418,-20.508,-39.551,-3.906
1628133109.465,-58.594,-24.902,-32.715,-51.758
1628133109.468,-31.250,-45.410,-14.648,-35.156
1628133109.472,23.926,-57.129,-34.668,1.953
1628133109.476,-2.441,-42.480,-50.293,-13.184
1628133109.480,-80.566,-22.461,-30.762,-69.336
1628133109.484,-80.078,-14.648,-12.207,-70.801
1628133109.459,-10.254,-20.996,-24.414,-20.996
1628133109.463,2.930,-22.949,-35.156,-4.883
1628133109.467,-52.246,-34.668,-40.039,-41.992
1628133109.471,-75.195,-37.598,-40.527,-61.035
1628133109.475,-57.129,-35.156,-27.832,-49.805
1628133109.479,2.441,-27.832,-22.461,5.371
1628133109.483,0.488,-36.133,-21.484,1.465
1628133109.486,-79.590,-55.664,-15.625,-65.430
1628133109.490,-79.102,-35.156,-30.762,-62.500
1628133109.494,0.000,-5.859,-50.781,-5.859
1628133109.498,7.812,-8.301,-38.574,-1.465
1628133109.502,-57.617,-41.504,-32.715,-53.223
1628133109.498,-72.754,-57.129,-44.434,-63.477
1628133109.502,-12.695,-37.109,-55.176,-17.090
1628133109.506,29.297,-20.996,-46.875,14.160
1628133109.510,-32.227,-34.668,-22.461,-30.273
1628133109.514,-91.797,-29.297,-3.418,-75.195
1628133109.518,-45.410,-24.414,-9.277,-41.016
1628133109.522,16.602,-30.762,-20.996,5.859
1628133109.525,-12.695,-22.461,-27.344,-11.719
1628133109.529,-83.008,-40.039,-34.668,-67.383
1628133109.533,-72.266,-38.574,-28.809,-61.523
1628133109.537,-6.348,-18.066,-37.598,-7.324
1628133109.541,-3.906,-38.574,-46.387,-4.395
1628133109.606,-72.266,-55.176,-39.551,-55.664
1628133109.610,-90.332,-35.156,-31.250,-69.824
1628133109.614,-35.156,-27.344,-24.414,-27.832
1628133109.618,-5.859,-42.969,-28.809,-2.930
1628133109.622,-52.246,-46.875,-55.664,-41.992
1628133109.626,-77.148,-27.344,-50.293,-66.406
1628133109.630,-27.344,-20.996,-25.391,-24.414
1628133109.633,17.090,-27.832,-39.062,18.066
1628133109.637,-10.742,-41.016,-43.945,-7.812
1628133109.641,-82.031,-58.594,-29.785,-66.406
1628133109.645,-68.848,-57.617,-15.137,-53.223
1628133109.649,20.020,-18.555,0.488,21.973
1628133109.610,-1.953,-17.578,-23.926,-3.418
1628133109.614,-78.613,-39.551,-45.898,-71.777
1628133109.618,-68.848,-26.855,-32.227,-57.617
1628133109.622,-14.648,-19.531,-42.969,-12.207
1628133109.626,1.465,-21.484,-53.223,-1.953
1628133109.630,-49.805,-27.832,-43.945,-39.551
1628133109.634,-68.848,-36.133,-33.203,-58.594
1628133109.637,-14.160,-20.020,-18.555,-16.602
1628133109.641,11.230,-19.531,-23.438,4.883
1628133109.645,-41.016,-35.645,-31.250,-40.039
1628133109.649,-69.336,-36.133,-25.391,-62.500
1628133109.653,-25.879,-40.527,-30.762,-27.344
1628133109.665,11.230,-30.762,-42.969,-1.465
1628133109.669,-17.578,-24.414,-38.574,-21.973
1628133109.673,-64.941,-19.531,-20.508,-54.199
1628133109.677,-45.898,-9.277,-17.578,-38.086
1628133109.681,10.742,-20.508,-24.414,2.441
1628133109.685,-4.395,-41.992,-31.250,-3.906
1628133109.689,-82.031,-46.875,-34.180,-63.477
1628133109.692,-74.707,-21.484,-27.344,-67.871
1628133109.696,2.930,-22.949,-19.531,-0.488
1628133109.700,21.484,-32.715,-12.695,21.484
1628133109.704,-35.156,-26.855,-14.160,-32.227
1628133109.708,-82.520,-42.969,-32.227,-67.871
1628133109.683,-33.691,-41.992,-71.289,-37.109
1628133109.687,10.742,-20.508,-62.988,-3.418
1628133109.691,-60.059,-32.227,-36.621,-48.828
1628133109.695,-115.723,-53.711,-28.320,-99.121
1628133109.699,-65.918,-46.875,-26.367,-68.359
1628133109.703,1.953,-20.996,-41.504,-9.277
1628133109.707,-3.418,-17.090,-30.273,-10.254
1628133109.710,-58.105,-35.645,-10.254,-56.641
1628133109.714,-58.105,-32.715,-28.320,-63.965
1628133109.718,9.766,-16.113,-63.965,-9.277
1628133109.722,21.484,-26.367,-54.688,5.859
1628133109.726,-50.781,-39.062,-37.598,-50.781
1628133109.744,-81.055,-26.855,-39.062,-70.801
1628133109.748,-15.137,-12.695,-18.555,-12.695
1628133109.752,8.789,-32.227,-8.301,6.836
1628133109.756,-67.383,-44.922,-27.344,-55.664
1628133109.760,-75.195,-13.672,-30.762,-63.965
1628133109.764,-5.371,-19.043,-11.719,-11.719
1628133109.768,34.180,-31.738,-14.648,13.184
1628133109.771,-5.371,-20.020,-51.758,-20.996
1628133109.775,-77.148,-36.133,-63.965,-76.660
1628133109.779,-64.453,-50.293,-41.992,-72.266
1628133109.783,10.254,-43.457,-29.297,-13.184
1628133109.787,1.465,-38.574,-46.387,-12.207
1628133109.775,-66.895,-26.855,-43.945,-58.594
1628133109.779,-67.871,-9.277,-18.555,-56.152
1628133109.783,0.977,5.371,-9.766,-6.836
1628133109.787,3.906,-32.715,-24.414,-7.812
1628133109.791,-57.617,-63.477,-34.668,-59.570
1628133109.795,-66.895,-36.133,-44.434,-69.336
1628133109.799,-21.484,-13.184,-56.152,-31.738
1628133109.802,14.160,-9.766,-47.363,-6.348
1628133109.806,-40.527,-24.902,-31.738,-48.340
1628133109.810,-91.309,-37.598,-29.297,-80.566
1628133109.814,-49.316,-34.668,-39.062,-49.805
1628133109.818,19.043,-32.715,-40.039,4.395
1628133109.856,-11.719,-34.180,-44.922,-18.555
1628133109.860,-80.078,-37.598,-48.828,-78.125
1628133109.864,-51.758,-26.855,-39.551,-58.105
1628133109.868,6.348,-16.602,-26.855,-10.254
1628133109.872,6.348,-19.531,-27.832,-3.906
1628133109.876,-35.156,-8.301,-39.062,-45.410
1628133109.880,-52.734,-12.207,-33.691,-56.641
1628133109.883,-9.277,-41.992,-36.621,-19.043
1628133109.887,10.254,-51.758,-31.738,-3.906
1628133109.891,-45.410,-44.434,-25.879,-40.527
1628133109.895,-83.496,-37.109,-45.898,-67.383
1628133109.899,-29.785,-23.438,-58.594,-23.926
1628133109.870,9.277,-32.227,-57.129,2.441
1628133109.874,-35.156,-29.297,-26.367,-26.367
1628133109.878,-89.844,-32.227,-12.207,-70.801
1628133109.882,-44.922,-33.691,-12.207,-43.457
1628133109.886,29.785,-25.879,-20.996,25.879
1628133109.890,-9.766,-31.250,-56.152,-4.883
1628133109.894,-68.848,-26.367,-40.039,-57.129
1628133109.897,-62.500,-23.438,-24.414,-46.387
1628133109.901,-14.160,-19.043,-19.043,-18.066
1628133109.905,-6.348,-15.137,-31.250,-13.672
1628133109.909,-58.105,-27.832,-76.660,-54.688
1628133109.913,-61.035,-28.320,-56.641,-63.477
1628133109.944,-0.488,-23.926,-15.137,-10.742
1628133109.948,11.719,-39.062,-19.043,2.930
1628133109.952,-40.527,-33.691,-24.902,-42.480
1628133109.956,-74.707,-21.484,-28.320,-69.336
1628133109.960,-21.973,-31.738,-37.598,-25.391
1628133109.964,34.668,-33.691,-32.227,28.809
1628133109.968,-17.090,-41.992,-46.875,-7.324
1628133109.971,-70.312,-35.645,-61.523,-51.758
1628133109.975,-34.180,-19.531,-43.945,-20.996
1628133109.979,12.207,-27.344,-49.316,10.254
1628133109.983,-14.648,-35.645,-41.016,-23.926
1628133109.987,-62.500,-29.785,-10.254,-59.570
1628133109.964,-49.805,-41.504,-11.719,-44.922
1628133109.968,1.953,-50.781,-32.227,-10.254
1628133109.972,6.836,-42.480,-35.645,1.953
1628133109.976,-52.246,-45.898,-28.320,-42.969
1628133109.980,-76.660,-42.969,-39.062,-65.918
1628133109.984,-23.926,-27.344,-44.922,-26.855
1628133109.988,8.789,-20.996,-38.574,-2.441
1628133109.991,-50.293,-24.902,-52.246,-44.922
1628133109.995,-94.238,-30.762,-47.363,-70.312
1628133109.999,-39.551,-33.691,-22.461,-34.668
1628133110.003,17.578,-35.156,-22.461,2.441
1628133110.007,-22.461,-52.246,-18.066,-21.484
1628133110.024,-87.402,-54.688,-18.555,-71.289
1628133110.028,-66.406,-42.480,-45.410,-58.594
1628133110.032,16.113,-21.484,-32.227,8.301
1628133110.036,-2.930,-17.578,-24.414,-6.348
1628133110.040,-91.309,-48.340,-40.527,-74.707
1628133110.044,-72.754,-36.621,-35.645,-59.082
1628133110.048,7.324,-16.113,-29.297,-1.465
1628133110.051,5.371,-26.367,-36.133,3.418
1628133110.055,-60.059,-33.203,-41.504,-55.176
1628133110.059,-69.336,-19.043,-28.809,-72.754
1628133110.063,-2.441,-13.672,-23.926,-5.371
1628133110.067,29.785,-27.832,-42.969,27.344
1628133110.058,-13.672,-28.320,-45.898,-15.625
1628133110.062,-64.453,-42.969,-35.645,-51.758
1628133110.066,-27.344,-35.645,-23.438,-19.531
1628133110.070,26.367,-21.484,-10.742,19.531
1628133110.074,-15.625,-35.156,-16.113,-19.531
1628133110.078,-73.730,-34.180,-20.508,-59.082
1628133110.082,-62.988,-40.039,-20.996,-48.828
1628133110.085,5.859,-30.273,-23.438,-11.719
1628133110.089,-2.441,-23.438,-53.711,-12.695
1628133110.093,-61.523,-35.645,-38.574,-49.316
1628133110.097,-62.012,-40.527,-23.438,-50.293
1628133110.101,-5.859,-53.223,-35.645,-4.883
1628133110.115,13.672,-45.898,-35.645,2.930
1628133110.119,-53.711,-25.391,-38.086,-46.875
1628133110.123,-80.078,-28.809,-25.879,-66.895
1628133110.127,-17.578,-45.410,-20.996,-24.414
1628133110.131,31.250,-45.410,-33.203,17.578
1628133110.135,-32.227,-35.156,-41.504,-17.578
1628133110.139,-87.402,-34.668,-39.062,-62.500
1628133110.142,-24.902,-42.969,-34.180,-27.344
1628133110.146,36.621,-36.621,-25.879,24.902
1628133110.150,6.348,-25.879,-24.902,5.371
1628133110.154,-61.523,-45.898,-23.438,-46.387
1628133110.158,-52.246,-51.758,-23.438,-42.480
1628133110.151,3.906,-29.297,-38.086,-2.930
1628133110.155,-3.906,-23.926,-41.504,-6.836
1628133110.159,-70.801,-40.527,-38.086,-52.246
1628133110.163,-64.453,-31.250,-35.156,-47.852
1628133110.167,9.277,-16.113,-34.180,14.160
1628133110.171,8.301,-26.367,-44.434,13.184
1628133110.175,-47.852,-24.902,-41.504,-35.645
1628133110.178,-68.359,-14.648,-4.395,-55.664
1628133110.182,-43.457,-43.457,-6.836,-41.992
1628133110.186,-5.371,-56.641,-30.273,-12.695
1628133110.190,-44.434,-37.598,-32.715,-41.504
1628133110.194,-93.750,-30.273,-30.273,-78.125
1628133110.207,-44.434,-39.551,-17.578,-34.668
1628133110.211,22.461,-45.898,-32.227,32.715
1628133110.215,-2.441,-23.926,-53.711,9.277
1628133110.219,-70.312,-18.555,-27.832,-50.781
1628133110.223,-58.105,-20.508,7.812,-41.016
1628133110.227,-0.977,-17.090,4.395,-4.395
1628133110.231,-5.859,-35.156,-25.391,-4.883
1628133110.234,-66.406,-46.387,-31.738,-39.062
1628133110.238,-77.637,-37.598,-25.879,-45.898
1628133110.242,-17.090,-27.344,-26.855,-5.371
1628133110.246,19.531,-17.578,-14.648,15.137
1628133110.250,-24.414,-26.367,-14.648,-24.414
1628133110.245,-70.801,-37.598,-33.203,-65.430
1628133110.249,-28.809,-56.152,-43.457,-36.621
1628133110.253,23.926,-42.480,-63.477,12.207
1628133110.257,-26.855,-26.855,-59.082,-23.438
1628133110.261,-91.309,-34.180,-21.484,-72.754
1628133110.265,-47.852,-8.789,-20.996,-41.992
1628133110.269,30.273,5.371,-22.461,8.789
1628133110.272,19.531,-17.578,-17.578,-4.395
1628133110.276,-48.828,-44.434,-27.344,-57.129
1628133110.280,-41.016,-35.156,-21.973,-47.852
1628133110.284,19.531,-17.090,-34.668,0.000
1628133110.288,3.906,-34.180,-50.293,-9.766
1628133110.300,-68.359,-44.434,-44.434,-68.848
1628133110.304,-82.520,-32.227,-39.062,-83.496
1628133110.308,-12.695,-26.855,-27.344,-23.926
1628133110.312,37.598,-26.367,-46.387,24.902
1628133110.316,-14.160,-41.992,-52.734,-15.137
1628133110.320,-75.684,-49.316,-21.973,-68.359
1628133110.324,-41.016,-34.180,-20.996,-41.016
1628133110.327,22.949,-17.090,-33.203,0.977
1628133110.331,-7.812,-10.742,-49.316,-26.367
1628133110.335,-60.547,-17.090,-43.457,-66.895
1628133110.339,-43.457,-18.555,-17.578,-55.664
1628133110.343,8.789,-7.812,-31.250,-8.789
1628133110.338,-0.977,-22.461,-43.945,-11.230
1628133110.342,-62.012,-41.016,-45.898,-67.871
1628133110.346,-63.477,-43.457,-50.781,-68.848
1628133110.350,3.906,-22.949,-30.762,-11.719
1628133110.354,26.855,-9.766,-14.648,7.324
1628133110.358,-36.621,-24.902,-24.902,-39.551
1628133110.362,-67.871,-21.973,-33.691,-52.246
1628133110.365,-15.137,-24.414,-45.898,-12.207
1628133110.369,24.414,-48.828,-46.387,15.625
1628133110.373,-20.996,-48.340,-17.090,-4.883
1628133110.377,-62.988,-25.391,-12.695,-40.039
1628133110.381,-39.062,-17.090,-23.438,-24.902
1628133110.396,-3.418,-23.438,-15.137,4.395
1628133110.400,-14.648,-41.016,-26.855,-13.184
1628133110.404,-63.477,-47.363,-50.293,-62.500
1628133110.408,-50.781,-14.160,-29.297,-55.664
1628133110.412,-2.441,-3.906,-22.949,-9.766
1628133110.416,-6.836,-18.066,-35.645,-14.160
1628133110.420,-62.500,-31.250,-31.738,-58.105
1628133110.423,-79.590,-43.457,-31.738,-61.523
1628133110.427,-4.883,-38.574,-28.809,-4.883
1628133110.431,23.926,-33.691,-22.461,16.113
1628133110.435,-59.082,-39.551,-22.461,-50.781
1628133110.439,-106.934,-45.898,-22.461,-99.121
1628133110.433,-44.922,-44.434,-18.066,-57.129
1628133110.437,6.348,-24.414,-3.906,-9.766
1628133110.441,-39.062,-14.160,-5.859,-41.992
1628133110.445,-91.309,-2.930,-23.926,-77.148
1628133110.449,-59.570,-4.883,-37.598,-48.340
1628133110.453,-13.672,-31.250,-29.785,-16.602
1628133110.457,-31.250,-34.180,-28.809,-31.250
1628133110.460,-94.238,-47.852,-41.504,-80.566
1628133110.464,-90.332,-45.898,-34.180,-79.590
1628133110.468,-13.672,-21.973,-14.160,-26.855
1628133110.472,11.230,-42.480,-22.949,-3.418
1628133110.476,-52.246,-60.547,-21.484,-42.969
1628133110.490,-87.402,-58.105,-9.766,-76.172
1628133110.494,-26.367,-48.340,-20.020,-31.738
1628133110.498,9.766,-19.531,-39.551,-5.859
1628133110.502,-51.758,-13.672,-55.176,-49.316
1628133110.506,-79.590,-8.301,-35.156,-62.988
1628133110.510,-22.461,-8.301,-11.230,-19.043
1628133110.514,12.207,-25.879,-21.973,-1.465
1628133110.517,-22.949,-39.551,-36.621,-33.691
1628133110.521,-80.566,-47.363,-36.621,-76.172
1628133110.525,-61.035,-46.875,-21.973,-64.453
1628133110.529,7.324,-36.621,-16.602,-12.207
1628133110.533,-8.301,-34.668,-23.438,-4.395
1628133110.526,-65.430,-39.062,-35.156,-45.410
1628133110.530,-68.359,-51.270,-44.922,-58.105
1628133110.534,-22.949,-44.922,-37.109,-28.320
1628133110.538,-7.812,-22.461,-41.504,-13.672
1628133110.542,-73.730,-30.762,-54.688,-61.035
1628133110.546,-98.633,-43.945,-25.391,-85.938
1628133110.550,-25.391,-22.949,-3.418,-36.133
1628133110.553,13.672,-30.273,-7.324,-7.812
1628133110.557,-40.039,-63.477,-16.113,-45.410
1628133110.561,-72.754,-40.039,-29.297,-65.430
1628133110.565,-27.832,-20.996,-40.527,-36.621
1628133110.569,13.672,-25.879,-33.203,-5.859
1628133110.584,-9.277,-21.484,-26.367,-21.973
1628133110.588,-67.383,-32.227,-38.086,-65.918
1628133110.592,-61.523,-24.414,-30.762,-63.965
1628133110.596,-5.371,-21.484,-21.484,-23.438
1628133110.600,-12.207,-38.086,-25.879,-23.438
1628133110.604,-73.730,-40.527,-42.480,-61.523
1628133110.608,-75.195,-46.387,-35.645,-55.664
1628133110.611,-13.184,-51.270,-25.391,-13.672
1628133110.615,12.695,-26.855,-28.809,8.301
1628133110.619,-41.504,-12.207,-21.484,-21.973
1628133110.623,-89.844,-15.137,-36.133,-64.453
1628133110.627,-23.438,-10.742,-49.316,-25.391
1628133110.620,37.598,-24.414,-42.969,16.113
1628133110.624,-8.301,-26.367,-23.438,-16.602
1628133110.628,-70.801,-30.762,-16.113,-60.547
1628133110.632,-55.664,-50.781,-17.578,-47.852
1628133110.636,0.488,-38.086,-13.672,-3.418
1628133110.640,-26.367,-34.668,-27.832,-19.531
1628133110.644,-95.215,-40.527,-43.457,-68.848
1628133110.647,-73.242,-35.645,-40.527,-48.340
1628133110.651,-0.977,-37.109,-29.785,17.578
1628133110.655,-1.953,-40.039,-34.180,7.812
1628133110.659,-65.430,-40.527,-36.621,-51.270
1628133110.663,-78.125,-38.086,-36.133,-63.477
1628133110.676,-8.789,-19.531,-39.062,-2.441
1628133110.680,38.086,-5.371,-26.367,28.320
1628133110.684,-34.668,-22.949,-24.414,-37.109
1628133110.688,-97.656,-32.715,-35.156,-83.496
1628133110.692,-43.945,-28.320,-45.410,-43.945
1628133110.696,15.137,-31.738,-36.621,2.441
1628133110.700,-25.879,-32.715,-14.160,-21.973
1628133110.703,-85.938,-34.668,-12.695,-67.383
1628133110.707,-44.434,-29.785,-17.578,-39.551
1628133110.711,9.277,-19.531,-18.066,1.465
1628133110.715,-20.996,-37.598,-24.902,-20.996
1628133110.719,-68.848,-41.504,-40.527,-64.453
1628133110.714,-60.059,-24.414,-54.688,-65.430
1628133110.718,-0.977,-16.113,-44.922,-9.766
1628133110.722,10.254,-18.555,-26.855,7.812
1628133110.726,-49.316,-36.133,-9.766,-32.715
1628133110.730,-66.895,-40.039,-0.977,-43.945
1628133110.734,-23.438,-35.156,-18.555,-19.531
1628133110.738,0.488,-39.551,-26.367,-5.371
1628133110.741,-52.734,-41.504,-21.973,-45.410
1628133110.745,-96.680,-47.363,-37.109,-81.055
1628133110.749,-44.922,-42.969,-64.453,-44.434
1628133110.753,11.719,-28.809,-61.523,0.977
1628133110.757,-20.020,-26.855,-31.250,-24.414
1628133110.772,-76.660,-27.344,-9.766,-72.754
1628133110.776,-48.340,-14.648,-2.930,-50.781
1628133110.780,20.508,-9.766,-17.578,12.695
1628133110.784,17.578,-34.668,-31.738,16.602
1628133110.788,-43.457,-57.617,-25.391,-35.645
1628133110.792,-63.477,-43.457,-41.992,-52.246
1628133110.796,-4.395,-36.133,-36.621,-1.465
1628133110.799,13.184,-50.781,-16.602,9.766
1628133110.803,-62.988,-52.734,-38.574,-58.105
1628133110.807,-96.680,-41.016,-56.641,-73.242
1628133110.811,-36.133,-28.320,-35.645,-20.020
1628133110.815,16.602,-42.480,-13.184,0.000
1628133110.807,-23.926,-59.570,-26.367,-34.668
1628133110.811,-69.824,-29.297,-33.203,-59.082
1628133110.815,-41.016,-4.883,-29.297,-40.039
1628133110.819,4.395,-24.414,-27.832,-6.348
1628133110.823,-23.438,-40.039,-26.367,-14.648
1628133110.827,-78.125,-35.156,-41.992,-59.570
1628133110.831,-68.359,-30.273,-48.828,-69.336
1628133110.834,-13.672,-23.926,-24.414,-24.414
1628133110.838,-11.230,-33.203,-20.996,-17.090
1628133110.842,-57.129,-58.105,-52.246,-48.828
1628133110.846,-65.918,-58.105,-41.504,-50.293
1628133110.850,-4.395,-32.715,3.418,-9.277
1628133110.882,16.113,-24.902,-20.020,2.441
1628133110.886,-39.062,-34.668,-32.227,-32.227
1628133110.890,-74.219,-37.598,-15.137,-55.664
1628133110.894,-36.133,-21.484,-20.020,-29.297
1628133110.898,12.207,-9.766,-29.297,6.348
1628133110.902,-29.785,-25.391,-33.203,-21.973
1628133110.906,-76.172,-46.387,-20.996,-61.523
1628133110.909,-43.457,-47.852,-6.836,-39.062
1628133110.913,12.695,-51.758,-17.578,3.418
1628133110.917,-1.465,-59.570,-40.527,-0.977
1628133110.921,-45.410,-28.809,-43.457,-37.109
1628133110.925,-62.988,0.000,-35.645,-52.246
1628133110.902,-27.832,-20.020,-33.691,-24.902
1628133110.906,-13.184,-37.109,-21.484,-11.719
1628133110.910,-76.660,-27.832,-9.766,-61.523
1628133110.914,-83.984,-9.766,-25.391,-70.801
1628133110.918,-7.324,-25.391,-19.531,-11.230
1628133110.922,21.973,-38.574,-13.672,5.371
1628133110.926,-51.270,-33.203,-29.297,-51.758
1628133110.929,-110.352,-51.758,-41.016,-94.727
1628133110.933,-68.848,-54.199,-63.477,-71.777
1628133110.937,-8.789,-40.527,-71.289,-30.273
1628133110.941,-17.090,-26.855,-56.152,-25.391
1628133110.945,-69.336,-17.090,-33.691,-65.430
1628133110.958,-62.012,-34.180,-21.973,-61.523
1628133110.962,5.371,-41.992,-20.508,-4.883
1628133110.966,1.953,-23.438,-26.367,-5.859
1628133110.970,-65.918,-21.484,-37.109,-61.035
1628133110.974,-67.383,-33.203,-35.156,-67.871
1628133110.978,-9.277,-58.594,-43.945,-19.043
1628133110.982,6.348,-53.711,-53.711,1.953
1628133110.985,-59.082,-26.367,-53.223,-45.410
1628133110.989,-87.402,-25.879,-48.340,-72.754
1628133110.993,-16.602,-36.621,-24.902,-23.438
1628133110.997,24.902,-20.508,-26.855,8.301
1628133111.001,-18.066,8.789,-37.598,-22.461
1628133110.994,-69.336,-18.555,-29.297,-61.523
1628133110.998,-45.898,-43.457,-20.020,-41.992
1628133111.002,3.418,-28.809,-30.762,-7.324
1628133111.006,-36.133,-27.344,-38.086,-41.504
1628133111.010,-96.191,-41.992,-32.715,-91.309
1628133111.014,-52.246,-31.250,-33.203,-61.035
1628133111.018,27.832,-23.926,-40.039,8.301
1628133111.021,21.973,-44.922,-26.855,9.277
1628133111.025,-63.477,-54.199,-35.156,-55.664
1628133111.029,-73.242,-37.109,-46.387,-62.012
1628133111.033,1.953,-25.879,-31.250,1.953
1628133111.037,17.578,-26.367,-31.738,15.625
1628133111.050,-44.922,-26.855,-35.645,-39.551
1628133111.054,-90.332,-41.992,-26.367,-74.219
1628133111.058,-42.480,-28.809,-28.809,-36.133
1628133111.062,18.555,-16.113,-37.109,5.859
1628133111.066,-20.996,-40.039,-33.691,-21.484
1628133111.070,-67.383,-46.875,-32.227,-60.547
1628133111.074,-27.832,-24.414,-45.898,-31.738
1628133111.077,29.785,-4.883,-38.574,21.484
1628133111.081,10.254,-11.230,-23.438,11.719
1628133111.085,-50.781,-39.551,-31.738,-35.645
1628133111.089,-50.293,-38.574,-34.668,-41.016
1628133111.093,5.371,-8.789,-19.531,6.836
1628133111.089,0.488,-18.066,-16.602,1.465
1628133111.093,-64.941,-50.293,-22.461,-49.805
1628133111.097,-66.406,-36.133,-21.973,-48.340
1628133111.101,7.812,-11.719,-20.996,2.930
1628133111.105,31.250,-29.785,-29.297,22.949
1628133111.109,-31.738,-41.992,-38.086,-19.531
1628133111.113,-67.871,-34.668,-53.223,-46.875
1628133111.116,-20.020,-29.785,-45.410,-13.672
1628133111.120,19.043,-21.973,-30.273,19.043
1628133111.124,-25.879,-28.809,-25.391,-10.254
1628133111.128,-84.961,-41.016,-20.996,-58.594
1628133111.132,-58.594,-33.203,-23.926,-42.969
1628133111.145,-4.883,-25.879,-36.621,-7.812
1628133111.149,-6.836,-23.438,-32.227,-15.137
1628133111.153,-50.293,-20.508,-11.230,-40.527
1628133111.157,-51.758,-32.715,-13.672,-41.016
1628133111.161,-12.207,-41.992,-48.340,-12.695
1628133111.165,-2.930,-30.762,-45.898,-8.301
1628133111.169,-55.664,-45.898,-18.555,-50.781
1628133111.172,-64.941,-46.387,-10.742,-51.270
1628133111.176,6.836,-24.414,-25.391,6.348
1628133111.180,24.902,-21.484,-32.715,20.020
1628133111.184,-49.805,-34.668,-39.551,-37.109
1628133111.188,-89.355,-24.902,-46.875,-74.219
1628133111.190,-41.992,-7.812,-31.250,-36.621
1628133111.194,13.672,-25.879,-27.344,12.695
1628133111.198,-8.789,-59.082,-30.762,-6.836
1628133111.202,-83.984,-56.152,-52.734,-64.453
1628133111.206,-55.176,-17.578,-44.434,-44.434
1628133111.210,13.184,-8.789,-7.812,6.348
1628133111.214,-8.301,-29.297,-15.137,-7.812
1628133111.217,-66.406,-33.203,-19.043,-51.758
1628133111.221,-65.918,-28.809,-25.391,-56.152
1628133111.225,-5.371,-24.902,-41.992,-9.766
1628133111.229,11.719,-20.996,-41.504,-2.930
1628133111.233,-45.898,-27.344,-22.461,-47.363
1628133111.240,-69.824,-37.109,-20.996,-65.430
1628133111.244,-21.973,-45.410,-39.062,-26.367
1628133111.248,26.367,-25.391,-30.762,18.066
1628133111.252,-24.902,-20.996,-23.926,-27.344
1628133111.256,-97.168,-33.203,-38.574,-82.520
1628133111.260,-45.410,-27.832,-36.133,-41.992
1628133111.264,19.531,-32.715,-16.113,6.348
1628133111.267,-6.348,-38.086,-14.648,-8.301
1628133111.271,-64.453,-28.809,-33.203,-45.410
1628133111.275,-60.059,-34.668,-49.805,-51.758
1628133111.279,-8.789,-56.152,-43.457,-21.484
1628133111.283,-11.230,-48.828,-27.344,-19.531
1628133111.276,-67.871,-30.273,-17.090,-62.988
1628133111.280,-72.266,-19.531,-10.742,-71.289
1628133111.284,-6.348,-29.297,-14.648,-20.020
1628133111.288,23.926,-24.414,-25.879,12.695
1628133111.292,-32.715,-12.207,-29.785,-28.320
1628133111.296,-79.102,-15.625,-36.621,-60.059
1628133111.300,-29.785,-25.879,-32.227,-19.043
1628133111.303,22.461,-38.086,-24.902,10.254
1628133111.307,-27.832,-47.852,-26.855,-28.320
1628133111.311,-82.031,-50.293,-30.762,-76.660
1628133111.315,-50.293,-43.945,-29.785,-52.246
1628133111.319,3.418,-29.785,-28.809,-5.371
1628133111.334,-20.508,-33.203,-41.016,-21.484
1628133111.338,-77.148,-57.617,-59.082,-59.570
1628133111.342,-59.082,-32.715,-46.875,-47.852
1628133111.346,7.812,-3.906,-17.090,3.906
1628133111.350,1.465,-31.738,-5.371,2.930
1628133111.354,-59.570,-32.227,-4.883,-47.852
1628133111.358,-85.938,-28.809,-41.504,-74.707
1628133111.361,-35.156,-51.270,-54.688,-43.457
1628133111.365,-6.348,-56.152,-34.668,-12.695
1628133111.369,-38.086,-20.508,-24.414,-30.273
1628133111.373,-66.406,-7.812,-36.133,-61.035
1628133111.377,-39.551,-41.504,-49.316,-42.969
1628133111.374,5.859,-53.711,-36.621,-3.418
1628133111.378,-11.719,-25.391,-23.438,-14.648
1628133111.382,-60.547,-23.438,-9.277,-50.781
1628133111.386,-59.082,-61.035,-17.578,-57.129
1628133111.390,-2.930,-63.965,-32.227,-12.695
1628133111.394,1.465,-12.695,-37.598,5.371
1628133111.398,-56.152,0.488,-43.457,-37.598
1628133111.401,-77.637,-20.020,-30.762,-57.129
1628133111.405,-23.926,-21.973,-13.672,-16.602
1628133111.409,-1.953,-29.785,-18.555,-9.277
1628133111.413,-64.453,-37.109,-24.414,-51.758
1628133111.417,-81.543,-39.551,-16.602,-58.594
1628133111.425,0.000,-46.387,-9.766,-3.906
1628133111.429,53.711,-43.945,-25.391,35.156
1628133111.433,1.953,-21.484,-49.316,2.441
1628133111.437,-79.102,-25.879,-57.617,-63.965
1628133111.441,-45.898,-33.203,-13.672,-43.457
1628133111.445,14.648,-8.789,3.418,15.625
1628133111.449,-38.086,-17.578,-21.484,-19.531
1628133111.452,-99.609,-42.969,-31.250,-66.895
1628133111.456,-57.129,-40.527,-22.949,-33.691
1628133111.460,11.230,-27.832,-26.855,10.254
1628133111.464,-14.160,-38.086,-38.574,-12.207
1628133111.468,-87.402,-44.434,-37.598,-59.570
1628133111.463,-83.496,-39.062,-26.367,-62.012
1628133111.467,-14.648,-35.156,-26.367,-15.137
1628133111.471,10.742,-26.855,-39.551,4.395
1628133111.475,-49.316,-36.621,-27.344,-42.480
1628133111.479,-76.660,-31.250,-19.043,-62.500
1628133111.483,-9.766,-16.602,-17.578,-16.113
1628133111.487,34.180,-32.715,-17.090,21.484
1628133111.490,-23.438,-52.246,-26.367,-24.902
1628133111.494,-96.680,-42.969,-45.410,-92.285
1628133111.498,-57.617,-30.762,-68.848,-64.941
1628133111.502,24.902,-25.391,-49.316,-0.977
1628133111.506,3.418,-28.809,-19.043,-18.555
1628133111.521,-81.543,-34.668,-25.879,-73.242
1628133111.525,-66.895,-27.344,-44.434,-63.477
1628133111.529,12.695,-28.320,-53.711,-6.836
1628133111.533,10.254,-47.852,-54.688,-2.930
1628133111.537,-49.805,-49.805,-45.410,-42.969
1628133111.541,-51.270,-35.645,-31.738,-48.340
1628133111.545,-10.254,-41.504,-36.133,-16.602
1628133111.548,4.883,-41.504,-25.879,-6.836
1628133111.552,-37.109,-32.715,-14.648,-39.062
1628133111.556,-88.379,-32.715,-45.410,-75.684
1628133111.560,-52.246,-21.484,-43.945,-55.176
1628133111.564,8.301,-21.484,-22.949,-11.230
1628133111.558,-26.367,-45.410,-25.879,-37.109
1628133111.562,-75.684,-65.430,-29.297,-77.637
1628133111.566,-39.551,-44.434,-28.809,-40.527
1628133111.570,29.297,-13.672,-24.414,16.113
1628133111.574,15.625,-21.484,-27.344,3.418
1628133111.578,-64.453,-28.809,-27.344,-56.152
1628133111.582,-73.242,-18.066,-17.578,-61.035
1628133111.585,-3.418,-20.020,-26.367,-10.742
1628133111.589,-0.488,-31.738,-32.715,-15.137
1628133111.593,-66.895,-49.805,-30.273,-72.266
1628133111.597,-72.754,-51.758,-30.762,-68.359
1628133111.601,-9.277,-31.738,-22.461,-7.812
1628133111.614,13.184,-37.598,-23.438,5.859
1628133111.618,-47.363,-60.547,-40.527,-41.016
1628133111.622,-78.613,-24.902,-17.578,-61.035
1628133111.626,-46.387,0.977,-14.648,-40.039
1628133111.630,-3.906,-21.484,-43.945,-16.602
1628133111.634,-33.691,-50.293,-47.852,-43.457
1628133111.638,-86.426,-43.945,-43.457,-82.520
1628133111.641,-54.199,-27.344,-45.410,-57.129
1628133111.645,8.301,-23.926,-27.344,-3.906
1628133111.649,13.672,-16.113,-20.508,5.859
1628133111.653,-38.086,-18.066,-44.922,-38.574
1628133111.657,-55.176,-18.066,-45.898,-49.805
1628133111.672,2.930,-19.531,-26.367,-0.977
1628133111.676,20.996,-36.133,-14.160,11.230
1628133111.680,-42.480,-48.340,-7.324,-39.062
1628133111.684,-67.871,-47.852,-27.344,-62.500
1628133111.688,-26.367,-30.762,-58.594,-25.879
1628133111.692,-0.977,-15.625,-45.898,-6.836
1628133111.696,-30.273,-7.812,-29.297,-36.133
1628133111.699,-48.828,-18.555,-37.109,-52.246
1628133111.703,-22.949,-31.738,-45.410,-19.043
1628133111.707,16.113,-31.738,-29.785,13.184
1628133111.711,-15.137,-58.594,-21.973,-17.578
1628133111.715,-86.426,-78.125,-27.832,-77.637
1628133111.708,-59.570,-33.203,-25.879,-58.594
1628133111.712,12.695,13.184,-21.973,0.977
1628133111.716,-3.418,-7.324,-29.785,-9.766
1628133111.720,-65.430,-23.926,-55.176,-58.105
1628133111.724,-54.199,-10.742,-51.758,-50.293
1628133111.728,14.160,-12.695,-19.043,-0.977
1628133111.732,11.230,-33.691,-19.043,2.441
1628133111.735,-70.312,-54.688,-20.508,-57.617
1628133111.739,-90.820,-27.344,-21.973,-81.543
1628133111.743,-23.926,-7.324,-29.297,-32.227
1628133111.747,9.277,-62.012,-32.715,-1.953
1628133111.751,-33.203,-63.477,-37.109,-38.574
1628133111.745,-77.637,-15.625,-28.809,-72.266
1628133111.749,-41.504,-11.719,-29.785,-49.805
1628133111.753,13.184,-20.020,-45.410,-12.695
1628133111.757,-8.301,-24.414,-39.062,-30.762
1628133111.761,-63.477,-36.621,-19.043,-69.824
1628133111.765,-45.898,-29.785,-12.695,-50.781
1628133111.769,26.367,-30.273,-21.484,2.441
1628133111.772,17.090,-48.340,-57.129,0.000
1628133111.776,-64.941,-60.547,-70.801,-66.406
1628133111.780,-77.637,-32.715,-47.852,-70.312
1628133111.784,0.488,2.441,-13.672,-10.742
1628133111.788,21.973,-19.531,-12.207,0.488
1628133111.858,-41.992,-32.227,-26.855,-40.527
1628133111.862,-73.242,-23.926,-39.551,-63.965
1628133111.866,-26.367,-28.320,-49.316,-28.809
1628133111.870,24.902,-36.133,-37.109,1.953
1628133111.874,-11.230,-35.156,-32.715,-20.508
1628133111.878,-67.871,-40.527,-41.504,-60.059
1628133111.882,-44.922,-38.574,-41.504,-46.387
1628133111.885,14.648,-31.738,-31.738,-0.488
1628133111.889,-3.906,-34.668,-21.973,-8.789
1628133111.893,-64.453,-30.762,-21.973,-54.688
1628133111.897,-45.898,-19.043,-27.832,-32.227
1628133111.901,26.855,-5.859,-15.625,31.250
1628133111.878,22.949,-20.020,-33.691,30.273
1628133111.882,-62.500,-42.969,-71.777,-40.039
1628133111.886,-75.684,-38.086,-60.059,-59.570
1628133111.890,-55.664,-45.898,-19.043,-38.574
1628133111.894,-71.777,-33.691,-21.973,-56.152
1628133111.898,-17.578,-5.371,-42.480,-27.344
1628133111.902,43.457,2.930,-34.180,16.602
1628133111.905,10.254,-8.301,-17.578,7.324
1628133111.909,-67.383,-28.809,-41.992,-51.270
1628133111.913,-59.082,-34.180,-40.039,-54.688
1628133111.917,6.836,-20.996,-14.160,4.883
1628133111.921,-9.277,-21.973,-34.668,-11.230
1628133111.897,-66.895,-22.461,-50.781,-62.012
1628133111.901,-60.547,-12.695,-38.574,-58.105
1628133111.905,5.371,-12.695,-21.973,-2.441
1628133111.909,34.180,-22.461,-32.715,26.367
1628133111.913,-20.996,-40.039,-62.988,-22.949
1628133111.917,-45.410,-28.809,-57.129,-46.387
1628133111.921,-0.977,-3.418,-18.555,-9.277
1628133111.924,20.508,-10.742,4.883,8.301
1628133111.928,-30.273,-38.574,-6.836,-28.320
1628133111.932,-87.891,-47.852,-20.996,-72.266
1628133111.936,-47.852,-24.414,-33.203,-44.434
1628133111.940,19.043,-6.836,-49.805,9.277
1628133111.958,-5.859,-15.137,-62.500,-11.719
1628133111.962,-66.895,-47.363,-59.570,-64.941
1628133111.966,-66.406,-50.293,-38.574,-61.035
1628133111.970,7.812,-27.832,-20.508,-10.254
1628133111.974,15.625,-34.668,-33.691,-1.953
1628133111.978,-62.988,-38.574,-41.992,-51.270
1628133111.982,-94.727,-36.621,-36.621,-77.148
1628133111.985,-27.832,-28.320,-17.090,-32.227
1628133111.989,8.301,-34.668,-17.090,-2.441
1628133111.993,-63.477,-48.828,-28.320,-47.852
1628133111.997,-80.566,-27.344,-27.832,-61.523
1628133112.001,1.953,-1.465,-41.992,-4.883
1628133111.993,47.363,-1.465,-49.316,27.344
1628133111.997,-10.742,-25.879,-38.086,-15.137
1628133112.001,-72.754,-37.598,-31.738,-61.523
1628133112.005,-26.367,-29.297,-5.859,-23.438
1628133112.009,39.551,-27.832,4.883,26.367
1628133112.013,2.930,-34.668,-18.066,-7.324
1628133112.017,-68.359,-34.180,-29.785,-62.988
1628133112.020,-66.406,-26.367,-29.297,-62.988
1628133112.024,-17.090,-19.043,-34.180,-19.531
1628133112.028,0.000,-20.508,-44.434,-6.836
1628133112.032,-44.922,-14.160,-32.227,-45.898
1628133112.036,-60.547,-7.812,-21.484,-51.758
1628133112.046,-16.602,-36.621,-38.574,-16.602
1628133112.050,4.395,-57.129,-44.434,-6.348
1628133112.054,-47.852,-53.711,-24.902,-42.969
1628133112.058,-87.402,-31.250,-20.020,-75.195
1628133112.062,-38.574,-8.301,-28.320,-44.434
1628133112.066,27.832,9.277,-20.508,16.113
1628133112.070,-22.461,-5.371,-39.062,-14.160
1628133112.073,-95.703,-41.992,-35.156,-85.449
1628133112.077,-69.336,-48.828,-10.742,-70.312
1628133112.081,-18.555,-42.969,-23.438,-19.531
1628133112.085,-32.715,-42.480,-33.691,-25.391
1628133112.089,-79.102,-41.504,-22.461,-59.570
1628133112.082,-64.453,-46.875,-15.137,-46.387
1628133112.086,-1.953,-38.086,-33.691,-4.395
1628133112.090,4.395,-18.555,-44.434,-0.977
1628133112.094,-64.453,-15.625,-34.180,-49.316
1628133112.098,-83.008,-17.090,-23.926,-64.453
1628133112.102,-2.930,-5.371,-19.531,-7.812
1628133112.106,17.578,-17.578,-36.621,9.277
1628133112.109,-58.594,-48.340,-33.203,-48.340
1628133112.113,-99.609,-55.176,-23.438,-85.938
1628133112.117,-46.387,-38.574,-35.156,-45.898
1628133112.121,16.113,-29.785,-46.875,3.906
1628133112.125,-20.996,-47.363,-37.109,-29.297
1628133112.151,-72.266,-41.504,-20.508,-67.383
1628133112.155,-49.316,-26.367,-30.273,-46.875
1628133112.159,1.465,-18.555,-27.832,-20.996
1628133112.163,-13.184,-22.461,-19.043,-31.738
1628133112.167,-68.848,-27.832,-15.625,-66.406
1628133112.171,-72.266,-28.320,-18.555,-74.219
1628133112.175,-19.531,-37.109,-38.574,-27.832
1628133112.178,13.672,-30.762,-28.809,1.953
1628133112.182,-34.180,-31.250,-36.133,-37.598
1628133112.186,-70.801,-51.270,-54.688,-63.965
1628133112.190,-14.160,-48.828,-26.855,-17.578
1628133112.194,20.508,-32.715,-21.484,7.812
1628133112.177,-27.344,-34.180,-17.578,-27.832
1628133112.181,-83.008,-29.297,-10.254,-69.824
1628133112.185,-53.223,-11.719,-11.230,-55.664
1628133112.189,13.184,-17.090,-32.227,-4.883
1628133112.193,1.953,-34.180,-59.082,-13.672
1628133112.197,-54.688,-21.973,-48.828,-59.082
1628133112.201,-41.992,-23.926,-28.809,-44.434
1628133112.204,20.996,-42.480,-20.508,7.324
1628133112.208,19.043,-28.320,-26.367,-3.906
1628133112.212,-57.617,-22.461,-39.551,-66.406
1628133112.216,-77.148,-18.066,-20.508,-66.895
1628133112.220,1.953,-2.441,3.418,-11.230
1628133112.232,21.484,-17.578,-11.719,-8.789
1628133112.236,-38.086,-24.902,-25.879,-40.039
1628133112.240,-64.941,-20.996,-33.691,-54.688
1628133112.244,-39.062,-28.809,-40.039,-39.551
1628133112.248,6.836,-33.203,-32.227,-4.395
1628133112.252,-5.859,-25.391,-30.762,-14.160
1628133112.256,-59.570,-31.738,-48.340,-51.270
1628133112.259,-42.480,-38.574,-46.875,-41.504
1628133112.263,2.930,-30.762,-9.277,-21.484
1628133112.267,-31.738,-29.297,-3.418,-49.805
1628133112.271,-91.797,-32.715,-27.344,-95.703
1628133112.275,-65.430,-20.508,-24.414,-71.777
1628133112.271,0.977,-19.531,-23.438,-12.695
1628133112.275,4.883,-39.062,-31.250,-5.859
1628133112.279,-50.293,-35.156,-36.133,-52.734
1628133112.283,-62.500,-26.855,-30.273,-64.453
1628133112.287,-7.812,-35.645,-33.691,-20.996
1628133112.291,28.320,-30.762,-51.758,6.348
1628133112.295,-16.113,-20.020,-65.430,-22.461
1628133112.298,-82.520,-28.809,-57.617,-80.566
1628133112.302,-57.617,-34.668,-34.180,-65.430
1628133112.306,0.488,-31.738,-21.484,-14.648
1628133112.310,-30.762,-37.109,-22.949,-29.297
1628133112.314,-83.008,-35.645,-23.926,-71.777
1628133112.326,-55.176,-24.902,-18.555,-55.176
1628133112.330,-0.488,-18.066,-32.715,-7.812
1628133112.334,-13.672,-20.020,-51.270,-12.695
1628133112.338,-68.848,-36.621,-66.406,-58.105
1628133112.342,-68.359,-45.410,-69.824,-67.383
1628133112.346,-0.488,-24.902,-47.852,-16.113
1628133112.350,14.648,-15.137,-29.297,-0.488
1628133112.353,-52.734,-20.020,-24.414,-51.270
1628133112.357,-83.008,-29.297,-33.203,-86.426
1628133112.361,-33.691,-41.992,-37.598,-52.246
1628133112.365,6.348,-36.133,-29.297,-17.578
1628133112.369,-44.922,-24.902,-30.762,-58.105
1628133112.364,-97.168,-17.578,-36.621,-102.539
1628133112.368,-50.781,-18.555,-37.598,-56.641
1628133112.372,14.160,-27.344,-44.922,-4.395
1628133112.376,-14.160,-36.621,-46.387,-27.344
1628133112.380,-80.078,-41.016,-44.434,-67.871
1628133112.384,-52.246,-37.109,-32.227,-53.223
1628133112.388,16.113,-24.414,-19.043,0.488
1628133112.391,5.859,-16.113,-14.648,-3.418
1628133112.395,-50.781,-13.184,-18.555,-40.527
1628133112.399,-50.293,-19.043,-23.926,-36.133
1628133112.403,4.883,-41.992,-14.160,0.977
1628133112.407,13.672,-32.715,-33.691,6.836
1628133112.423,-43.945,-22.949,-51.758,-29.785
1628133112.427,-64.453,-26.367,-32.715,-37.598
1628133112.431,-5.859,-23.926,-19.043,-8.789
1628133112.435,18.066,-36.621,-18.066,5.371
1628133112.439,-46.875,-41.992,-17.578,-38.574
1628133112.443,-78.125,-18.555,-12.695,-67.383
1628133112.447,-44.434,-3.906,-32.715,-50.293
1628133112.450,-11.230,-14.648,-54.199,-22.949
1628133112.454,-15.625,-18.555,-44.434,-17.578
1628133112.458,-52.246,-8.301,-31.250,-43.945
1628133112.462,-52.734,-4.395,-43.457,-41.016
1628133112.466,3.418,-21.973,-50.781,3.906
1628133112.457,9.277,-30.273,-49.805,0.488
1628133112.461,-54.199,-28.320,-49.316,-48.340
1628133112.465,-51.758,-28.320,-19.043,-40.527
1628133112.469,10.254,-32.715,-2.441,9.766
1628133112.473,34.668,-33.203,-7.812,24.902
1628133112.477,-24.902,-44.922,-18.555,-22.461
1628133112.481,-83.008,-59.082,-38.574,-63.477
1628133112.484,-27.832,-33.203,-40.039,-20.508
1628133112.488,29.785,-2.930,-41.504,34.180
1628133112.492,-8.301,-9.766,-75.684,0.000
1628133112.496,-72.266,-32.227,-84.961,-62.012
1628133112.500,-47.363,-39.551,-34.668,-48.828
1628133112.516,18.555,-39.062,2.441,-0.488
1628133112.520,15.625,-38.086,-1.953,2.930
1628133112.524,-44.434,-25.391,-15.625,-38.086
1628133112.528,-58.105,-24.902,-26.367,-46.387
1628133112.532,7.812,-25.879,-14.648,5.371
1628133112.536,19.043,-12.207,-6.836,22.461
1628133112.540,-45.410,-6.836,-30.762,-24.414
1628133112.543,-51.758,0.977,-46.387,-40.527
1628133112.547,13.672,-3.418,-26.367,5.859
1628133112.551,40.527,-21.484,-26.367,18.555
1628133112.555,-20.996,-35.645,-38.574,-38.574
1628133112.559,-77.148,-24.414,-21.484,-72.754
1628133112.558,-35.645,-6.836,-19.531,-34.180
1628133112.562,18.066,-20.996,-28.809,2.930
1628133112.566,-10.742,-41.992,-26.367,-20.996
1628133112.570,-58.594,-28.320,-22.461,-54.688
1628133112.574,-39.062,1.953,-19.531,-41.504
1628133112.578,23.438,-6.348,-25.879,2.441
1628133112.582,11.230,-29.297,-34.180,-8.789
1628133112.585,-62.012,-36.133,-28.320,-67.871
1628133112.589,-73.730,-37.598,-31.738,-66.406
1628133112.593,-23.438,-37.598,-55.664,-27.344
1628133112.597,-4.395,-33.691,-37.109,-16.113
1628133112.601,-68.359,-37.109,-28.809,-64.941
1628133112.610,-91.309,-39.551,-38.574,-84.473
1628133112.614,-4.395,-17.578,-20.508,-17.090
1628133112.618,40.039,-27.832,-16.602,17.090
1628133112.622,-21.973,-42.969,-26.855,-33.203
1628133112.626,-78.613,-36.621,-30.762,-71.777
1628133112.630,-41.016,-32.715,-30.762,-43.945
1628133112.634,2.930,-41.504,-37.598,-12.207
1628133112.637,-30.762,-57.129,-35.156,-29.785
1628133112.641,-87.402,-53.711,-36.621,-69.824
1628133112.645,-72.754,-34.668,-40.039,-57.129
1628133112.649,-9.766,-33.203,-35.156,-1.953
1628133112.653,-12.207,-36.621,-8.789,-2.930
1628133112.647,-62.500,-41.504,4.395,-46.387
1628133112.651,-73.730,-40.527,-16.113,-57.617
1628133112.655,-26.855,-29.297,-29.297,-12.207
1628133112.659,-4.395,-31.250,-52.246,11.719
1628133112.663,-50.781,-47.852,-42.480,-39.062
1628133112.667,-72.754,-48.828,2.441,-58.105
1628133112.671,-24.414,-39.062,0.977,-13.184
1628133112.674,11.719,-22.949,-22.949,14.648
1628133112.678,-40.039,-44.434,-20.508,-20.020
1628133112.682,-91.797,-65.918,-18.555,-62.012
1628133112.686,-47.852,-29.297,-12.207,-45.898
1628133112.690,12.207,-7.324,-27.344,-1.465
1628133112.706,-4.395,-24.902,-38.574,-4.883
1628133112.710,-54.199,-28.809,-20.508,-41.504
1628133112.714,-60.547,-23.926,-26.367,-57.617
1628133112.718,3.418,-27.832,-36.621,-10.254
1628133112.722,24.902,-22.949,-35.156,13.672
1628133112.726,-45.898,-14.648,-20.996,-34.668
1628133112.730,-68.359,-22.949,-11.719,-58.594
1628133112.733,-3.418,-29.785,-13.184,-12.695
1628133112.737,20.508,-24.414,-29.785,5.371
1628133112.741,-36.133,-23.926,-46.875,-36.621
1628133112.745,-74.219,-34.668,-26.367,-62.988
1628133112.749,-54.688,-36.133,-27.832,-48.340
1628133112.746,-17.578,-26.367,-47.852,-20.996
1628133112.750,-30.273,-19.043,-43.457,-27.832
1628133112.754,-74.707,-21.973,-24.902,-68.359
1628133112.758,-57.129,-40.039,-13.184,-58.105
1628133112.762,7.324,-38.086,-9.766,-0.977
1628133112.766,17.578,-29.785,-10.742,12.695
1628133112.770,-62.500,-33.691,-17.578,-43.945
1628133112.773,-76.172,-32.715,-22.461,-58.105
1628133112.777,-4.395,-17.578,-44.922,-11.719
1628133112.781,-4.883,-26.367,-46.387,-9.766
1628133112.785,-65.918,-37.109,-22.461,-51.270
1628133112.789,-67.871,-8.789,-15.625,-50.293
1628133112.800,-8.789,-4.883,-26.367,-11.230
1628133112.804,15.625,-41.992,-21.973,6.348
1628133112.808,-29.785,-46.875,-9.277,-24.902
1628133112.812,-69.824,-34.668,-27.344,-54.688
1628133112.816,-27.344,-15.137,-48.828,-21.484
1628133112.820,16.113,-8.789,-32.715,16.602
1628133112.824,-20.996,-26.855,-18.555,-11.719
1628133112.827,-72.266,-20.508,-13.184,-60.059
1628133112.831,-46.875,4.883,-20.996,-37.109
1628133112.835,17.090,-6.348,-33.691,0.000
1628133112.839,8.789,-46.875,-22.949,-12.695
1628133112.843,-57.129,-50.293,-21.484,-51.270
1628133112.844,-73.242,-39.062,-48.340,-65.430
1628133112.848,6.348,-31.250,-36.621,-10.742
1628133112.852,29.785,-25.391,-24.414,8.301
1628133112.856,-58.105,-41.504,-44.434,-55.176
1628133112.860,-73.730,-36.621,-40.527,-64.941
1628133112.864,1.465,-12.207,-33.203,-11.719
1628133112.868,26.855,-27.832,-24.902,18.555
1628133112.871,-42.480,-54.688,-24.414,-25.391
1628133112.875,-98.145,-58.105,-22.461,-70.801
1628133112.879,-54.688,-58.105,-15.137,-45.410
1628133112.883,10.254,-56.152,-26.367,-1.465
1628133112.887,-4.395,-39.551,-48.340,-12.207
1628133112.891,-69.336,-25.391,-48.828,-55.176
1628133112.895,-61.035,-17.090,-30.273,-52.246
1628133112.899,10.254,-14.160,-3.418,-5.859
1628133112.903,14.648,-10.254,4.883,7.324
1628133112.907,-44.922,-17.578,-26.367,-35.645
1628133112.911,-56.152,-32.227,-39.551,-52.246
1628133112.915,-11.230,-45.410,-24.414,-18.555
1628133112.918,-5.371,-61.523,-28.320,-14.160
1628133112.922,-37.598,-30.762,-44.922,-35.645
1628133112.926,-55.176,-3.906,-41.504,-52.246
1628133112.930,-17.090,-11.230,-22.461,-30.273
1628133112.934,23.438,-26.367,-4.883,4.883
1628133112.927,-16.602,-30.762,-20.020,-22.461
1628133112.931,-72.266,-18.066,-33.691,-63.477
1628133112.935,-31.738,-13.672,-18.555,-29.297
1628133112.939,20.996,-43.457,-18.066,7.812
1628133112.943,-11.230,-66.895,-36.133,-16.113
1628133112.947,-65.430,-46.387,-51.758,-49.805
1628133112.951,-51.270,-36.133,-54.688,-35.645
1628133112.954,14.160,-29.297,-56.152,18.066
1628133112.958,16.602,-14.648,-31.250,18.555
1628133112.962,-47.852,-25.879,-12.207,-45.410
1628133112.966,-50.781,-31.738,-19.043,-48.340
1628133112.970,17.090,-21.484,-11.230,13.184
1628133112.982,24.902,-6.836,-20.508,20.996
1628133112.986,-55.664,-11.719,-41.016,-45.898
1628133112.990,-109.863,-22.949,-34.180,-94.727
1628133112.994,-42.480,-20.996,-3.906,-41.016
1628133112.998,13.184,-41.504,-26.367,1.465
1628133113.002,-37.598,-48.340,-61.523,-47.363
1628133113.006,-89.355,-50.781,-59.082,-88.379
1628133113.009,-53.711,-49.316,-37.109,-54.199
1628133113.013,14.160,-37.109,-22.461,6.348
1628133113.017,-5.371,-35.645,-17.090,-7.812
1628133113.021,-80.566,-29.297,-13.184,-62.012
1628133113.025,-73.242,-16.602,0.977,-51.758
1628133113.021,4.395,-5.859,-10.254,1.953
1628133113.025,0.000,-21.973,-42.480,-1.465
1628133113.029,-80.566,-48.340,-35.156,-66.895
1628133113.033,-91.797,-39.551,-26.367,-81.543
1628133113.037,-17.090,-21.973,-47.852,-18.555
1628133113.041,32.227,-21.484,-42.480,24.902
1628133113.045,-35.645,-40.527,-24.414,-31.250
1628133113.048,-108.398,-53.223,-20.508,-92.285
1628133113.052,-58.105,-28.809,-14.648,-54.199
1628133113.056,9.277,-27.344,-18.555,-7.812
1628133113.060,-32.227,-49.805,-35.645,-36.621
1628133113.064,-95.215,-38.574,-33.691,-82.520
1628133113.079,-69.824,-25.391,-21.973,-64.453
1628133113.083,-9.277,-37.598,-34.180,-16.113
1628133113.087,-24.414,-38.086,-60.059,-23.926
1628133113.091,-79.590,-38.086,-61.035,-68.359
1628133113.095,-75.684,-47.363,-45.410,-75.684
1628133113.099,-9.766,-41.992,-31.250,-24.414
1628133113.103,10.254,-51.758,-31.250,-1.465
1628133113.106,-59.082,-54.199,-35.645,-54.688
1628133113.110,-77.148,-10.742,-21.973,-70.801
1628133113.114,-7.324,-8.301,-15.137,-17.578
1628133113.118,11.719,-59.082,-30.762,-3.418
1628133113.122,-50.293,-71.289,-33.203,-50.293
1628133113.113,-92.773,-48.340,-34.180,-86.426
1628133113.117,-45.410,-38.086,-58.105,-53.223
1628133113.121,12.207,-38.574,-49.316,-5.371
1628133113.125,-10.254,-36.133,-20.508,-23.438
1628133113.129,-69.336,-25.879,-14.648,-57.617
1628133113.133,-58.594,-11.719,-14.648,-45.898
1628133113.137,-0.977,-7.812,-18.555,-2.441
1628133113.140,-20.508,-32.227,-30.762,-11.719
1628133113.144,-79.590,-67.383,-37.109,-66.406
1628133113.148,-73.242,-52.246,-25.391,-61.523
1628133113.152,-2.930,-3.418,-22.461,-6.836
1628133113.156,32.715,7.812,-28.320,18.555
1628133113.173,-41.992,-39.062,-40.527,-38.574
1628133113.177,-93.262,-67.383,-34.668,-79.590
1628133113.181,-37.109,-30.762,-24.414,-34.180
1628133113.185,19.043,-14.648,-21.973,14.160
1628133113.189,-12.207,-43.457,-31.738,-8.789
1628133113.193,-82.520,-45.898,-47.363,-73.242
1628133113.197,-52.246,-24.414,-32.227,-56.152
1628133113.200,29.785,-15.137,-12.207,11.230
1628133113.204,-9.766,-37.109,-37.598,-16.113
1628133113.208,-86.426,-41.992,-47.852,-71.289
1628133113.212,-78.125,-28.809,-38.086,-63.965
1628133113.216,-12.207,-38.086,-34.668,-14.648
1628133113.265,6.348,-21.973,-22.949,2.441
1628133113.269,-55.176,-21.484,-38.574,-40.039
1628133113.273,-79.102,-50.293,-58.594,-53.223
1628133113.277,-9.277,-28.809,-37.109,-1.465
1628133113.281,26.855,-6.836,-7.324,24.902
1628133113.285,-35.156,-20.020,-15.137,-24.902
1628133113.289,-78.613,-33.203,-26.367,-60.059
1628133113.292,-34.668,-20.020,-21.973,-18.066
1628133113.296,4.883,-22.461,-39.551,6.348
1628133113.300,-32.227,-55.664,-50.293,-27.344
1628133113.304,-68.848,-50.293,-34.180,-55.176
1628133113.308,-35.645,-17.578,-36.621,-30.273
1628133113.290,25.391,0.488,-27.832,17.090
1628133113.294,23.926,4.883,-21.484,1.465
1628133113.298,-37.109,-17.090,-37.109,-47.363
1628133113.302,-88.379,-41.992,-51.758,-85.449
1628133113.306,-51.270,-31.738,-40.039,-52.246
1628133113.310,20.996,-27.832,-12.207,10.742
1628133113.314,-6.836,-35.156,-18.066,-11.719
1628133113.317,-88.379,-39.062,-47.852,-69.336
1628133113.321,-63.965,-27.832,-36.621,-51.270
1628133113.325,10.254,-7.324,-19.043,8.789
1628133113.329,13.184,-6.836,-21.484,13.184
1628133113.333,-56.152,-32.715,-37.109,-44.434
1628133113.339,-82.031,-48.340,-58.105,-67.383
1628133113.343,-24.902,-42.969,-56.641,-30.273
1628133113.347,14.648,-35.645,-16.113,-4.883
1628133113.351,-46.387,-24.414,-8.789,-48.828
1628133113.355,-99.609,-13.672,-25.391,-88.867
1628133113.359,-33.691,-21.973,-27.832,-40.039
1628133113.363,19.043,-40.039,-39.551,-2.930
1628133113.366,-20.996,-36.133,-29.785,-29.297
1628133113.370,-79.590,-38.574,-21.484,-69.336
1628133113.374,-60.059,-39.062,-34.668,-56.152
1628133113.378,10.742,-27.832,-41.992,-9.277
1628133113.382,-0.488,-33.203,-41.504,-11.719
1628133113.376,-58.594,-41.992,-30.762,-51.270
1628133113.380,-51.758,-35.156,-12.695,-43.457
1628133113.384,2.441,-22.949,-7.812,-3.418
1628133113.388,-16.113,-35.645,-21.484,-20.996
1628133113.392,-88.379,-55.664,-27.344,-70.312
1628133113.396,-83.984,-45.898,-13.672,-67.871
1628133113.400,-10.254,-27.832,-11.230,-10.742
1628133113.403,18.066,-17.090,-29.297,5.371
1628133113.407,-45.410,-14.648,-33.691,-38.574
1628133113.411,-87.891,-27.344,-34.668,-74.707
1628133113.415,-20.508,-44.922,-35.645,-31.738
1628133113.419,40.039,-43.945,-40.527,24.902
1628133113.441,-13.184,-42.969,-38.086,-16.602
1628133113.445,-83.008,-36.133,-21.973,-77.637
1628133113.449,-55.664,-40.039,-20.020,-57.617
1628133113.453,3.418,-39.551,-27.832,-9.277
1628133113.457,-8.789,-16.113,-22.949,-15.625
1628133113.461,-76.660,-12.695,-22.461,-72.266
1628133113.465,-67.871,-23.438,-32.227,-68.359
1628133113.468,3.906,-30.762,-35.156,-7.324
1628133113.472,15.625,-32.715,-42.480,-0.488
1628133113.476,-46.875,-43.945,-48.340,-49.805
1628133113.480,-69.336,-41.992,-32.227,-57.129
1628133113.484,-6.348,-29.297,-11.230,-9.277
1628133113.472,20.020,-41.504,-11.719,7.812
1628133113.476,-39.551,-62.500,-18.555,-30.273
1628133113.480,-95.703,-54.199,-28.320,-70.801
1628133113.484,-51.270,-29.785,-36.133,-37.598
1628133113.488,19.043,-20.020,-22.949,18.555
1628133113.492,-19.043,-25.391,-22.461,-14.648
1628133113.496,-88.379,-29.785,-27.832,-70.312
1628133113.499,-57.129,-20.020,-15.137,-44.922
1628133113.503,-7.812,-27.344,-35.645,-11.230
1628133113.507,-22.461,-37.109,-58.105,-25.391
1628133113.511,-74.707,-34.668,-39.062,-59.570
1628133113.515,-76.660,-45.898,-30.762,-62.012
1628133113.525,-18.066,-49.316,-40.527,-20.996
1628133113.529,-4.395,-43.457,-48.340,-13.184
1628133113.533,-58.594,-33.203,-40.527,-48.828
1628133113.537,-82.031,-15.625,-33.691,-69.336
1628133113.541,-30.762,-13.672,-36.133,-34.668
1628133113.545,14.648,-20.020,-11.719,7.812
1628133113.549,-38.086,-33.691,3.418,-35.156
1628133113.552,-93.750,-39.062,-6.836,-79.590
1628133113.556,-41.504,-17.578,-10.742,-33.691
1628133113.560,32.227,-23.438,-22.949,28.320
1628133113.564,-7.812,-64.453,-60.059,-6.836
1628133113.568,-85.449,-71.777,-56.641,-70.312
1628133113.563,-65.430,-46.875,-27.344,-55.664
1628133113.567,1.953,-45.410,-28.809,-9.277
1628133113.571,-1.465,-37.598,-40.039,-20.996
1628133113.575,-57.129,-6.348,-28.809,-55.664
1628133113.579,-62.500,-16.602,-9.277,-57.617
1628133113.583,-12.695,-40.527,-16.113,-18.555
1628133113.587,4.883,-34.180,-43.945,0.977
1628133113.590,-39.062,-16.113,-37.598,-26.855
1628133113.594,-81.543,-20.996,-41.504,-63.477
1628133113.598,-35.156,-27.832,-40.527,-37.598
1628133113.602,28.320,-32.227,-19.043,8.301
1628133113.606,-25.879,-51.270,-38.086,-34.668
1628133113.623,-91.797,-54.688,-46.387,-83.496
1628133113.627,-49.805,-27.832,-41.016,-43.457
1628133113.631,15.137,-10.254,-35.645,13.184
1628133113.635,-4.883,-33.691,-21.484,-2.441
1628133113.639,-68.359,-46.387,-18.555,-47.852
1628133113.643,-57.129,-34.668,-4.883,-43.945
1628133113.647,11.719,-18.066,-13.672,3.418
1628133113.650,8.789,-20.020,-42.969,2.441
1628133113.654,-63.477,-26.855,-38.574,-44.922
1628133113.658,-71.777,-26.855,-33.203,-51.270
1628133113.662,-11.230,-40.527,-40.039,-9.766
1628133113.666,8.789,-51.758,-30.273,7.324
1628133113.657,-59.082,-50.781,-32.715,-46.875
1628133113.661,-102.051,-38.086,-37.109,-84.473
1628133113.665,-25.879,-13.184,-20.020,-21.973
1628133113.669,34.668,-14.648,-14.160,26.367
1628133113.673,-20.996,-33.203,-15.137,-17.578
1628133113.677,-96.191,-53.223,-24.414,-74.707
1628133113.681,-44.922,-50.293,-37.109,-48.828
1628133113.684,31.738,-32.715,-37.109,7.812
1628133113.688,-7.812,-34.180,-36.621,-9.766
1628133113.692,-74.707,-43.945,-30.273,-62.500
1628133113.696,-60.547,-50.781,-41.016,-58.594
1628133113.700,6.348,-36.621,-51.758,-15.625
1628133113.713,17.578,-11.230,-36.621,-8.789
1628133113.717,-48.340,-12.695,-28.809,-49.316
1628133113.721,-68.359,-28.320,-31.250,-62.012
1628133113.725,12.695,-30.762,-19.043,-1.465
1628133113.729,41.992,-28.809,-15.137,25.391
1628133113.733,-51.270,-52.734,-22.949,-42.480
1628133113.737,-93.262,-32.227,-36.621,-73.242
1628133113.740,-26.855,-7.812,-49.805,-25.391
1628133113.744,35.645,-36.133,-55.176,20.996
1628133113.748,-15.625,-41.992,-51.270,-16.602
1628133113.752,-88.867,-38.086,-25.879,-82.520
1628133113.756,-39.551,-23.926,-5.859,-44.922
1628133113.752,43.457,-2.441,5.859,31.250
1628133113.756,10.742,-17.090,-18.066,7.812
1628133113.760,-83.496,-35.156,-47.852,-68.848
1628133113.764,-75.684,-43.457,-40.039,-68.848
1628133113.768,7.324,-39.551,-37.598,-5.371
1628133113.772,24.902,-31.250,-48.340,1.465
1628133113.776,-37.109,-23.926,-37.109,-38.086
1628133113.779,-87.402,-31.738,-44.434,-68.359
1628133113.783,-23.926,-36.621,-46.875,-30.273
1628133113.787,34.180,-28.809,-36.133,13.184
1628133113.791,-27.832,-23.438,-18.555,-28.809
1628133113.795,-81.055,-13.184,-23.926,-74.219
1628133113.808,-46.387,-19.043,-37.598,-44.434
1628133113.812,10.742,-46.387,-29.297,-7.324
1628133113.816,-15.625,-54.199,-33.691,-28.809
1628133113.820,-81.055,-42.480,-48.828,-78.125
1628133113.824,-56.152,-23.926,-40.527,-61.035
1628133113.828,20.508,-13.184,-39.062,6.836
1628133113.832,7.324,-25.391,-57.129,3.906
1628133113.835,-67.871,-16.602,-53.223,-57.617
1628133113.839,-63.477,-9.766,-20.508,-55.176
1628133113.843,-7.812,-19.531,-23.926,-10.742
1628133113.847,-0.977,-37.598,-35.645,-6.348
1628133113.851,-63.965,-45.410,-38.086,-50.293
1628133113.844,-92.285,-33.691,-41.992,-73.242
1628133113.848,-18.066,-36.133,-36.133,-23.438
1628133113.852,21.484,-38.574,-38.574,5.371
1628133113.856,-48.340,-40.527,-60.059,-49.805
1628133113.860,-104.492,-35.645,-67.383,-88.379
1628133113.864,-42.969,-20.508,-40.527,-42.480
1628133113.868,26.855,-19.531,-22.461,8.301
1628133113.871,-25.879,-50.293,-33.691,-38.086
1628133113.875,-98.633,-49.316,-32.715,-96.191
1628133113.879,-60.547,-24.902,-19.043,-60.547
1628133113.883,8.301,-42.480,-31.738,-6.836
1628133113.887,-5.371,-52.246,-52.734,-15.625
1628133113.901,-73.730,-28.809,-50.781,-69.336
1628133113.905,-81.055,-10.254,-43.457,-80.078
1628133113.909,-5.859,-17.090,-44.922,-23.438
1628133113.913,19.043,-33.691,-43.457,6.836
1628133113.917,-55.664,-34.668,-38.086,-43.945
1628133113.921,-110.840,-39.551,-29.785,-87.402
1628133113.925,-45.410,-38.574,-25.391,-41.992
1628133113.928,20.508,-29.785,-35.156,9.766
1628133113.932,-41.992,-36.621,-52.734,-40.039
1628133113.936,-92.285,-34.180,-39.551,-86.426
1628133113.940,-49.805,-20.996,-26.367,-64.453
1628133113.944,14.648,-16.602,-34.180,-7.324
1628133113.939,-6.836,-16.602,-42.969,-7.324
1628133113.943,-82.031,-33.203,-44.434,-73.242
1628133113.947,-70.312,-48.340,-30.273,-74.707
1628133113.951,-0.977,-42.969,-30.273,-13.672
1628133113.955,4.883,-35.645,-45.410,-7.324
1628133113.959,-65.430,-39.062,-32.715,-57.617
1628133113.963,-75.195,-46.387,-21.973,-66.406
1628133113.966,-2.930,-34.668,-30.762,-12.207
1628133113.970,37.598,-19.531,-29.785,27.344
1628133113.974,-36.133,-23.438,-32.715,-38.086
1628133113.978,-101.562,-19.531,-38.086,-88.867
1628133113.982,-44.434,-22.949,-31.250,-38.574
1628133113.995,33.203,-29.297,-22.461,20.508
1628133113.999,-17.090,-30.762,-27.832,-12.695
1628133114.003,-100.586,-27.344,-20.020,-70.801
1628133114.007,-54.199,-29.785,-7.324,-31.250
1628133114.011,35.156,-33.203,-11.719,31.738
1628133114.015,5.859,-41.504,-21.973,8.789
1628133114.019,-87.402,-49.805,-22.461,-59.082
1628133114.022,-93.750,-31.738,-26.855,-71.289
1628133114.026,-11.719,-14.160,-33.691,-7.324
1628133114.030,10.742,-18.066,-26.367,19.043
1628133114.034,-76.172,-43.457,-34.180,-53.711
1628133114.038,-104.004,-40.039,-35.156,-76.172
1628133114.051,-13.672,-11.230,-28.809,-11.230
1628133114.055,37.109,-22.949,-19.531,27.832
1628133114.059,-36.621,-43.945,-18.555,-19.043
1628133114.063,-90.820,-41.016,-23.926,-66.895
1628133114.067,-35.645,-41.016,-26.367,-38.086
1628133114.071,17.090,-36.133,-20.020,5.859
1628133114.075,-29.785,-31.250,-37.598,-23.438
1628133114.078,-92.285,-28.809,-52.734,-78.125
1628133114.082,-69.336,-27.344,-45.898,-67.383
1628133114.086,8.789,-38.574,-40.039,-1.465
1628133114.090,3.418,-43.945,-32.227,-2.930
1628133114.094,-78.613,-22.949,-35.645,-67.871
1628133114.089,-80.078,-16.113,-31.738,-63.965
1628133114.093,-6.836,-22.949,-13.672,-4.883
1628133114.097,18.066,-25.879,-12.695,11.230
1628133114.101,-38.574,-26.367,-17.090,-31.250
1628133114.105,-76.660,-29.785,-20.508,-54.199
1628133114.109,-18.066,-34.180,-21.484,-12.207
1628133114.113,26.367,-36.621,-20.996,16.113
1628133114.116,-27.832,-37.598,-32.227,-20.020
1628133114.120,-79.102,-34.668,-56.641,-60.059
1628133114.124,-38.086,-28.320,-65.918,-36.133
1628133114.128,18.066,-37.598,-51.270,3.906
1628133114.132,-12.695,-41.992,-22.949,-23.438
1628133114.127,-77.637,-36.133,-8.789,-70.801
1628133114.131,-66.895,-23.926,-21.484,-60.059
1628133114.135,3.906,-9.277,-17.090,-4.883
1628133114.139,19.531,-7.812,0.488,7.812
1628133114.143,-50.293,-35.156,-24.414,-47.363
1628133114.147,-62.988,-53.223,-44.922,-68.848
1628133114.151,10.742,-20.020,-51.270,-7.812
1628133114.154,32.715,-11.230,-58.594,21.973
1628133114.158,-36.133,-45.898,-73.242,-31.250
1628133114.162,-87.891,-50.293,-62.012,-75.684
1628133114.166,-29.785,-25.879,-14.160,-31.250
1628133114.170,41.992,-12.695,6.348,23.438
1628133114.185,-12.207,-21.484,-8.301,-10.742
1628133114.189,-87.891,-33.691,-27.344,-66.895
1628133114.193,-38.086,-36.621,-31.738,-37.109
1628133114.197,38.574,-56.641,-26.855,26.367
1628133114.201,-2.930,-56.641,-41.992,2.441
1628133114.205,-87.402,-28.809,-57.617,-66.406
1628133114.209,-63.477,-22.461,-55.664,-48.828
1628133114.212,23.438,-21.484,-20.996,15.625
1628133114.216,5.371,-27.344,-4.883,-6.348
1628133114.220,-83.008,-44.922,-23.438,-78.125
1628133114.224,-90.332,-49.805,-23.438,-78.613
1628133114.228,-14.160,-40.527,-18.555,-14.648
1628133114.222,25.879,-33.203,-21.484,13.184
1628133114.226,-38.574,-25.879,-19.531,-40.527
1628133114.230,-82.520,-36.621,-28.320,-70.312
1628133114.234,-25.391,-54.688,-24.414,-31.738
1628133114.238,27.832,-55.176,-27.832,1.465
1628133114.242,-11.230,-24.902,-34.668,-19.531
1628133114.246,-88.379,-21.484,-42.480,-80.078
1628133114.249,-70.312,-21.973,-45.898,-64.453
1628133114.253,-13.184,-21.484,-53.223,-22.461
1628133114.257,-19.531,-33.203,-50.293,-34.668
1628133114.261,-69.336,-17.578,-33.203,-66.406
1628133114.265,-67.871,-11.230,-41.016,-71.289
1628133114.276,9.766,-22.461,-27.344,-12.695
1628133114.280,26.367,-32.227,-7.812,13.672
1628133114.284,-58.105,-38.574,-27.832,-52.734
1628133114.288,-87.402,-34.668,-35.645,-83.496
1628133114.292,-3.418,-32.227,-27.344,-18.555
1628133114.296,46.387,-26.855,-28.320,26.367
1628133114.300,-34.668,-29.785,-35.645,-33.691
1628133114.303,-106.445,-35.156,-44.434,-91.797
1628133114.307,-44.922,-24.902,-47.363,-49.805
1628133114.311,29.297,-21.973,-41.992,0.977
1628133114.315,-12.207,-19.043,-25.391,-23.926
1628133114.319,-95.703,-28.320,-21.484,-82.520
1628133114.314,-66.406,-18.555,-11.230,-60.547
1628133114.318,19.531,-20.996,-9.277,11.719
1628133114.322,4.883,-43.945,-42.969,2.441
1628133114.326,-70.312,-31.250,-48.340,-55.664
1628133114.330,-82.031,-22.461,-41.016,-65.430
1628133114.334,-13.672,-28.809,-41.016,-13.184
1628133114.338,19.043,-43.457,-29.785,10.742
1628133114.341,-61.035,-60.547,-31.738,-56.152
1628133114.345,-102.539,-45.410,-31.250,-88.867
1628133114.349,-33.691,-21.973,-33.691,-40.527
1628133114.353,13.184,-30.273,-24.414,-3.418
1628133114.357,-44.434,-34.668,-10.742,-36.621
1628133114.373,-104.004,-25.391,-30.762,-76.660
1628133114.377,-65.430,-24.902,-59.082,-46.387
1628133114.381,6.348,-20.508,-45.410,4.395
1628133114.385,-21.484,-37.109,-15.137,-13.184
1628133114.389,-74.219,-50.293,-8.789,-57.129
1628133114.393,-48.828,-34.668,-23.926,-42.969
1628133114.397,8.301,-26.855,-41.016,-2.441
1628133114.400,-8.301,-33.691,-30.273,-18.555
1628133114.404,-71.777,-26.855,-6.836,-60.059
1628133114.408,-81.055,-26.855,-10.742,-60.059
1628133114.412,-17.578,-29.785,-21.973,-13.184
1628133114.416,20.996,-34.180,-34.668,15.625
1628133114.408,-59.570,-54.688,-61.035,-50.781
1628133114.412,-118.164,-58.105,-56.641,-102.539
1628133114.416,-47.363,-49.316,-30.273,-48.340
1628133114.420,21.973,-44.434,-7.324,7.324
1628133114.424,-13.672,-42.480,-0.977,-15.625
1628133114.428,-84.473,-31.738,-16.602,-66.406
1628133114.432,-59.570,-19.043,-28.809,-55.176
1628133114.435,10.254,-16.602,-20.996,3.418
1628133114.439,-26.855,-43.457,-21.973,-17.090
1628133114.443,-101.562,-43.945,-44.434,-79.590
1628133114.447,-70.801,-22.461,-61.035,-64.941
1628133114.451,22.461,-19.531,-54.688,8.301
1628133114.463,30.273,-37.598,-39.551,16.113
1628133114.467,-56.152,-55.664,-36.621,-58.105
1628133114.471,-83.008,-28.809,-28.320,-77.148
1628133114.475,-12.695,-10.254,-10.742,-20.020
1628133114.479,20.996,-14.648,-12.695,-0.488
1628133114.483,-55.176,-27.344,-25.391,-54.688
1628133114.487,-109.863,-43.457,-38.086,-83.008
1628133114.490,-44.922,-41.504,-33.203,-32.227
1628133114.494,18.555,-41.992,-33.691,16.113
1628133114.498,-18.555,-40.527,-30.762,-10.254
1628133114.502,-85.449,-32.227,-29.297,-63.965
1628133114.506,-59.082,-28.320,-31.250,-41.016
1628133114.500,20.020,-22.461,-43.457,11.230
1628133114.504,11.719,-29.297,-52.734,-6.836
1628133114.508,-66.895,-41.016,-53.223,-66.406
1628133114.512,-75.195,-41.016,-35.156,-69.824
1628133114.516,1.465,-26.855,-32.227,-16.113
1628133114.520,37.598,-23.926,-35.156,11.230
1628133114.524,-37.598,-46.875,-32.715,-48.828
1628133114.527,-95.215,-35.156,-53.223,-95.215
1628133114.531,-22.461,-1.465,-58.105,-40.039
1628133114.535,31.738,-15.137,-35.645,-2.930
1628133114.539,-45.898,-51.270,-29.785,-66.406
1628133114.543,-115.723,-47.852,-57.129,-112.305
1628133114.557,-62.500,-30.273,-72.266,-67.383
1628133114.561,25.879,-33.691,-38.574,3.418
1628133114.565,-6.836,-38.574,-17.090,-11.719
1628133114.569,-92.285,-24.902,-35.156,-68.848
1628133114.573,-67.383,-14.648,-27.832,-45.898
1628133114.577,30.273,-17.090,-9.766,25.391
1628133114.581,28.320,-23.438,-32.227,18.066
1628133114.584,-75.684,-46.387,-41.504,-66.406
1628133114.588,-80.566,-46.387,-18.066,-70.312
1628133114.592,10.254,-33.691,-17.090,4.883
1628133114.596,18.555,-24.902,-39.062,15.137
1628133114.600,-56.152,-25.879,-49.805,-41.504
1628133114.594,-86.426,-36.133,-54.199,-67.871
1628133114.598,-13.672,-23.438,-39.551,-24.902
1628133114.602,42.969,5.371,-24.902,15.625
1628133114.606,-17.578,-12.695,-37.598,-28.320
1628133114.610,-71.777,-29.785,-32.227,-75.195
1628133114.614,-23.438,-20.508,-24.902,-41.016
1628133114.618,47.363,-26.855,-32.715,22.461
1628133114.621,8.301,-23.438,-35.156,-3.418
1628133114.625,-73.730,-12.695,-32.715,-70.801
1628133114.629,-60.547,-28.320,-20.020,-57.129
1628133114.633,10.742,-26.855,-19.043,4.883
1628133114.637,14.160,-11.230,-36.133,7.812
1628133114.651,-69.336,-42.969,-40.039,-59.082
1628133114.655,-83.496,-47.852,-36.621,-73.242
1628133114.659,-0.488,-32.715,-42.969,-5.371
1628133114.663,28.809,-47.363,-30.762,19.531
1628133114.667,-47.363,-32.227,-31.250,-38.574
1628133114.671,-95.703,-18.555,-37.109,-77.637
1628133114.675,-28.320,-26.855,-25.391,-38.574
1628133114.678,33.691,-20.020,-26.367,12.207
1628133114.682,-18.555,-13.672,-45.898,-19.531
1628133114.686,-91.309,-24.414,-49.805,-81.543
1628133114.690,-51.758,-36.621,-23.438,-54.688
1628133114.694,28.809,-30.762,-26.855,6.836
1628133114.690,-1.953,-33.691,-38.086,-11.230
1628133114.694,-94.238,-32.227,-30.273,-73.242
1628133114.698,-66.895,-13.672,-17.090,-55.664
1628133114.702,18.066,-27.832,-15.137,14.648
1628133114.706,0.488,-43.457,-45.410,-1.953
1628133114.710,-86.426,-32.227,-62.988,-76.172
1628133114.714,-104.980,-37.109,-47.852,-90.820
1628133114.717,-32.227,-39.062,-44.434,-36.621
1628133114.721,14.160,-22.461,-57.617,2.930
1628133114.725,-40.039,-25.391,-45.898,-42.969
1628133114.729,-81.055,-38.574,-20.996,-75.684
1628133114.733,-23.438,-29.785,-17.578,-25.879
1628133114.752,38.086,-17.578,-14.648,20.996
1628133114.756,0.000,-39.551,-6.348,-6.348
1628133114.760,-70.801,-40.527,-19.043,-66.895
1628133114.764,-51.270,-39.062,-35.645,-62.500
1628133114.768,26.367,-35.645,-46.875,-2.441
1628133114.772,11.719,-25.391,-49.316,-11.230
1628133114.776,-88.379,-34.668,-45.410,-83.008
1628133114.779,-96.191,-23.438,-36.621,-88.379
1628133114.783,8.301,-11.719,-30.273,-9.277
1628133114.787,44.922,-15.625,-36.621,28.809
1628133114.791,-38.086,-21.484,-43.945,-37.598
1628133114.795,-78.125,-47.363,-28.320,-71.289
1628133114.782,-10.254,-41.016,-1.465,-20.020
1628133114.786,27.832,-29.297,-3.418,10.742
1628133114.790,-52.246,-36.133,-16.113,-42.969
1628133114.794,-116.211,-31.250,-27.832,-91.309
1628133114.798,-62.012,-28.809,-30.273,-47.852
1628133114.802,16.602,-40.527,-35.156,11.719
1628133114.806,-6.348,-45.410,-35.645,1.465
1628133114.809,-95.215,-25.879,-33.691,-64.453
1628133114.813,-76.172,-11.719,-33.203,-62.012
1628133114.817,21.973,-14.648,-26.855,4.883
1628133114.821,23.438,-36.621,-34.180,9.766
1628133114.825,-52.734,-44.434,-49.316,-41.992
1628133114.840,-68.359,-42.969,-27.344,-56.152
1628133114.844,9.277,-15.137,0.488,4.883
1628133114.848,29.785,-3.418,-15.625,19.043
1628133114.852,-60.059,-31.250,-32.715,-57.617
1628133114.856,-95.215,-39.062,-29.785,-79.590
1628133114.860,-27.832,-36.621,-22.949,-17.578
1628133114.864,28.809,-30.762,-20.020,18.066
1628133114.867,-18.555,-20.020,-20.996,-20.996
1628133114.871,-83.984,-28.320,-26.855,-71.289
1628133114.875,-46.875,-41.992,-35.156,-50.781
1628133114.879,19.043,-42.480,-38.086,1.465
1628133114.883,-4.883,-30.762,-32.715,-10.742
1628133114.875,-61.035,-27.832,-29.297,-52.246
1628133114.879,-42.969,-33.691,-31.738,-40.527
1628133114.883,34.180,-31.250,-21.973,6.836
1628133114.887,33.203,-31.250,-6.348,8.789
1628133114.891,-71.289,-42.969,-26.855,-58.105
1628133114.895,-104.492,-43.945,-58.594,-89.844
1628133114.899,-18.066,-40.039,-49.805,-20.020
1628133114.902,33.203,-34.180,-14.648,29.785
1628133114.906,-40.527,-33.691,-10.254,-29.297
1628133114.910,-97.656,-33.691,-16.602,-74.707
1628133114.914,-30.273,-20.996,-5.859,-24.902
1628133114.918,35.156,-17.578,-16.113,23.926
1628133114.940,5.859,-33.203,-39.062,-3.906
1628133114.944,-68.359,-47.852,-45.898,-61.523
1628133114.948,-50.293,-33.691,-53.223,-46.387
1628133114.952,25.391,-32.227,-54.688,12.695
1628133114.956,6.348,-36.133,-40.039,1.465
1628133114.960,-67.871,-32.715,-30.273,-62.012
1628133114.964,-71.777,-41.504,-34.180,-70.312
1628133114.967,-1.465,-48.828,-18.555,-14.648
1628133114.971,26.367,-41.016,-5.859,5.859
1628133114.975,-52.246,-37.109,-27.832,-54.688
1628133114.979,-88.379,-36.133,-45.410,-81.543
1628133114.983,-7.324,-27.832,-39.551,-14.160
1628133114.971,36.621,-40.039,-28.809,22.949
1628133114.975,-30.762,-71.289,-18.555,-24.902
1628133114.979,-90.332,-56.152,-11.719,-70.801
1628133114.983,-44.434,-16.113,-24.902,-39.551
1628133114.987,13.184,-13.184,-37.598,3.906
1628133114.991,-17.578,-25.879,-37.598,-21.484
1628133114.995,-85.938,-50.293,-43.457,-75.195
1628133114.998,-68.359,-57.129,-30.273,-56.152
1628133115.002,8.789,-39.062,-13.672,4.883
1628133115.006,2.930,-27.832,-8.301,-0.977
1628133115.010,-74.707,-33.203,-19.043,-58.594
1628133115.014,-86.914,-35.645,-44.922,-66.895
1628133115.039,-3.906,-24.414,-27.344,-6.836
1628133115.043,24.414,-48.340,-5.859,14.648
1628133115.047,-60.547,-58.105,-18.066,-51.758
1628133115.051,-97.656,-33.691,-30.273,-87.891
1628133115.055,-33.203,-28.320,-39.062,-36.133
1628133115.059,-1.465,-45.898,-49.805,-5.859
1628133115.063,-51.270,-47.363,-38.086,-38.574
1628133115.066,-110.840,-41.504,-33.691,-79.102
1628133115.070,-61.523,-35.156,-32.715,-39.551
1628133115.074,12.207,-47.852,-20.996,10.742
1628133115.078,-27.344,-57.129,-11.230,-17.578
1628133115.082,-102.539,-30.762,-15.625,-67.871
1628133115.063,-88.867,-28.320,-29.785,-67.383
1628133115.067,-4.883,-28.320,-31.738,-16.602
1628133115.071,6.836,-31.250,-21.484,-1.953
1628133115.075,-75.195,-40.527,-41.016,-59.082
1628133115.079,-98.145,-32.227,-66.406,-79.102
1628133115.083,-16.602,-16.113,-43.457,-17.578
1628133115.087,27.344,-18.555,-28.320,22.461
1628133115.090,-47.363,-41.016,-33.691,-35.156
1628133115.094,-101.074,-42.480,-38.574,-84.961
1628133115.098,-28.809,-33.203,-41.016,-30.273
1628133115.102,37.109,-37.109,-44.922,22.461
1628133115.106,-13.672,-53.711,-46.387,-17.578
1628133115.120,-70.801,-56.152,-20.508,-59.570
1628133115.124,-38.574,-48.828,-7.324,-34.180
1628133115.128,26.855,-30.273,-9.277,12.207
1628133115.132,-12.207,-29.297,-24.902,-15.137
1628133115.136,-104.004,-42.969,-50.781,-84.473
1628133115.140,-87.402,-26.367,-61.035,-68.359
1628133115.144,3.906,-15.625,-54.199,6.348
1628133115.147,24.902,-38.574,-32.715,16.602
1628133115.151,-62.012,-63.965,-40.527,-59.570
1628133115.155,-100.098,-62.988,-54.199,-83.984
1628133115.159,-16.113,-49.316,-34.668,-16.113
1628133115.163,42.969,-37.598,-24.902,26.855
1628133115.157,0.977,-22.949,-18.555,5.859
1628133115.161,-67.383,-36.621,-14.648,-41.504
1628133115.165,-38.574,-38.086,-14.648,-33.691
1628133115.169,21.973,-11.719,-25.879,9.277
1628133115.173,-24.902,-21.973,-47.852,-21.973
1628133115.177,-83.984,-34.180,-49.316,-70.801
1628133115.181,-45.898,-23.926,-32.227,-49.805
1628133115.184,22.949,-35.156,-30.273,12.695
1628133115.188,-0.488,-49.316,-46.387,-1.465
1628133115.192,-83.984,-58.105,-39.551,-74.707
1628133115.196,-86.914,-49.316,-30.762,-75.195
1628133115.200,-3.906,-20.020,-21.484,-8.789
1628133115.213,31.738,-7.812,-4.395,16.113
1628133115.217,-51.270,-35.156,-19.531,-35.645
1628133115.221,-74.707,-36.133,-34.180,-56.152
1628133115.225,8.789,-18.066,-16.602,-4.883
1628133115.229,35.156,-25.391,-8.789,19.531
1628133115.233,-37.598,-34.668,-24.902,-36.133
1628133115.237,-95.703,-29.785,-42.480,-79.102
1628133115.240,-37.598,-27.344,-46.387,-36.621
1628133115.244,34.668,-34.180,-39.551,13.672
1628133115.248,-1.465,-31.250,-27.832,-8.789
1628133115.252,-71.289,-33.691,-26.855,-61.035
1628133115.256,-55.664,-31.250,-31.250,-48.828
1628133115.250,9.766,-19.531,-25.391,2.930
1628133115.254,1.953,-29.785,-18.555,-4.395
1628133115.258,-74.707,-52.734,-27.344,-55.664
1628133115.262,-78.613,-55.664,-22.461,-58.594
1628133115.266,20.996,-20.020,-5.859,14.160
1628133115.270,39.551,-16.113,-25.391,33.203
1628133115.274,-69.336,-45.410,-61.523,-52.246
1628133115.277,-115.234,-43.945,-58.594,-94.238
1628133115.281,-35.645,-29.785,-34.180,-29.785
1628133115.285,31.738,-29.297,-30.762,21.484
1628133115.289,-21.973,-36.133,-31.738,-23.438
1628133115.293,-78.125,-24.414,-27.344,-65.430
1628133115.308,-28.809,-2.441,-28.809,-32.715
1628133115.312,35.645,-15.625,-31.250,13.672
1628133115.316,3.418,-42.969,-27.344,-11.230
1628133115.320,-76.660,-29.785,-19.043,-71.289
1628133115.324,-64.453,-15.625,-11.719,-57.617
1628133115.328,22.461,-25.879,-11.230,12.695
1628133115.332,26.367,-31.250,-16.113,20.508
1628133115.335,-61.523,-47.852,-28.809,-48.828
1628133115.339,-79.102,-42.480,-42.969,-67.871
1628133115.343,2.441,-19.531,-48.340,-9.766
1628133115.347,35.156,-15.137,-37.598,23.438
1628133115.351,-35.645,-21.973,-33.691,-28.320
1628133115.347,-96.191,-39.062,-52.734,-80.078
1628133115.351,-37.598,-42.480,-43.457,-38.574
1628133115.355,24.414,-26.367,-29.785,7.324
1628133115.359,-13.672,-11.719,-20.020,-20.020
1628133115.363,-72.266,-24.414,-20.020,-58.594
1628133115.367,-37.598,-29.785,-22.949,-27.832
1628133115.371,38.086,-11.719,-15.625,27.832
1628133115.374,4.883,-17.578,-16.602,8.789
1628133115.378,-76.172,-34.668,-26.855,-53.223
1628133115.382,-58.105,-19.043,-20.020,-49.316
1628133115.386,14.160,-32.227,-17.090,4.883
1628133115.390,10.742,-56.641,-34.180,3.418
1628133115.401,-69.824,-51.270,-41.992,-63.477
1628133115.405,-93.750,-31.738,-37.598,-86.426
1628133115.409,-19.043,-30.762,-30.762,-24.902
1628133115.413,23.926,-38.574,-25.391,9.277
1628133115.417,-37.109,-32.227,-28.809,-41.992
1628133115.421,-78.613,-15.625,-31.250,-73.730
1628133115.425,-22.949,-22.949,-23.926,-30.762
1628133115.428,16.113,-48.340,-21.973,1.465
1628133115.432,-8.789,-35.645,-25.879,-16.602
1628133115.436,-57.129,-35.645,-35.645,-43.457
1628133115.440,-65.918,-55.664,-42.480,-55.664
1628133115.444,-4.395,-35.156,-26.855,-18.555
1628133115.439,5.371,-27.832,-31.250,-10.254
1628133115.443,-64.453,-44.922,-39.551,-67.383
1628133115.447,-84.961,-33.203,-32.715,-80.566
1628133115.451,-22.461,-12.695,-32.715,-22.461
1628133115.455,20.508,-9.277,-33.203,5.371
1628133115.459,-35.156,-19.043,-54.199,-37.598
1628133115.463,-75.684,-31.738,-56.641,-64.941
1628133115.466,-20.020,-35.156,-20.508,-26.855
1628133115.470,17.090,-41.016,-21.484,3.906
1628133115.474,-34.668,-49.316,-32.715,-40.527
1628133115.478,-86.426,-34.668,-26.367,-84.473
1628133115.482,-48.340,-13.672,-21.973,-55.176
1628133115.497,30.762,-5.371,-28.320,9.766
1628133115.501,4.883,-21.484,-46.387,-8.789
1628133115.505,-79.590,-35.156,-44.434,-75.195
1628133115.509,-62.012,-25.391,-30.762,-63.965
1628133115.513,4.883,-25.391,-36.133,-16.113
1628133115.517,9.766,-26.855,-43.457,-8.789
1628133115.521,-54.199,-34.180,-41.016,-54.688
1628133115.524,-68.848,-28.809,-54.199,-68.359
1628133115.528,-6.348,-24.902,-64.941,-20.508
1628133115.532,16.113,-37.598,-43.945,-4.883
1628133115.536,-31.250,-38.574,-35.156,-37.598
1628133115.540,-74.219,-22.461,-35.645,-64.941
1628133115.532,-34.180,-11.230,-25.879,-40.527
1628133115.536,25.879,-17.578,-27.344,3.418
1628133115.540,-5.371,-23.438,-33.691,-9.277
1628133115.544,-68.359,-20.020,-34.668,-60.059
1628133115.548,-52.246,-18.066,-29.297,-55.176
1628133115.552,11.719,-17.090,-24.414,-7.812
1628133115.556,8.301,-19.531,-23.438,-7.324
1628133115.559,-53.223,-20.996,-35.645,-46.387
1628133115.563,-69.336,-24.902,-46.875,-61.523
1628133115.567,-12.695,-19.531,-34.180,-21.973
1628133115.571,13.672,-13.184,-20.508,3.418
1628133115.575,-42.969,-27.832,-27.344,-38.086
1628133115.607,-69.824,-40.039,-41.016,-57.617
1628133115.611,-7.324,-27.832,-39.062,-6.836
1628133115.615,34.668,-33.691,-40.039,29.785
1628133115.619,-25.879,-45.410,-33.203,-14.160
1628133115.623,-76.172,-26.367,-7.324,-53.711
1628133115.627,-35.156,-10.742,-10.254,-27.344
1628133115.631,18.555,-16.113,-34.668,7.324
1628133115.634,-8.789,-23.438,-42.969,-8.789
1628133115.638,-67.383,-17.578,-44.922,-50.781
1628133115.642,-46.387,-14.648,-44.922,-31.250
1628133115.646,10.254,-32.715,-31.250,9.277
1628133115.650,8.789,-39.551,-10.254,-2.930
1628133115.626,-53.223,-37.598,-11.230,-50.293
1628133115.630,-63.477,-35.156,-19.531,-66.895
1628133115.634,0.000,-39.062,-18.555,-20.996
1628133115.638,22.461,-50.293,-29.785,-5.371
1628133115.642,-38.574,-43.457,-38.086,-49.316
1628133115.646,-69.336,-24.414,-36.621,-68.359
1628133115.650,-13.672,-12.207,-32.715,-28.809
1628133115.653,22.461,-13.672,-30.762,-3.418
1628133115.657,-21.484,-30.273,-53.223,-32.227
1628133115.661,-70.801,-38.574,-50.293,-69.824
1628133115.665,-37.109,-14.648,-24.902,-42.480
1628133115.669,36.133,0.488,-27.344,17.578
1628133115.682,20.020,-12.207,-34.668,12.695
1628133115.686,-60.059,-26.855,-44.434,-47.852
1628133115.690,-69.336,-25.391,-44.434,-60.059
1628133115.694,-4.883,-15.137,-36.133,-11.230
1628133115.698,4.883,-29.297,-30.273,-6.348
1628133115.702,-60.547,-50.781,-37.598,-58.105
1628133115.706,-85.938,-52.246,-49.316,-73.242
1628133115.709,-28.320,-47.852,-37.109,-31.250
1628133115.713,8.789,-50.293,-28.320,-10.254
1628133115.717,-47.852,-49.316,-39.062,-45.410
1628133115.721,-91.309,-47.852,-34.180,-79.590
1628133115.725,-27.832,-23.438,-23.438,-40.527
1628133115.723,32.227,-8.789,-18.555,9.766
1628133115.727,-20.996,-35.645,-35.156,-30.273
1628133115.731,-77.148,-42.969,-49.805,-75.195
1628133115.735,-42.480,-36.133,-64.941,-46.875
1628133115.739,13.672,-34.180,-59.082,-10.254
1628133115.743,-5.859,-22.461,-32.227,-27.344
1628133115.747,-68.848,-26.855,-27.344,-67.871
1628133115.750,-67.383,-36.621,-38.574,-67.871
1628133115.754,8.789,-22.949,-33.691,-10.742
1628133115.758,17.090,-25.879,-23.926,-2.930
1628133115.762,-57.129,-54.199,-29.785,-61.035
1628133115.766,-67.383,-57.617,-33.203,-65.918
1628133115.777,-6.836,-26.855,-26.367,-13.184
1628133115.781,16.602,-22.949,-27.832,12.695
1628133115.785,-36.621,-37.598,-41.992,-32.227
1628133115.789,-78.613,-36.133,-40.527,-64.453
1628133115.793,-33.203,-19.531,-28.809,-28.320
1628133115.797,23.926,-12.695,-18.555,19.531
1628133115.801,-4.395,-25.879,-20.996,-0.977
1628133115.804,-66.895,-26.367,-37.598,-59.570
1628133115.808,-60.059,-28.320,-40.039,-54.199
1628133115.812,3.906,-23.926,-29.297,-1.465
1628133115.816,0.488,-19.043,-23.438,-4.395
1628133115.820,-62.500,-31.738,-20.508,-51.270
1628133115.813,-67.871,-43.457,-21.484,-56.641
1628133115.817,-2.930,-40.527,-23.926,-15.625
1628133115.821,20.508,-40.039,-38.574,-7.324
1628133115.825,-36.133,-32.715,-38.086,-48.828
1628133115.829,-66.895,-28.809,-27.344,-66.895
1628133115.833,-14.648,-38.574,-32.715,-26.855
1628133115.837,24.902,-21.973,-29.297,4.883
1628133115.840,-32.227,-33.203,-28.809,-34.668
1628133115.844,-91.309,-44.434,-35.156,-73.242
1628133115.848,-50.781,-23.438,-13.672,-41.504
1628133115.852,0.000,-40.527,-12.695,-1.953
1628133115.856,-36.621,-64.941,-35.156,-31.250
1628133115.872,-76.172,-34.180,-20.020,-67.383
1628133115.876,-50.781,-4.883,-26.855,-49.316
1628133115.880,15.137,-9.766,-41.992,0.488
1628133115.884,0.488,-16.113,-19.531,-5.859
1628133115.888,-81.543,-31.738,-11.719,-68.359
1628133115.892,-73.730,-46.387,-17.578,-65.430
1628133115.896,-0.488,-55.664,-12.695,-0.977
1628133115.899,10.742,-51.270,-16.113,8.301
1628133115.903,-45.898,-38.086,-21.973,-35.645
1628133115.907,-67.383,-34.668,-13.184,-53.223
1628133115.911,-21.973,-51.758,-28.320,-22.461
1628133115.915,26.367,-44.922,-33.203,16.602
1628133115.907,-35.645,-39.062,-45.410,-38.086
1628133115.911,-108.887,-38.574,-43.945,-91.309
1628133115.915,-55.176,-30.762,-31.250,-52.734
1628133115.919,17.578,-42.480,-20.996,-1.953
1628133115.923,-16.113,-59.082,-17.090,-23.438
1628133115.927,-79.102,-55.664,-22.949,-75.195
1628133115.931,-70.312,-54.199,-33.691,-69.824
1628133115.934,10.742,-27.344,-33.691,0.488
1628133115.938,33.691,-21.973,-29.297,19.531
1628133115.942,-51.270,-57.129,-27.344,-49.805
1628133115.946,-84.961,-44.434,-18.066,-71.777
1628133115.950,-20.020,-22.949,-23.438,-20.508
1628133115.983,11.719,-20.996,-50.293,0.000
1628133115.987,-41.992,-25.391,-47.852,-42.480
1628133115.991,-78.125,-46.875,-26.855,-72.754
1628133115.995,-17.090,-39.551,-12.695,-33.203
1628133115.999,28.320,-27.344,-27.344,3.418
1628133116.003,-27.832,-31.738,-54.199,-31.738
1628133116.007,-0.977,-30.273,-20.996,-4.883
1628133116.010,6.348,-35.156,-9.766,3.418
1628133116.014,-63.477,-40.527,-20.020,-47.363
1628133116.018,-62.500,-21.973,-26.367,-51.758
1628133116.022,-7.812,-19.531,-46.387,-12.207
1628133116.026,16.113,-37.109,-41.504,7.324
1628133116.044,-49.805,-54.688,-24.902,-38.574
1628133116.048,-97.168,-56.641,-36.621,-74.219
1628133116.052,-29.297,-22.949,-33.203,-26.367
1628133116.056,26.367,-11.719,-13.672,14.648
1628133116.060,-17.578,-34.180,-17.090,-18.066
1628133116.064,-61.035,-20.996,-18.555,-47.363
1628133116.068,-25.879,-9.766,-32.227,-28.320
1628133116.071,27.344,-15.137,-31.250,15.137
1628133116.075,-8.789,-26.855,-23.438,-8.301
1628133116.079,-57.617,-31.250,-33.203,-46.875
1628133116.083,-24.414,-18.066,-37.598,-20.020
1628133116.087,31.738,-39.551,-29.785,19.531
1628133116.074,18.066,-49.316,-28.320,7.812
1628133116.078,-60.059,-36.621,-39.551,-48.828
1628133116.082,-70.801,-24.902,-32.227,-59.570
1628133116.086,-3.906,-6.348,-17.578,-11.719
1628133116.090,13.672,-20.996,-21.484,7.812
1628133116.094,-51.270,-30.762,-27.344,-36.133
1628133116.098,-78.613,-20.020,-22.461,-64.453
1628133116.101,-22.949,-37.598,-34.180,-26.367
1628133116.105,19.043,-59.570,-41.016,13.672
1628133116.109,-30.273,-48.828,-35.645,-26.367
1628133116.113,-73.730,-29.785,-24.414,-67.383
1628133116.117,-41.504,-29.297,-13.672,-43.945
1628133116.113,-3.418,-36.133,-20.508,-10.742
1628133116.117,-29.785,-33.691,-31.250,-25.879
1628133116.121,-103.027,-34.668,-41.992,-81.055
1628133116.125,-90.332,-26.367,-45.410,-71.777
1628133116.129,-13.184,-22.461,-34.668,-11.719
1628133116.133,-6.836,-31.738,-31.738,-8.789
1628133116.137,-69.336,-50.293,-24.902,-60.547
1628133116.140,-77.148,-54.688,-24.902,-65.430
1628133116.144,-8.301,-18.066,-34.668,-15.137
1628133116.148,17.090,4.395,-19.043,-3.418
1628133116.152,-44.922,-0.977,-25.879,-51.758
1628133116.156,-83.496,-19.043,-57.617,-94.727
1628133116.160,-35.645,-21.973,-46.387,-58.594
1628133116.164,14.160,-11.230,-24.414,-5.371
1628133116.168,-33.203,-10.742,-36.621,-35.645
1628133116.172,-105.469,-21.484,-50.781,-97.168
1628133116.176,-55.176,-16.113,-47.852,-60.547
1628133116.180,28.320,-18.066,-42.480,4.395
1628133116.184,15.137,-29.785,-43.945,-11.719
1628133116.187,-60.059,-18.066,-55.664,-69.336
1628133116.191,-75.684,-14.648,-67.871,-78.613
1628133116.195,-13.184,-31.738,-56.152,-28.320
1628133116.199,-8.789,-29.785,-46.875,-25.391
1628133116.203,-73.242,-27.344,-38.574,-67.871
1628133116.207,-80.078,-30.762,-18.066,-68.848
1628133116.211,-25.879,-32.715,-18.555,-22.461
1628133116.215,-4.395,-35.156,-30.273,0.977
1628133116.219,-59.570,-32.715,-50.293,-46.875
1628133116.223,-100.098,-21.484,-50.781,-80.566
1628133116.227,-38.574,-1.465,-20.996,-33.691
1628133116.231,24.902,-7.324,-16.602,13.184
1628133116.234,-11.230,-21.484,-25.391,-12.695
1628133116.238,-74.707,-31.250,-33.203,-64.453
1628133116.242,-66.406,-44.434,-43.945,-60.547
1628133116.246,4.883,-40.527,-33.691,-14.648
1628133116.250,4.395,-17.578,-25.879,-23.438
1628133116.245,-62.012,-11.230,-33.691,-74.219
1628133116.249,-58.594,-15.137,-52.246,-70.801
1628133116.253,17.578,-0.488,-40.527,-8.301
1628133116.257,24.902,-1.465,-38.086,-1.465
1628133116.261,-60.059,-25.879,-48.828,-66.406
1628133116.265,-78.125,-37.598,-31.250,-79.590
1628133116.269,-10.742,-37.598,-23.438,-29.297
1628133116.272,10.742,-35.156,-38.086,-18.066
1628133116.276,-43.945,-30.762,-41.016,-63.965
1628133116.280,-86.914,-29.297,-31.738,-93.262
1628133116.284,-35.156,-26.367,-36.133,-43.945
1628133116.288,23.438,-34.668,-36.621,7.324
1628133116.302,-3.906,-24.902,-34.668,-20.020
1628133116.306,-57.617,-8.789,-42.480,-61.523
1628133116.310,-59.082,-15.625,-47.363,-70.312
1628133116.314,-1.953,-21.973,-33.691,-27.344
1628133116.318,0.977,-24.902,-22.461,-8.301
1628133116.322,-67.383,-23.926,-32.715,-53.223
1628133116.326,-73.730,-35.645,-41.992,-62.988
1628133116.329,-4.883,-34.180,-27.832,-10.254
1628133116.333,27.832,-14.648,-16.113,19.043
1628133116.337,-46.387,-18.066,-26.367,-39.551
1628133116.341,-87.402,-29.785,-31.250,-65.918
1628133116.345,-34.180,-32.715,-26.855,-22.461
1628133116.339,19.043,-36.133,-38.086,13.184
1628133116.343,-2.930,-40.527,-48.340,-2.441
1628133116.347,-62.500,-26.855,-59.082,-53.223
1628133116.351,-29.297,-8.789,-35.645,-32.227
1628133116.355,20.020,-15.625,5.859,8.301
1628133116.359,-20.020,-37.598,2.930,-19.043
1628133116.363,-75.684,-40.039,-14.648,-51.758
1628133116.366,-67.383,-35.156,-19.531,-49.316
1628133116.370,-10.742,-39.062,-15.625,-8.789
1628133116.374,-0.977,-49.316,-25.391,9.766
1628133116.378,-57.617,-54.688,-31.250,-36.133
1628133116.382,-75.195,-49.316,-20.508,-56.641
1628133116.394,-14.648,-35.645,-16.602,-11.230
1628133116.398,27.344,-14.160,-12.207,26.367
1628133116.402,-24.414,-23.438,-30.273,-5.371
1628133116.406,-88.867,-55.176,-30.273,-53.223
1628133116.410,-45.898,-60.547,-4.883,-22.461
1628133116.414,10.742,-56.152,-15.625,17.090
1628133116.418,-39.551,-51.758,-26.367,-21.484
1628133116.421,-92.285,-35.645,-13.184,-62.012
1628133116.425,-48.828,-26.855,-1.465,-30.273
1628133116.429,29.297,-27.832,-7.812,22.461
1628133116.433,0.000,-47.363,-19.531,2.930
1628133116.437,-83.496,-49.805,-22.461,-58.105
1628133116.434,-64.941,-35.645,-28.809,-57.617
1628133116.438,1.953,-33.691,-33.691,-9.766
1628133116.442,11.230,-28.320,-36.621,0.977
1628133116.446,-50.293,-22.461,-40.039,-46.875
1628133116.450,-64.453,-37.109,-32.715,-50.293
1628133116.454,1.953,-43.457,-19.043,-0.977
1628133116.458,21.484,-45.410,-10.742,2.441
1628133116.461,-40.527,-46.387,-13.184,-42.480
1628133116.465,-96.191,-32.715,-22.461,-81.055
1628133116.469,-53.711,-31.250,-21.484,-51.270
1628133116.473,16.113,-30.762,-20.508,5.859
1628133116.477,-10.254,-27.344,-33.691,-11.719
1628133116.488,-73.242,-27.832,-36.621,-60.547
1628133116.492,-53.711,-36.133,-31.250,-50.293
1628133116.496,6.348,-36.621,-23.438,-6.348
1628133116.500,5.371,-28.320,-21.973,-0.977
1628133116.504,-50.293,-19.043,-38.086,-43.945
1628133116.508,-67.383,-34.180,-38.086,-53.711
1628133116.512,-28.320,-69.824,-34.668,-22.949
1628133116.515,-7.812,-61.523,-25.879,-11.230
1628133116.519,-57.129,-33.203,-17.578,-43.457
1628133116.523,-92.773,-17.578,-21.484,-66.895
1628133116.527,-45.898,-16.113,-26.855,-25.879
1628133116.531,-4.395,-32.227,-25.879,9.277
1628133116.525,-40.527,-38.086,-29.297,-26.367
1628133116.529,-87.402,-32.715,-19.043,-65.918
1628133116.533,-48.828,-36.621,-16.602,-36.133
1628133116.537,11.719,-40.039,-30.762,15.625
1628133116.541,-6.348,-31.738,-35.645,1.465
1628133116.545,-71.289,-20.996,-45.410,-50.293
1628133116.549,-62.012,-21.484,-43.457,-45.898
1628133116.552,-5.371,-43.457,-27.344,-7.812
1628133116.556,-15.137,-54.199,-31.250,-15.625
1628133116.560,-84.473,-44.434,-38.574,-70.801
1628133116.564,-99.609,-37.109,-34.180,-85.449
1628133116.568,-22.949,-18.555,-30.273,-29.297
1628133116.583,13.184,-17.090,-32.715,-6.348
1628133116.587,-40.039,-43.457,-29.785,-48.828
1628133116.591,-68.848,-36.621,-28.809,-62.988
1628133116.595,-13.184,-20.508,-45.898,-22.949
1628133116.599,38.086,-34.180,-38.574,20.020
1628133116.603,-10.742,-48.340,-23.926,-11.230
1628133116.607,-88.867,-48.340,-48.340,-72.266
1628133116.610,-56.152,-38.086,-36.133,-49.316
1628133116.614,16.113,-34.668,-12.207,6.348
1628133116.618,-22.461,-31.738,-25.391,-15.137
1628133116.622,-94.727,-29.297,-26.367,-68.359
1628133116.626,-68.359,-20.508,-15.625,-54.199
1628133116.621,-4.883,-22.461,-23.926,-9.766
1628133116.625,-6.348,-24.414,-29.785,-6.348
1628133116.629,-66.406,-33.203,-30.762,-49.805
1628133116.633,-83.984,-44.434,-53.711,-73.730
1628133116.637,-18.555,-31.250,-54.199,-29.785
1628133116.641,17.578,-17.090,-35.156,1.465
1628133116.645,-38.574,-36.621,-35.156,-41.992
1628133116.648,-81.055,-49.805,-35.645,-70.312
1628133116.652,-34.180,-38.574,-29.297,-30.762
1628133116.656,16.602,-45.410,-27.832,3.418
1628133116.660,-21.973,-30.273,-30.273,-25.391
1628133116.664,-94.238,-12.207,-47.363,-81.543
1628133116.676,-75.684,-21.973,-34.668,-69.824
1628133116.680,1.953,-24.902,-17.090,-11.719
1628133116.684,-6.348,-21.484,-19.043,-14.648
1628133116.688,-83.008,-31.250,-36.133,-75.684
1628133116.692,-77.148,-48.828,-50.293,-67.383
1628133116.696,7.812,-40.527,-41.504,-1.953
1628133116.700,20.508,-36.621,-55.176,-5.859
1628133116.703,-56.152,-39.062,-48.828,-64.941
1628133116.707,-83.008,-39.551,-26.367,-81.543
1628133116.711,-11.719,-14.160,-17.090,-29.297
1628133116.715,25.391,6.348,-12.695,-4.395
1628133116.719,-27.832,0.977,-7.812,-41.504
1628133116.713,-79.102,-22.461,-19.043,-79.590
1628133116.717,-41.504,-32.227,-28.320,-47.363
1628133116.721,13.672,-36.621,-37.598,-2.930
1628133116.725,-25.879,-57.129,-43.457,-38.574
1628133116.729,-95.703,-56.152,-35.645,-88.379
1628133116.733,-60.547,-30.762,-33.691,-59.570
1628133116.737,16.602,-21.484,-31.738,-1.465
1628133116.740,2.930,-30.762,-30.273,-11.230
1628133116.744,-67.383,-36.621,-41.016,-59.570
1628133116.748,-87.402,-34.180,-39.062,-72.266
1628133116.752,-16.113,-35.156,-27.344,-20.020
1628133116.756,24.902,-28.320,-24.902,13.672
1628133116.770,-31.250,-19.531,-18.555,-32.715
1628133116.774,-82.031,-20.020,-36.621,-72.754
1628133116.778,-38.086,-15.137,-55.664,-31.250
1628133116.782,14.160,-31.738,-40.039,12.695
1628133116.786,-41.016,-42.480,-38.086,-28.809
1628133116.790,-93.262,-27.344,-31.738,-72.754
1628133116.794,-48.340,-26.855,-25.879,-36.133
1628133116.797,29.785,-20.996,-30.762,21.484
1628133116.801,10.742,-22.949,-40.527,5.371
1628133116.805,-70.801,-40.527,-48.828,-55.664
1628133116.809,-53.223,-35.156,-39.551,-45.410
1628133116.813,15.625,-35.156,-32.715,1.953
1628133116.807,4.395,-50.293,-26.367,-7.324
1628133116.811,-66.406,-43.945,-33.691,-56.152
1628133116.815,-72.266,-17.578,-31.738,-62.988
1628133116.819,-1.953,-10.254,-19.531,-7.324
1628133116.823,20.996,-25.391,-20.020,14.160
1628133116.827,-45.410,-37.598,-19.531,-38.086
1628133116.831,-84.473,-35.645,-29.297,-67.383
1628133116.834,-34.668,-28.809,-42.480,-26.855
1628133116.838,21.484,-27.344,-40.039,17.090
1628133116.842,-16.113,-46.387,-35.156,-9.766
1628133116.846,-69.336,-48.828,-34.668,-48.828
1628133116.850,-39.551,-38.086,-35.156,-27.832
1628133116.863,23.438,-30.762,-36.133,16.113
1628133116.867,19.531,-21.973,-30.273,12.695
1628133116.871,-51.270,-23.438,-27.344,-40.527
1628133116.875,-70.312,-25.391,-24.902,-57.129
1628133116.879,-5.859,-22.461,-21.973,-7.812
1628133116.883,20.020,-24.902,-32.227,10.742
1628133116.887,-38.086,-36.621,-47.363,-37.598
1628133116.890,-63.477,-36.133,-30.762,-58.594
1628133116.894,-6.348,-19.531,-21.484,-9.766
1628133116.898,29.297,-12.695,-31.738,26.855
1628133116.902,-24.902,-31.250,-24.414,-14.160
1628133116.906,-81.055,-41.504,-26.855,-66.406
1628133116.901,-45.410,-15.625,-27.832,-44.434
1628133116.905,8.789,-7.324,-31.250,1.465
1628133116.909,-26.367,-33.203,-47.852,-20.020
1628133116.913,-83.984,-42.480,-40.039,-65.918
1628133116.917,-61.035,-29.297,-18.066,-51.270
1628133116.921,17.090,-16.602,-9.766,-2.930
1628133116.925,14.160,-24.902,-18.066,-8.301
1628133116.928,-56.152,-37.109,-45.410,-63.965
1628133116.932,-78.125,-37.109,-52.734,-79.102
1628133116.936,-10.742,-35.156,-26.367,-29.785
1628133116.940,26.367,-33.691,-20.996,-1.953
1628133116.944,-41.016,-37.598,-40.039,-44.434
1628133116.958,-80.078,-31.738,-34.668,-70.312
1628133116.962,-26.855,-29.785,-32.715,-32.227
1628133116.966,16.602,-32.715,-39.551,2.930
1628133116.970,-25.391,-30.762,-33.691,-29.297
1628133116.974,-76.172,-28.809,-27.832,-69.824
1628133116.978,-36.133,-32.715,-16.113,-34.180
1628133116.982,24.414,-40.527,-12.695,19.043
1628133116.985,-12.207,-39.551,-31.250,-10.742
1628133116.989,-87.402,-20.996,-30.273,-70.312
1628133116.993,-70.312,-5.371,-13.184,-59.082
1628133116.997,10.254,-8.789,-12.695,0.488
1628133117.001,10.254,-29.297,-24.414,-0.488
1628133116.994,-68.848,-48.828,-41.504,-67.871
1628133116.998,-77.148,-31.738,-55.176,-73.242
1628133117.002,6.836,-14.648,-61.523,-11.719
1628133117.006,27.344,-29.785,-48.340,5.371
1628133117.010,-42.969,-44.922,-26.855,-47.363
1628133117.014,-71.777,-28.809,-21.973,-69.336
1628133117.018,-16.113,-28.809,-20.020,-23.926
1628133117.021,28.809,-25.391,-17.090,14.648
1628133117.025,-18.555,-13.184,-23.438,-22.461
1628133117.029,-80.566,-15.625,-25.879,-71.289
1628133117.033,-42.969,-11.719,-20.996,-41.992
1628133117.037,30.273,-13.184,-34.668,12.207
1628133117.051,2.441,-28.809,-59.082,-8.789
1628133117.055,-70.312,-39.062,-46.875,-62.500
1628133117.059,-59.570,-43.945,-29.785,-56.152
1628133117.063,3.418,-46.387,-29.297,-7.812
1628133117.067,8.789,-51.758,-26.855,-7.324
1628133117.071,-65.918,-50.781,-46.875,-59.570
1628133117.075,-90.332,-30.762,-58.105,-73.730
1628133117.078,-16.113,-20.996,-41.504,-20.508
1628133117.082,25.391,-23.438,-36.133,12.207
1628133117.086,-42.969,-22.461,-28.320,-41.992
1628133117.090,-90.332,-27.344,-16.602,-76.172
1628133117.094,-36.133,-26.367,-19.043,-24.902
1628133117.090,16.602,-24.414,-25.879,16.602
1628133117.094,-27.832,-41.992,-48.340,-15.625
1628133117.098,-81.543,-49.805,-42.969,-57.129
1628133117.102,-53.223,-50.781,-20.508,-42.969
1628133117.106,14.648,-39.062,-21.484,4.883
1628133117.110,0.977,-29.785,-26.855,-2.441
1628133117.114,-82.031,-40.527,-45.898,-64.453
1628133117.117,-70.312,-21.484,-57.617,-61.035
1628133117.121,5.371,-20.996,-41.992,-9.766
1628133117.125,8.301,-48.828,-29.785,-8.301
1628133117.129,-59.570,-51.758,-20.996,-57.617
1628133117.133,-90.332,-35.645,-13.672,-80.078
1628133117.144,-33.691,-17.578,-15.137,-33.203
1628133117.148,12.207,-29.785,-34.668,4.395
1628133117.152,-44.434,-49.316,-56.641,-38.086
1628133117.156,-86.426,-36.133,-53.223,-74.707
1628133117.160,-33.691,-21.973,-47.363,-43.945
1628133117.164,13.672,-22.461,-39.062,0.488
1628133117.168,-34.180,-44.434,-31.250,-20.996
1628133117.171,-85.938,-54.688,-24.902,-63.965
1628133117.175,-48.340,-47.363,-23.438,-41.016
1628133117.179,22.461,-40.527,-20.508,11.719
1628133117.183,10.742,-23.926,-25.879,1.953
1628133117.187,-64.453,-20.508,-47.363,-61.035
1628133117.183,-71.777,-39.062,-58.594,-62.988
1628133117.187,0.488,-33.203,-44.434,-4.883
1628133117.191,19.531,-28.809,-26.367,11.719
1628133117.195,-39.062,-36.621,-25.391,-26.855
1628133117.199,-79.102,-45.410,-27.344,-61.035
1628133117.203,-34.180,-38.574,-22.461,-30.273
1628133117.207,7.324,-21.484,-21.973,4.883
1628133117.210,-34.668,-37.598,-20.508,-21.973
1628133117.214,-88.379,-60.059,-20.508,-65.430
1628133117.218,-40.527,-51.270,-18.555,-37.109
1628133117.222,39.062,-21.484,-21.484,23.438
1628133117.226,6.348,-32.227,-34.668,5.859
1628133117.240,-82.031,-50.781,-57.617,-63.965
1628133117.244,-78.125,-30.273,-52.246,-63.477
1628133117.248,-7.812,-26.855,-36.133,-4.395
1628133117.252,7.812,-24.414,-14.648,7.812
1628133117.256,-47.852,-17.578,-12.207,-36.621
1628133117.260,-75.684,-20.508,-27.832,-46.875
1628133117.264,-17.578,-32.227,-26.855,-1.953
1628133117.267,11.719,-49.805,-23.438,11.719
1628133117.271,-49.805,-58.594,-27.344,-40.527
1628133117.275,-93.262,-68.359,-34.668,-81.543
1628133117.279,-30.762,-55.664,-30.273,-37.109
1628133117.283,18.066,-35.645,-35.645,4.395
1628133117.276,-38.574,-40.039,-47.852,-31.738
1628133117.280,-98.145,-34.180,-66.895,-75.195
1628133117.284,-59.570,-18.066,-55.176,-46.387
1628133117.288,18.066,-18.555,-15.625,4.883
1628133117.292,-4.395,-28.809,-13.184,-11.719
1628133117.296,-76.660,-45.410,-19.043,-60.547
1628133117.300,-69.336,-53.711,-19.043,-55.664
1628133117.303,-6.836,-47.852,-23.438,1.953
1628133117.307,2.930,-45.410,-31.738,3.906
1628133117.311,-72.266,-58.105,-40.527,-61.035
1628133117.315,-91.309,-41.992,-35.156,-69.824
1628133117.319,-15.137,-12.207,-40.039,-8.301
1628133117.370,11.230,-19.531,-66.406,6.348
1628133117.374,-46.387,-39.551,-54.199,-41.016
1628133117.378,-84.473,-48.340,-13.672,-72.754
1628133117.382,-38.086,-42.480,-7.812,-41.016
1628133117.386,27.344,-20.020,-14.648,17.090
1628133117.390,-10.742,-6.836,-19.043,-4.883
1628133117.394,-93.750,-32.715,-41.016,-73.242
1628133117.397,-65.430,-34.180,-28.320,-45.410
1628133117.401,15.137,-19.043,-4.883,18.555
1628133117.405,-5.859,-28.809,-22.949,-5.859
1628133117.409,-74.707,-40.527,-36.133,-54.199
1628133117.413,-96.191,-30.273,-27.832,-64.453
1628133117.407,-56.641,-32.227,-19.531,-48.828
1628133117.411,17.578,-41.016,-18.066,2.441
1628133117.415,0.000,-41.016,-42.969,-5.371
1628133117.419,-83.984,-33.691,-44.922,-65.918
1628133117.423,-73.730,-23.926,-22.949,-62.988
1628133117.427,-9.766,-21.973,-24.902,-20.508
1628133117.431,-15.625,-27.832,-22.949,-19.043
1628133117.434,-91.797,-46.387,-26.855,-70.312
1628133117.438,-93.262,-44.922,-37.109,-74.219
1628133117.442,-5.859,-14.648,-48.828,-14.160
1628133117.446,14.160,-19.043,-53.711,-1.465
1628133117.450,-58.105,-58.594,-33.203,-57.129
1628133117.446,-90.820,-53.223,-41.016,-85.449
1628133117.450,-35.645,-15.625,-45.410,-39.062
1628133117.454,2.930,-15.137,-14.648,-1.953
1628133117.458,-42.969,-33.691,-10.742,-34.668
1628133117.462,-95.703,-33.203,-15.625,-72.754
1628133117.466,-54.688,-24.414,-26.367,-48.828
1628133117.470,20.996,-26.855,-46.387,0.488
1628133117.473,2.930,-51.270,-46.387,-3.906
1628133117.477,-62.012,-41.504,-49.316,-57.617
1628133117.481,-61.035,-5.859,-37.598,-62.988
1628133117.485,-4.883,-19.043,-14.160,-17.578
1628133117.489,-7.812,-33.691,-31.738,-19.043
1628133117.501,-86.914,-33.203,-44.434,-78.125
1628133117.505,-101.074,-33.691,-32.715,-88.867
1628133117.509,-10.742,-17.090,-27.344,-12.207
1628133117.513,25.879,-11.719,-28.809,25.391
1628133117.517,-42.969,-32.227,-36.621,-28.809
1628133117.521,-64.941,-35.645,-31.250,-57.129
1628133117.525,-20.020,-48.340,-36.621,-30.273
1628133117.528,20.996,-61.035,-31.738,1.465
1628133117.532,-10.742,-32.715,-14.648,-14.648
1628133117.536,-96.680,-16.113,-25.879,-84.961
1628133117.540,-85.449,-21.973,-26.855,-79.102
1628133117.544,-2.441,-13.672,-24.414,-8.789
1628133117.539,-2.930,-16.602,-38.574,-8.301
1628133117.543,-70.312,-41.504,-48.340,-58.594
1628133117.547,-65.430,-63.965,-53.711,-61.035
