timestamps,TP9,AF7,AF8,TP10
1626.465842123,-38.574,-45.41,-24.901999999999997,-32.715
1626.465842127,191.895,-35.645,-27.344,5.371
1626.465842131,6.348,-40.039,-42.968999999999994,-25.879
1626.465842135,-206.055,-41.992,-22.949,-44.922
1626.465842139,-112.305,-39.062,-14.648,-32.227
1626.465842143,147.461,-34.18,-17.578,-4.883
1626.465842147,65.918,-42.48,-41.016000000000005,-24.901999999999997
1626.46584215,-210.449,-50.781000000000006,-44.434,-61.035
1626.465842154,-184.082,-35.156,-29.296999999999997,-47.363
1626.465842158,83.008,-33.203,-22.461,-13.184000000000001
1626.4658421620002,135.254,-39.062,-40.039,-6.348
1626.4658421660001,-145.996,-38.086,-41.016000000000005,-52.246
1626.4658421660001,-217.773,-34.18,-32.715,-61.035
1626.46584217,6.836,-29.296999999999997,-26.366999999999997,-29.785
1626.465842174,167.48,-30.273000000000003,-32.227,-12.207
1626.465842178,-83.984,-34.668,-48.828,-53.711000000000006
1626.4658421820002,-235.352,-37.598,-36.621,-63.965
1626.4658421860001,-54.199,-29.296999999999997,-26.366999999999997,-25.391
1626.46584219,176.27,-35.156,-34.668,1.465
1626.4658421929998,-2.441,-46.387,-50.781000000000006,-37.109
1626.465842197,-216.797,-40.527,-40.039,-52.246
1626.465842201,-121.094,-39.062,-26.366999999999997,-35.645
1626.465842205,133.789,-42.968999999999994,-16.602,-3.418
1626.465842209,85.93799999999999,-45.41,-37.109,-13.184000000000001
1626.4658422129999,-184.082,-43.457,-37.598,-50.781000000000006
1626.465842217,-191.895,-40.527,-33.691,-56.152
1626.465842221,66.895,-36.133,-23.926,-23.926
1626.465842225,153.32,-38.574,-32.227,-9.277000000000001
1626.465842229,-125.0,-48.828,-37.109,-49.805
1626.4658422329999,-212.40200000000002,-45.898,-29.785,-50.781000000000006
1626.4658422370003,17.09,-35.645,-21.484,-12.695
1626.46584224,197.75400000000002,-28.32,-23.438000000000002,11.23
1626.465842244,-56.152,-38.574,-39.062,-38.086
1626.465842248,-231.445,-41.016000000000005,-30.761999999999997,-57.617
1626.4658422520001,-67.383,-33.203,-19.531,-31.25
1626.465842256,181.15200000000002,-34.18,-18.066,2.441
1626.4658422710002,37.598,-39.551,-39.551,-20.508000000000003
1626.465842275,-200.195,-37.598,-30.761999999999997,-45.41
1626.465842279,-139.648,-31.738000000000003,-20.996,-41.016000000000005
1626.465842283,124.023,-29.785,-16.602,-5.859
1626.4658422870002,105.95700000000001,-36.133,-37.109,-7.324
1626.4658422910002,-175.78099999999998,-49.316,-45.41,-51.27
1626.4658422950001,-193.84799999999998,-45.898,-36.133,-50.781000000000006
1626.4658422979999,50.781000000000006,-36.133,-27.831999999999997,-22.949
1626.465842302,163.086,-37.598,-32.227,-2.93
1626.465842306,-102.539,-40.039,-41.016000000000005,-35.645
1626.46584231,-217.773,-36.621,-44.922,-50.781000000000006
1626.465842314,-16.113,-28.32,-32.227,-27.344
1626.465842316,192.87099999999998,-23.438000000000002,-21.973000000000003,4.395
1626.4658423199999,-29.785,-32.715,-45.41,-34.18
1626.4658423239998,-231.445,-36.133,-38.574,-61.523
1626.4658423279998,-88.37899999999999,-30.761999999999997,-24.414,-36.621
1626.465842332,170.41,-32.227,-26.855,1.465
1626.465842336,61.035,-33.203,-40.039,-24.414
1626.4658423399999,-187.012,-35.645,-31.738000000000003,-48.828
1626.4658423429998,-156.738,-35.645,-26.855,-40.527
1626.465842347,97.16799999999999,-38.574,-25.391,-18.066
1626.465842351,122.07,-39.062,-36.621,-19.531
1626.465842355,-158.691,-33.203,-37.598,-57.129
1626.465842359,-210.449,-38.086,-35.156,-56.641000000000005
1626.4658423620003,32.227,-38.086,-26.855,-21.484
1626.4658423660003,170.41,-35.156,-35.156,-3.906
1626.4658423699998,-89.355,-36.621,-43.945,-50.293
1626.4658423739997,-211.91400000000002,-35.156,-27.344,-53.223
1626.4658423779997,-32.227,-33.203,-25.879,-26.366999999999997
1626.4658423820001,174.31599999999997,-28.809,-34.18,-1.953
1626.465842386,-20.02,-35.645,-47.363,-37.109
1626.465842389,-229.49200000000002,-38.574,-38.086,-62.988
1626.4658423929998,-122.07,-41.016000000000005,-34.18,-46.875
1626.4658423970002,141.602,-37.109,-28.809,-2.93
1626.465842401,56.641000000000005,-38.574,-39.062,-21.484
1626.4658424049999,-203.613,-43.945,-34.18,-60.547
1626.465842406,-178.71099999999998,-39.062,-29.785,-54.199
1626.46584241,90.33200000000001,-26.855,-25.879,-24.414
1626.465842414,148.438,-30.273000000000003,-34.18,-13.672
1626.465842418,-144.531,-41.992,-39.551,-52.246
1626.4658424220002,-220.215,-40.527,-32.227,-59.082
1626.465842426,11.719000000000001,-38.574,-22.461,-24.414
1626.46584243,172.363,-40.527,-29.296999999999997,0.977
1626.4658424329998,-86.426,-46.875,-42.968999999999994,-41.992
1626.465842437,-244.62900000000002,-52.246,-33.203,-58.593999999999994
1626.465842441,-59.082,-43.457,-20.996,-32.227
1626.465842445,182.61700000000002,-29.785,-22.949,0.488
1626.4658424489999,-0.488,-43.457,-39.551,-35.156
1626.465842451,-230.957,-51.27,-36.133,-65.918
1626.465842455,-141.602,-40.039,-22.461,-52.246
1626.4658424589998,132.32399999999998,-30.273000000000003,-10.254000000000001,-10.254000000000001
1626.4658424629997,83.49600000000001,-34.18,-35.645,-26.366999999999997
1626.465842467,-199.707,-38.086,-38.574,-69.336
1626.4658424709999,-194.824,-32.715,-26.855,-58.593999999999994
1626.4658424749998,59.57,-31.25,-22.461,-29.296999999999997
1626.465842478,139.16,-35.156,-36.621,-20.508000000000003
1626.4658424820002,-141.113,-46.387,-43.945,-64.453
1626.4658424860002,-227.051,-43.457,-34.18,-71.777
1626.46584249,5.371,-31.25,-26.855,-36.621
1626.465842494,190.43,-23.926,-33.203,-5.371
1626.4658424989998,-53.223,-30.273000000000003,-46.875,-45.41
1626.4658425029997,-228.516,-30.761999999999997,-40.527,-64.941
1626.4658425070002,-80.078,-28.32,-35.645,-46.387
1626.4658425110001,169.922,-26.855,-30.273000000000003,-8.301
1626.465842515,28.32,-34.668,-43.457,-30.273000000000003
1626.465842519,-200.68400000000003,-33.691,-26.366999999999997,-55.663999999999994
1626.4658425229998,-131.836,-35.156,-23.926,-39.062
1626.465842526,124.023,-37.598,-31.25,-5.371
1626.46584253,117.676,-27.344,-41.016000000000005,-9.277000000000001
1626.4658425339999,-166.50400000000002,-33.691,-38.574,-51.27
1626.4658425379998,-197.266,-37.598,-26.855,-52.733999999999995
1626.465842542,49.316,-35.156,-20.996,-20.996
1626.465842541,160.156,-35.645,-27.831999999999997,-5.371
1626.465842545,-104.492,-44.434,-39.062,-41.992
1626.465842549,-214.355,-42.48,-33.691,-48.34
1626.465842553,-12.695,-34.668,-27.344,-26.366999999999997
1626.465842557,188.477,-31.738000000000003,-35.156,-2.93
1626.465842561,-33.691,-35.156,-49.316,-38.574
1626.465842565,-232.91,-46.875,-43.945,-62.988
1626.4658425679997,-96.191,-41.016000000000005,-36.133,-42.968999999999994
1626.465842572,172.852,-22.461,-27.344,1.953
1626.465842576,57.129,-30.761999999999997,-48.34,-18.066
1626.4658425799998,-205.56599999999997,-36.133,-44.434,-55.663999999999994
1626.4658425839998,-159.18,-32.715,-31.25,-48.828
1626.4658425879998,114.74600000000001,-27.344,-25.879,-9.766
1626.465842592,128.418,-33.691,-43.945,-12.207
1626.465842596,-154.785,-46.875,-39.551,-54.688
1626.4658425999999,-201.172,-46.875,-32.715,-55.663999999999994
1626.4658426039998,44.922,-31.25,-26.855,-15.625
1626.4658426079998,187.988,-23.926,-28.32,6.836
1626.4658426120002,-89.355,-37.109,-41.016000000000005,-44.922
1626.465842615,-223.63299999999998,-42.968999999999994,-31.738000000000003,-55.176
1626.465842619,-35.156,-40.527,-18.555,-24.414
1626.4658426229998,175.293,-44.922,-20.02,-5.371
1626.465842627,-20.508000000000003,-49.805,-37.598,-41.016000000000005
1626.465842631,-219.727,-43.457,-27.831999999999997,-49.316
1626.465842646,-104.98,-34.668,-15.625,-32.715
1626.46584265,154.785,-27.831999999999997,-13.184000000000001,-8.789
1626.465842654,71.289,-30.273000000000003,-31.738000000000003,-21.973000000000003
1626.465842658,-193.84799999999998,-29.296999999999997,-26.366999999999997,-48.828
1626.4658426620001,-173.34,-27.344,-17.578,-41.016000000000005
1626.465842666,85.449,-29.785,-18.555,-16.602
1626.46584267,132.32399999999998,-37.109,-36.133,-11.23
1626.4658426729998,-148.92600000000002,-41.992,-37.598,-41.992
1626.465842677,-214.84400000000002,-42.48,-29.296999999999997,-45.898
1626.465842681,29.296999999999997,-39.551,-19.043,-11.23
1626.4658426849999,195.312,-31.25,-25.879,10.742
1626.4658426889998,-62.012,-32.715,-37.598,-30.273000000000003
1626.4658426920003,-217.285,-38.574,-27.344,-41.016000000000005
1626.4658426960002,-41.992,-31.738000000000003,-16.113,-15.625
1626.4658427,195.312,-20.996,-11.23,17.09
1626.465842704,11.23,-25.391,-37.598,-20.508000000000003
1626.4658427079999,-220.215,-33.691,-34.668,-49.805
1626.465842712,-119.62899999999999,-27.831999999999997,-23.438000000000002,-24.901999999999997
1626.465842716,156.25,-15.137,-17.578,16.113
1626.465842719,104.00399999999999,-20.508000000000003,-28.32,3.906
1626.465842723,-178.71099999999998,-37.598,-26.855,-37.109
1626.4658427270003,-182.61700000000002,-41.992,-23.438000000000002,-36.133
1626.4658427309998,79.102,-31.25,-15.137,-2.441
1626.4658427349998,160.156,-28.32,-20.996,2.93
1626.4658427370002,-121.094,-39.551,-23.438000000000002,-42.968999999999994
1626.4658427410002,-208.49599999999998,-37.109,-16.602,-47.852
1626.465842745,15.625,-29.296999999999997,-10.742,-17.578
1626.4658427489999,188.965,-36.621,-18.555,2.93
1626.4658427529998,-58.105,-53.711000000000006,-35.645,-37.109
1626.4658427570002,-224.12099999999998,-46.875,-30.273000000000003,-52.246
1626.4658427610002,-67.383,-30.273000000000003,-20.02,-32.227
1626.465842764,178.22299999999998,-21.973000000000003,-17.09,1.953
1626.465842768,27.344,-30.761999999999997,-37.598,-29.296999999999997
1626.465842772,-219.238,-38.574,-37.109,-69.824
1626.465842776,-147.94899999999998,-31.738000000000003,-25.879,-54.688
1626.46584278,136.23,-24.414,-16.602,-12.207
1626.4658427810002,123.04700000000001,-31.738000000000003,-35.156,-13.184000000000001
1626.4658427850002,-160.156,-38.574,-39.551,-41.504
1626.4658427890001,-185.547,-35.156,-33.691,-44.434
1626.465842793,66.895,-25.879,-24.414,-17.09
1626.4658427970003,164.062,-21.484,-37.109,-8.789
1626.465842801,-122.559,-32.715,-42.968999999999994,-65.918
1626.465842805,-215.82,-35.156,-33.203,-70.312
1626.465842808,-11.23,-29.785,-36.133,-39.551
1626.4658428120001,179.688,-31.738000000000003,-38.086,-10.254000000000001
1626.465842816,-38.574,-40.527,-44.434,-41.016000000000005
1626.46584282,-225.58599999999998,-37.109,-31.738000000000003,-64.941
1626.465842824,-86.426,-27.831999999999997,-29.785,-45.898
1626.4658428270002,168.457,-21.484,-31.738000000000003,-13.184000000000001
1626.4658428310001,47.852,-24.901999999999997,-43.945,-36.133
1626.465842835,-200.68400000000003,-28.809,-38.086,-62.988
1626.465842839,-149.414,-27.344,-36.133,-53.223
1626.465842843,108.398,-22.949,-37.598,-20.996
1626.4658428470002,121.58200000000001,-25.391,-48.828,-19.531
1626.4658428510002,-155.273,-33.203,-43.457,-60.059
1626.465842854,-213.37900000000002,-37.598,-40.039,-69.336
1626.4658428579999,22.461,-34.668,-36.621,-41.504
1626.4658428620003,155.762,-25.879,-39.551,-16.113
1626.4658428660002,-105.95700000000001,-29.296999999999997,-46.387,-48.34
1626.46584287,-220.703,-40.527,-39.062,-56.152
1626.465842873,-21.973000000000003,-35.645,-35.156,-30.761999999999997
1626.4658428770001,194.33599999999998,-22.949,-33.203,6.348
1626.465842881,-7.324,-30.761999999999997,-45.898,-27.344
1626.465842885,-214.355,-35.156,-37.109,-49.805
1626.465842889,-97.16799999999999,-23.438000000000002,-29.785,-28.809
1626.465842893,170.898,-18.066,-23.926,5.371
1626.4658428970001,80.078,-30.273000000000003,-41.992,-18.066
1626.4658429,-187.012,-37.598,-44.434,-56.641000000000005
1626.465842904,-160.645,-32.715,-38.086,-42.48
1626.465842908,101.56200000000001,-31.25,-30.273000000000003,-6.348
1626.4658429120002,133.789,-31.25,-39.551,-1.465
1626.4658429160002,-158.691,-40.527,-46.387,-43.457
1626.4658429160002,-220.703,-42.968999999999994,-36.621,-50.781000000000006
1626.4658429200001,20.996,-32.227,-18.555,-14.648
1626.465842924,176.27,-30.761999999999997,-26.366999999999997,5.371
1626.465842928,-88.37899999999999,-42.968999999999994,-44.434,-41.992
1626.4658429320002,-236.328,-44.434,-33.203,-53.711000000000006
1626.4658429360002,-47.852,-32.227,-19.043,-27.344
1626.4658429400001,186.035,-35.645,-30.273000000000003,1.953
1626.4658429429999,-5.371,-42.968999999999994,-51.758,-32.227
1626.465842947,-231.445,-37.109,-36.133,-59.082
1626.465842951,-129.395,-30.761999999999997,-24.414,-44.922
1626.465842955,138.672,-33.691,-20.02,-12.695
1626.465842959,71.777,-40.039,-41.504,-25.391
1626.4658429649999,-198.24200000000002,-36.621,-34.668,-57.129
1626.4658429689998,-181.641,-32.715,-26.366999999999997,-50.293
1626.4658429729998,74.219,-28.809,-24.414,-21.484
1626.4658429770002,140.625,-30.761999999999997,-38.086,-19.043
1626.465842981,-149.90200000000002,-44.434,-46.387,-65.918
1626.4658429849999,-236.81599999999997,-41.504,-36.133,-72.266
1626.4658429889998,-12.695,-38.574,-28.809,-36.133
1626.465842992,173.34,-35.156,-25.879,-0.977
1626.465842996,-58.105,-35.156,-32.715,-36.621
1626.465843,-225.09799999999998,-41.992,-34.18,-59.082
1626.465843004,-67.87100000000001,-40.527,-30.273000000000003,-36.621
1626.4658430079999,180.66400000000002,-30.761999999999997,-26.366999999999997,-1.465
1626.4658430210002,32.227,-30.273000000000003,-45.898,-31.25
1626.4658430250001,-215.332,-43.945,-38.086,-65.43
1626.465843029,-143.066,-41.992,-25.391,-55.176
1626.465843033,131.836,-32.715,-20.508000000000003,-18.555
1626.4658430370002,112.305,-36.133,-37.109,-26.366999999999997
1626.4658430410002,-163.57399999999998,-35.156,-39.062,-60.547
1626.4658430450002,-185.05900000000003,-38.086,-33.203,-57.617
1626.465843048,69.824,-37.109,-23.438000000000002,-22.461
1626.465843052,167.96900000000002,-31.25,-33.203,-13.184000000000001
1626.465843056,-113.281,-41.504,-39.062,-58.105
1626.46584306,-219.727,-46.387,-30.273000000000003,-65.918
1626.465843064,-15.137,-41.016000000000005,-26.855,-39.062
1626.465843066,184.082,-33.203,-25.391,-13.184000000000001
1626.46584307,-41.016000000000005,-37.598,-35.156,-51.758
1626.4658430739998,-225.09799999999998,-39.551,-28.809,-68.848
1626.4658430779998,-85.449,-31.25,-21.973000000000003,-49.805
1626.465843082,163.57399999999998,-31.738000000000003,-21.973000000000003,-18.066
1626.465843086,40.039,-43.457,-40.527,-37.598
1626.46584309,-210.449,-45.41,-36.621,-64.941
1626.4658430929999,-155.273,-33.691,-37.109,-56.641000000000005
1626.465843097,126.465,-30.761999999999997,-28.32,-6.836
1626.465843101,116.211,-39.062,-35.156,-11.719000000000001
1626.465843105,-177.734,-43.945,-36.621,-67.383
1626.465843109,-191.895,-36.621,-21.484,-50.293
1626.4658431110001,54.199,-29.296999999999997,-8.301,-11.23
1626.465843115,165.03900000000002,-43.945,-18.555,3.906
1626.465843119,-104.00399999999999,-54.688,-17.09,-34.668
1626.465843123,-214.355,-54.688,-6.348,-39.551
1626.4658431270002,-34.18,-61.523,-6.348,-13.184000000000001
1626.465843131,179.688,-54.688,0.977,18.066
1626.465843135,-17.578,-59.082,-6.836,-2.441
1626.4658431379999,-221.68,-67.87100000000001,1.953,-19.531
1626.4658431420003,-112.79299999999999,-73.73,8.789,-10.742
1626.4658431460002,150.879,-66.406,16.602,30.761999999999997
1626.4658431500002,64.453,-67.383,0.977,18.066
1626.4658431540001,-214.84400000000002,-83.49600000000001,-3.418,-25.391
1626.4658431560001,-181.15200000000002,-75.684,2.93,-26.366999999999997
1626.46584316,89.844,-60.547,14.648,10.742
1626.465843164,130.859,-62.012,-6.836,12.695
1626.465843168,-145.996,-72.75399999999999,-14.16,-25.879
1626.4658431720002,-207.03099999999998,-70.312,-2.93,-24.414
1626.4658431760001,34.18,-56.152,3.906,10.254000000000001
1626.46584318,197.75400000000002,-46.387,-1.465,42.48
1626.4658431829998,-65.43,-58.105,-13.672,0.488
1626.465843187,-219.727,-62.988,-9.766,-20.996
1626.465843191,-43.945,-48.34,0.488,4.395
1626.465843195,188.965,-39.551,3.906,39.062
1626.465843199,13.672,-46.875,-12.695,6.836
1626.4658432029998,-209.96099999999998,-52.733999999999995,-6.836,-20.996
1626.465843207,-110.352,-50.293,-6.348,-6.836
1626.465843211,165.03900000000002,-44.922,-3.906,35.645
1626.465843215,93.262,-51.27,-25.391,17.09
1626.465843219,-182.61700000000002,-57.617,-25.391,-27.831999999999997
1626.4658432229999,-166.99200000000002,-50.293,-10.742,-24.414
1626.4658432270003,84.473,-43.945,-2.441,10.742
1626.46584323,152.832,-44.922,-15.137,19.043
1626.465843234,-118.652,-49.316,-20.02,-22.949
1626.465843238,-201.66,-45.41,-19.531,-30.273000000000003
1626.4658432420001,22.949,-38.574,-14.16,-0.488
1626.465843246,208.49599999999998,-37.109,-15.625,28.809
1626.4658432479998,-32.227,-43.945,-31.25,-15.137
1626.465843252,-202.637,-43.945,-20.508000000000003,-30.273000000000003
1626.465843256,-52.733999999999995,-39.062,-15.137,-17.09
1626.46584326,187.5,-35.645,-12.695,8.301
1626.465843264,37.598,-44.922,-32.715,-13.184000000000001
1626.4658432679998,-188.477,-49.316,-29.785,-35.645
1626.465843272,-111.816,-50.293,-26.366999999999997,-26.366999999999997
1626.465843275,142.578,-48.34,-28.809,2.441
1626.465843279,113.281,-46.387,-37.598,-3.418
1626.465843283,-169.43400000000003,-45.898,-34.668,-37.598
1626.465843287,-180.66400000000002,-35.645,-20.996,-28.809
1626.465843291,68.359,-32.227,-12.207,-7.324
1626.465843292,158.203,-41.992,-26.366999999999997,-3.418
1626.465843296,-113.281,-47.363,-27.344,-36.133
1626.4658433,-219.238,-44.434,-20.508000000000003,-49.805
1626.465843304,-10.742,-42.968999999999994,-20.996,-29.296999999999997
1626.4658433079999,169.922,-42.48,-24.414,-4.395
1626.465843312,-64.453,-47.852,-36.621,-47.852
1626.465843316,-237.793,-52.246,-32.227,-56.152
1626.465843319,-72.75399999999999,-43.457,-32.227,-20.508000000000003
1626.465843323,186.523,-34.668,-33.691,5.371
1626.4658433270001,46.875,-37.109,-49.805,-32.715
1626.465843331,-199.21900000000002,-46.875,-41.016000000000005,-63.965
1626.465843335,-151.36700000000002,-41.992,-37.598,-55.663999999999994
1626.4658433379998,104.98,-25.879,-35.645,-30.273000000000003
1626.465843342,115.234,-23.926,-48.34,-35.156
1626.465843346,-171.875,-34.18,-53.711000000000006,-81.055
1626.46584335,-215.332,-31.25,-46.875,-82.031
1626.4658433539998,31.738000000000003,-23.926,-36.133,-44.922
1626.4658433579998,152.832,-27.344,-51.758,-30.273000000000003
1626.4658433620002,-114.258,-34.668,-68.359,-75.684
1626.465843365,-226.074,-39.551,-55.176,-78.613
1626.465843369,-30.273000000000003,-35.156,-46.387,-43.457
1626.4658433729999,181.641,-27.344,-49.316,-12.695
1626.465843377,-25.391,-29.785,-65.43,-52.246
1626.465843381,-221.68,-35.156,-52.733999999999995,-68.359
1626.465843396,-96.68,-37.109,-44.434,-39.551
1626.4658434,161.13299999999998,-27.344,-40.527,-5.859
1626.465843404,65.918,-23.926,-50.781000000000006,-26.855
1626.465843408,-203.125,-29.785,-46.387,-61.035
1626.4658434120001,-187.012,-40.527,-36.133,-55.176
1626.465843416,82.031,-35.645,-31.738000000000003,-20.508000000000003
1626.46584342,119.141,-30.761999999999997,-55.176,-19.531
1626.4658434229998,-176.75799999999998,-39.551,-59.57,-75.684
1626.465843427,-227.53900000000002,-40.527,-49.316,-76.66
1626.465843431,14.16,-33.203,-38.574,-40.039
1626.465843435,151.855,-30.761999999999997,-46.387,-31.25
1626.4658434389999,-93.75,-33.203,-56.641000000000005,-63.965
1626.465843441,-215.332,-28.809,-44.922,-70.312
1626.465843445,-31.738000000000003,-23.926,-42.968999999999994,-44.434
1626.465843449,190.43,-18.555,-49.316,-16.113
1626.465843453,10.254000000000001,-22.461,-56.641000000000005,-46.875
1626.4658434570001,-207.03099999999998,-32.227,-46.875,-65.918
1626.465843461,-109.375,-31.738000000000003,-31.738000000000003,-44.922
1626.4658434649998,150.879,-28.32,-25.391,-7.812
1626.465843468,77.637,-34.668,-49.316,-29.296999999999997
1626.4658434720002,-192.87099999999998,-38.574,-44.922,-64.941
1626.4658434760001,-177.24599999999998,-32.715,-33.691,-53.711000000000006
1626.46584348,83.008,-24.901999999999997,-25.391,-19.043
1626.465843484,150.391,-23.926,-42.48,-15.137
1626.465843486,-123.04700000000001,-28.32,-41.992,-55.176
1626.46584349,-204.102,-35.645,-32.715,-63.477
1626.465843494,18.066,-30.273000000000003,-31.738000000000003,-40.527
1626.465843498,190.918,-24.901999999999997,-34.18,-20.02
1626.465843502,-53.711000000000006,-39.062,-41.504,-55.176
1626.465843506,-213.86700000000002,-40.039,-32.715,-62.5
1626.46584351,-59.57,-34.18,-26.855,-44.434
1626.4658435129998,170.41,-37.109,-23.438000000000002,-15.137
1626.4658435170002,21.973000000000003,-38.086,-42.968999999999994,-39.062
1626.4658435210001,-203.613,-38.574,-35.645,-56.152
1626.465843525,-127.93,-37.109,-24.901999999999997,-38.574
1626.465843529,133.789,-27.831999999999997,-20.508000000000003,-3.418
1626.4658435310002,99.12100000000001,-31.738000000000003,-35.156,-9.277000000000001
1626.465843535,-171.387,-42.968999999999994,-33.691,-42.48
1626.465843539,-181.15200000000002,-39.062,-27.831999999999997,-43.457
1626.465843543,61.035,-29.296999999999997,-23.926,-17.578
1626.465843547,152.832,-28.32,-31.25,-1.953
1626.465843551,-111.816,-31.25,-38.574,-44.434
1626.465843555,-201.66,-28.809,-38.574,-57.129
1626.465843558,-0.977,-28.32,-38.574,-33.203
1626.4658435620001,175.293,-29.785,-37.598,-7.324
1626.4658435659999,-44.922,-25.391,-43.945,-41.016000000000005
1626.4658435699998,-220.703,-31.25,-36.133,-62.012
1626.4658435739998,-90.82,-38.574,-34.18,-50.293
1626.465843576,143.555,-28.32,-31.738000000000003,-18.066
1626.46584358,24.414,-29.296999999999997,-42.968999999999994,-33.203
1626.465843584,-223.145,-38.086,-35.156,-62.5
1626.4658435879999,-179.199,-39.551,-25.391,-47.852
1626.465843592,84.961,-38.574,-24.901999999999997,-7.324
1626.465843596,85.93799999999999,-36.621,-33.203,-7.324
1626.4658436,-187.988,-39.062,-28.809,-46.875
1626.465843603,-216.30900000000003,-39.551,-26.855,-51.27
1626.4658436070001,21.484,-32.227,-23.926,-22.461
1626.465843611,142.09,-24.414,-29.785,-9.766
1626.465843615,-104.00399999999999,-28.809,-34.18,-49.316
1626.465843619,-224.609,-38.574,-30.761999999999997,-56.152
1626.4658436220002,-36.621,-36.621,-22.461,-35.156
1626.4658436260002,175.78099999999998,-32.715,-29.296999999999997,-7.324
1626.46584363,-27.344,-35.645,-46.875,-38.086
1626.4658436339998,-223.145,-37.109,-38.574,-59.57
1626.4658436379998,-109.375,-38.086,-31.738000000000003,-46.875
1626.4658436420002,149.90200000000002,-26.855,-23.926,-14.16
1626.4658436460002,59.57,-32.227,-41.016000000000005,-27.831999999999997
1626.465843649,-198.73,-40.039,-36.621,-61.523
1626.4658436529999,-165.52700000000002,-35.156,-23.926,-53.711000000000006
1626.465843657,90.82,-35.156,-25.879,-13.672
1626.465843661,117.676,-36.621,-43.457,-6.348
1626.465843665,-160.645,-40.039,-41.504,-47.852
1626.465843668,-214.355,-36.621,-35.156,-53.223
1626.4658436720001,18.066,-31.25,-25.879,-28.32
1626.465843676,166.016,-30.273000000000003,-33.691,-9.277000000000001
1626.46584368,-88.867,-39.062,-52.246,-49.316
1626.465843684,-219.727,-32.227,-44.922,-54.688
1626.465843688,-30.273000000000003,-28.32,-31.738000000000003,-25.391
1626.4658436920001,166.50400000000002,-42.48,-38.574,-12.207
1626.4658436949999,-32.227,-51.758,-49.805,-56.152
1626.4658436989998,-226.074,-44.434,-26.366999999999997,-70.801
1626.4658437029998,-123.04700000000001,-44.434,-20.02,-53.711000000000006
1626.465843707,136.23,-42.968999999999994,-19.531,-19.043
1626.465843711,78.613,-36.621,-30.761999999999997,-24.901999999999997
1626.465843713,-190.43,-42.968999999999994,-27.344,-58.593999999999994
1626.465843717,-188.477,-43.945,-20.02,-49.316
1626.465843721,78.125,-29.785,-15.137,-8.789
1626.465843725,142.578,-23.926,-29.296999999999997,0.488
1626.4658437289997,-145.02,-28.32,-33.203,-41.992
1626.4658437329997,-219.238,-38.574,-28.32,-51.758
1626.4658437370001,6.348,-43.945,-26.855,-21.973000000000003
1626.46584374,180.66400000000002,-36.133,-25.391,12.207
1626.465843744,-67.383,-41.992,-36.621,-33.203
1626.465843748,-229.98,-49.805,-36.133,-57.129
1626.4658437520002,-66.406,-41.992,-27.344,-29.785
1626.4658437560001,169.43400000000003,-31.25,-18.066,6.348
1626.4658437710002,9.277000000000001,-38.086,-38.574,-27.831999999999997
1626.4658437750002,-226.562,-43.945,-33.691,-53.223
1626.4658437790001,-134.766,-30.761999999999997,-14.16,-30.761999999999997
1626.465843783,144.531,-24.901999999999997,-13.184000000000001,1.465
1626.4658437870003,104.00399999999999,-27.344,-35.156,-10.742
1626.4658437910002,-176.75799999999998,-35.156,-33.691,-52.246
1626.4658437950002,-183.59400000000002,-41.504,-27.344,-51.27
1626.465843798,78.125,-28.32,-12.207,-11.719000000000001
1626.465843802,170.898,-31.738000000000003,-20.996,-2.93
1626.465843806,-111.32799999999999,-45.41,-30.761999999999997,-54.199
1626.46584381,-215.332,-42.968999999999994,-18.555,-51.758
1626.465843814,-6.348,-33.691,-15.625,-20.02
1626.465843816,181.641,-29.785,-22.461,0.977
1626.46584382,-49.316,-34.18,-33.203,-38.086
1626.4658438239999,-229.98,-35.156,-29.296999999999997,-57.617
1626.4658438279998,-86.914,-38.086,-20.996,-40.039
1626.465843832,166.016,-29.296999999999997,-16.602,0.488
1626.465843836,36.621,-32.715,-34.668,-25.879
1626.46584384,-212.891,-45.898,-29.296999999999997,-62.988
1626.465843843,-157.715,-37.598,-19.043,-48.34
1626.465843847,111.816,-34.668,-19.531,-9.277000000000001
1626.465843851,109.863,-36.621,-37.598,-18.066
1626.465843855,-169.922,-32.227,-38.086,-54.199
1626.465843859,-200.195,-37.109,-30.273000000000003,-50.293
1626.4658438620002,42.968999999999994,-38.086,-25.391,-20.996
1626.4658438660001,163.086,-31.738000000000003,-30.761999999999997,1.953
1626.4658438699998,-111.32799999999999,-35.156,-35.156,-45.898
1626.4658438739998,-229.00400000000002,-33.203,-31.25,-60.059
1626.4658438779998,-29.785,-33.203,-26.366999999999997,-33.691
1626.4658438820002,186.035,-28.32,-24.901999999999997,1.465
1626.4658438860001,-18.066,-25.391,-44.434,-27.831999999999997
1626.4658438889999,-214.84400000000002,-36.621,-42.48,-51.758
1626.4658438929998,-82.52,-39.551,-35.645,-34.668
1626.465843897,177.734,-27.344,-33.203,0.0
1626.465843901,72.75399999999999,-29.785,-47.852,-16.602
1626.465843905,-175.293,-33.203,-41.992,-49.316
1626.4658439070001,-128.418,-27.344,-32.715,-49.316
1626.465843911,129.395,-29.296999999999997,-24.901999999999997,-12.207
1626.465843915,151.36700000000002,-32.715,-37.598,-7.324
1626.465843919,-137.207,-35.156,-41.992,-50.781000000000006
1626.465843923,-199.21900000000002,-34.18,-36.133,-45.898
1626.4658439270002,36.133,-28.809,-22.949,-12.695
1626.4658439309999,184.082,-27.831999999999997,-27.831999999999997,2.441
1626.465843934,-74.707,-35.645,-41.016000000000005,-41.992
1626.465843938,-219.238,-38.574,-31.25,-50.293
1626.4658439420002,-38.574,-32.227,-27.831999999999997,-21.484
1626.4658439460002,193.84799999999998,-24.414,-25.879,6.836
1626.4658439500001,10.254000000000001,-29.785,-38.574,-28.32
1626.465843951,-209.47299999999998,-42.48,-36.621,-53.223
1626.4658439549999,-104.492,-35.645,-24.901999999999997,-30.761999999999997
1626.4658439589998,157.715,-31.738000000000003,-17.09,5.859
1626.4658439629998,82.031,-46.387,-34.668,-7.812
1626.465843967,-182.12900000000002,-38.086,-35.156,-48.34
1626.465843971,-167.96900000000002,-23.926,-32.715,-44.434
1626.4658439749999,99.12100000000001,-26.366999999999997,-31.738000000000003,-6.348
1626.4658439779998,159.18,-35.156,-46.387,-3.418
1626.465843982,-125.0,-36.621,-48.34,-44.434
1626.465843986,-184.57,-31.25,-34.18,-38.086
1626.46584399,38.086,-32.715,-30.761999999999997,-11.719000000000001
1626.465843994,192.38299999999998,-28.32,-36.133,11.23
1626.4658439979999,-51.758,-33.203,-42.968999999999994,-25.879
1626.465844002,-201.66,-37.598,-36.621,-41.016000000000005
1626.465844006,-33.203,-33.691,-24.901999999999997,-11.719000000000001
1626.46584401,192.87099999999998,-33.203,-26.366999999999997,17.578
1626.465844014,12.695,-41.992,-47.363,-22.949
1626.4658440179999,-205.56599999999997,-40.039,-37.109,-46.387
1626.465844022,-112.79299999999999,-34.18,-24.901999999999997,-23.926
1626.465844025,157.227,-24.901999999999997,-20.508000000000003,12.695
1626.465844029,118.652,-28.809,-38.086,-4.883
1626.465844033,-157.227,-37.109,-30.273000000000003,-44.434
1626.4658440370001,-161.13299999999998,-37.598,-28.809,-36.133
1626.465844041,97.16799999999999,-28.809,-27.344,-3.906
1626.465844041,189.453,-26.366999999999997,-34.668,12.207
1626.465844045,-90.33200000000001,-36.133,-41.992,-30.761999999999997
1626.465844049,-179.199,-30.761999999999997,-27.344,-40.527
1626.465844053,33.691,-23.926,-20.508000000000003,-6.836
1626.4658440570001,194.824,-23.438000000000002,-22.461,16.113
1626.465844061,-36.621,-30.273000000000003,-34.668,-31.25
1626.465844065,-196.77700000000002,-41.992,-36.133,-50.293
1626.4658440679998,-50.293,-38.574,-28.32,-23.926
1626.465844072,181.15200000000002,-36.133,-24.414,5.371
1626.465844076,37.598,-37.598,-41.992,-18.555
1626.46584408,-192.38299999999998,-29.296999999999997,-31.738000000000003,-38.574
1626.4658440839999,-126.465,-32.715,-22.949,-31.738000000000003
1626.465844089,134.766,-26.855,-12.207,1.953
1626.465844093,115.723,-22.461,-26.366999999999997,-0.977
1626.4658440970002,-165.52700000000002,-35.156,-27.344,-39.551
1626.4658441010001,-186.035,-38.086,-25.879,-36.621
1626.465844105,50.781000000000006,-32.227,-28.809,-16.113
1626.465844109,167.48,-30.273000000000003,-37.598,-6.348
1626.465844113,-90.33200000000001,-29.296999999999997,-52.246,-44.922
1626.4658441160002,-206.055,-30.273000000000003,-47.363,-53.223
1626.46584412,-10.254000000000001,-24.414,-34.668,-25.391
1626.465844124,183.105,-23.438000000000002,-28.809,3.418
1626.4658441279998,-32.715,-33.203,-36.133,-32.227
1626.4658441320003,-211.426,-31.25,-34.668,-49.316
1626.465844146,-84.961,-36.133,-34.668,-32.227
1626.46584415,154.785,-34.18,-31.738000000000003,-4.395
1626.465844154,52.246,-34.668,-48.828,-21.973000000000003
1626.465844158,-206.543,-41.504,-46.387,-56.152
1626.4658441620002,-183.105,-41.504,-37.598,-53.711000000000006
1626.4658441660001,82.52,-37.109,-38.086,-17.578
1626.46584417,119.141,-36.621,-55.176,-8.301
1626.4658441729998,-149.414,-34.18,-49.805,-37.109
1626.465844177,-193.359,-35.645,-35.156,-33.203
1626.465844181,35.156,-35.156,-27.831999999999997,-10.742
1626.465844185,160.645,-32.715,-39.062,0.977
1626.4658441889999,-91.79700000000001,-41.016000000000005,-49.316,-41.016000000000005
1626.465844192,-212.891,-38.086,-36.621,-45.898
1626.465844196,-33.203,-31.738000000000003,-34.668,-26.366999999999997
1626.4658442,177.24599999999998,-25.879,-38.574,-5.859
1626.465844204,-3.906,-26.855,-46.387,-33.203
1626.465844208,-203.125,-31.25,-40.527,-55.663999999999994
1626.465844212,-91.309,-28.809,-29.785,-34.668
1626.465844216,156.25,-27.344,-25.879,-4.883
1626.4658442189998,67.87100000000001,-34.668,-42.968999999999994,-22.461
1626.4658442229997,-195.312,-48.828,-36.621,-55.663999999999994
1626.4658442270002,-180.66400000000002,-48.828,-35.156,-53.711000000000006
1626.465844231,80.566,-30.761999999999997,-31.25,-13.184000000000001
1626.4658442349998,145.50799999999998,-28.809,-40.039,-6.348
1626.465844236,-127.93,-37.109,-46.387,-50.293
1626.46584424,-204.59,-31.738000000000003,-42.968999999999994,-50.293
1626.465844244,13.672,-26.366999999999997,-32.227,-20.508000000000003
1626.465844248,166.016,-30.273000000000003,-32.715,-3.906
1626.4658442520001,-87.402,-39.551,-40.527,-42.968999999999994
1626.465844256,-238.77,-44.922,-31.738000000000003,-59.082
1626.46584426,-72.266,-38.086,-30.761999999999997,-41.016000000000005
1626.4658442629998,149.414,-35.645,-36.133,-11.23
1626.4658442670002,-27.344,-55.176,-58.593999999999994,-48.828
1626.4658442710002,-244.62900000000002,-52.246,-43.457,-71.777
1626.465844275,-148.438,-40.527,-25.879,-51.758
1626.465844279,111.816,-41.504,-25.879,-20.996
1626.465844281,74.219,-42.48,-42.48,-25.391
1626.465844285,-184.082,-41.992,-38.086,-47.363
1626.465844289,-178.22299999999998,-40.039,-33.203,-47.852
1626.465844293,78.125,-34.668,-33.203,-19.043
1626.465844297,155.273,-40.039,-37.598,-0.488
1626.465844301,-118.164,-43.945,-38.574,-37.598
1626.465844305,-199.707,-30.761999999999997,-34.668,-44.922
1626.4658443079998,5.371,-31.738000000000003,-32.227,-24.901999999999997
1626.465844312,165.52700000000002,-33.691,-38.574,-12.207
1626.465844316,-66.895,-35.645,-51.27,-57.617
1626.4658443199999,-225.58599999999998,-38.086,-44.434,-72.266
1626.4658443239998,-75.195,-40.039,-41.992,-48.828
1626.4658443270002,160.156,-37.109,-43.945,-14.648
1626.4658443310002,20.996,-38.086,-57.129,-38.574
1626.465844335,-205.078,-42.968999999999994,-44.434,-65.918
1626.465844339,-142.578,-43.457,-38.574,-60.547
1626.4658443429998,110.84,-36.133,-29.296999999999997,-20.508000000000003
1626.465844347,107.91,-30.761999999999997,-35.156,-10.742
1626.465844351,-159.18,-42.968999999999994,-38.574,-45.898
1626.465844354,-195.312,-48.828,-36.621,-48.34
1626.465844358,47.852,-37.109,-34.18,-18.066
1626.4658443620003,159.18,-34.18,-42.48,-6.348
1626.4658443660003,-108.398,-42.48,-47.363,-50.781000000000006
1626.4658443699998,-212.40200000000002,-34.18,-34.18,-45.898
1626.465844375,-11.23,-25.391,-28.809,-18.066
1626.465844379,182.12900000000002,-26.366999999999997,-38.574,-3.906
1626.4658443829999,-36.621,-31.738000000000003,-49.316,-49.805
1626.465844387,-214.355,-31.25,-41.992,-64.941
1626.465844391,-90.33200000000001,-32.227,-44.922,-49.316
1626.465844395,159.18,-25.391,-43.457,-26.366999999999997
1626.465844399,50.293,-30.761999999999997,-58.105,-43.945
1626.4658444020001,-202.637,-42.968999999999994,-47.852,-67.383
1626.465844406,-150.391,-39.062,-32.227,-54.199
1626.46584441,112.79299999999999,-26.855,-25.879,-18.066
1626.465844414,124.023,-28.32,-42.48,-20.996
1626.465844418,-160.156,-33.203,-48.34,-59.082
1626.4658444160002,-209.47299999999998,-34.18,-36.133,-55.176
1626.4658444200002,20.508000000000003,-31.25,-30.273000000000003,-33.691
1626.4658444240001,161.621,-20.508000000000003,-41.016000000000005,-12.695
1626.465844428,-91.309,-32.227,-51.758,-47.363
1626.4658444320003,-222.168,-35.645,-36.133,-58.105
1626.465844436,-32.227,-26.366999999999997,-20.508000000000003,-31.738000000000003
1626.46584444,177.734,-35.156,-34.18,-11.23
1626.465844443,-23.926,-37.109,-48.828,-42.48
1626.465844447,-230.957,-42.968999999999994,-35.156,-58.593999999999994
1626.465844451,-110.84,-38.086,-24.414,-41.504
1626.465844455,148.92600000000002,-20.996,-18.066,-1.953
1626.465844459,67.383,-29.785,-35.156,-17.09
1626.465844478,-190.918,-39.551,-31.25,-58.593999999999994
1626.4658444820002,-172.363,-41.016000000000005,-29.785,-56.641000000000005
1626.4658444860002,87.891,-33.203,-26.366999999999997,-19.531
1626.46584449,130.859,-35.645,-39.551,-11.719000000000001
1626.465844494,-144.531,-46.387,-40.527,-53.711000000000006
1626.4658444979998,-203.613,-45.41,-31.25,-53.711000000000006
1626.465844502,18.066,-38.086,-29.785,-24.414
1626.4658445050002,169.43400000000003,-34.18,-32.715,-8.789
1626.465844509,-73.73,-41.504,-42.48,-48.828
1626.4658445129999,-222.65599999999998,-48.828,-37.109,-52.733999999999995
1626.4658445170003,-61.035,-42.48,-24.901999999999997,-30.761999999999997
1626.4658445210002,173.34,-30.761999999999997,-24.414,-3.418
1626.4658445210002,15.137,-37.109,-36.133,-22.949
1626.4658445250002,-197.266,-39.062,-26.366999999999997,-43.457
1626.4658445290002,-112.305,-33.691,-16.602,-28.809
1626.4658445329999,144.531,-28.32,-10.254000000000001,2.93
1626.465844537,95.215,-29.785,-30.761999999999997,-14.648
1626.465844541,-179.199,-35.156,-30.761999999999997,-54.688
1626.465844545,-185.05900000000003,-37.109,-27.831999999999997,-53.223
1626.465844548,72.266,-32.227,-22.949,-20.02
1626.4658445520001,157.227,-24.901999999999997,-29.296999999999997,-5.859
1626.465844556,-124.023,-35.645,-37.109,-47.363
1626.46584456,-217.773,-41.992,-32.715,-55.663999999999994
1626.4658445639998,3.906,-30.761999999999997,-20.508000000000003,-27.344
1626.465844566,175.78099999999998,-28.32,-23.926,-7.324
1626.46584457,-61.035,-34.18,-37.109,-47.363
1626.465844574,-226.074,-36.621,-31.25,-58.593999999999994
1626.4658445779999,-78.125,-38.086,-29.785,-38.574
1626.465844582,168.457,-36.133,-23.926,-7.812
1626.465844586,24.901999999999997,-37.109,-33.203,-27.831999999999997
1626.46584459,-210.938,-43.945,-27.831999999999997,-58.593999999999994
1626.465844593,-143.555,-42.48,-25.879,-54.199
1626.4658445970001,113.77,-39.062,-24.414,-20.02
1626.465844601,94.727,-44.922,-40.527,-30.273000000000003
1626.465844605,-182.12900000000002,-44.434,-40.039,-71.777
1626.465844609,-203.613,-37.598,-33.203,-69.824
1626.465844613,54.199,-32.227,-30.761999999999997,-32.227
1626.4658446170001,164.551,-29.785,-40.527,-23.438000000000002
1626.465844621,-110.84,-33.691,-47.363,-68.359
1626.465844625,-214.84400000000002,-41.504,-41.016000000000005,-71.289
1626.465844629,-20.508000000000003,-45.898,-37.598,-42.968999999999994
1626.465844633,185.05900000000003,-36.133,-31.25,-5.371
1626.4658446370001,-26.855,-38.086,-41.992,-39.062
1626.4658446400001,-219.238,-40.527,-38.086,-61.523
1626.465844644,-87.402,-37.598,-24.901999999999997,-45.898
1626.4658446479998,156.25,-36.621,-28.32,-20.508000000000003
1626.4658446520002,44.922,-38.086,-45.898,-41.504
1626.4658446560002,-203.613,-41.016000000000005,-37.109,-64.453
1626.4658446560002,-159.668,-40.039,-29.296999999999997,-50.781000000000006
1626.4658446600001,104.00399999999999,-35.156,-23.438000000000002,-18.066
1626.465844664,130.859,-32.715,-34.668,-18.066
1626.465844668,-154.297,-41.504,-34.18,-53.711000000000006
1626.4658446720002,-209.47299999999998,-42.968999999999994,-26.855,-50.781000000000006
1626.4658446760002,39.062,-31.738000000000003,-18.555,-20.02
1626.4658446800001,165.52700000000002,-29.785,-28.809,-6.836
1626.465844683,-105.469,-41.992,-40.039,-52.733999999999995
1626.465844687,-230.957,-46.875,-30.761999999999997,-60.059
1626.465844691,-42.48,-36.621,-22.949,-30.273000000000003
1626.465844695,174.805,-30.761999999999997,-23.926,-4.883
1626.465844699,-16.113,-38.086,-30.273000000000003,-32.227
1626.465844701,-218.262,-38.574,-19.043,-53.711000000000006
1626.4658447049999,-105.95700000000001,-38.086,-18.066,-41.016000000000005
1626.4658447089998,156.25,-31.25,-12.207,-4.883
1626.4658447129998,67.383,-37.109,-34.18,-24.901999999999997
1626.465844717,-198.24200000000002,-50.781000000000006,-38.574,-63.965
1626.465844721,-166.016,-39.551,-27.344,-54.688
1626.465844725,95.70299999999999,-33.691,-19.043,-15.625
1626.4658447279999,133.30100000000002,-48.34,-34.668,-10.742
1626.465844732,-153.32,-50.293,-40.527,-47.363
1626.465844736,-215.82,-39.062,-28.809,-51.27
1626.46584474,4.883,-33.203,-19.043,-20.996
1626.465844744,160.156,-30.761999999999997,-24.414,0.0
1626.4658447489999,-82.031,-35.156,-39.551,-45.898
1626.4658447529998,-240.234,-44.922,-34.18,-63.965
1626.4658447570002,-71.777,-47.363,-21.973000000000003,-37.109
1626.4658447610002,168.457,-36.621,-18.555,-2.93
1626.4658447650002,-4.395,-43.945,-40.527,-33.691
1626.4658447690001,-228.02700000000002,-49.805,-31.25,-62.012
1626.4658447729998,-131.34799999999998,-45.41,-26.855,-43.945
1626.465844776,139.648,-38.574,-31.25,-3.906
1626.46584478,95.70299999999999,-41.504,-42.968999999999994,-17.09
1626.465844784,-180.66400000000002,-47.852,-33.691,-49.316
1626.465844788,-180.66400000000002,-42.48,-26.366999999999997,-42.48
1626.465844792,82.52,-38.574,-28.809,-14.648
1626.465844792,162.59799999999998,-33.691,-38.086,0.488
1626.465844796,-112.305,-33.691,-40.527,-36.621
1626.4658448,-192.38299999999998,-31.738000000000003,-28.809,-41.016000000000005
1626.465844804,29.785,-32.227,-24.901999999999997,-11.23
1626.465844808,196.77700000000002,-32.227,-28.32,7.812
1626.4658448120001,-41.504,-32.227,-38.086,-33.203
1626.465844816,-219.727,-46.875,-38.574,-47.852
1626.465844819,-64.941,-46.875,-33.691,-22.949
1626.465844823,166.99200000000002,-25.879,-30.273000000000003,-3.906
1626.4658448270002,-3.418,-28.809,-50.293,-48.34
1626.4658448310001,-241.21099999999998,-43.945,-44.434,-80.566
1626.465844835,-169.43400000000003,-44.922,-35.645,-78.613
1626.465844839,96.68,-32.715,-33.691,-46.875
1626.465844843,77.637,-36.621,-50.293,-52.246
1626.4658448470002,-197.266,-42.968999999999994,-45.898,-87.402
1626.4658448510002,-220.703,-36.133,-36.621,-79.59
1626.4658448550001,30.761999999999997,-37.109,-30.761999999999997,-37.109
1626.465844859,134.27700000000002,-41.504,-45.41,-26.855
1626.465844863,-136.719,-48.828,-57.617,-79.102
1626.4658448660002,-235.84,-44.922,-43.457,-78.125
1626.46584487,-25.391,-37.598,-33.203,-47.852
1626.465844874,172.852,-36.133,-38.086,-25.879
1626.4658448779999,-43.945,-39.551,-43.945,-62.5
1626.4658448820003,-229.49200000000002,-41.992,-38.574,-85.449
1626.4658448960001,-102.539,-40.527,-43.945,-70.801
1626.4658449,137.207,-35.645,-41.504,-42.48
1626.465844904,26.855,-35.156,-51.27,-61.523
1626.465844908,-209.96099999999998,-34.18,-40.527,-76.66
1626.4658449120002,-155.762,-36.621,-28.32,-50.293
1626.4658449160002,86.914,-41.016000000000005,-35.645,-24.901999999999997
1626.46584492,85.449,-46.387,-54.688,-31.25
1626.4658449229998,-171.875,-45.898,-41.504,-57.129
1626.465844927,-206.055,-45.41,-33.203,-53.223
1626.465844931,24.901999999999997,-42.48,-32.227,-28.32
1626.465844935,150.391,-39.062,-39.062,-12.695
1626.465844939,-103.516,-46.387,-40.527,-47.852
1626.465844941,-219.727,-49.316,-30.761999999999997,-57.129
1626.4658449449998,-28.32,-40.527,-31.25,-39.062
1626.4658449489998,173.34,-33.691,-35.645,-13.672
1626.4658449529998,-24.901999999999997,-41.992,-49.805,-39.062
1626.465844957,-210.449,-39.062,-35.156,-55.176
1626.465844961,-93.262,-28.32,-23.438000000000002,-36.133
1626.4658449649999,150.879,-26.366999999999997,-23.438000000000002,-5.859
1626.4658449679998,70.312,-35.645,-34.668,-22.949
1626.465844972,-180.176,-47.363,-33.691,-54.688
1626.465844976,-166.99200000000002,-50.293,-29.296999999999997,-53.223
1626.46584498,88.37899999999999,-38.086,-21.484,-22.461
1626.465844984,137.695,-24.414,-31.25,-18.555
1626.465844986,-128.906,-27.344,-24.414,-48.828
1626.46584499,-187.988,-30.761999999999997,-20.02,-38.086
1626.465844994,36.621,-21.973000000000003,-20.02,-17.09
1626.465844998,183.105,-23.926,-21.973000000000003,-7.324
1626.4658450020002,-67.87100000000001,-41.504,-36.621,-46.875
1626.465845006,-207.52,-39.551,-25.391,-53.223
1626.46584501,-31.25,-27.344,-17.578,-24.414
1626.4658450129998,175.293,-28.32,-25.391,-3.906
1626.4658450170002,3.906,-33.691,-34.18,-30.273000000000003
1626.4658450210002,-192.38299999999998,-38.574,-31.25,-47.363
1626.4658450250001,-101.56200000000001,-38.574,-30.273000000000003,-39.062
1626.465845029,151.855,-32.227,-29.785,-6.836
1626.4658450339998,98.145,-37.109,-42.968999999999994,-17.09
1626.4658450379998,-156.738,-41.992,-38.574,-46.387
1626.465845042,-149.414,-40.527,-34.668,-43.457
1626.465845046,98.145,-39.551,-30.273000000000003,-21.973000000000003
1626.4658450499999,151.36700000000002,-41.504,-41.016000000000005,-18.555
1626.4658450539998,-119.62899999999999,-41.992,-42.968999999999994,-53.223
1626.4658450579998,-192.87099999999998,-40.527,-44.434,-58.593999999999994
1626.4658450610002,9.766,-37.598,-45.41,-36.621
1626.4658450650002,168.945,-30.761999999999997,-46.387,-14.648
1626.465845069,-68.848,-40.039,-51.758,-50.293
1626.4658450729999,-223.63299999999998,-46.387,-34.668,-58.593999999999994
1626.465845077,-60.059,-36.133,-25.391,-37.109
1626.4658450929999,171.875,-34.18,-26.855,-12.207
1626.465845097,20.02,-39.551,-41.992,-37.598
1626.465845101,-206.055,-39.551,-32.227,-58.105
1626.465845105,-127.93,-39.551,-28.809,-40.039
1626.465845109,128.418,-32.715,-24.901999999999997,-9.277000000000001
1626.465845113,106.445,-29.296999999999997,-29.785,-19.043
1626.465845117,-163.086,-42.48,-30.273000000000003,-59.57
1626.4658451199998,-187.012,-46.387,-26.855,-56.641000000000005
1626.4658451239998,47.363,-38.574,-27.344,-28.32
1626.4658451279997,145.996,-33.691,-35.156,-13.184000000000001
1626.4658451320001,-111.816,-41.016000000000005,-34.668,-45.898
1626.465845136,-213.37900000000002,-39.062,-36.133,-53.223
1626.4658451220002,-9.277000000000001,-29.785,-28.32,-23.926
1626.4658451260002,184.082,-28.32,-24.414,9.277000000000001
1626.4658451300002,-37.109,-39.551,-39.551,-26.855
1626.465845134,-214.84400000000002,-41.016000000000005,-32.227,-48.828
1626.4658451379998,-83.49600000000001,-38.086,-24.901999999999997,-33.691
1626.4658451420003,150.879,-37.598,-26.855,-6.836
1626.4658451460002,29.296999999999997,-40.527,-44.922,-26.366999999999997
1626.465845149,-207.03099999999998,-47.363,-34.668,-48.34
1626.465845153,-155.273,-43.945,-28.809,-41.992
1626.465845157,95.215,-35.645,-26.366999999999997,-14.16
1626.465845161,93.262,-43.457,-41.504,-19.531
1626.465845165,-168.457,-46.875,-41.016000000000005,-48.828
1626.4658451660002,-189.94099999999997,-34.668,-30.273000000000003,-34.18
1626.46584517,34.18,-33.691,-28.32,-9.277000000000001
1626.465845174,149.90200000000002,-37.598,-34.668,1.953
1626.4658451779999,-100.586,-43.457,-41.016000000000005,-37.598
1626.465845182,-221.68,-41.992,-30.761999999999997,-45.898
1626.465845186,-34.18,-30.761999999999997,-23.926,-21.484
1626.46584519,162.109,-30.761999999999997,-37.109,0.0
1626.465845193,-29.296999999999997,-35.645,-50.781000000000006,-34.668
1626.4658451970001,-211.426,-35.156,-35.156,-51.758
1626.4658452009999,-102.051,-39.551,-33.203,-30.273000000000003
1626.4658452049998,149.414,-35.645,-31.25,0.488
1626.4658452089998,64.453,-32.715,-39.062,-22.949
1626.4658452129997,-188.965,-33.691,-34.18,-51.27
1626.465845217,-159.668,-28.32,-30.273000000000003,-42.48
1626.4658452209999,91.79700000000001,-22.949,-24.414,-10.254000000000001
1626.4658452249998,122.559,-32.227,-32.715,-7.324
1626.4658452289998,-155.762,-47.363,-35.645,-51.758
1626.4658452329998,-209.96099999999998,-41.992,-29.296999999999997,-52.246
1626.4658452370002,15.625,-36.621,-23.438000000000002,-27.831999999999997
1626.46584524,155.762,-33.691,-29.296999999999997,-14.16
1626.4658452439999,-84.961,-36.621,-39.551,-44.922
1626.4658452479998,-229.00400000000002,-42.48,-36.621,-52.733999999999995
1626.465845252,-67.383,-39.062,-28.32,-37.598
1626.465845256,150.391,-32.715,-29.785,-10.742
1626.465845271,-26.366999999999997,-39.551,-41.992,-33.691
1626.465845275,-230.957,-41.992,-26.855,-51.27
1626.465845279,-122.559,-29.785,-20.02,-37.598
1626.465845283,137.695,-22.461,-22.461,-1.953
1626.465845287,75.684,-33.691,-36.621,-11.23
1626.465845291,-176.75799999999998,-44.434,-31.25,-47.363
1626.465845295,-165.52700000000002,-40.039,-29.296999999999997,-40.527
1626.4658452979997,82.52,-32.227,-22.461,-11.23
1626.465845302,143.555,-37.109,-24.901999999999997,-4.883
1626.465845306,-128.418,-37.109,-29.785,-39.551
1626.4658453099998,-202.148,-30.761999999999997,-31.25,-37.109
1626.4658453139998,11.719000000000001,-37.598,-20.996,-8.789
1626.4658453179998,171.875,-37.109,-23.926,10.742
1626.465845322,-62.5,-41.992,-36.621,-25.879
1626.465845326,-211.426,-41.016000000000005,-20.508000000000003,-39.062
1626.4658453299999,-62.988,-37.598,-16.602,-30.273000000000003
1626.4658453339998,156.25,-36.621,-18.555,-5.859
1626.4658453379998,14.648,-32.227,-30.273000000000003,-22.949
1626.465845342,-208.49599999999998,-37.109,-29.296999999999997,-50.781000000000006
1626.465845345,-134.766,-44.434,-24.414,-42.968999999999994
1626.465845349,126.465,-41.016000000000005,-24.901999999999997,-11.719000000000001
1626.4658453529998,96.68,-33.691,-35.156,-22.461
1626.465845357,-185.547,-39.551,-25.879,-59.082
1626.465845361,-200.68400000000003,-40.527,-15.625,-47.363
1626.4658453620002,41.016000000000005,-28.32,-17.09,-20.996
1626.4658453660002,125.0,-37.109,-31.25,-16.113
1626.46584537,-131.34799999999998,-46.387,-36.133,-53.223
1626.4658453739999,-224.609,-40.039,-26.855,-58.593999999999994
1626.4658453779998,-21.484,-36.133,-18.555,-29.785
1626.4658453820002,167.96900000000002,-30.761999999999997,-28.809,0.488
1626.4658453860002,-47.852,-32.227,-43.457,-36.621
1626.465845389,-221.19099999999997,-35.645,-33.691,-54.199
1626.4658453929999,-84.473,-33.691,-31.738000000000003,-34.18
1626.465845397,149.414,-29.785,-35.645,-9.766
1626.465845401,19.531,-30.273000000000003,-44.922,-34.668
1626.465845405,-212.40200000000002,-34.18,-31.25,-59.082
1626.4658454060002,-167.96900000000002,-39.062,-28.32,-54.199
1626.4658454100002,87.891,-34.18,-26.855,-18.555
1626.4658454140001,101.56200000000001,-31.738000000000003,-37.109,-15.137
1626.465845418,-164.551,-41.016000000000005,-32.227,-55.176
1626.4658454220003,-187.988,-33.691,-19.531,-47.852
1626.4658454260002,47.852,-24.901999999999997,-20.02,-23.926
1626.4658454300002,162.59799999999998,-29.296999999999997,-35.645,-19.043
1626.465845433,-96.68,-39.551,-40.527,-58.593999999999994
1626.465845437,-220.215,-45.898,-38.574,-67.87100000000001
1626.465845441,-37.598,-44.922,-34.668,-44.922
1626.465845445,162.109,-41.016000000000005,-30.273000000000003,-22.461
1626.465845449,-34.18,-41.016000000000005,-38.574,-50.293
1626.4658454520002,-222.168,-39.062,-24.901999999999997,-68.359
1626.4658454560001,-101.074,-35.645,-12.695,-45.898
1626.46584546,148.92600000000002,-33.691,-13.184000000000001,-4.395
1626.465845464,64.453,-36.133,-32.715,-14.16
1626.465845468,-184.082,-41.016000000000005,-29.296999999999997,-41.992
1626.4658454720002,-159.668,-41.504,-22.461,-35.645
1626.4658454760001,91.309,-35.645,-21.973000000000003,-7.812
1626.4658454789999,125.0,-35.645,-42.968999999999994,-14.648
1626.4658454829998,-142.578,-37.109,-40.039,-55.663999999999994
1626.4658454870003,-198.24200000000002,-37.109,-29.785,-53.223
1626.4658454910002,33.203,-39.551,-30.761999999999997,-26.855
1626.465845495,181.641,-36.133,-33.203,-9.766
1626.465845498,-71.777,-38.086,-39.062,-39.551
1626.465845502,-207.03099999999998,-46.387,-27.831999999999997,-48.34
1626.465845506,-30.273000000000003,-40.039,-20.508000000000003,-28.809
1626.46584551,180.176,-27.831999999999997,-25.391,-0.977
1626.465845514,-3.418,-40.039,-39.062,-34.18
1626.465845518,-214.84400000000002,-48.828,-35.156,-60.059
1626.465845522,-124.023,-43.457,-31.25,-49.805
1626.465845525,128.418,-42.968999999999994,-25.391,-18.555
1626.465845529,65.43,-48.34,-43.945,-30.273000000000003
1626.465845533,-193.359,-46.875,-39.551,-59.082
1626.4658455370002,-180.66400000000002,-38.574,-30.273000000000003,-53.223
1626.4658455410001,62.012,-38.086,-28.32,-25.879
1626.4658455420001,125.0,-39.551,-42.968999999999994,-18.066
1626.465845546,-143.066,-41.504,-45.41,-56.152
1626.46584555,-211.426,-40.527,-35.645,-61.035
1626.465845554,12.695,-35.156,-31.25,-35.645
1626.465845558,172.852,-35.645,-34.668,-15.137
1626.4658455620001,-59.57,-45.898,-45.41,-49.316
1626.465845566,-213.37900000000002,-49.316,-42.48,-60.547
1626.465845569,-47.363,-40.527,-27.831999999999997,-30.273000000000003
1626.465845573,192.87099999999998,-29.296999999999997,-15.137,6.348
1626.4658455770002,33.203,-32.227,-33.203,-25.391
1626.4658455810002,-189.94099999999997,-43.457,-30.273000000000003,-46.387
1626.4658455850001,-109.375,-40.527,-20.996,-25.879
1626.465845604,149.90200000000002,-32.227,-15.625,2.93
1626.4658456079999,109.863,-37.598,-28.32,-7.812
1626.4658456120003,-159.668,-41.992,-21.484,-37.109
1626.4658456160003,-177.24599999999998,-38.574,-17.09,-43.457
1626.46584562,70.312,-25.879,-12.207,-12.207
1626.465845624,170.898,-22.461,-23.438000000000002,3.418
1626.4658456279997,-100.098,-36.133,-35.156,-43.945
1626.465845631,-202.637,-36.133,-28.809,-45.41
1626.465845635,-0.488,-25.391,-14.648,-13.672
1626.465845639,190.43,-21.973000000000003,-13.184000000000001,9.766
1626.465845643,-30.761999999999997,-28.32,-33.691,-26.855
1626.4658456470002,-207.03099999999998,-31.738000000000003,-27.344,-42.968999999999994
1626.4658456460002,-64.453,-30.273000000000003,-17.09,-17.09
1626.4658456500001,169.43400000000003,-31.25,-19.531,10.254000000000001
1626.465845654,45.41,-27.344,-27.344,-12.695
1626.465845658,-174.805,-30.761999999999997,-21.973000000000003,-42.968999999999994
1626.4658456620002,-122.07,-39.551,-22.949,-36.621
1626.4658456660002,117.676,-35.156,-12.207,-2.441
1626.4658456700001,105.95700000000001,-33.691,-28.809,-13.672
1626.4658456729999,-163.57399999999998,-35.156,-34.18,-54.199
1626.465845677,-195.312,-32.715,-34.668,-55.176
1626.465845681,30.761999999999997,-42.48,-37.109,-32.715
1626.465845685,140.137,-37.109,-41.992,-21.484
1626.465845689,-112.79299999999999,-34.668,-45.41,-54.688
1626.465845706,-223.63299999999998,-47.852,-35.156,-61.035
1626.46584571,-31.25,-41.504,-26.366999999999997,-37.109
1626.465845714,168.457,-31.738000000000003,-27.344,-6.348
1626.4658457179999,-46.387,-41.016000000000005,-44.922,-47.852
1626.465845722,-232.422,-40.527,-32.227,-70.312
1626.465845726,-94.238,-30.273000000000003,-18.555,-43.457
1626.46584573,143.066,-31.25,-25.879,-15.137
1626.4658457329997,35.156,-37.598,-44.434,-38.574
1626.4658457370003,-204.102,-41.992,-38.574,-71.777
1626.465845741,-159.18,-35.645,-32.715,-55.663999999999994
1626.4658457449998,96.68,-20.996,-23.438000000000002,-15.625
1626.4658457489998,126.465,-21.973000000000003,-30.761999999999997,-9.766
1626.4658457360001,-150.879,-38.086,-37.109,-50.293
1626.46584574,-210.938,-40.527,-40.039,-59.57
1626.465845744,21.484,-28.809,-28.32,-25.391
1626.465845748,159.18,-29.296999999999997,-29.296999999999997,-0.488
1626.4658457520002,-91.79700000000001,-35.645,-41.992,-39.062
1626.4658457560001,-219.727,-34.668,-36.133,-57.617
1626.46584576,-39.551,-36.621,-33.691,-38.086
1626.4658457629998,166.016,-41.504,-36.621,-22.461
1626.4658457670002,-18.066,-46.387,-48.34,-54.688
1626.4658457710002,-213.37900000000002,-43.457,-40.527,-70.312
1626.4658457750002,-110.84,-43.945,-32.227,-52.733999999999995
1626.4658457790001,134.27700000000002,-34.668,-34.668,-14.16
1626.465845782,62.012,-39.551,-54.199,-29.296999999999997
1626.465845786,-174.805,-44.922,-42.48,-57.617
1626.46584579,-164.551,-41.016000000000005,-38.086,-56.152
1626.465845794,67.87100000000001,-37.109,-37.109,-30.273000000000003
1626.465845798,127.441,-35.156,-47.363,-21.484
1626.465845802,-143.066,-39.551,-47.852,-60.059
1626.465845806,-218.262,-44.434,-37.109,-66.406
1626.465845809,1.953,-39.062,-31.25,-41.992
1626.465845813,162.109,-36.133,-33.203,-21.484
1626.4658458170002,-77.637,-39.062,-41.504,-61.035
1626.4658458210001,-225.58599999999998,-39.062,-37.598,-74.219
1626.465845825,-61.035,-36.621,-23.926,-40.527
1626.465845827,156.25,-34.668,-28.32,-9.766
1626.465845831,-10.254000000000001,-43.457,-50.781000000000006,-48.828
1626.465845835,-219.727,-43.945,-37.598,-68.359
1626.465845839,-134.27700000000002,-40.039,-33.203,-51.27
1626.465845843,112.79299999999999,-39.062,-30.761999999999997,-23.926
1626.465845847,82.031,-37.109,-39.551,-27.344
1626.465845851,-173.34,-35.156,-38.574,-60.547
1626.4658458539998,-189.453,-45.41,-40.527,-65.43
1626.4658458579997,51.27,-40.039,-32.227,-32.715
1626.4658458620002,147.461,-26.366999999999997,-29.785,-6.348
1626.465845866,-113.77,-39.062,-40.527,-42.968999999999994
1626.4658458699998,-203.613,-41.992,-38.086,-47.852
1626.4658458729998,7.324,-36.621,-34.668,-14.16
1626.465845877,193.84799999999998,-31.738000000000003,-34.18,18.555
1626.465845881,-16.602,-30.273000000000003,-37.598,-15.137
1626.465845885,-186.523,-34.668,-32.715,-35.156
1626.4658458889999,-46.387,-35.156,-28.809,-13.184000000000001
1626.4658458929998,200.68400000000003,-21.484,-27.831999999999997,18.066
1626.465845897,60.059,-24.901999999999997,-49.805,-12.207
1626.4658459000002,-186.523,-40.039,-47.852,-52.246
1626.465845904,-113.77,-31.738000000000003,-36.621,-38.086
1626.465845908,154.785,-25.391,-25.391,6.836
1626.465845912,129.88299999999998,-31.25,-38.574,-7.812
1626.465845916,-159.18,-41.016000000000005,-38.086,-52.246
1626.465845916,-190.43,-41.992,-19.531,-50.781000000000006
1626.46584592,40.527,-35.645,-20.02,-29.296999999999997
1626.465845924,156.25,-25.879,-31.25,-15.137
1626.465845928,-105.469,-34.668,-33.691,-51.27
1626.465845932,-226.074,-49.316,-29.296999999999997,-56.641000000000005
1626.465845936,-28.809,-44.434,-22.949,-35.645
1626.46584594,180.66400000000002,-40.039,-28.809,-1.953
1626.4658459429997,-41.016000000000005,-46.875,-45.898,-34.668
1626.465845947,-228.516,-47.852,-25.391,-61.035
1626.465845951,-97.16799999999999,-41.504,-18.555,-44.434
1626.4658459549998,145.02,-33.691,-24.901999999999997,-11.719000000000001
1626.4658459589998,43.457,-41.992,-39.062,-32.715
1626.465845967,-199.707,-47.363,-29.296999999999997,-58.105
1626.465845971,-158.691,-37.109,-27.831999999999997,-46.387
1626.4658459749999,108.887,-26.855,-24.901999999999997,-16.113
1626.4658459789998,136.719,-25.879,-31.738000000000003,-13.184000000000001
1626.4658459829998,-145.02,-36.621,-33.691,-45.41
1626.4658459870002,-195.801,-41.504,-33.203,-48.34
1626.4658459910002,26.855,-38.086,-31.25,-26.366999999999997
1626.465845994,162.59799999999998,-42.968999999999994,-30.761999999999997,-0.488
1626.4658459979998,-90.33200000000001,-44.434,-38.086,-40.527
1626.465846002,-229.00400000000002,-42.48,-35.156,-58.105
1626.465846006,-38.086,-33.691,-25.391,-20.02
1626.46584601,190.43,-28.809,-25.391,18.066
1626.465846022,-5.859,-37.109,-41.016000000000005,-21.484
1626.465846026,-216.30900000000003,-32.715,-29.296999999999997,-40.527
1626.46584603,-109.863,-31.25,-18.066,-24.414
1626.465846034,149.90200000000002,-30.273000000000003,-22.949,6.836
1626.4658460379999,74.219,-38.086,-43.945,-3.418
1626.465846042,-191.40599999999998,-52.733999999999995,-42.968999999999994,-41.504
1626.465846046,-181.15200000000002,-51.27,-37.109,-41.504
1626.465846049,77.148,-33.691,-23.926,-2.93
1626.465846053,132.32399999999998,-31.25,-40.039,-0.488
1626.4658460570001,-137.207,-35.645,-44.922,-40.527
1626.465846061,-199.707,-35.645,-32.715,-39.062
1626.465846065,13.672,-36.133,-27.831999999999997,-13.672
1626.465846066,170.898,-32.227,-32.715,2.441
1626.46584607,-73.242,-41.016000000000005,-40.039,-44.434
1626.465846074,-221.19099999999997,-35.156,-30.761999999999997,-57.129
1626.465846078,-55.176,-19.043,-25.391,-30.761999999999997
1626.465846082,181.641,-20.508000000000003,-25.879,0.977
1626.465846086,31.738000000000003,-24.414,-38.574,-28.809
1626.46584609,-194.33599999999998,-32.227,-29.296999999999997,-54.199
1626.465846093,-121.58200000000001,-35.645,-31.25,-46.875
1626.4658460970002,127.93,-36.133,-32.227,-20.02
1626.4658461010001,80.078,-50.781000000000006,-48.34,-32.227
1626.465846105,-187.988,-38.086,-42.968999999999994,-59.57
1626.465846109,-185.05900000000003,-20.508000000000003,-30.273000000000003,-47.852
1626.465846111,64.941,-24.414,-24.414,-20.508000000000003
1626.465846115,146.484,-26.855,-35.156,-5.371
1626.465846119,-121.094,-41.504,-43.457,-42.48
1626.465846123,-210.449,-46.875,-39.551,-51.758
1626.465846127,-11.719000000000001,-38.086,-37.109,-28.32
1626.465846131,161.13299999999998,-32.715,-40.527,-9.766
1626.465846135,-61.523,-39.062,-45.898,-46.875
1626.4658461379997,-218.75,-31.738000000000003,-31.25,-53.223
1626.4658461420001,-73.242,-26.366999999999997,-31.738000000000003,-34.18
1626.465846146,151.855,-35.645,-41.016000000000005,-10.742
1626.46584615,24.414,-41.016000000000005,-47.852,-31.738000000000003
1626.465846154,-193.359,-36.133,-26.366999999999997,-47.363
1626.4658461560002,-129.395,-34.18,-23.926,-32.227
1626.4658461600002,115.723,-28.809,-29.785,-3.418
1626.4658461640001,107.91,-21.484,-37.598,-6.836
1626.4658461679999,-141.602,-26.366999999999997,-35.156,-41.504
1626.4658461720003,-168.945,-31.738000000000003,-32.715,-41.504
1626.465846176,52.733999999999995,-26.366999999999997,-28.809,-17.578
1626.46584618,154.785,-25.391,-40.039,-10.742
1626.465846183,-107.42200000000001,-38.574,-58.105,-50.293
1626.4658461870001,-215.82,-40.039,-56.641000000000005,-57.129
1626.465846191,-20.02,-29.296999999999997,-45.41,-33.691
1626.465846195,168.945,-27.344,-42.968999999999994,-13.672
1626.4658461989998,-32.227,-36.133,-54.199,-46.387
1626.465846201,-201.172,-32.715,-39.062,-56.641000000000005
1626.465846205,-71.289,-31.25,-33.691,-38.574
1626.465846209,175.293,-30.273000000000003,-32.715,-8.789
1626.4658462129998,67.87100000000001,-35.645,-49.316,-32.715
1626.465846217,-176.75799999999998,-38.574,-42.968999999999994,-56.152
1626.465846221,-135.74200000000002,-27.344,-26.855,-39.062
1626.465846225,106.934,-21.484,-24.414,-11.719000000000001
1626.465846228,122.07,-25.879,-46.875,-18.555
1626.465846232,-135.74200000000002,-30.273000000000003,-40.039,-50.781000000000006
1626.465846236,-181.641,-31.25,-27.344,-46.387
1626.46584624,35.645,-27.344,-26.855,-17.09
1626.465846244,173.34,-25.879,-31.738000000000003,0.977
1626.46584625,-81.543,-35.645,-39.551,-41.992
1626.4658462539999,-216.797,-36.133,-31.738000000000003,-52.733999999999995
1626.4658462579998,-31.738000000000003,-35.645,-28.32,-31.25
1626.465846262,173.828,-32.715,-30.761999999999997,-4.395
1626.465846266,-17.09,-30.273000000000003,-39.551,-38.086
1626.46584627,-215.82,-37.598,-34.668,-59.082
1626.465846274,-116.699,-44.434,-33.691,-42.968999999999994
1626.465846277,140.137,-37.598,-22.461,-9.766
1626.465846281,74.219,-36.621,-39.551,-24.901999999999997
1626.465846285,-176.27,-41.992,-34.668,-55.176
1626.465846289,-155.273,-45.898,-22.949,-47.363
1626.465846293,93.262,-39.551,-23.438000000000002,-14.16
1626.4658462920002,142.578,-24.901999999999997,-34.668,-9.277000000000001
1626.465846296,-126.465,-30.273000000000003,-33.691,-46.875
1626.4658462999998,-177.734,-29.296999999999997,-24.901999999999997,-43.457
1626.4658463039998,51.27,-23.438000000000002,-20.02,-12.207
1626.4658463079998,201.66,-28.809,-23.926,17.09
1626.465846312,-45.41,-34.668,-35.156,-18.066
1626.465846316,-201.172,-43.945,-33.203,-42.968999999999994
1626.465846319,-47.363,-44.434,-29.296999999999997,-27.831999999999997
1626.465846323,166.016,-29.785,-24.901999999999997,3.418
1626.4658463270002,4.883,-31.25,-34.18,-26.855
1626.4658463310002,-200.195,-33.691,-24.901999999999997,-48.34
1626.4658463350002,-112.305,-32.715,-18.066,-26.855
1626.465846338,136.719,-30.761999999999997,-20.996,0.0
1626.465846342,94.727,-29.296999999999997,-35.156,-11.23
1626.465846346,-158.203,-28.32,-33.691,-37.598
1626.46584635,-169.922,-37.109,-31.25,-43.457
1626.465846354,64.941,-39.551,-25.879,-21.484
1626.465846358,144.531,-32.715,-26.855,-11.23
1626.4658463620003,-120.117,-36.621,-23.926,-48.34
1626.465846365,-207.52,-30.761999999999997,-19.531,-50.293
1626.465846369,3.906,-18.066,-17.578,-22.461
1626.465846373,175.78099999999998,-21.484,-22.949,0.977
1626.4658463770002,-59.57,-37.598,-40.527,-32.715
1626.4658463810001,-218.75,-37.598,-30.761999999999997,-50.293
1626.4658463970002,-72.75399999999999,-36.133,-28.32,-40.039
1626.4658464010001,166.50400000000002,-28.809,-31.25,-1.953
1626.4658464049999,33.203,-25.391,-37.598,-22.949
1626.4658464089998,-199.21900000000002,-25.391,-24.414,-47.363
1626.4658464129998,-135.254,-25.879,-24.901999999999997,-37.109
1626.465846417,118.164,-29.296999999999997,-29.296999999999997,-19.043
1626.465846421,104.492,-31.738000000000003,-44.434,-26.855
1626.4658464240001,-152.832,-32.715,-38.086,-51.27
1626.465846428,-174.31599999999997,-34.668,-30.761999999999997,-48.828
1626.4658464320003,46.387,-28.32,-24.414,-21.973000000000003
1626.4658464360002,142.578,-25.391,-27.831999999999997,-5.859
1626.46584644,-114.74600000000001,-34.668,-34.668,-41.016000000000005
1626.465846441,-217.285,-38.574,-33.203,-49.316
1626.465846445,-20.996,-34.668,-21.973000000000003,-31.25
1626.4658464489999,171.387,-29.785,-19.043,-5.371
1626.4658464529998,-19.531,-22.461,-26.855,-26.855
1626.465846457,-196.77700000000002,-33.203,-23.438000000000002,-43.945
1626.465846461,-87.402,-52.733999999999995,-28.32,-35.156
1626.465846465,161.621,-36.133,-20.02,2.441
1626.4658464679999,48.34,-27.831999999999997,-35.156,-22.461
1626.465846472,-203.613,-31.25,-39.062,-68.848
1626.465846476,-159.18,-32.227,-37.598,-64.941
1626.46584648,94.727,-29.296999999999997,-30.761999999999997,-36.621
1626.465846484,117.18799999999999,-23.438000000000002,-36.133,-39.062
1626.465846488,-155.762,-43.457,-41.016000000000005,-79.102
1626.465846492,-199.707,-55.176,-50.781000000000006,-75.195
1626.465846496,42.48,-28.32,-35.156,-32.715
1626.4658465,166.50400000000002,-15.625,-24.901999999999997,-7.812
1626.465846504,-103.516,-45.898,-47.363,-48.828
1626.465846508,-222.65599999999998,-50.781000000000006,-42.968999999999994,-68.848
1626.465846512,-38.574,-32.715,-33.691,-45.898
1626.465846515,170.898,-5.859,-29.296999999999997,-2.93
1626.465846519,-26.855,-28.809,-44.922,-36.133
1626.4658465229998,-222.168,-50.293,-34.18,-53.711000000000006
1626.4658465270002,-104.00399999999999,-35.645,-19.531,-34.18
1626.4658465310001,137.695,-41.992,-16.602,-8.789
1626.4658465320001,57.617,-49.316,-37.598,-24.414
1626.465846536,-188.477,-30.273000000000003,-34.668,-52.733999999999995
1626.46584654,-164.551,-33.203,-14.648,-42.968999999999994
1626.465846544,72.75399999999999,-53.711000000000006,1.465,-20.508000000000003
1626.465846548,115.234,-42.48,-7.324,-19.043
1626.4658465520001,-119.62899999999999,-21.484,23.438000000000002,-39.551
1626.465846556,-174.805,-24.901999999999997,55.663999999999994,-35.156
1626.465846559,25.879,-41.992,33.203,-18.066
1626.465846563,177.24599999999998,-44.922,33.203,-2.441
1626.4658465670002,-55.663999999999994,-51.758,38.086,-32.715
1626.4658465710002,-210.449,-80.566,23.438000000000002,-47.363
1626.4658465750001,-49.316,-84.473,17.578,-32.227
1626.4658465759999,174.31599999999997,-79.102,34.18,-5.859
1626.4658465799998,11.23,-86.914,36.133,-27.831999999999997
1626.4658465839998,-205.078,-109.375,31.738000000000003,-58.105
1626.4658465879997,-132.812,-112.305,15.137,-55.663999999999994
1626.465846592,114.74600000000001,-103.027,8.301,-22.461
1626.465846596,76.172,-114.74600000000001,14.16,-26.366999999999997
1626.4658465999998,-184.082,-127.441,23.438000000000002,-58.593999999999994
1626.4658466029998,-194.33599999999998,-131.836,18.066,-62.012
1626.465846607,63.965,-112.305,36.133,-26.366999999999997
1626.465846611,144.043,-114.74600000000001,23.926,-14.16
1626.465846615,-137.695,-147.461,10.254000000000001,-60.547
1626.4658466189999,-214.355,-147.94899999999998,25.391,-64.453
1626.4658466220003,0.488,-121.58200000000001,36.621,-32.227
1626.4658466260003,171.875,-109.375,41.016000000000005,-2.441
1626.4658466300002,-49.316,-138.672,30.761999999999997,-36.621
1626.4658466339997,-211.91400000000002,-163.57399999999998,18.555,-61.035
1626.4658466379997,-67.87100000000001,-171.387,24.414,-43.457
1626.465846642,178.71099999999998,-156.738,50.781000000000006,-3.418
1626.465846646,36.133,-169.922,30.273000000000003,-34.668
1626.465846649,-207.52,-192.38299999999998,11.23,-71.289
1626.465846653,-136.23,-189.453,27.831999999999997,-57.129
1626.4658466570002,118.164,-186.035,21.484,-25.879
1626.4658466610001,93.262,-178.71099999999998,-17.09,-36.621
1626.465846665,-172.363,-175.78099999999998,-26.366999999999997,-73.73
1626.465846668,-199.707,-176.27,-23.926,-72.266
1626.4658466720002,41.504,-153.809,-12.695,-32.227
1626.4658466760002,158.203,-162.109,-37.598,-18.066
1626.4658466800001,-104.98,-180.66400000000002,-33.203,-51.758
1626.465846684,-220.703,-176.27,0.488,-57.129
1626.465846688,-29.785,-199.21900000000002,-17.578,-47.363
1626.4658466920002,154.297,-214.355,-33.203,-20.996
1626.465846695,-56.641000000000005,-206.543,-37.109,-50.293
1626.465846699,-229.49200000000002,-196.28900000000002,-35.645,-67.383
1626.465846703,-87.891,-200.195,-24.414,-46.387
1626.465846707,152.832,-210.938,-18.066,-11.719000000000001
1626.465846711,30.761999999999997,-228.02700000000002,-45.898,-35.156
1626.4658467129998,-216.797,-256.348,-52.733999999999995,-77.148
1626.465846717,-175.293,-263.184,-71.289,-69.824
1626.465846721,80.566,-265.625,-72.266,-34.18
1626.465846725,90.82,-267.09,-87.402,-40.039
1626.4658467289998,-173.34,-235.84,-88.37899999999999,-65.43
1626.4658467329998,-205.56599999999997,-213.86700000000002,-86.426,-58.105
1626.4658467370002,36.133,-181.641,-72.75399999999999,-24.901999999999997
1626.46584674,167.48,-143.555,-61.035,0.488
1626.465846744,-103.027,-171.387,-99.609,-51.27
1626.4658467479999,-243.65200000000002,-200.195,-101.56200000000001,-73.242
1626.465846752,-60.059,-185.547,-80.078,-46.387
1626.465846756,162.109,-151.855,-63.477,-5.859
1626.465846771,-16.113,-138.672,-74.219,-33.203
1626.465846775,-212.40200000000002,-137.207,-80.078,-58.105
1626.465846779,-90.82,-116.699,-56.641000000000005,-28.32
1626.465846783,157.715,-121.094,-50.293,0.977
1626.4658467870001,57.129,-117.18799999999999,-91.309,-35.156
1626.465846791,-184.57,-81.055,-77.148,-65.43
1626.465846795,-149.414,-73.73,-50.781000000000006,-55.176
1626.4658467979998,86.426,-65.918,-54.688,-32.715
1626.465846802,122.559,-27.344,-54.199,-24.901999999999997
1626.465846806,-143.555,-20.02,-30.273000000000003,-57.129
1626.46584681,-204.59,-26.366999999999997,-14.16,-58.105
1626.4658468139999,23.926,-16.113,2.93,-19.531
1626.465846816,173.34,-4.395,5.859,-0.977
1626.46584682,-89.355,-23.438000000000002,-11.23,-49.316
1626.465846824,-230.957,-31.738000000000003,2.441,-52.246
1626.465846828,-60.547,-12.207,15.137,-34.18
1626.4658468320001,160.156,-19.043,28.32,-12.695
1626.4658468359999,4.395,-18.555,29.785,-35.156
1626.4658468399998,-218.262,-5.371,28.32,-62.012
1626.465846843,-139.16,-11.23,20.02,-52.733999999999995
1626.4658468470002,123.535,2.93,29.785,-17.09
1626.4658468510002,65.918,3.906,13.184000000000001,-32.227
1626.465846855,-193.359,20.508000000000003,22.461,-61.035
1626.465846859,-175.78099999999998,46.387,30.273000000000003,-48.828
1626.4658468620003,69.824,71.289,20.508000000000003,-16.113
1626.4658468660002,142.09,103.027,26.855,-2.441
1626.46584687,-114.258,104.98,39.551,-43.945
1626.465846874,-198.73,120.117,25.391,-59.082
1626.4658468779999,3.418,133.789,8.789,-39.551
1626.4658468820003,180.176,140.625,9.277000000000001,-7.812
1626.4658468860002,-41.016000000000005,178.22299999999998,9.766,-34.668
1626.465846889,-211.91400000000002,154.297,11.719000000000001,-55.663999999999994
1626.465846893,-69.824,109.375,25.879,-29.785
1626.4658468970001,173.34,126.465,32.715,6.836
1626.465846901,10.254000000000001,117.676,1.465,-46.387
1626.465846905,-217.285,127.93,22.949,-79.102
1626.465846906,-122.07,126.465,49.316,-57.129
1626.46584691,116.211,93.75,54.688,-36.133
1626.465846914,94.727,100.098,65.43,-32.715
1626.465846918,-177.24599999999998,83.008,68.359,-65.918
1626.465846922,-219.238,30.761999999999997,53.223,-80.566
1626.465846926,46.875,44.434,70.801,-35.645
1626.46584693,147.94899999999998,55.176,73.73,-16.602
1626.4658469329997,-129.88299999999998,2.93,66.406,-62.012
1626.465846937,-217.773,-1.953,71.777,-65.918
1626.4658469409999,-15.625,14.16,67.383,-41.016000000000005
1626.4658469449998,167.96900000000002,-12.695,72.266,-15.137
1626.4658469489998,-53.223,-29.296999999999997,58.105,-50.293
1626.465846951,-233.398,-31.25,66.895,-69.824
1626.465846955,-82.52,-25.391,84.473,-43.945
1626.465846959,178.22299999999998,-41.992,81.543,-8.301
1626.4658469629999,57.617,-67.383,66.895,-31.738000000000003
1626.465846967,-194.824,-78.125,76.172,-63.965
1626.465846971,-153.32,-71.777,84.473,-56.641000000000005
1626.465846975,106.934,-81.055,92.285,-24.414
1626.465846978,120.605,-92.285,85.93799999999999,-18.555
1626.4658469820001,-155.762,-87.402,70.312,-56.152
1626.465846986,-201.172,-92.773,67.383,-63.477
1626.46584699,34.18,-111.32799999999999,73.242,-33.691
1626.465846994,163.57399999999998,-110.84,61.523,-17.09
1626.4658469970002,-95.70299999999999,-102.539,62.012,-46.387
1626.4658470010002,-214.84400000000002,-96.68,67.87100000000001,-47.363
1626.4658470050001,-26.855,-87.402,55.176,-31.25
1626.4658470089998,177.734,-96.68,47.363,-4.883
1626.4658470129998,-22.461,-95.70299999999999,30.761999999999997,-35.645
1626.4658470170002,-220.215,-81.543,27.344,-59.57
1626.4658470210002,-108.398,-96.68,15.625,-43.945
1626.465847024,137.695,-107.91,0.977,-15.625
1626.4658470279999,41.504,-104.98,-21.973000000000003,-31.25
1626.465847032,-204.59,-84.473,-20.508000000000003,-60.547
1626.465847036,-169.922,-58.105,-11.719000000000001,-54.199
1626.46584704,75.195,-67.87100000000001,-7.812,-25.879
1626.4658470410002,111.816,-63.477,-40.527,-23.438000000000002
1626.4658470450001,-156.25,-62.5,-48.34,-57.129
1626.465847049,-219.727,-73.242,-41.992,-63.965
1626.465847053,11.23,-50.781000000000006,-35.645,-28.809
1626.4658470570002,159.668,-20.996,-50.293,-6.348
1626.4658470610002,-88.37899999999999,-5.859,-72.266,-48.34
1626.4658470650002,-232.422,-22.949,-73.242,-65.918
1626.465847068,-62.988,-3.906,-76.172,-39.551
1626.465847072,163.57399999999998,23.926,-70.312,-10.254000000000001
1626.465847076,-10.742,13.672,-85.93799999999999,-44.922
1626.46584708,-212.891,30.273000000000003,-78.613,-59.57
1626.465847084,-121.58200000000001,37.598,-62.012,-40.527
1626.465847088,117.18799999999999,17.09,-62.988,-12.207
1626.465847092,66.406,15.137,-90.33200000000001,-24.414
1626.465847096,-185.05900000000003,16.602,-92.773,-49.316
1626.4658470999998,-186.523,-8.301,-107.42200000000001,-53.223
1626.4658471039997,62.988,-11.23,-108.398,-30.761999999999997
1626.4658471079997,124.023,-8.301,-102.051,-17.578
1626.4658471120001,-132.812,-6.348,-96.191,-46.875
1626.465847115,-202.148,1.465,-83.008,-45.898
1626.465847119,3.906,0.977,-79.59,-24.414
1626.465847123,166.99200000000002,-0.977,-88.867,-5.371
1626.4658471270002,-50.293,9.277000000000001,-92.773,-30.761999999999997
1626.4658471310001,-202.637,2.93,-76.66,-37.598
1626.4658471460002,-75.684,-34.18,-81.543,-32.227
1626.4658471500002,142.09,-35.645,-105.469,-11.719000000000001
1626.4658471540001,11.719000000000001,-23.438000000000002,-111.32799999999999,-29.785
1626.465847158,-203.613,-20.996,-85.449,-47.852
1626.4658471620003,-148.92600000000002,-27.831999999999997,-80.566,-46.875
1626.4658471660002,117.18799999999999,-24.901999999999997,-64.453,-10.742
1626.4658471700002,92.773,-33.203,-82.52,-13.184000000000001
1626.465847173,-184.082,-44.434,-91.79700000000001,-57.617
1626.4658471770001,-187.988,-37.109,-81.543,-52.246
1626.465847181,45.41,-31.738000000000003,-79.59,-20.508000000000003
1626.465847185,128.906,-29.296999999999997,-94.727,-14.648
1626.465847189,-126.95299999999999,-23.926,-104.00399999999999,-57.617
1626.465847191,-205.078,6.348,-86.426,-53.223
1626.465847195,-10.742,-18.555,-89.355,-33.691
1626.4658471989999,170.41,-28.32,-93.262,-12.695
1626.4658472029998,-26.855,-11.23,-85.93799999999999,-36.133
1626.465847207,-212.891,-31.25,-97.16799999999999,-60.547
1626.465847211,-94.727,-29.785,-98.633,-50.781000000000006
1626.465847215,146.97299999999998,-13.672,-85.449,-21.484
1626.465847218,45.41,-16.113,-73.73,-23.438000000000002
1626.465847222,-185.547,-33.203,-62.012,-51.758
1626.465847226,-152.832,-59.082,-73.73,-59.57
1626.46584723,83.984,-54.688,-78.613,-25.879
1626.465847234,87.402,-61.035,-74.219,-20.996
1626.4658472360002,-166.016,-62.012,-44.434,-46.387
1626.46584724,-199.21900000000002,-54.688,-25.879,-43.945
1626.4658472439999,38.574,-26.855,-19.531,-16.602
1626.4658472479998,176.27,-16.113,1.465,8.789
1626.465847252,-87.891,-69.336,-9.766,-44.434
1626.465847256,-208.984,-71.289,-18.555,-56.641000000000005
1626.46584726,-5.371,-17.09,3.418,-19.531
1626.4658472629997,178.22299999999998,-10.254000000000001,-20.508000000000003,-10.254000000000001
1626.4658472670003,-43.945,-62.5,-37.598,-53.223
1626.4658472710003,-231.93400000000003,-53.711000000000006,-10.254000000000001,-68.359
1626.465847275,-97.656,-13.672,11.719000000000001,-40.527
1626.465847279,155.762,5.859,21.973000000000003,0.0
1626.4658472810002,52.733999999999995,-9.766,14.16,-21.973000000000003
1626.465847285,-208.49599999999998,-57.129,12.695,-64.941
1626.465847289,-167.48,-31.25,26.366999999999997,-46.875
1626.465847293,97.16799999999999,-9.277000000000001,55.663999999999994,-2.93
1626.4658472970002,121.58200000000001,-32.715,47.363,-18.555
1626.4658473010002,-135.74200000000002,-26.855,68.848,-48.828
1626.4658473050001,-181.15200000000002,-16.113,87.402,-33.691
1626.4658473079999,24.901999999999997,-26.366999999999997,87.402,-17.578
1626.465847312,173.828,-15.625,104.00399999999999,2.93
1626.465847316,-58.105,12.695,106.934,-22.949
1626.46584732,-200.195,-6.836,112.79299999999999,-36.133
1626.465847324,-33.691,-33.691,125.0,-21.973000000000003
1626.4658473270001,179.199,-32.227,141.113,-4.395
1626.465847331,11.23,-34.18,145.02,-24.901999999999997
1626.465847335,-204.59,-61.523,133.30100000000002,-41.992
1626.465847339,-111.32799999999999,-46.387,129.88299999999998,-27.344
1626.465847343,132.812,-52.733999999999995,124.023,-1.465
1626.4658473470001,79.59,-49.805,97.656,-9.766
1626.465847351,-169.43400000000003,-38.574,96.68,-33.691
1626.4658473539998,-180.66400000000002,-69.824,89.355,-36.621
1626.4658473579998,62.012,-56.152,93.262,-19.531
1626.4658473620002,133.30100000000002,-33.691,94.238,-4.883
1626.4658473660002,-121.58200000000001,-19.043,96.68,-30.273000000000003
1626.46584737,-191.895,-23.926,89.844,-43.457
1626.4658473739998,3.418,-59.57,70.801,-29.785
1626.4658473779998,148.438,-67.383,49.316,-18.066
1626.4658473820002,-66.895,-62.988,53.711000000000006,-46.875
1626.4658473860002,-194.33599999999998,-2.441,75.195,-43.457
1626.4658473900001,-62.5,-3.906,68.848,-36.133
1626.465847394,139.648,-63.477,41.992,-24.901999999999997
1626.4658473979998,20.02,-29.785,25.391,-35.645
1626.465847401,-214.84400000000002,-73.242,8.789,-66.406
1626.465847405,-155.273,-84.473,-9.766,-58.105
1626.465847409,121.58200000000001,-18.555,16.113,-12.207
1626.465847413,82.52,-31.738000000000003,14.648,-20.996
1626.465847417,-177.24599999999998,-27.831999999999997,16.602,-53.711000000000006
1626.465847416,-189.94099999999997,-21.484,11.719000000000001,-57.617
1626.46584742,29.785,-32.227,5.859,-35.156
1626.465847424,131.836,-13.672,-12.207,-16.113
1626.465847428,-130.371,-40.527,-33.203,-65.918
1626.4658474320001,-221.19099999999997,-55.663999999999994,-17.09,-71.777
1626.465847436,-9.277000000000001,-35.156,-1.465,-36.621
1626.46584744,155.273,-29.785,-11.719000000000001,-24.414
1626.4658474429998,-56.641000000000005,-33.203,-13.672,-55.663999999999994
1626.465847447,-210.449,-52.733999999999995,0.488,-66.406
1626.465847451,-86.914,-76.66,-6.836,-55.176
1626.465847455,148.438,-66.895,-3.906,-17.09
1626.4658474589999,52.246,-32.715,7.324,-25.391
1626.4658474629998,-171.875,-66.406,14.648,-51.758
1626.465847467,-143.555,-116.211,-15.137,-60.059
1626.465847471,122.559,-70.312,5.859,-21.484
1626.465847475,125.977,-62.5,6.836,-20.996
1626.4658474789999,-168.945,-91.309,0.488,-76.66
1626.4658474829998,-187.988,-62.012,16.113,-66.406
1626.4658474870002,62.012,-25.391,25.879,-23.438000000000002
1626.46584749,159.668,-37.598,26.855,-8.789
1626.465847494,-104.492,-67.383,34.18,-46.387
1626.465847498,-202.637,-41.992,42.968999999999994,-46.387
1626.465847502,-22.949,-34.18,32.227,-28.32
1626.465847506,163.086,-31.25,34.18,-9.277000000000001
1626.4658475210001,-29.785,-7.812,30.273000000000003,-37.109
1626.465847525,-228.02700000000002,-0.488,29.296999999999997,-61.035
1626.465847529,-114.74600000000001,-1.953,31.25,-51.27
1626.465847533,132.812,-7.324,24.414,-20.02
1626.4658475370002,41.992,-29.785,12.695,-31.25
1626.4658475410001,-190.918,-18.555,19.531,-48.828
1626.465847545,-170.898,-16.602,1.465,-46.875
1626.4658475479998,87.402,-7.324,5.859,-20.02
1626.465847552,139.16,3.418,-10.254000000000001,-11.23
1626.465847556,-133.789,-22.461,-37.109,-47.852
1626.46584756,-202.148,-53.711000000000006,-55.176,-52.733999999999995
1626.465847564,16.602,-62.012,-67.383,-34.668
1626.465847567,157.227,-55.663999999999994,-89.355,-12.695
1626.465847571,-96.191,-52.733999999999995,-110.352,-53.223
1626.465847575,-215.332,-23.438000000000002,-115.723,-60.059
1626.465847579,-29.296999999999997,3.906,-108.398,-11.23
1626.465847583,163.57399999999998,4.883,-134.27700000000002,2.441
1626.465847587,-15.625,-6.836,-184.57,-41.016000000000005
1626.465847591,-209.96099999999998,-16.602,-179.688,-55.176
1626.4658475939998,-121.58200000000001,-4.883,-179.688,-45.898
1626.4658475979998,123.535,-0.488,-187.988,-20.996
1626.4658476020002,61.035,-24.414,-200.195,-34.668
1626.465847606,-187.5,-15.625,-178.22299999999998,-59.57
1626.4658476099999,-178.71099999999998,-20.996,-184.57,-57.129
1626.465847611,53.223,-48.34,-203.125,-41.016000000000005
1626.465847615,118.164,-39.062,-194.33599999999998,-25.391
1626.465847619,-136.719,-34.668,-197.266,-59.082
1626.465847623,-208.00799999999998,-31.25,-207.52,-62.988
1626.4658476270001,7.324,-19.531,-194.824,-26.855
1626.465847631,147.461,-37.109,-217.773,-25.879
1626.465847635,-79.59,-45.41,-227.051,-62.5
1626.4658476379998,-205.078,-33.691,-199.707,-58.593999999999994
1626.4658476420002,-75.195,-53.223,-214.84400000000002,-56.641000000000005
1626.4658476460002,142.578,-55.176,-216.797,-25.391
1626.4658476500001,6.348,-39.551,-215.82,-41.504
1626.465847654,-199.21900000000002,-35.156,-190.43,-63.965
1626.465847656,-131.836,-58.593999999999994,-197.75400000000002,-57.129
1626.46584766,111.816,-52.246,-211.91400000000002,-26.855
1626.465847664,84.473,-19.531,-216.797,-24.414
1626.465847668,-177.24599999999998,-34.18,-210.449,-51.758
1626.465847672,-191.895,-74.219,-203.613,-50.293
1626.465847676,58.593999999999994,-46.875,-185.05900000000003,-16.113
1626.46584768,160.645,-11.719000000000001,-175.78099999999998,5.859
1626.4658476829998,-121.094,-61.035,-191.895,-46.387
1626.465847687,-221.19099999999997,-71.289,-198.73,-60.547
1626.465847691,-13.184000000000001,-58.105,-188.477,-27.344
1626.4658476949999,153.32,-79.59,-198.73,-5.859
1626.4658476989998,-58.593999999999994,-80.566,-212.40200000000002,-39.062
1626.4658477020002,-218.262,-79.102,-177.24599999999998,-48.828
1626.465847706,-82.031,-85.449,-169.922,-37.598
1626.46584771,164.551,-80.078,-188.965,-3.906
1626.465847714,40.527,-94.727,-203.125,-20.02
1626.4658477179998,-200.195,-120.117,-180.66400000000002,-48.828
1626.465847722,-133.789,-123.535,-174.31599999999997,-32.715
1626.465847726,128.906,-102.051,-187.5,-2.441
1626.465847729,124.512,-89.844,-200.68400000000003,-8.301
1626.4658477329997,-151.855,-91.309,-187.5,-45.898
1626.4658477370003,-180.66400000000002,-92.285,-164.062,-41.016000000000005
1626.4658477410003,48.828,-110.84,-160.156,-8.301
1626.4658477449998,157.227,-95.215,-164.551,11.719000000000001
1626.465847748,-92.773,-83.984,-172.363,-30.273000000000003
1626.4658477520002,-212.40200000000002,-115.723,-176.75799999999998,-47.363
1626.4658477560001,-11.719000000000001,-108.398,-158.203,-14.16
1626.46584776,192.87099999999998,-90.82,-165.03900000000002,10.742
1626.465847764,-9.277000000000001,-80.566,-177.734,-23.438000000000002
1626.4658477679998,-194.33599999999998,-80.566,-157.227,-35.645
1626.465847772,-82.031,-100.586,-161.13299999999998,-21.484
1626.4658477750002,162.109,-93.75,-163.57399999999998,1.953
1626.4658477790001,62.988,-90.82,-181.641,-19.531
1626.465847783,-194.824,-112.79299999999999,-178.71099999999998,-49.805
1626.4658477870003,-161.13299999999998,-88.867,-166.016,-42.968999999999994
1626.4658477910002,95.215,-72.266,-164.062,-12.695
1626.4658477910002,123.04700000000001,-84.961,-172.852,-2.93
1626.4658477950002,-135.254,-77.637,-163.086,-31.738000000000003
1626.4658477990001,-188.477,-71.289,-174.805,-42.48
1626.4658478029999,41.016000000000005,-58.105,-179.199,-12.695
1626.4658478070003,179.688,-55.176,-171.875,11.719000000000001
1626.465847811,-73.242,-52.733999999999995,-178.22299999999998,-33.691
1626.465847815,-206.543,-63.965,-175.78099999999998,-50.781000000000006
1626.465847818,-36.133,-83.008,-168.945,-32.715
1626.4658478220001,176.75799999999998,-73.242,-164.062,-5.859
1626.465847826,-0.488,-67.383,-175.293,-29.296999999999997
1626.46584783,-193.84799999999998,-62.988,-163.57399999999998,-41.504
1626.4658478339998,-99.12100000000001,-77.148,-162.109,-28.809
1626.46584784,150.879,-87.891,-166.50400000000002,4.883
1626.4658478439999,83.49600000000001,-86.914,-185.05900000000003,-5.859
1626.4658478479998,-176.27,-89.844,-170.41,-41.992
1626.4658478520003,-162.59799999999998,-90.33200000000001,-162.109,-36.621
1626.465847856,88.867,-77.637,-163.57399999999998,-2.93
1626.46584786,142.09,-97.16799999999999,-168.945,-1.953
1626.465847864,-130.371,-125.0,-174.31599999999997,-42.48
1626.465847867,-198.73,-122.559,-166.50400000000002,-41.992
1626.465847871,25.879,-104.98,-149.414,-13.184000000000001
1626.465847875,181.15200000000002,-100.098,-159.18,4.395
1626.465847879,-59.57,-111.32799999999999,-177.24599999999998,-33.203
1626.465847883,-202.637,-104.00399999999999,-165.52700000000002,-42.48
1626.4658478960002,-33.691,-110.84,-153.32,-8.789
1626.4658479000002,189.94099999999997,-120.117,-169.43400000000003,16.602
1626.4658479040002,37.109,-91.79700000000001,-175.78099999999998,-12.207
1626.465847908,-170.898,-81.543,-167.48,-28.809
1626.465847912,-107.42200000000001,-127.441,-182.61700000000002,-26.366999999999997
1626.465847916,151.855,-119.62899999999999,-165.52700000000002,5.859
1626.46584792,115.234,-95.215,-169.922,-1.465
1626.465847923,-165.52700000000002,-94.727,-163.57399999999998,-41.992
1626.4658479270001,-168.945,-77.148,-148.438,-37.598
1626.465847931,85.449,-72.266,-146.97299999999998,0.488
1626.465847935,150.879,-106.934,-167.48,-6.348
1626.4658479389998,-115.723,-115.234,-160.645,-43.457
1626.465847941,-196.77700000000002,-105.469,-143.555,-40.039
1626.465847945,11.23,-78.125,-120.117,-16.113
1626.465847949,194.824,-74.219,-113.77,8.789
1626.4658479529999,-43.945,-114.74600000000001,-145.50799999999998,-35.645
1626.465847957,-213.86700000000002,-118.164,-136.23,-51.758
1626.465847961,-74.219,-103.516,-128.906,-31.25
1626.465847965,165.52700000000002,-83.49600000000001,-126.95299999999999,6.836
1626.465847968,35.156,-84.961,-132.32399999999998,-13.184000000000001
1626.4658479720001,-206.543,-104.00399999999999,-121.58200000000001,-41.504
1626.465847976,-146.484,-93.262,-123.535,-36.621
1626.46584798,127.441,-69.824,-114.258,9.277000000000001
1626.465847984,126.95299999999999,-82.52,-119.62899999999999,8.789
1626.465847986,-164.551,-108.398,-124.023,-52.733999999999995
1626.46584799,-203.613,-105.469,-107.42200000000001,-56.641000000000005
1626.465847994,44.922,-66.406,-98.145,-15.625
1626.4658479979998,158.203,-63.965,-109.375,-2.441
1626.465848002,-122.559,-97.16799999999999,-116.699,-49.805
1626.465848006,-236.81599999999997,-106.934,-111.32799999999999,-61.523
1626.46584801,-37.109,-99.12100000000001,-106.934,-33.691
1626.4658480129997,162.109,-86.426,-107.91,-4.395
1626.465848017,-46.875,-80.566,-119.62899999999999,-46.387
1626.465848021,-235.352,-84.473,-114.74600000000001,-67.383
1626.465848025,-104.492,-92.773,-109.863,-48.828
1626.465848029,150.879,-78.125,-99.609,-12.207
1626.4658480310002,40.039,-86.914,-118.652,-31.738000000000003
1626.4658480350001,-210.938,-91.79700000000001,-113.281,-63.477
1626.465848039,-168.945,-77.148,-98.633,-52.733999999999995
1626.465848043,86.426,-89.355,-95.70299999999999,-18.066
1626.4658480470002,110.352,-92.285,-121.58200000000001,-20.02
1626.4658480510002,-155.762,-81.055,-119.141,-59.57
1626.4658480550002,-195.312,-83.49600000000001,-109.375,-55.663999999999994
1626.465848058,35.156,-87.891,-111.32799999999999,-22.461
1626.465848062,158.203,-81.055,-113.281,-9.766
1626.465848066,-90.82,-77.637,-113.281,-45.41
1626.46584807,-227.051,-93.262,-112.305,-59.082
1626.465848074,-52.246,-89.355,-109.863,-40.039
1626.4658480770001,180.66400000000002,-70.312,-106.445,-2.93
1626.465848081,-9.277000000000001,-89.355,-125.488,-41.992
1626.465848085,-218.262,-87.402,-111.816,-62.988
1626.465848089,-114.74600000000001,-68.848,-103.027,-43.457
1626.465848093,128.418,-84.961,-102.051,-15.137
1626.4658480970002,59.082,-89.844,-123.535,-37.598
1626.4658481010001,-197.266,-90.33200000000001,-129.395,-68.848
1626.4658481039999,-190.918,-98.145,-116.699,-62.988
1626.4658481079998,59.57,-88.867,-107.42200000000001,-39.062
1626.4658481120002,115.234,-77.148,-119.62899999999999,-30.761999999999997
1626.4658481160002,-156.25,-92.773,-121.094,-68.848
1626.46584812,-217.285,-98.633,-120.117,-64.453
1626.465848123,8.789,-87.891,-108.887,-29.785
1626.465848127,171.387,-74.219,-105.95700000000001,-7.324
1626.465848131,-70.312,-69.336,-112.305,-41.504
1626.465848135,-222.168,-74.707,-96.68,-54.688
1626.465848139,-56.152,-65.43,-87.402,-33.203
1626.465848143,167.96900000000002,-67.87100000000001,-99.12100000000001,-7.812
1626.465848147,0.977,-82.52,-118.652,-40.039
1626.46584815,-227.051,-93.75,-120.117,-69.336
1626.465848154,-144.531,-100.098,-115.723,-59.082
1626.465848158,125.977,-78.125,-94.727,-7.812
1626.4658481620002,78.125,-75.195,-114.258,-14.16
1626.4658481660001,-185.05900000000003,-82.52,-104.492,-47.852
1626.465848168,-177.734,-78.613,-87.891,-41.504
1626.4658481720003,68.848,-70.801,-82.52,-15.137
1626.465848176,140.137,-75.195,-108.887,-20.996
1626.46584818,-122.559,-87.891,-115.723,-63.477
1626.465848184,-205.56599999999997,-83.49600000000001,-106.934,-56.152
1626.4658481879999,5.859,-69.824,-101.074,-28.809
1626.465848192,191.895,-62.988,-96.68,-6.836
1626.465848195,-35.645,-61.523,-118.164,-40.039
1626.465848199,-208.00799999999998,-55.663999999999994,-107.42200000000001,-52.246
1626.4658482029997,-70.801,-67.383,-96.68,-39.551
1626.465848207,162.109,-70.801,-108.398,-6.836
1626.4658482109999,37.109,-59.57,-113.77,-22.949
1626.4658482129998,-187.5,-49.316,-81.543,-42.48
1626.465848217,-130.859,-54.199,-90.82,-31.25
1626.465848221,120.605,-68.359,-103.516,-6.836
1626.465848225,107.42200000000001,-70.801,-123.04700000000001,-6.348
1626.465848229,-158.691,-73.242,-117.18799999999999,-31.738000000000003
1626.4658482329999,-180.66400000000002,-56.152,-100.098,-37.598
1626.4658482370003,61.035,-30.273000000000003,-91.309,-8.789
1626.46584824,162.109,-52.246,-100.586,8.301
1626.465848244,-104.98,-69.336,-110.84,-44.434
1626.465848248,-208.984,-59.57,-96.68,-60.059
1626.4658482520001,-12.695,-56.152,-90.33200000000001,-27.344
1626.465848256,188.477,-39.062,-94.727,8.301
1626.4658482710001,-7.812,-32.227,-100.586,-18.066
1626.465848275,-195.801,-45.41,-87.402,-33.691
1626.465848279,-78.125,-50.781000000000006,-82.52,-21.973000000000003
1626.465848283,171.387,-32.715,-90.82,0.488
1626.4658482870002,57.129,-33.203,-110.84,-23.438000000000002
1626.4658482910002,-183.105,-47.852,-90.82,-43.457
1626.4658482950001,-137.695,-41.992,-85.93799999999999,-37.109
1626.4658482979999,115.234,-28.32,-80.078,-3.906
1626.465848302,131.836,-42.968999999999994,-85.449,-4.395
1626.465848306,-153.32,-51.758,-89.355,-52.733999999999995
1626.46584831,-208.49599999999998,-46.875,-87.402,-56.641000000000005
1626.465848314,26.366999999999997,-45.898,-83.008,-28.809
1626.465848316,161.621,-37.598,-89.844,-12.695
1626.4658483199998,-103.516,-43.945,-97.16799999999999,-58.105
1626.4658483239998,-226.074,-52.246,-81.055,-59.082
1626.4658483279998,-33.691,-45.898,-74.707,-27.831999999999997
1626.465848332,172.852,-33.203,-78.125,-2.441
1626.465848336,-1.465,-34.668,-86.426,-25.879
1626.4658483399999,-202.637,-56.152,-88.867,-48.34
1626.4658483429998,-104.98,-54.688,-86.914,-39.551
1626.465848347,150.391,-48.34,-78.125,-7.324
1626.465848351,62.988,-56.641000000000005,-95.70299999999999,-29.785
1626.465848355,-187.988,-43.457,-81.055,-56.152
1626.465848359,-163.57399999999998,-37.598,-66.895,-44.434
1626.465848361,83.49600000000001,-48.828,-74.707,-17.578
1626.465848365,132.32399999999998,-50.293,-83.984,-11.23
1626.465848369,-139.648,-55.176,-79.59,-45.41
1626.465848373,-202.637,-51.758,-73.242,-47.852
1626.4658483770002,18.555,-40.039,-67.87100000000001,-25.391
1626.4658483810001,158.691,-47.363,-92.773,-12.207
1626.465848385,-77.148,-48.34,-105.95700000000001,-43.457
1626.4658483879998,-217.285,-47.363,-83.984,-53.711000000000006
1626.4658483920002,-49.805,-41.016000000000005,-66.406,-27.831999999999997
1626.4658483960002,178.22299999999998,-40.039,-65.43,2.441
1626.4658484000001,2.93,-46.875,-84.473,-32.227
1626.465848404,-211.426,-54.688,-79.102,-53.711000000000006
1626.465848406,-116.211,-54.688,-72.266,-39.551
1626.46584841,140.625,-41.504,-65.918,-7.812
1626.465848414,91.309,-44.434,-73.73,-11.719000000000001
1626.465848418,-176.27,-49.805,-67.383,-43.945
1626.4658484220001,-172.363,-51.758,-66.895,-40.039
1626.465848426,87.891,-44.922,-58.593999999999994,-12.207
1626.46584843,162.109,-43.945,-70.801,-2.441
1626.4658484329998,-108.398,-50.293,-89.844,-37.598
1626.465848437,-214.355,-60.547,-89.355,-58.105
1626.465848441,4.395,-46.387,-78.125,-31.738000000000003
1626.465848445,192.87099999999998,-47.852,-71.289,0.0
1626.4658484489999,-41.016000000000005,-53.223,-80.078,-33.691
1626.465848452,-212.40200000000002,-61.035,-73.73,-60.059
1626.465848456,-67.87100000000001,-59.57,-65.43,-39.062
1626.46584846,176.27,-46.875,-66.406,0.0
1626.465848464,37.598,-42.48,-73.242,-28.32
1626.4658484679999,-204.59,-38.086,-68.848,-63.965
1626.465848472,-144.043,-47.852,-74.707,-56.152
1626.465848476,120.605,-56.152,-65.43,-15.137
1626.4658484789998,103.027,-50.781000000000006,-73.242,-20.996
1626.4658484829997,-167.48,-45.898,-60.547,-59.082
1626.4658484870001,-181.641,-39.062,-51.27,-51.27
1626.465848491,55.176,-40.039,-56.641000000000005,-18.066
1626.4658484949998,149.90200000000002,-41.504,-71.777,-6.836
1626.465848498,-106.445,-33.203,-75.684,-41.992
1626.4658485020002,-210.938,-35.156,-69.824,-55.663999999999994
1626.465848506,-20.508000000000003,-37.598,-66.895,-38.086
1626.46584851,173.828,-40.527,-72.266,-8.789
1626.4658485139998,-41.992,-54.199,-88.37899999999999,-45.898
1626.4658485179998,-205.078,-42.968999999999994,-65.918,-49.316
1626.465848522,-66.895,-26.366999999999997,-57.129,-21.973000000000003
1626.4658485250002,172.363,-28.32,-57.129,10.254000000000001
1626.4658485290001,62.5,-30.761999999999997,-73.242,-11.23
1626.465848533,-212.40200000000002,-56.152,-70.801,-57.617
1626.4658485370003,-146.97299999999998,-59.082,-61.523,-45.41
1626.4658485410002,122.07,-48.34,-67.87100000000001,-14.16
1626.465848542,104.98,-43.945,-84.961,-23.926
1626.465848546,-153.809,-43.457,-74.219,-50.781000000000006
1626.46584855,-194.33599999999998,-51.27,-65.43,-52.733999999999995
1626.4658485539999,43.945,-50.781000000000006,-59.082,-26.855
1626.4658485579998,167.48,-51.758,-64.453,-13.184000000000001
1626.465848562,-90.33200000000001,-59.57,-74.219,-49.805
1626.465848566,-213.37900000000002,-62.5,-71.777,-56.152
1626.465848569,-32.227,-53.711000000000006,-61.523,-28.809
1626.465848573,188.477,-54.199,-61.035,10.742
1626.465848577,-8.789,-66.406,-82.52,-23.926
1626.465848581,-204.102,-52.246,-66.895,-40.527
1626.465848585,-89.844,-43.457,-62.012,-28.32
1626.4658485879997,147.94899999999998,-50.781000000000006,-72.75399999999999,-10.742
1626.465848592,60.059,-54.688,-87.891,-31.738000000000003
1626.465848596,-187.988,-48.828,-75.195,-58.593999999999994
1626.4658485999998,-164.551,-55.176,-75.684,-54.199
1626.4658486039998,82.52,-57.617,-73.242,-19.531
1626.4658486079998,130.859,-52.246,-78.125,-2.93
1626.4658486120002,-137.207,-55.176,-77.637,-44.434
1626.465848615,-192.38299999999998,-46.875,-54.688,-38.574
1626.4658486189999,31.738000000000003,-49.316,-48.828,-10.742
1626.4658486229998,183.59400000000002,-57.129,-70.312,0.977
1626.465848627,-62.5,-56.152,-76.172,-36.133
1626.465848631,-223.63299999999998,-67.87100000000001,-57.617,-56.641000000000005
1626.465848646,-52.733999999999995,-64.453,-47.852,-27.344
1626.46584865,180.66400000000002,-45.898,-36.621,19.043
1626.465848654,16.113,-57.129,-56.152,-10.254000000000001
1626.465848658,-196.77700000000002,-70.801,-56.641000000000005,-45.41
1626.465848662,-105.95700000000001,-76.66,-50.781000000000006,-29.785
1626.465848666,162.109,-62.988,-47.852,13.672
1626.46584867,101.56200000000001,-59.57,-67.87100000000001,-5.371
1626.4658486729998,-167.96900000000002,-60.547,-66.895,-43.945
1626.465848677,-169.922,-64.941,-57.129,-48.828
1626.465848681,85.93799999999999,-67.87100000000001,-49.316,-12.207
1626.4658486849999,161.13299999999998,-59.082,-55.663999999999994,9.277000000000001
1626.4658486889998,-120.117,-68.848,-66.406,-42.968999999999994
1626.4658486920002,-191.895,-56.641000000000005,-52.246,-40.527
1626.4658486960002,30.273000000000003,-44.922,-39.551,-1.953
1626.4658487000002,184.57,-60.547,-56.152,11.23
1626.465848704,-42.968999999999994,-59.57,-66.406,-24.901999999999997
1626.4658487079998,-200.68400000000003,-62.5,-57.129,-35.156
1626.465848712,-50.293,-62.012,-51.27,-19.043
1626.465848716,182.12900000000002,-47.363,-44.922,9.277000000000001
1626.465848719,22.461,-61.035,-64.453,-17.578
1626.465848723,-210.449,-67.87100000000001,-58.593999999999994,-47.852
1626.4658487270003,-150.879,-70.312,-56.152,-41.016000000000005
1626.465848731,99.12100000000001,-62.988,-55.176,-5.859
1626.465848735,82.52,-56.152,-71.289,-13.672
1626.465848736,-187.5,-67.383,-71.289,-59.57
1626.46584874,-202.148,-63.965,-61.035,-52.733999999999995
1626.465848744,61.035,-50.781000000000006,-49.805,-13.184000000000001
1626.4658487479999,162.109,-56.152,-64.941,-10.742
1626.465848752,-114.74600000000001,-59.57,-73.73,-49.316
1626.465848756,-208.984,-47.852,-63.477,-50.781000000000006
1626.46584876,-0.488,-53.223,-53.223,-19.531
1626.4658487629997,183.105,-61.035,-57.617,7.812
1626.4658487670001,-43.457,-62.012,-85.93799999999999,-40.527
1626.465848771,-224.12099999999998,-63.477,-71.289,-64.941
1626.465848775,-78.613,-46.875,-56.152,-40.527
1626.465848779,171.875,-28.32,-59.082,-8.789
1626.465848782,50.293,-46.875,-87.402,-33.203
1626.465848786,-200.195,-64.453,-82.031,-64.453
1626.4658487899999,-160.645,-52.246,-65.43,-55.176
1626.4658487939998,105.95700000000001,-41.992,-56.641000000000005,-17.09
1626.4658487979998,115.234,-42.968999999999994,-68.359,-22.949
1626.465848802,-165.03900000000002,-45.898,-68.359,-62.012
1626.465848806,-200.68400000000003,-49.805,-68.848,-51.758
1626.465848809,38.086,-45.41,-60.059,-16.602
1626.4658488129999,158.691,-48.828,-63.965,-6.836
1626.465848817,-98.145,-45.898,-74.219,-49.316
1626.465848821,-220.215,-38.086,-59.57,-53.711000000000006
1626.465848825,-50.293,-55.176,-54.688,-33.203
1626.4658488270002,157.715,-53.711000000000006,-53.223,-4.883
1626.4658488310001,-28.32,-52.733999999999995,-66.895,-33.691
1626.465848835,-227.051,-52.733999999999995,-59.57,-57.617
1626.465848839,-99.12100000000001,-41.992,-44.922,-41.016000000000005
1626.465848843,151.855,-40.039,-50.293,-8.301
1626.4658488470002,63.965,-37.109,-58.105,-21.973000000000003
1626.4658488510001,-197.75400000000002,-62.988,-60.059,-59.57
1626.465848854,-180.176,-78.613,-69.336,-59.082
1626.4658488579998,78.125,-59.57,-66.406,-25.391
1626.4658488620003,124.023,-47.852,-72.266,-17.578
1626.4658488660002,-130.859,-53.711000000000006,-60.547,-46.875
1626.46584887,-187.5,-52.246,-48.34,-43.945
1626.4658488720002,34.668,-47.852,-39.062,-14.648
1626.465848876,169.43400000000003,-40.527,-56.641000000000005,-3.418
1626.46584888,-83.49600000000001,-52.733999999999995,-72.75399999999999,-48.34
1626.4658488839998,-215.332,-71.777,-59.57,-57.617
1626.4658488879998,-42.968999999999994,-58.105,-55.663999999999994,-35.156
1626.4658488920002,179.688,-32.227,-46.875,0.0
1626.4658488960001,-3.906,-51.27,-64.941,-29.296999999999997
1626.4658488989999,-225.09799999999998,-65.918,-72.75399999999999,-51.758
1626.4658489029998,-131.34799999999998,-51.758,-48.828,-30.761999999999997
1626.465848907,119.141,-57.617,-47.363,-3.418
1626.465848911,56.152,-71.777,-74.219,-17.578
1626.465848915,-197.266,-58.593999999999994,-54.688,-43.945
1626.4658489160001,-190.43,-58.593999999999994,-50.781000000000006,-44.922
1626.46584892,50.781000000000006,-62.988,-52.246,-18.555
1626.465848924,129.88299999999998,-50.781000000000006,-56.152,-3.906
1626.465848928,-124.023,-59.082,-65.918,-43.945
1626.4658489320002,-205.078,-63.477,-65.43,-58.105
1626.4658489360002,10.254000000000001,-53.711000000000006,-52.246,-35.156
1626.4658489400001,174.31599999999997,-43.945,-61.035,-9.766
1626.4658489429999,-68.359,-45.41,-70.312,-41.992
1626.465848947,-222.65599999999998,-59.082,-55.176,-53.711000000000006
1626.465848951,-76.172,-72.75399999999999,-52.733999999999995,-38.086
1626.465848955,157.715,-63.477,-49.805,-5.859
1626.465848959,12.207,-60.547,-67.87100000000001,-34.668
1626.465848964,-215.332,-63.965,-64.941,-63.965
1626.465848968,-134.27700000000002,-50.293,-56.152,-45.41
1626.4658489720002,134.27700000000002,-32.227,-48.34,-2.441
1626.465848976,105.95700000000001,-52.246,-70.801,-16.602
1626.46584898,-163.086,-65.918,-67.87100000000001,-63.965
1626.4658489839999,-170.898,-56.152,-54.688,-56.641000000000005
1626.4658489879998,65.918,-52.246,-56.641000000000005,-24.901999999999997
1626.4658489910003,155.762,-48.34,-55.663999999999994,-13.184000000000001
1626.465848995,-114.74600000000001,-56.152,-53.223,-56.641000000000005
1626.465848999,-216.797,-62.012,-41.992,-54.688
1626.4658490029997,-16.602,-56.152,-36.621,-21.484
1626.4658490070003,169.922,-51.27,-61.035,-3.418
1626.4658490210002,-38.086,-54.199,-74.219,-34.668
1626.4658490250001,-208.00799999999998,-52.246,-59.57,-47.363
1626.465849029,-71.777,-50.293,-51.27,-28.809
1626.465849033,175.78099999999998,-46.875,-41.016000000000005,5.371
1626.4658490370002,53.711000000000006,-42.48,-61.523,-19.531
1626.4658490410002,-199.707,-54.199,-61.523,-58.105
1626.4658490450001,-143.066,-50.781000000000006,-42.48,-40.527
1626.4658490479999,108.398,-42.968999999999994,-43.457,-7.324
1626.465849052,110.352,-56.641000000000005,-61.523,-2.441
1626.465849056,-135.74200000000002,-48.34,-45.41,-27.344
1626.46584906,-171.875,-30.273000000000003,-45.41,-35.156
1626.465849064,50.293,-40.527,-52.733999999999995,-13.184000000000001
1626.465849066,174.805,-46.387,-53.711000000000006,8.301
1626.4658490699999,-78.613,-39.551,-57.129,-26.366999999999997
1626.4658490739998,-202.148,-52.246,-46.387,-36.133
1626.4658490779998,-20.996,-54.199,-39.062,-5.371
1626.465849082,171.875,-48.34,-56.152,17.09
1626.465849086,-22.461,-49.805,-68.848,-23.438000000000002
1626.46584909,-218.262,-61.523,-55.176,-45.898
1626.4658490929999,-107.91,-55.176,-38.574,-33.691
1626.465849097,149.90200000000002,-37.109,-35.645,-2.93
1626.465849101,55.176,-53.223,-69.336,-24.414
1626.465849105,-187.988,-57.617,-62.5,-49.805
1626.465849109,-157.715,-51.27,-52.246,-38.574
1626.4658491110001,102.539,-47.852,-48.34,-6.836
1626.465849115,141.602,-43.457,-60.547,-1.465
1626.465849119,-122.07,-31.25,-53.223,-37.109
1626.465849123,-166.99200000000002,-40.527,-44.922,-35.156
1626.4658491270002,31.25,-60.059,-50.781000000000006,-20.02
1626.4658491310001,163.086,-58.593999999999994,-61.523,-17.09
1626.465849135,-66.895,-53.223,-64.453,-43.945
1626.4658491379998,-203.613,-56.641000000000005,-57.617,-51.27
1626.4658491420003,-47.852,-65.43,-56.152,-41.992
1626.4658491460002,166.016,-53.223,-48.34,-11.719000000000001
1626.4658491500002,-4.395,-47.363,-59.57,-30.273000000000003
1626.4658491540001,-210.449,-53.711000000000006,-58.593999999999994,-56.641000000000005
1626.465849156,-119.62899999999999,-56.641000000000005,-53.711000000000006,-45.898
1626.46584916,125.488,-62.988,-50.293,0.488
1626.465849164,65.43,-63.965,-66.406,-21.484
1626.465849168,-193.359,-59.082,-64.453,-71.777
1626.4658491720002,-182.61700000000002,-62.988,-61.523,-63.477
1626.4658491760001,73.242,-61.035,-53.223,-31.25
1626.46584918,131.836,-59.082,-62.5,-25.391
1626.4658491829998,-139.648,-61.523,-63.477,-56.641000000000005
1626.465849187,-209.96099999999998,-70.312,-60.059,-50.293
1626.465849191,11.23,-53.711000000000006,-56.641000000000005,-22.461
1626.465849195,179.688,-39.551,-52.246,-7.324
1626.4658491989999,-55.176,-61.523,-63.965,-46.387
1626.465849202,-218.75,-72.266,-61.035,-60.547
1626.465849206,-52.733999999999995,-54.199,-44.434,-33.203
1626.46584921,186.523,-46.875,-45.41,0.488
1626.465849214,27.831999999999997,-61.035,-69.824,-34.18
1626.465849218,-195.801,-60.059,-58.105,-61.523
1626.465849222,-115.234,-54.688,-42.968999999999994,-41.504
1626.465849226,137.695,-52.246,-34.18,-0.488
1626.4658492289998,89.355,-54.199,-54.199,-19.531
1626.4658492329997,-179.199,-72.75399999999999,-57.617,-57.129
1626.4658492370002,-182.61700000000002,-79.59,-46.387,-47.363
1626.4658492410001,62.5,-58.105,-39.062,-9.766
1626.4658492449998,146.97299999999998,-53.711000000000006,-50.781000000000006,-0.488
1626.4658492489998,-127.441,-63.965,-59.082,-48.828
1626.4658492529998,-226.074,-61.523,-47.363,-51.27
1626.4658492570002,-15.625,-45.41,-38.086,-26.366999999999997
1626.4658492610001,171.387,-44.922,-37.109,-0.977
1626.465849265,-51.27,-65.43,-57.129,-40.039
1626.465849269,-224.12099999999998,-72.266,-60.547,-64.453
1626.4658492729998,-77.148,-53.223,-47.852,-37.109
1626.465849276,160.156,-53.711000000000006,-53.223,-2.93
1626.46584928,30.273000000000003,-53.711000000000006,-71.289,-26.855
1626.465849284,-208.984,-57.129,-58.105,-53.711000000000006
1626.4658492879998,-158.691,-64.941,-52.246,-49.316
1626.465849292,117.18799999999999,-41.016000000000005,-42.968999999999994,-7.324
1626.465849291,127.93,-40.039,-56.152,0.0
1626.465849295,-154.297,-61.035,-64.453,-47.363
1626.465849299,-193.84799999999998,-58.105,-57.617,-52.246
1626.465849303,47.852,-45.898,-47.363,-20.02
1626.465849307,166.99200000000002,-49.805,-50.781000000000006,-4.395
1626.465849311,-97.656,-63.965,-63.965,-44.922
1626.465849315,-223.63299999999998,-70.801,-71.777,-56.641000000000005
1626.4658493179998,-35.645,-60.547,-62.5,-33.203
1626.465849322,169.922,-46.875,-46.387,-0.977
1626.465849326,-21.484,-47.852,-60.547,-23.926
1626.4658493299999,-211.91400000000002,-54.199,-56.152,-47.852
1626.4658493339998,-101.074,-64.941,-50.781000000000006,-33.203
1626.4658493379998,170.898,-39.551,-47.363,15.625
1626.465849342,75.684,-41.504,-62.012,-5.859
1626.465849346,-198.24200000000002,-76.66,-62.988,-51.27
1626.4658493499999,-158.203,-67.383,-49.805,-37.598
1626.4658493539998,109.863,-40.039,-34.18,1.953
1626.4658493579998,136.719,-44.922,-48.34,-2.93
1626.4658493620002,-130.859,-50.781000000000006,-50.781000000000006,-42.968999999999994
1626.465849365,-181.641,-49.316,-48.828,-34.668
1626.465849369,44.434,-61.523,-41.504,-2.441
1626.4658493729999,177.734,-62.012,-43.945,12.695
1626.465849377,-87.402,-64.941,-62.5,-31.25
1626.465849381,-216.30900000000003,-56.152,-46.387,-41.016000000000005
1626.465849396,-34.18,-45.898,-37.109,-21.484
1626.4658494,178.71099999999998,-41.016000000000005,-38.574,5.371
1626.465849404,-4.395,-43.945,-36.133,-25.879
1626.465849408,-214.84400000000002,-57.129,-38.574,-47.852
1626.4658494120001,-121.094,-60.059,-46.875,-36.621
1626.465849416,129.88299999999998,-57.617,-41.992,-0.977
1626.46584942,65.43,-69.824,-53.711000000000006,-18.066
1626.4658494229998,-204.102,-67.87100000000001,-43.945,-65.43
1626.465849427,-198.73,-53.711000000000006,-32.715,-60.547
1626.465849431,63.477,-53.223,-43.945,-23.438000000000002
1626.4658494349999,127.441,-52.246,-68.359,-15.137
1626.4658494389998,-136.23,-56.641000000000005,-60.547,-49.805
1626.465849441,-212.891,-58.593999999999994,-59.57,-52.733999999999995
1626.465849445,7.812,-46.875,-47.852,-25.391
1626.465849449,175.78099999999998,-40.039,-32.715,-0.488
1626.465849453,-65.918,-57.617,-56.641000000000005,-40.039
1626.465849457,-222.65599999999998,-64.941,-64.453,-53.223
1626.465849461,-63.477,-52.246,-53.223,-37.598
1626.465849465,168.945,-48.34,-45.41,-13.672
1626.465849468,3.418,-58.593999999999994,-58.593999999999994,-39.062
1626.4658494720002,-217.285,-51.27,-53.711000000000006,-61.035
1626.4658494760001,-133.789,-52.733999999999995,-56.641000000000005,-51.27
1626.46584948,120.605,-53.711000000000006,-68.359,-19.043
1626.465849484,79.102,-60.059,-76.172,-25.879
1626.465849486,-193.84799999999998,-74.219,-59.082,-63.477
1626.46584949,-202.637,-63.965,-50.781000000000006,-62.012
1626.465849494,47.852,-50.781000000000006,-42.968999999999994,-36.133
1626.465849498,150.879,-37.598,-54.688,-20.02
1626.465849502,-126.465,-52.733999999999995,-74.219,-67.87100000000001
1626.465849506,-221.19099999999997,-62.988,-58.593999999999994,-64.941
1626.46584951,0.977,-44.922,-37.109,-11.719000000000001
1626.4658495129997,161.13299999999998,-43.945,-50.293,-2.441
1626.4658495170002,-67.383,-51.27,-63.965,-44.922
1626.465849521,-224.609,-50.293,-52.733999999999995,-54.199
1626.465849525,-86.426,-51.758,-58.593999999999994,-45.898
1626.465849529,157.227,-45.898,-59.082,-19.043
1626.4658495310002,37.598,-34.668,-60.059,-32.227
1626.4658495350002,-202.637,-42.48,-52.246,-53.711000000000006
1626.4658495390001,-141.602,-42.48,-49.805,-39.551
1626.4658495429999,125.977,-31.738000000000003,-39.062,-4.883
1626.465849547,118.164,-36.133,-48.828,-12.207
1626.465849551,-146.97299999999998,-38.086,-53.711000000000006,-47.852
1626.465849555,-179.688,-35.645,-52.733999999999995,-40.039
1626.465849558,33.203,-49.316,-48.828,-14.16
1626.4658495620001,148.92600000000002,-52.733999999999995,-56.641000000000005,-5.371
1626.465849566,-108.398,-59.082,-55.663999999999994,-47.852
1626.46584957,-211.91400000000002,-50.781000000000006,-37.109,-48.828
1626.4658495739998,-18.066,-38.086,-33.203,-18.555
1626.465849576,169.922,-47.363,-41.504,6.348
1626.46584958,-33.691,-57.617,-56.152,-29.296999999999997
1626.465849584,-216.797,-61.523,-45.898,-49.805
1626.4658495879999,-98.633,-59.57,-46.387,-41.504
1626.465849592,137.207,-57.129,-42.48,-19.531
1626.465849596,51.27,-47.363,-55.663999999999994,-25.391
1626.4658496,-183.59400000000002,-54.688,-54.688,-52.733999999999995
1626.465849603,-160.156,-62.988,-50.293,-48.34
1626.465849607,89.844,-49.316,-44.434,-11.719000000000001
1626.465849611,118.164,-47.852,-53.223,-12.695
1626.465849615,-143.555,-59.082,-44.434,-42.48
1626.465849619,-184.082,-54.688,-36.133,-34.668
1626.465849623,30.761999999999997,-55.663999999999994,-44.922,-18.555
1626.4658496270001,161.13299999999998,-55.663999999999994,-54.199,-0.977
1626.465849631,-80.566,-56.152,-51.27,-33.691
1626.465849635,-224.609,-61.523,-49.805,-53.711000000000006
1626.465849639,-64.453,-59.082,-53.711000000000006,-41.016000000000005
1626.465849643,164.062,-44.922,-40.039,-3.418
1626.4658496470001,-12.695,-54.199,-54.688,-34.18
1626.46584965,-220.703,-61.523,-47.852,-60.547
1626.465849654,-123.04700000000001,-59.082,-37.109,-47.852
1626.465849658,121.094,-59.082,-45.41,-19.043
1626.4658496620002,51.27,-62.012,-72.75399999999999,-33.691
1626.4658496660002,-203.125,-66.895,-59.082,-61.523
1626.4658496660002,-178.22299999999998,-49.316,-46.387,-48.828
1626.4658496700001,80.078,-48.34,-43.457,-15.625
1626.465849674,141.602,-60.059,-49.316,-8.301
1626.465849678,-137.695,-64.941,-54.199,-52.246
1626.4658496820002,-208.00799999999998,-47.852,-41.992,-53.711000000000006
1626.4658496860002,13.184000000000001,-34.668,-20.508000000000003,-24.414
1626.4658496900001,163.57399999999998,-60.547,-33.691,-8.789
1626.4658496929999,-91.79700000000001,-78.613,-69.336,-53.223
1626.465849697,-234.863,-63.965,-58.593999999999994,-62.012
1626.465849701,-60.059,-50.293,-43.945,-36.621
1626.465849705,164.551,-48.34,-45.41,-11.719000000000001
1626.465849709,17.578,-42.48,-58.105,-35.645
1626.4658497149999,-197.266,-53.223,-44.434,-63.965
1626.4658497189998,-126.95299999999999,-70.801,-37.598,-55.663999999999994
1626.4658497229998,131.836,-58.593999999999994,-38.086,-17.578
1626.4658497270002,98.145,-50.781000000000006,-51.27,-32.227
1626.465849731,-177.24599999999998,-56.641000000000005,-43.457,-71.777
1626.465849735,-183.59400000000002,-56.641000000000005,-36.621,-58.593999999999994
1626.4658497389999,70.312,-43.457,-38.086,-20.996
1626.465849742,153.809,-46.875,-39.062,-10.742
1626.465849746,-115.234,-58.593999999999994,-42.968999999999994,-50.781000000000006
1626.46584975,-208.49599999999998,-51.758,-44.434,-51.758
1626.465849754,-3.418,-50.781000000000006,-40.039,-20.508000000000003
1626.4658497579999,186.035,-42.48,-41.016000000000005,7.812
1626.4658497710002,-46.875,-51.758,-57.129,-39.551
1626.4658497750002,-217.285,-64.453,-43.457,-60.547
1626.465849779,-68.848,-53.711000000000006,-32.227,-35.156
1626.465849783,176.27,-39.551,-28.32,-0.977
1626.4658497870003,43.457,-51.27,-52.246,-29.296999999999997
1626.4658497910002,-203.125,-57.617,-57.617,-64.941
1626.4658497950002,-142.578,-59.082,-48.828,-51.758
1626.465849798,115.234,-52.733999999999995,-39.551,-16.113
1626.465849802,102.051,-53.711000000000006,-53.711000000000006,-17.578
1626.465849806,-168.945,-66.895,-59.082,-53.223
1626.46584981,-187.988,-57.617,-47.852,-50.293
1626.465849814,45.898,-50.293,-43.457,-13.672
1626.465849816,160.156,-49.316,-49.805,7.324
1626.46584982,-98.145,-57.129,-49.316,-33.203
1626.4658498239999,-208.984,-58.105,-40.527,-44.922
1626.4658498279998,-10.742,-59.082,-42.968999999999994,-21.973000000000003
1626.465849832,187.5,-48.828,-43.457,3.418
1626.465849836,-19.531,-45.41,-48.828,-35.156
1626.46584984,-208.984,-64.941,-44.922,-50.781000000000006
1626.465849843,-80.078,-62.5,-39.062,-33.691
1626.465849847,166.50400000000002,-49.316,-40.039,-8.789
1626.465849851,48.828,-51.758,-67.383,-31.738000000000003
1626.465849855,-187.988,-50.293,-58.105,-56.641000000000005
1626.465849859,-153.32,-56.152,-45.41,-49.805
1626.4658498620001,96.191,-57.617,-37.598,-14.648
1626.465849866,121.094,-53.711000000000006,-53.223,-7.812
1626.4658498699998,-142.09,-47.363,-55.176,-41.016000000000005
1626.4658498739998,-190.918,-38.086,-37.598,-37.598
1626.4658498779997,20.508000000000003,-55.176,-39.062,-14.648
1626.4658498820002,140.625,-62.988,-60.547,-7.812
1626.4658498860001,-111.816,-57.129,-59.57,-52.733999999999995
1626.4658498889999,-220.215,-47.852,-37.109,-52.246
1626.4658498929998,-43.945,-44.922,-42.968999999999994,-29.785
1626.465849897,159.18,-34.668,-51.27,-12.695
1626.465849901,-21.484,-44.434,-49.805,-40.039
1626.465849905,-228.02700000000002,-59.082,-44.434,-62.988
1626.4658499060001,-117.18799999999999,-48.828,-47.852,-41.992
1626.46584991,130.371,-41.504,-47.852,-14.16
1626.465849914,43.457,-55.176,-66.406,-43.457
1626.465849918,-198.73,-51.758,-52.733999999999995,-65.43
1626.4658499220002,-177.734,-34.668,-36.133,-47.363
1626.4658499260001,73.73,-14.16,-30.273000000000003,-17.09
1626.46584993,122.07,-16.602,-40.527,-21.973000000000003
1626.4658499329998,-165.03900000000002,-35.645,-49.805,-82.52
1626.465849937,-255.37099999999998,-45.898,-58.105,-110.84
1626.465849941,-50.293,-30.761999999999997,-50.293,-91.79700000000001
1626.465849945,92.285,-15.625,-53.711000000000006,-86.914
1626.465849949,-185.547,-26.855,-71.777,-156.25
1626.4658499549998,-341.79699999999997,-29.785,-62.5,-181.641
1626.4658499589998,-187.5,-20.508000000000003,-54.688,-165.03900000000002
1626.4658499629998,21.484,-17.09,-63.965,-151.36700000000002
1626.465849967,-149.414,-37.109,-87.402,-185.05900000000003
1626.465849971,-386.719,-33.691,-74.219,-215.82
1626.4658499749999,-314.453,-26.366999999999997,-60.547,-225.09799999999998
1626.4658499789998,-62.012,-16.113,-50.781000000000006,-188.965
1626.465849982,-122.07,-16.602,-74.219,-208.00799999999998
1626.465849986,-390.625,-32.227,-84.961,-250.488
1626.46584999,-384.76599999999996,-30.761999999999997,-80.566,-232.422
1626.4658499939999,-138.672,-31.738000000000003,-81.543,-210.449
1626.4658499979998,-44.922,-36.133,-86.426,-193.359
1626.4658499979998,-294.922,-41.992,-85.449,-217.773
1626.465850002,-360.352,-35.156,-74.219,-202.148
1626.465850006,-130.371,-28.809,-62.012,-150.879
1626.46585001,63.965,-23.438000000000002,-67.383,-115.723
1626.465850014,-143.066,-30.273000000000003,-84.961,-130.859
1626.4658500179999,-285.156,-36.621,-71.777,-118.652
1626.465850022,-125.977,-45.898,-62.012,-86.914
1626.465850025,126.95299999999999,-42.968999999999994,-56.641000000000005,-38.086
1626.465850029,13.184000000000001,-38.574,-74.219,-46.387
1626.465850033,-216.30900000000003,-58.593999999999994,-82.031,-79.59
1626.465850037,-144.043,-59.082,-74.219,-59.082
1626.465850041,127.93,-53.711000000000006,-56.152,-9.277000000000001
1626.465850042,120.605,-49.805,-65.43,-6.836
1626.465850046,-139.16,-46.875,-62.988,-31.738000000000003
1626.46585005,-149.414,-49.805,-47.852,-14.648
1626.465850054,86.426,-53.711000000000006,-51.758,21.973000000000003
1626.465850058,181.15200000000002,-66.406,-67.87100000000001,24.414
1626.465850062,-63.477,-72.75399999999999,-57.617,-11.23
1626.465850066,-167.48,-74.707,-54.688,-12.207
1626.465850069,23.926,-60.059,-56.641000000000005,13.672
1626.465850073,225.58599999999998,-52.246,-54.199,49.805
1626.4658500770001,23.926,-66.895,-64.453,15.625
1626.465850081,-151.36700000000002,-71.777,-46.875,5.859
1626.465850085,-21.484,-69.824,-40.527,27.831999999999997
1626.4658500879998,222.65599999999998,-59.57,-35.156,59.57
1626.465850092,115.234,-55.663999999999994,-51.758,44.434
1626.465850096,-143.066,-68.359,-52.246,7.324
1626.4658501,-109.375,-77.637,-47.363,17.578
1626.4658501039999,161.621,-70.801,-34.668,59.082
1626.4658501079998,183.59400000000002,-71.777,-44.922,58.105
1626.4658501120002,-81.543,-73.242,-43.945,24.414
1626.465850115,-133.30100000000002,-76.66,-41.016000000000005,17.578
1626.465850119,90.82,-71.289,-37.109,41.992
1626.4658501229999,235.352,-62.012,-34.668,67.383
1626.465850127,-24.414,-69.336,-41.992,23.438000000000002
1626.465850131,-152.344,-72.75399999999999,-32.715,19.043
1626.465850146,30.761999999999997,-66.895,-28.32,40.527
1626.46585015,233.887,-55.663999999999994,-28.32,66.895
1626.465850154,43.457,-74.707,-49.316,34.668
1626.465850158,-154.297,-83.984,-48.828,6.348
1626.4658501620002,-46.387,-69.336,-36.133,22.461
1626.465850166,206.055,-58.593999999999994,-34.18,52.246
1626.46585017,121.58200000000001,-78.125,-65.918,28.809
1626.4658501729998,-143.555,-90.33200000000001,-60.059,-7.812
1626.465850177,-121.58200000000001,-72.75399999999999,-38.086,1.953
1626.465850181,136.719,-68.848,-28.809,35.645
1626.465850185,165.52700000000002,-78.125,-52.733999999999995,28.32
1626.4658501889999,-114.74600000000001,-67.383,-61.035,-18.066
1626.465850191,-160.156,-63.477,-46.387,-15.137
