timestamps,TP9,AF7,AF8,TP10
1626466523.285,-64.453,-53.223,-22.949,-64.941
1626466523.289,-24.414,-23.438,-13.672,-1.465
1626466523.293,-27.344,-32.227,-31.738,-9.766
1626466523.297,-67.383,-62.012,-39.062,-65.430
1626466523.301,-76.172,-59.570,-30.273,-45.410
1626466523.305,-36.621,-32.227,-6.348,7.324
1626466523.309,-7.324,-23.438,-14.160,16.113
1626466523.312,-52.246,-56.152,-43.457,-41.016
1626466523.316,-77.148,-71.289,-56.152,-67.383
1626466523.320,-56.641,-56.641,-45.898,-30.762
1626466523.324,-32.227,-35.645,-24.902,9.766
1626466523.328,-53.223,-52.734,-44.434,-33.691
1626466523.328,-53.223,-52.734,-44.434,-33.691
1626466523.330,-71.777,-59.570,-44.922,-69.824
1626466523.334,-43.945,-41.016,-26.855,-44.922
1626466523.338,7.812,-24.902,-13.184,9.766
1626466523.342,-12.207,-40.527,-35.156,-13.672
1626466523.346,-47.852,-58.594,-44.922,-74.219
1626466523.350,-41.504,-34.668,-27.344,-63.965
1626466523.354,-6.836,-8.301,1.953,-9.766
1626466523.357,-3.418,-22.461,-16.113,-23.926
1626466523.361,-51.758,-56.641,-47.363,-84.473
1626466523.365,-66.406,-59.570,-41.016,-87.402
1626466523.369,-21.973,-35.645,-12.695,-42.969
1626466523.373,-13.184,-32.227,-25.391,-18.555
1626466523.375,-61.035,-54.688,-45.898,-62.988
1626466523.379,-63.965,-61.035,-39.551,-83.984
1626466523.383,-39.062,-45.898,-20.020,-51.758
1626466523.387,-2.441,-24.414,-10.254,-7.324
1626466523.391,-30.762,-47.363,-42.480,-32.227
1626466523.395,-79.590,-62.500,-46.875,-54.688
1626466523.399,-46.875,-46.387,-21.973,-41.504
1626466523.402,7.812,-28.809,3.906,-3.906
1626466523.406,-22.949,-45.410,-26.367,-11.719
1626466523.410,-80.566,-70.312,-39.551,-48.340
1626466523.414,-69.336,-64.941,-23.438,-39.062
1626466523.418,-11.719,-38.086,-9.277,11.230
1626466523.420,-4.883,-30.273,-20.996,23.926
1626466523.424,-47.363,-65.430,-36.621,-33.691
1626466523.428,-51.758,-74.707,-31.738,-58.105
1626466523.432,-10.254,-48.340,-20.020,-10.742
1626466523.436,14.648,-19.531,-17.090,23.438
1626466523.440,-19.531,-30.273,-33.691,-32.715
1626466523.444,-35.645,-47.363,-32.227,-70.801
1626466523.447,-21.973,-48.828,-16.602,-51.270
1626466523.451,3.906,-38.574,-12.207,-17.090
1626466523.455,-11.230,-37.109,-29.297,-34.668
1626466523.459,-51.270,-48.828,-29.297,-66.895
1626466523.463,-34.180,-48.340,-20.020,-71.289
1626466523.465,4.395,-18.066,-10.254,-28.809
1626466523.469,-21.973,-14.648,-36.621,-34.668
1626466523.473,-48.340,-48.340,-44.434,-83.008
1626466523.477,-27.832,-52.734,-37.109,-74.219
1626466523.481,-6.348,-19.043,-26.367,-24.902
1626466523.485,-23.438,-2.930,-34.180,-1.953
1626466523.489,-57.617,-40.039,-43.945,-49.316
1626466523.492,-60.059,-58.105,-27.344,-75.684
1626466523.496,-34.180,-38.086,-5.859,-28.809
1626466523.500,-4.395,-18.066,-7.324,18.555
1626466523.504,-28.809,-29.785,-31.250,-29.785
1626466523.508,-64.941,-57.129,-37.109,-62.988
1626466523.510,-31.738,-47.852,-14.160,-33.203
1626466523.514,8.789,-18.066,0.977,14.160
1626466523.518,-45.410,-34.668,-35.645,-15.625
1626466523.522,-81.055,-64.453,-40.527,-47.852
1626466523.526,-42.969,-43.457,-16.602,-28.320
1626466523.530,-2.441,-3.418,3.418,4.883
1626466523.534,-24.414,-10.254,-17.090,-13.672
1626466523.537,-46.875,-48.828,-43.457,-77.148
1626466523.541,-48.828,-46.875,-35.156,-70.801
1626466523.545,-32.715,-20.996,-21.484,-20.508
1626466523.549,-19.531,-17.578,-38.574,-15.625
1626466523.553,-70.801,-48.340,-72.266,-93.262
1626466523.556,-74.707,-32.715,-60.059,-113.770
1626466523.560,-32.715,10.254,-27.832,-64.453
1626466523.564,-25.391,8.789,-46.387,-50.781
1626466523.568,-68.848,-25.391,-76.172,-92.773
1626466523.572,-83.008,-34.668,-66.406,-119.629
1626466523.576,-28.809,-20.020,-46.387,-86.426
1626466523.580,4.395,-0.488,-33.691,-26.855
1626466523.583,-15.625,-5.859,-54.688,-46.875
1626466523.587,-39.062,-35.645,-55.176,-91.309
1626466523.591,-44.922,-41.992,-41.992,-90.820
1626466523.595,-5.371,-4.395,-21.484,-26.855
1626466523.599,9.277,0.000,-31.738,-7.324
1626466523.600,-37.109,-34.180,-50.781,-60.547
1626466523.604,-50.293,-40.039,-51.758,-60.059
1626466523.608,-9.277,-15.625,-28.809,6.348
1626466523.612,19.531,1.465,-32.715,13.672
1626466523.616,-29.297,-33.203,-61.523,-48.828
1626466523.620,-71.289,-57.129,-56.152,-69.336
1626466523.624,-43.457,-34.668,-32.715,-49.805
1626466523.627,-11.230,-12.695,-10.254,10.742
1626466523.631,-40.527,-30.762,-32.227,-23.438
1626466523.635,-67.383,-43.945,-41.016,-71.777
1626466523.639,-42.969,-30.762,-20.508,-39.062
1626466523.643,6.348,-10.742,-4.883,8.301
1626466523.660,-10.742,-5.371,-30.273,-15.137
1626466523.664,-64.941,-32.227,-41.504,-53.223
1626466523.668,-62.012,-46.387,-26.367,-54.199
1626466523.672,-14.160,-22.461,-14.648,-13.672
1626466523.676,-13.672,-19.043,-32.715,-3.418
1626466523.680,-62.012,-36.621,-36.621,-51.758
1626466523.684,-73.730,-36.133,-26.367,-62.500
1626466523.687,-35.645,-14.160,-5.859,-24.902
1626466523.691,-11.719,0.000,-14.160,3.418
1626466523.695,-59.570,-39.062,-55.664,-43.457
1626466523.699,-71.777,-59.082,-53.223,-83.008
1626466523.703,-18.555,-28.809,-14.160,-47.363
1626466523.705,14.160,-3.906,-2.441,2.441
1626466523.709,-15.137,-30.273,-38.086,-44.434
1626466523.713,-62.988,-48.340,-39.551,-75.684
1626466523.717,-60.059,-37.109,-25.391,-46.387
1626466523.721,7.324,-10.254,-19.531,-15.137
1626466523.725,-3.418,-15.137,-36.621,-30.762
1626466523.729,-53.223,-46.387,-36.621,-74.707
1626466523.732,-49.316,-44.922,-15.625,-71.777
1626466523.736,-21.973,-15.625,1.953,-7.812
1626466523.740,-7.324,-2.930,-13.184,11.719
1626466523.744,-54.688,-31.250,-34.180,-39.062
1626466523.748,-78.613,-43.945,-33.691,-61.035
1626466523.750,-40.527,-21.484,-16.602,-19.043
1626466523.754,-14.648,-8.789,-11.719,6.348
1626466523.758,-49.316,-32.227,-42.969,-45.898
1626466523.762,-75.684,-48.340,-44.434,-72.266
1626466523.766,-59.082,-34.668,-12.695,-39.062
1626466523.770,-31.250,-6.348,-11.719,1.465
1626466523.774,-41.504,-23.438,-43.945,-25.879
1626466523.777,-65.918,-58.594,-47.363,-64.453
1626466523.781,-59.570,-51.270,-28.809,-55.176
1626466523.785,-11.230,-25.879,-16.113,-4.395
1626466523.789,-12.695,-25.391,-41.992,-27.344
1626466523.793,-72.754,-52.734,-57.617,-85.938
1626466523.796,-66.895,-47.852,-41.016,-79.102
1626466523.800,-3.418,-12.207,-13.672,-30.762
1626466523.804,5.371,-8.301,-32.715,-2.441
1626466523.808,-34.668,-48.828,-58.594,-56.152
1626466523.812,-54.199,-60.059,-50.781,-78.125
1626466523.816,-26.855,-18.555,-29.297,-30.762
1626466523.820,-0.488,2.441,-20.996,12.695
1626466523.823,-31.738,-35.156,-45.898,-32.227
1626466523.827,-42.969,-46.387,-45.410,-56.152
1626466523.831,-16.602,-26.367,-24.902,-29.297
1626466523.835,3.418,-3.418,-7.812,11.230
1626466523.839,-29.785,-16.602,-32.715,-20.020
1626466523.840,-75.684,-48.340,-49.316,-68.359
1626466523.844,-66.895,-41.992,-41.504,-49.805
1626466523.848,-24.902,-19.043,-14.648,-4.883
1626466523.852,-17.090,-13.672,-24.902,-14.160
1626466523.856,-54.199,-32.715,-41.016,-52.734
1626466523.860,-64.941,-38.574,-30.762,-60.547
1626466523.864,-30.273,-15.625,-16.602,-18.555
1626466523.867,-16.602,-15.137,-39.062,0.488
1626466523.871,-62.500,-47.852,-66.895,-55.664
1626466523.875,-80.566,-57.129,-44.434,-68.848
1626466523.879,-36.621,-30.273,-24.414,-42.969
1626466523.883,10.254,-5.371,-20.996,-2.441
1626466523.885,-24.902,-30.762,-39.551,-22.461
1626466523.889,-58.594,-55.664,-39.551,-47.852
1626466523.893,-31.250,-41.992,-15.625,-22.461
1626466523.897,7.812,-12.207,-6.348,12.207
1626466523.901,-9.277,-26.367,-40.039,-22.461
1626466523.905,-47.363,-55.176,-41.992,-58.105
1626466523.909,-48.828,-43.945,-30.273,-49.316
1626466523.912,-12.207,-19.531,-24.902,-3.418
1626466523.916,8.789,-13.184,-29.297,10.742
1626466523.920,-26.855,-43.457,-44.434,-54.688
1626466523.924,-41.016,-53.711,-38.574,-67.871
1626466523.928,-5.371,-24.414,-8.789,-25.879
1626466523.930,10.742,-6.348,-18.066,1.953
1626466523.934,-36.133,-38.086,-52.246,-42.969
1626466523.938,-71.289,-62.988,-42.969,-74.707
1626466523.942,-49.316,-45.898,-12.695,-53.223
1626466523.946,-16.113,-17.578,-7.812,-8.789
1626466523.950,-39.551,-25.879,-33.691,-23.926
1626466523.954,-80.566,-39.062,-30.273,-61.523
1626466523.957,-67.383,-38.574,-20.996,-52.734
1626466523.961,-4.883,-20.020,-8.301,-4.395
1626466523.965,-20.508,-18.555,-35.156,-7.324
1626466523.969,-70.801,-46.875,-63.965,-58.105
1626466523.973,-70.312,-57.617,-45.410,-75.684
1626466523.975,-23.438,-29.297,-4.395,-19.043
1626466523.979,5.371,-10.254,-8.301,15.137
1626466523.983,-47.852,-41.016,-32.227,-51.758
1626466523.987,-79.590,-52.734,-23.438,-68.359
1626466523.991,-33.691,-31.738,0.488,-19.531
1626466523.995,-16.113,-11.719,-6.836,6.348
1626466523.999,-67.383,-40.527,-38.574,-41.016
1626466524.002,-80.078,-69.824,-29.785,-77.148
1626466524.006,-53.711,-54.199,-13.672,-53.223
1626466524.010,-19.531,-19.531,-10.742,-9.766
1626466524.014,-31.250,-33.203,-43.945,-41.504
1626466524.018,-66.895,-65.918,-55.176,-79.590
1626466524.035,-64.453,-52.734,-24.902,-67.871
1626466524.039,-15.625,-17.578,-5.371,-36.621
1626466524.043,-3.418,-18.555,-31.250,-17.578
1626466524.047,-40.039,-48.828,-43.945,-45.898
1626466524.051,-51.758,-54.688,-37.109,-64.453
1626466524.055,-26.855,-20.996,-9.277,-15.137
1626466524.059,-4.883,-4.883,-18.555,0.488
1626466524.062,-52.246,-42.969,-44.434,-57.617
1626466524.066,-76.660,-56.641,-30.273,-71.289
1626466524.070,-52.246,-45.410,-20.508,-38.574
1626466524.074,-21.973,-30.273,-25.391,0.977
1626466524.078,-32.715,-41.992,-41.504,-31.738
1626466524.080,-58.594,-53.711,-38.086,-71.777
1626466524.084,-40.039,-43.457,-19.043,-43.457
1626466524.088,-8.301,-20.996,-8.789,12.695
1626466524.092,-29.785,-25.391,-35.156,-24.902
1626466524.096,-68.848,-51.270,-41.992,-65.430
1626466524.100,-43.457,-49.316,-29.785,-53.711
1626466524.104,-1.465,-27.832,-5.859,-5.859
1626466524.107,-13.672,-28.809,-21.973,8.789
1626466524.111,-47.363,-57.129,-53.711,-47.852
1626466524.115,-50.293,-62.012,-49.316,-57.617
1626466524.119,-9.766,-29.297,-13.672,6.348
1626466524.123,5.371,-8.789,-13.672,21.973
1626466524.125,-40.527,-37.598,-40.039,-22.461
1626466524.129,-63.477,-57.617,-33.691,-48.828
1626466524.133,-26.855,-34.668,-18.555,-45.410
1626466524.137,7.324,-8.301,-11.719,-9.766
1626466524.141,-19.531,-28.809,-36.621,-32.227
1626466524.145,-57.129,-44.434,-48.828,-67.871
1626466524.149,-58.105,-34.668,-25.879,-47.363
1626466524.152,-12.695,-10.742,-9.766,-0.488
1626466524.156,-17.578,-21.484,-50.781,-21.973
1626466524.160,-63.477,-51.758,-57.129,-69.824
1626466524.164,-69.336,-42.969,-27.344,-64.941
1626466524.168,-19.531,-14.160,-10.254,-8.789
1626466524.170,-4.395,-8.301,-31.738,1.465
1626466524.174,-67.383,-39.062,-42.480,-47.363
1626466524.178,-85.938,-49.316,-28.320,-69.336
1626466524.182,-39.062,-26.855,-17.578,-40.527
1626466524.186,-16.113,-7.324,-30.273,-14.648
1626466524.190,-70.801,-28.809,-52.734,-55.664
1626466524.194,-90.820,-49.805,-40.527,-78.125
1626466524.197,-63.477,-45.898,-21.484,-57.617
1626466524.201,-13.672,-22.949,-8.789,-12.207
1626466524.205,-25.879,-29.297,-40.527,-26.855
1626466524.209,-65.430,-55.176,-59.570,-72.266
1626466524.213,-50.781,-49.316,-32.227,-74.219
1626466524.215,-9.277,-10.254,-9.766,-23.926
1626466524.219,-15.625,-9.766,-38.086,-28.320
1626466524.223,-47.852,-41.016,-41.504,-69.336
1626466524.227,-58.105,-44.434,-31.250,-64.941
1626466524.231,-31.738,-25.391,-23.438,-20.996
1626466524.235,-1.465,-5.371,-20.020,4.883
1626466524.239,-52.246,-29.297,-36.621,-33.203
1626466524.242,-70.312,-62.012,-45.410,-55.176
1626466524.246,-29.785,-33.203,-19.043,-17.578
1626466524.250,-0.977,-11.230,-17.090,15.625
1626466524.254,-31.738,-44.434,-56.152,-30.273
1626466524.258,-66.406,-56.641,-42.969,-61.035
1626466524.261,-26.855,-36.621,-3.418,-35.645
1626466524.265,14.648,-9.766,4.395,7.324
1626466524.269,-23.926,-24.414,-38.574,-24.414
1626466524.273,-61.035,-55.176,-48.828,-60.059
1626466524.277,-56.152,-50.293,-20.020,-46.875
1626466524.281,-11.230,-10.742,2.441,4.395
1626466524.285,-31.738,-14.160,-26.855,1.465
1626466524.288,-76.660,-62.012,-44.434,-50.781
1626466524.292,-73.242,-66.895,-22.461,-60.059
1626466524.296,-47.852,-31.250,1.465,-15.137
1626466524.300,-28.320,-14.160,-13.672,-5.371
1626466524.304,-62.988,-46.387,-45.410,-63.477
1626466524.305,-89.355,-55.664,-45.898,-75.684
1626466524.309,-56.152,-27.832,-26.855,-50.781
1626466524.313,-7.812,-17.578,-22.949,-30.762
1626466524.317,-23.926,-42.480,-45.410,-59.082
1626466524.321,-45.898,-50.781,-32.715,-76.172
1626466524.325,-37.109,-32.715,-9.277,-48.340
1626466524.329,-0.488,-15.137,-14.648,2.441
1626466524.332,-18.066,-35.156,-51.270,-15.625
1626466524.336,-37.109,-53.223,-56.152,-57.129
1626466524.340,-25.879,-44.922,-31.250,-41.504
1626466524.344,11.230,-13.672,-9.766,7.812
1626466524.348,17.578,-13.184,-25.879,12.207
1626466524.350,-37.598,-52.246,-37.598,-49.805
1626466524.354,-50.781,-66.895,-31.738,-74.219
1626466524.358,-16.602,-34.668,-10.254,-22.949
1626466524.362,3.418,-11.230,-20.020,-4.395
1626466524.366,-41.992,-36.133,-46.387,-48.828
1626466524.370,-71.777,-45.410,-42.480,-66.895
1626466524.374,-45.898,-20.508,-19.531,-25.391
1626466524.377,-2.930,-4.395,-5.371,30.273
1626466524.381,-48.340,-40.039,-29.297,-19.531
1626466524.385,-103.027,-66.406,-36.133,-65.918
1626466524.389,-81.543,-49.316,-20.996,-51.758
1626466524.393,-29.297,-15.137,-1.953,-0.977
1626466524.410,-25.391,-22.949,-24.902,-7.324
1626466524.414,-67.383,-53.711,-37.109,-57.129
1626466524.418,-75.195,-52.734,-23.926,-55.176
1626466524.422,-19.043,-25.391,0.488,-1.953
1626466524.426,0.488,-16.602,-14.160,3.418
1626466524.430,-41.992,-41.504,-38.574,-40.527
1626466524.434,-54.688,-54.688,-34.180,-42.480
1626466524.437,-23.438,-31.738,-6.836,-3.906
1626466524.441,14.648,-12.207,-6.348,18.555
1626466524.445,-29.297,-47.363,-50.293,-43.945
1626466524.449,-52.734,-57.617,-55.176,-66.406
1626466524.453,-14.648,-33.691,-25.391,-36.133
1626466524.455,9.277,-9.766,-18.555,10.742
1626466524.459,-26.367,-31.738,-47.852,-8.789
1626466524.463,-66.406,-64.941,-44.922,-67.871
1626466524.467,-42.969,-51.270,-18.066,-58.594
1626466524.471,0.977,-17.578,1.953,-0.977
1626466524.475,-12.695,-19.531,-23.926,-10.254
1626466524.479,-49.316,-45.898,-42.969,-64.453
1626466524.482,-61.035,-56.641,-36.621,-62.500
1626466524.486,-25.391,-31.250,-19.531,-17.578
1626466524.490,-0.977,-19.043,-28.320,-2.930
1626466524.494,-45.410,-56.641,-53.711,-61.035
1626466524.498,-67.871,-60.059,-48.340,-77.637
1626466524.501,-18.555,-18.555,-22.949,-27.832
1626466524.505,21.973,-8.301,-19.531,5.859
1626466524.509,-12.207,-37.598,-40.527,-32.227
1626466524.513,-53.711,-54.199,-45.898,-62.500
1626466524.517,-33.691,-37.109,-22.461,-43.457
1626466524.521,11.230,-1.465,-0.488,-0.488
1626466524.525,-11.719,-14.160,-20.020,-29.785
1626466524.528,-60.059,-44.922,-38.086,-70.312
1626466524.532,-61.523,-52.734,-33.203,-56.641
1626466524.536,-21.484,-33.691,-18.066,-11.719
1626466524.540,-20.508,-29.785,-36.133,-22.949
1626466524.544,-56.152,-57.129,-51.270,-73.242
1626466524.545,-51.270,-50.781,-38.574,-73.730
1626466524.549,-15.625,-25.391,-12.207,-32.715
1626466524.553,-1.465,-22.949,-20.020,-12.695
1626466524.557,-44.922,-51.270,-44.434,-55.176
1626466524.561,-64.941,-61.523,-39.551,-66.895
1626466524.565,-24.414,-30.762,-18.555,-35.645
1626466524.569,10.254,-11.719,-17.578,-15.625
1626466524.572,-29.785,-47.852,-54.688,-46.387
1626466524.576,-53.711,-67.383,-54.688,-49.316
1626466524.580,-18.066,-57.617,-21.484,-43.457
1626466524.584,5.859,-32.227,-13.184,-29.297
1626466524.588,-25.391,-41.504,-40.527,-34.668
1626466524.590,-51.270,-75.195,-41.016,-58.105
1626466524.594,-48.340,-73.730,-20.020,-62.988
1626466524.598,-9.277,-38.086,3.418,5.859
1626466524.602,9.277,-36.621,-10.254,25.879
1626466524.606,-59.082,-70.801,-23.438,-41.016
1626466524.610,-82.031,-73.730,-10.254,-48.828
1626466524.614,-32.227,-47.363,12.207,-4.883
1626466524.617,-16.602,-33.691,-3.418,32.715
1626466524.621,-56.152,-61.523,-34.180,-5.859
1626466524.625,-72.266,-81.055,-19.531,-35.645
1626466524.629,-37.598,-52.246,5.371,-4.395
1626466524.633,-6.348,-24.902,2.441,31.250
1626466524.635,-46.875,-46.387,-30.762,-11.230
1626466524.639,-66.895,-58.105,-30.273,-44.434
1626466524.643,-41.016,-43.457,-4.883,-25.391
1626466524.647,-6.836,-24.414,8.789,33.203
1626466524.651,-12.207,-37.598,-24.414,17.578
1626466524.655,-36.133,-44.434,-35.156,-48.828
1626466524.659,-45.898,-41.504,-25.391,-38.086
1626466524.662,-17.578,-39.062,-12.695,1.465
1626466524.666,0.000,-24.414,-25.879,-1.465
1626466524.670,-41.504,-43.457,-46.875,-53.223
1626466524.674,-52.246,-48.340,-34.180,-55.176
1626466524.678,-2.930,-25.391,-12.207,-11.230
1626466524.683,34.180,-8.789,-25.879,14.648
1626466524.687,-12.695,-32.227,-51.270,-35.156
1626466524.691,-51.270,-51.270,-46.387,-72.266
1626466524.695,-13.184,-39.551,-22.461,-30.273
1626466524.699,19.531,-24.414,-4.395,19.531
1626466524.703,-17.090,-28.809,-29.785,-17.578
1626466524.707,-52.246,-55.176,-39.551,-63.965
1626466524.710,-41.016,-63.477,-25.391,-52.246
1626466524.714,2.930,-24.902,-6.836,5.859
1626466524.718,-12.207,-24.902,-29.785,4.395
1626466524.722,-59.570,-45.410,-42.969,-41.504
1626466524.726,-45.898,-48.828,-28.809,-46.875
1626466524.726,3.418,-25.879,-5.859,0.000
1626466524.730,17.578,-8.301,-20.020,15.137
1626466524.734,-36.621,-41.992,-51.758,-38.574
1626466524.738,-47.363,-52.246,-48.340,-52.734
1626466524.742,-4.883,-28.809,-17.090,-20.996
1626466524.746,12.695,-7.324,-3.418,21.484
1626466524.750,-9.277,-27.832,-31.738,-16.113
1626466524.753,-39.062,-54.199,-36.621,-59.082
1626466524.757,-27.344,-37.598,-6.348,-36.133
1626466524.761,26.855,-5.859,2.930,38.574
1626466524.765,8.301,-22.461,-44.922,17.578
1626466524.769,-36.621,-51.270,-51.758,-55.176
1626466524.785,-28.809,-44.922,-23.926,-31.250
1626466524.789,11.230,-11.719,-7.324,20.020
1626466524.793,9.766,-14.160,-32.715,5.371
1626466524.797,-26.367,-41.504,-43.945,-30.762
1626466524.801,-50.293,-47.363,-29.785,-68.359
1626466524.805,-27.344,-28.320,-20.020,-48.828
1626466524.809,-13.184,-18.066,-28.809,-5.859
1626466524.812,-49.805,-46.387,-46.875,-40.039
1626466524.816,-54.688,-52.734,-42.969,-57.617
1626466524.820,-40.527,-37.109,-23.926,-27.832
1626466524.824,-6.836,-13.672,-12.695,7.812
1626466524.828,-19.043,-26.367,-41.016,-9.277
1626466524.830,-47.852,-48.340,-50.293,-44.922
1626466524.834,-29.297,-35.156,-22.461,-27.832
1626466524.838,11.230,-7.812,-3.418,36.621
1626466524.842,-3.418,-23.926,-32.715,24.414
1626466524.846,-41.016,-53.223,-43.457,-20.996
1626466524.850,-23.926,-44.922,-25.391,-23.926
1626466524.854,7.324,-26.855,-8.789,28.809
1626466524.857,2.441,-22.949,-30.762,41.992
1626466524.861,-29.297,-55.664,-55.176,-23.926
1626466524.865,-46.875,-72.266,-45.410,-39.551
1626466524.869,-9.277,-39.551,-3.418,14.160
1626466524.873,11.719,-20.508,-9.766,37.598
1626466524.875,-24.414,-46.387,-53.223,-19.531
1626466524.879,-42.969,-62.500,-57.129,-33.203
1626466524.883,-4.883,-34.180,-23.926,3.906
1626466524.887,41.992,-2.930,-7.324,33.691
1626466524.891,4.395,-26.367,-34.180,7.812
1626466524.895,-45.898,-44.434,-40.527,-30.273
1626466524.899,-30.273,-27.344,-25.391,-24.414
1626466524.902,14.648,-5.859,-5.859,30.762
1626466524.906,-9.277,-21.484,-38.574,-0.488
1626466524.910,-58.105,-42.969,-57.129,-65.430
1626466524.914,-53.711,-38.086,-41.992,-55.664
1626466524.918,-22.461,-29.785,-20.996,-3.418
1626466524.920,-31.738,-30.273,-41.992,3.906
1626466524.924,-59.570,-48.828,-61.523,-42.969
1626466524.928,-61.523,-55.664,-36.621,-59.570
1626466524.932,-37.109,-34.668,-9.766,-21.973
1626466524.936,-14.648,-20.020,-18.555,18.066
1626466524.940,-47.363,-34.668,-46.387,-23.926
1626466524.944,-68.359,-39.551,-40.527,-52.734
1626466524.947,-43.457,-34.668,-25.391,-29.297
1626466524.951,-13.184,-10.742,-17.578,19.531
1626466524.955,-29.297,-16.602,-39.551,-5.859
1626466524.959,-53.223,-40.039,-51.758,-59.082
1626466524.963,-48.340,-42.969,-41.016,-48.828
1626466524.968,-4.883,-15.625,-17.578,8.789
1626466524.972,1.953,-8.789,-41.992,8.301
1626466524.976,-37.598,-42.969,-64.453,-34.668
1626466524.980,-48.828,-45.898,-44.434,-44.922
1626466524.984,-7.324,-13.672,-18.066,-1.953
1626466524.988,16.602,-3.418,-26.367,28.809
1626466524.992,-43.457,-35.156,-43.945,-47.363
1626466524.995,-83.008,-59.082,-44.922,-89.355
1626466524.999,-34.668,-39.062,-23.926,-34.180
1626466525.003,-12.207,-21.484,-22.949,8.789
1626466525.007,-47.852,-44.434,-57.617,-40.039
1626466525.011,-54.199,-49.805,-55.664,-78.125
1626466525.010,-41.016,-37.598,-31.250,-71.289
1626466525.014,-7.324,-19.531,-13.672,-18.555
1626466525.018,-24.902,-27.832,-38.086,-29.297
1626466525.022,-71.777,-46.875,-44.434,-76.660
1626466525.026,-70.312,-41.504,-26.367,-67.383
1626466525.030,-35.645,-12.207,-15.137,-26.855
1626466525.034,-40.527,-25.391,-54.199,-33.203
1626466525.037,-68.359,-68.848,-72.754,-85.938
1626466525.041,-55.664,-55.664,-43.945,-76.172
1626466525.045,-17.578,-27.344,-13.672,-20.996
1626466525.049,-7.812,-15.625,-21.484,-9.277
1626466525.053,-33.691,-37.109,-53.223,-66.406
1626466525.055,-41.504,-49.805,-47.852,-83.008
1626466525.059,-26.855,-23.438,-21.484,-30.273
1626466525.063,6.836,-1.465,-23.438,15.625
1626466525.067,-31.250,-30.762,-50.781,-33.203
1626466525.071,-68.359,-55.176,-53.223,-73.730
1626466525.075,-45.898,-31.738,-36.133,-52.734
1626466525.079,-6.348,-10.254,-23.438,-9.277
1626466525.082,-11.719,-23.438,-46.387,-31.250
1626466525.086,-45.410,-34.668,-52.734,-81.543
1626466525.090,-41.016,-42.480,-38.086,-78.125
1626466525.094,-19.043,-36.133,-19.043,-25.391
1626466525.098,-24.414,-25.391,-39.062,-20.508
1626466525.115,-55.664,-45.410,-60.059,-65.430
1626466525.119,-56.641,-56.152,-50.781,-75.684
1626466525.123,-20.508,-28.320,-21.973,-24.414
1626466525.127,-7.812,-11.719,-20.020,15.625
1626466525.131,-49.316,-35.645,-42.480,-46.875
1626466525.135,-61.035,-39.062,-46.387,-86.914
1626466525.139,-43.457,-23.926,-29.297,-51.758
1626466525.142,-20.508,-16.602,-17.578,-13.672
1626466525.146,-50.781,-36.133,-51.270,-41.504
1626466525.150,-80.078,-57.129,-56.641,-75.195
1626466525.154,-56.641,-41.016,-23.926,-63.965
1626466525.158,-20.508,-15.625,-11.719,-16.602
1626466525.160,-39.062,-28.320,-42.969,-31.250
1626466525.164,-65.918,-53.711,-50.781,-79.590
1626466525.168,-68.848,-55.176,-38.574,-75.684
1626466525.172,-29.297,-31.250,-17.090,-15.137
1626466525.176,-11.719,-21.973,-29.785,-11.719
1626466525.180,-57.129,-40.527,-52.734,-83.984
1626466525.184,-65.918,-48.340,-44.434,-87.891
1626466525.187,-33.691,-31.738,-17.090,-37.109
1626466525.191,-6.836,-6.348,-21.484,-17.090
1626466525.195,-39.551,-33.691,-46.387,-69.336
1626466525.199,-63.965,-52.246,-42.480,-90.820
1626466525.203,-39.551,-34.668,-25.391,-56.641
1626466525.205,6.348,-7.812,-11.719,-9.277
1626466525.209,-20.508,-16.602,-41.504,-38.574
1626466525.213,-65.918,-41.016,-51.758,-70.801
1626466525.217,-43.945,-39.062,-32.715,-65.918
1626466525.221,-7.812,-19.043,-13.672,-24.414
1626466525.225,-11.230,-11.719,-27.344,-13.672
1626466525.229,-50.781,-31.738,-38.574,-74.219
1626466525.232,-60.059,-46.387,-29.297,-77.637
1626466525.236,-19.043,-28.320,-18.555,-17.090
1626466525.240,-2.441,-10.254,-31.250,0.977
1626466525.244,-53.223,-41.992,-43.457,-39.551
1626466525.248,-64.453,-62.500,-40.039,-78.613
1626466525.250,-24.414,-32.227,-14.648,-43.457
1626466525.254,-13.184,-8.301,-10.254,-1.465
1626466525.258,-54.199,-37.109,-43.945,-46.875
1626466525.262,-79.590,-53.711,-42.969,-77.637
1626466525.266,-54.688,-37.109,-25.879,-51.270
1626466525.270,-16.113,-11.719,-18.555,-4.883
1626466525.274,-30.273,-20.020,-46.387,-22.949
1626466525.277,-67.871,-44.922,-44.922,-66.895
1626466525.281,-68.359,-46.387,-35.156,-75.684
1626466525.285,-12.695,-20.020,-27.344,-11.230
1626466525.289,0.977,-20.020,-35.645,2.441
1626466525.293,-41.504,-48.828,-50.781,-59.082
1626466525.295,-54.199,-48.340,-42.480,-93.262
1626466525.299,-28.320,-30.762,-17.578,-56.152
1626466525.303,-20.020,-24.902,-30.273,-28.809
1626466525.307,-57.617,-51.758,-66.895,-96.680
1626466525.311,-69.336,-56.641,-69.824,-125.977
1626466525.315,-50.293,-22.949,-49.316,-101.074
1626466525.319,-23.438,4.883,-31.738,-59.082
1626466525.322,-75.684,-31.738,-62.988,-107.910
1626466525.326,-124.023,-59.082,-79.590,-150.879
1626466525.330,-86.914,-37.109,-56.152,-96.680
1626466525.334,-41.992,-2.930,-26.367,-21.484
1626466525.338,-59.082,-19.043,-48.828,-36.133
1626466525.340,-92.773,-55.176,-71.289,-99.609
1626466525.344,-79.590,-45.898,-50.293,-85.449
1626466525.348,-31.738,-13.672,-32.227,-24.902
1626466525.352,-17.578,-11.230,-58.594,-17.578
1626466525.356,-66.406,-47.852,-67.871,-67.871
1626466525.360,-82.031,-41.992,-45.410,-84.961
1626466525.364,-33.691,-10.742,-22.461,-25.879
1626466525.367,-16.113,-13.184,-25.391,6.836
1626466525.371,-55.176,-40.527,-43.945,-56.641
1626466525.375,-73.242,-51.270,-46.875,-78.613
1626466525.379,-52.246,-36.621,-37.109,-46.387
1626466525.383,-21.484,-21.484,-34.180,4.883
1626466525.385,-46.387,-41.992,-60.547,-31.250
1626466525.389,-68.359,-55.664,-59.082,-90.820
1626466525.393,-29.297,-43.945,-31.738,-61.523
1626466525.397,4.883,-15.625,-14.160,13.672
1626466525.401,-15.625,-16.113,-38.574,-5.859
1626466525.405,-43.945,-38.086,-44.434,-70.312
1626466525.409,-41.016,-41.016,-36.133,-67.871
1626466525.412,-3.418,-25.391,-13.184,-6.348
1626466525.416,-7.324,-17.578,-24.902,6.348
1626466525.420,-47.852,-45.898,-51.758,-52.734
1626466525.424,-49.805,-45.898,-39.551,-64.453
1626466525.428,-15.625,-26.367,-7.812,-26.855
1626466525.431,11.719,-15.625,-3.418,10.742
1626466525.435,-28.320,-33.203,-42.969,-31.250
1626466525.439,-50.293,-45.410,-54.688,-52.246
1626466525.443,-20.996,-27.832,-29.297,-11.230
1626466525.447,4.395,-8.789,-9.277,29.297
1626466525.451,-5.859,-22.461,-39.062,-22.461
1626466525.455,-47.363,-45.898,-60.547,-62.500
1626466525.458,-50.781,-44.434,-29.785,-33.691
1626466525.462,15.625,-14.648,5.859,19.043
1626466525.466,5.859,-25.391,-24.902,2.441
1626466525.470,-60.547,-64.453,-55.176,-59.570
1626466525.474,-51.270,-63.477,-37.109,-68.848
1626466525.475,-4.395,-27.344,-4.883,-9.277
1626466525.479,5.859,-14.160,-20.508,21.484
1626466525.483,-30.762,-46.387,-48.340,-38.574
1626466525.487,-48.340,-55.664,-46.387,-54.199
1626466525.491,-17.578,-20.508,-7.812,-11.230
1626466525.495,9.277,0.977,-1.953,20.996
1626466525.499,-28.320,-36.133,-50.781,-34.668
1626466525.502,-60.547,-63.965,-51.758,-67.871
1626466525.506,-32.715,-46.875,-21.484,-27.344
1626466525.510,5.371,-17.090,-13.184,17.090
1626466525.514,-25.391,-29.785,-43.945,-19.531
1626466525.518,-67.871,-57.129,-50.293,-71.777
1626466525.535,-57.129,-53.223,-30.762,-67.871
1626466525.539,-9.766,-27.832,-9.766,-11.719
1626466525.543,-19.043,-29.785,-38.574,-8.301
1626466525.547,-71.289,-56.641,-62.012,-54.199
1626466525.551,-68.848,-61.523,-47.852,-60.059
1626466525.555,-18.066,-31.738,-18.555,-20.508
1626466525.559,-8.789,-23.926,-18.555,-11.230
1626466525.562,-56.641,-59.570,-37.109,-58.105
1626466525.566,-70.312,-67.383,-37.109,-72.266
1626466525.570,-40.527,-60.547,-20.996,-46.875
1626466525.574,-20.996,-39.551,-9.277,-5.371
1626466525.578,-54.199,-56.152,-41.504,-25.879
1626466525.580,-82.520,-74.707,-49.316,-60.547
1626466525.584,-55.664,-49.805,-23.926,-52.734
1626466525.588,-5.859,-22.461,-12.695,3.906
1626466525.592,-20.020,-35.645,-36.621,-6.348
1626466525.596,-60.059,-67.871,-46.387,-59.082
1626466525.600,-59.570,-62.988,-37.598,-68.848
1626466525.604,-13.184,-29.785,-2.930,-11.719
1626466525.607,-0.488,-28.809,-10.742,11.719
1626466525.611,-53.711,-51.270,-43.457,-43.945
1626466525.615,-58.594,-58.594,-35.156,-66.895
1626466525.619,-0.488,-20.508,-3.906,-6.348
1626466525.623,1.953,-2.441,-24.414,16.602
1626466525.625,-49.805,-40.527,-54.199,-59.570
1626466525.629,-60.547,-54.688,-41.016,-81.055
1626466525.633,-23.926,-36.621,-17.578,-34.668
1626466525.637,3.418,-11.230,-10.742,11.230
1626466525.641,-36.133,-30.273,-40.527,-31.250
1626466525.645,-56.641,-47.852,-47.852,-74.707
1626466525.649,-7.812,-33.691,-34.180,-40.039
1626466525.652,22.949,-12.695,-7.324,20.020
1626466525.656,-24.414,-26.855,-31.738,-27.344
1626466525.660,-70.312,-61.035,-52.734,-78.613
1626466525.664,-62.500,-53.711,-30.762,-66.406
1626466525.668,-42.969,-25.879,-2.930,-28.320
1626466525.671,-44.434,-24.902,-19.531,-20.996
1626466525.675,-90.820,-47.852,-44.922,-87.891
1626466525.679,-117.676,-53.711,-34.180,-116.211
1626466525.683,-76.172,-40.039,-18.066,-58.594
1626466525.687,-43.945,-31.250,-25.391,-11.230
1626466525.691,-69.336,-44.434,-39.062,-62.012
1626466525.695,-93.262,-54.688,-35.645,-92.285
1626466525.698,-78.613,-54.688,-19.043,-74.707
1626466525.702,-26.367,-29.785,-6.348,-42.480
1626466525.706,-34.180,-40.527,-47.363,-64.453
1626466525.710,-70.312,-65.918,-52.246,-88.867
1626466525.714,-59.570,-61.523,-24.414,-73.242
1626466525.715,-9.766,-26.855,-12.695,-17.578
1626466525.719,-4.883,-16.113,-38.086,-20.508
1626466525.723,-57.129,-43.945,-54.688,-83.984
1626466525.727,-63.965,-50.293,-48.828,-91.797
1626466525.731,-16.602,-32.715,-16.113,-41.992
1626466525.735,0.488,-26.855,-18.555,-17.578
1626466525.739,-42.480,-49.805,-46.387,-53.223
1626466525.742,-62.988,-54.688,-42.480,-68.848
1626466525.746,-22.949,-35.645,-15.137,-21.484
1626466525.750,1.465,-27.344,-13.672,11.719
1626466525.754,-41.016,-51.758,-55.176,-41.016
1626466525.758,-59.082,-61.035,-46.875,-56.152
1626466525.760,-36.621,-43.945,-12.695,-35.645
1626466525.764,1.465,-21.973,5.371,6.348
1626466525.768,-27.344,-36.621,-27.832,-17.090
1626466525.772,-62.500,-59.082,-44.922,-59.082
1626466525.776,-45.410,-54.688,-23.438,-40.039
1626466525.780,-18.555,-22.949,3.418,8.789
1626466525.784,-22.461,-21.973,-23.438,2.441
1626466525.787,-63.965,-61.035,-48.340,-46.875
1626466525.791,-67.871,-66.406,-30.762,-55.176
1626466525.795,-25.879,-38.574,-7.812,-24.414
1626466525.799,-15.625,-33.691,-23.438,-12.695
1626466525.803,-57.617,-62.500,-57.617,-60.059
1626466525.805,-72.754,-62.012,-41.504,-63.965
1626466525.809,-33.691,-38.086,-4.395,-18.555
1626466525.813,0.000,-23.438,-12.695,7.812
1626466525.817,-36.133,-51.758,-48.340,-40.527
1626466525.821,-71.289,-67.383,-34.668,-76.172
1626466525.825,-48.340,-38.574,-5.859,-37.598
1626466525.829,-0.488,-13.672,-2.930,26.367
1626466525.832,-14.648,-36.133,-33.203,-3.906
1626466525.836,-61.035,-70.312,-36.621,-66.406
1626466525.840,-50.781,-69.824,-24.414,-53.223
1626466525.844,-12.207,-25.391,-8.789,-11.719
1626466525.848,-18.555,-19.043,-25.879,-21.484
1626466525.851,-59.082,-57.617,-43.945,-71.777
1626466525.855,-67.383,-63.477,-42.969,-93.750
1626466525.859,-22.461,-30.273,-24.902,-54.199
1626466525.863,-8.301,-7.324,-32.227,-27.344
1626466525.867,-56.641,-35.645,-65.430,-75.684
1626466525.871,-73.730,-49.316,-61.523,-94.727
1626466525.875,-41.992,-33.203,-47.363,-81.055
1626466525.878,-13.672,-8.789,-44.434,-37.109
1626466525.882,-42.480,-26.855,-67.871,-58.105
1626466525.886,-85.449,-62.988,-71.777,-110.352
1626466525.890,-69.336,-50.781,-48.828,-97.656
1626466525.894,-16.113,-24.902,-26.855,-42.480
1626466525.910,-27.832,-29.297,-48.340,-35.156
1626466525.914,-66.895,-43.945,-62.988,-81.055
1626466525.918,-54.688,-43.945,-45.410,-89.844
1626466525.922,-18.066,-19.043,-7.812,-32.227
1626466525.926,-12.207,-8.301,-26.367,-7.324
1626466525.930,-52.734,-44.922,-68.848,-70.312
1626466525.934,-68.359,-60.547,-60.059,-95.215
1626466525.937,-21.973,-40.039,-27.832,-38.574
1626466525.941,11.719,-22.949,-30.273,1.465
1626466525.945,-25.879,-49.316,-61.523,-50.293
1626466525.949,-55.664,-69.336,-53.711,-79.102
1626466525.953,-32.715,-53.223,-26.367,-43.457
1626466525.955,-0.488,-22.949,-11.719,5.859
1626466525.959,-16.113,-23.926,-44.434,-12.695
1626466525.963,-44.922,-40.039,-51.270,-54.199
1626466525.967,-37.598,-42.480,-24.902,-54.199
1626466525.971,1.465,-17.090,-8.789,-2.441
1626466525.975,-11.230,-13.184,-42.969,-10.254
1626466525.979,-47.852,-45.898,-60.059,-51.270
1626466525.982,-41.992,-61.035,-37.598,-55.664
1626466525.986,-10.742,-39.062,-16.113,-18.066
1626466525.990,3.906,-22.949,-34.668,8.301
1626466525.994,-36.621,-55.176,-64.453,-41.992
1626466525.998,-56.152,-65.918,-55.664,-71.289
1626466526.000,-22.949,-46.387,-16.602,-25.391
1626466526.004,-1.465,-33.691,-15.625,9.766
1626466526.008,-41.504,-52.246,-45.410,-49.805
1626466526.012,-56.152,-63.965,-39.062,-83.008
1626466526.016,-36.621,-40.039,-18.066,-64.453
1626466526.020,-11.230,-15.625,-12.207,-12.695
1626466526.024,-28.320,-38.574,-46.875,-32.227
1626466526.027,-68.848,-69.824,-48.828,-80.566
1626466526.031,-62.500,-63.965,-29.785,-71.289
1626466526.035,-13.672,-45.898,-18.066,-14.648
1626466526.039,-12.207,-39.551,-37.598,1.465
1626466526.043,-57.129,-58.105,-49.316,-48.340
1626466526.045,-62.012,-62.988,-31.250,-51.270
1626466526.049,-17.090,-38.574,-8.789,0.000
1626466526.053,-3.906,-29.297,-19.043,7.324
1626466526.057,-55.664,-64.453,-44.922,-37.598
1626466526.061,-69.824,-73.730,-36.133,-47.363
1626466526.065,-22.949,-41.992,-5.859,-11.230
1626466526.069,9.277,-18.066,3.418,37.109
1626466526.072,-21.484,-45.410,-37.598,-7.812
1626466526.076,-62.500,-68.848,-47.363,-62.988
1626466526.080,-40.527,-42.969,-21.484,-51.758
1626466526.084,11.230,-3.418,-8.789,2.930
1626466526.088,3.906,-20.996,-41.992,-0.977
1626466526.090,-10.254,-49.316,-51.270,-26.367
1626466526.094,0.000,-33.691,-30.762,-21.973
1626466526.098,44.922,3.418,-12.695,16.602
1626466526.102,62.988,8.301,-34.668,33.203
1626466526.106,18.555,-20.508,-49.805,-8.301
1626466526.110,21.973,-13.672,-28.320,3.418
1626466526.114,65.430,8.301,-7.324,56.641
1626466526.117,87.402,13.672,-16.602,76.660
1626466526.121,53.711,-17.090,-42.969,38.574
1626466526.125,18.555,-40.527,-35.156,20.508
1626466526.129,43.945,-23.438,-7.812,44.434
1626466526.133,77.637,0.977,0.000,84.473
1626466526.136,38.574,-20.508,-35.156,44.922
1626466526.140,-0.977,-44.434,-41.504,13.672
1626466526.144,19.043,-41.504,-21.484,23.926
1626466526.148,65.918,-14.648,-3.418,65.918
1626466526.152,43.457,-11.719,-21.973,55.176
1626466526.156,0.000,-34.668,-31.738,2.930
1626466526.160,2.441,-46.387,-27.344,6.836
1626466526.163,35.645,-33.203,-15.137,41.016
1626466526.167,44.434,-15.137,-21.973,48.340
1626466526.171,1.465,-43.457,-44.434,2.930
1626466526.175,-14.648,-54.688,-35.156,-9.766
1626466526.179,22.461,-33.691,-13.184,26.855
1626466526.180,41.992,-16.602,-18.066,51.758
1626466526.184,7.324,-34.668,-40.039,11.230
1626466526.188,-18.066,-52.246,-30.762,-10.254
1626466526.192,-1.953,-36.133,-17.090,12.695
1626466526.196,42.480,-5.859,-14.648,52.246
1626466526.200,22.949,-15.625,-30.762,14.160
1626466526.204,-14.160,-50.293,-42.480,-32.227
1626466526.207,-1.465,-46.387,-28.809,-21.484
1626466526.211,33.203,-18.066,-0.488,20.508
1626466526.215,30.273,-27.832,-27.832,19.531
1626466526.219,-4.395,-56.641,-56.152,-27.832
1626466526.223,-9.277,-55.664,-41.016,-35.645
1626466526.225,25.879,-20.020,-10.254,14.160
1626466526.229,42.480,-7.812,-17.578,36.133
1626466526.233,4.395,-40.527,-40.527,-15.137
1626466526.237,-33.691,-51.758,-36.621,-45.898
1626466526.241,-27.344,-26.367,-20.020,-41.504
1626466526.245,-9.277,-0.488,-21.484,-16.113
1626466526.249,-46.387,-20.020,-50.781,-48.340
1626466526.252,-67.383,-37.598,-42.969,-80.078
1626466526.256,-47.852,-26.855,-23.926,-56.152
1626466526.260,-14.648,-10.742,-22.461,-7.812
1626466526.264,-33.691,-29.297,-47.852,-28.809
1626466526.268,-63.965,-52.734,-51.758,-73.242
1626466526.285,-61.523,-42.480,-36.621,-64.941
1626466526.289,-25.879,-16.113,-16.602,-14.648
1626466526.293,-23.926,-16.602,-38.574,-13.672
1626466526.297,-70.312,-43.945,-51.270,-58.105
1626466526.301,-74.219,-45.898,-34.180,-58.594
1626466526.305,-21.484,-16.113,-7.324,-15.137
1626466526.309,-0.488,-6.348,-15.137,-2.441
1626466526.312,-46.387,-37.109,-45.898,-43.457
1626466526.316,-75.195,-50.781,-48.340,-54.199
1626466526.320,-40.527,-37.598,-28.809,-23.438
1626466526.324,-7.812,-4.883,-9.277,16.113
1626466526.328,-54.199,-15.625,-34.180,-25.879
1626466526.330,-82.520,-49.316,-48.340,-75.684
1626466526.334,-56.152,-46.875,-27.344,-49.805
1626466526.338,-18.066,-11.719,0.000,-5.371
1626466526.342,-28.320,-20.020,-28.809,-19.043
1626466526.346,-52.734,-47.852,-39.551,-49.316
1626466526.350,-24.902,-31.738,-23.926,-50.781
1626466526.354,16.602,-5.371,-14.648,-8.789
1626466526.357,10.254,-10.742,-31.250,0.488
1626466526.361,-35.645,-46.387,-51.758,-60.059
1626466526.365,-50.293,-56.152,-47.852,-81.543
1626466526.369,-1.465,-23.438,-17.578,-28.809
1626466526.373,18.066,-3.418,-18.066,5.371
1626466526.376,-32.715,-33.691,-49.316,-45.410
1626466526.380,-51.270,-45.898,-47.852,-66.895
1626466526.384,-20.508,-23.438,-23.926,-32.715
1626466526.388,16.113,-1.465,-8.301,19.043
1626466526.392,-16.113,-20.020,-37.598,-6.348
1626466526.396,-58.105,-44.922,-47.363,-48.828
1626466526.400,-41.992,-38.086,-23.438,-43.457
1626466526.403,3.418,-16.113,1.465,-0.488
1626466526.407,-1.953,-20.508,-30.273,-20.508
1626466526.411,-31.738,-47.852,-51.758,-60.547
1626466526.415,-17.578,-53.223,-31.250,-38.574
1626466526.419,-1.465,-38.086,-1.953,-9.277
1626466526.420,-20.996,-32.227,-9.766,-20.996
1626466526.424,-86.426,-70.801,-34.668,-94.727
1626466526.428,-120.117,-89.844,-33.691,-110.840
1626466526.432,-93.262,-70.312,-6.348,-69.336
1626466526.436,-84.961,-54.199,-0.488,-59.082
1626466526.440,-119.141,-75.684,-19.531,-116.699
1626466526.444,-153.320,-100.586,-10.254,-150.391
1626466526.447,-152.344,-99.609,-5.371,-119.141
1626466526.451,-125.488,-81.055,-5.371,-83.008
1626466526.455,-148.926,-94.238,-26.367,-119.629
1626466526.459,-171.387,-116.699,-30.273,-140.625
1626466526.463,-161.621,-105.469,-10.254,-137.207
1626466526.465,-111.816,-78.125,12.695,-78.125
1626466526.469,-93.262,-75.684,-9.766,-49.805
1626466526.473,-125.000,-95.703,-37.598,-114.746
1626466526.477,-123.047,-100.586,-24.902,-123.047
1626466526.481,-82.031,-76.660,8.789,-55.664
1626466526.485,-56.641,-55.176,8.789,-46.875
1626466526.489,-92.285,-70.801,-23.926,-96.191
1626466526.492,-122.070,-85.449,-32.227,-101.562
1626466526.496,-84.961,-64.453,-9.766,-64.941
1626466526.500,-53.711,-43.457,-10.254,-26.855
1626466526.504,-93.750,-70.801,-40.039,-66.895
1626466526.508,-107.422,-88.867,-35.156,-91.309
1626466526.510,-84.961,-70.312,-8.789,-60.059
1626466526.514,-49.805,-38.574,-12.695,-22.949
1626466526.518,-60.547,-50.781,-51.270,-33.691
1626466526.522,-93.750,-77.148,-38.574,-76.660
1626466526.526,-88.379,-70.312,-7.324,-67.383
1626466526.530,-40.527,-41.016,10.254,-16.113
1626466526.534,-39.551,-38.574,-15.625,-14.648
1626466526.537,-79.590,-62.988,-31.250,-52.246
1626466526.541,-66.895,-65.430,-16.113,-55.176
1626466526.545,-31.250,-47.852,-2.930,-22.949
1626466526.549,-19.531,-33.203,-12.695,-8.789
1626466526.553,-52.734,-50.293,-28.809,-47.363
1626466526.555,-61.035,-66.895,-24.414,-68.848
1626466526.559,-35.645,-54.199,-20.020,-37.109
1626466526.563,-12.695,-39.551,-28.809,-2.930
1626466526.567,-29.785,-58.594,-40.039,-20.996
1626466526.571,-58.105,-70.801,-27.344,-43.945
1626466526.575,-33.203,-43.457,-12.695,-41.992
1626466526.579,-0.488,-29.785,-3.418,-3.906
1626466526.582,-22.949,-43.945,-22.949,-10.742
1626466526.586,-52.246,-53.223,-35.156,-63.477
1626466526.590,-52.246,-52.246,-33.203,-73.242
1626466526.594,-24.414,-39.551,-22.949,-21.484
1626466526.598,-11.719,-33.203,-34.180,-3.906
1626466526.615,-43.945,-47.852,-42.969,-33.691
1626466526.619,-52.246,-54.688,-32.715,-40.527
1626466526.623,-22.949,-40.527,-15.625,-11.230
1626466526.627,-7.812,-29.297,-15.625,3.418
1626466526.631,-36.621,-39.551,-36.621,-40.527
1626466526.635,-63.477,-47.363,-33.203,-53.711
1626466526.639,-49.805,-41.016,-24.414,-39.062
1626466526.642,-25.391,-27.344,-28.320,-14.648
1626466526.646,-43.945,-33.691,-39.062,-35.645
1626466526.650,-74.707,-59.570,-35.156,-66.895
1626466526.654,-52.734,-55.664,-22.461,-40.527
1626466526.658,5.859,-21.973,-7.324,18.555
1626466526.660,-9.766,-22.949,-31.738,-8.789
1626466526.664,-65.430,-53.711,-49.805,-75.684
1626466526.668,-62.500,-48.828,-45.410,-67.871
1626466526.672,-10.742,-20.996,-27.344,-6.348
1626466526.676,9.277,-8.301,-33.691,-7.812
1626466526.680,-33.691,-31.250,-54.199,-55.664
1626466526.684,-41.016,-43.457,-50.781,-59.570
1626466526.687,-3.906,-26.367,-23.926,-38.574
1626466526.691,14.648,-10.254,-27.832,-6.348
1626466526.695,-20.996,-36.133,-66.895,-34.668
1626466526.699,-42.480,-54.688,-58.594,-51.758
1626466526.703,-16.113,-30.273,-20.508,-15.625
1626466526.705,28.320,-2.441,-16.602,17.090
1626466526.709,4.883,-19.531,-52.246,-9.766
1626466526.713,-33.691,-48.340,-51.270,-45.898
1626466526.717,-21.484,-43.457,-29.785,-39.551
1626466526.721,12.695,-12.695,-10.254,18.555
1626466526.725,0.488,-13.672,-32.227,14.160
1626466526.729,-36.133,-43.945,-52.734,-51.270
1626466526.732,-43.457,-52.734,-33.691,-52.246
1626466526.736,-22.949,-30.273,-10.254,-6.348
1626466526.740,-7.324,-22.949,-25.391,6.348
1626466526.744,-40.039,-47.852,-46.875,-45.898
1626466526.748,-53.223,-56.152,-43.457,-69.824
1626466526.750,-23.926,-35.156,-20.020,-32.715
1626466526.754,4.395,-7.812,-17.090,7.812
1626466526.758,-25.879,-24.414,-51.758,-28.320
1626466526.762,-51.270,-48.828,-54.688,-59.570
1626466526.766,-35.645,-43.945,-28.320,-45.898
1626466526.770,-11.230,-15.625,-11.230,-18.066
1626466526.774,-31.738,-28.809,-36.621,-36.621
1626466526.777,-72.266,-53.223,-40.039,-82.031
1626466526.781,-70.801,-43.457,-22.949,-79.590
1626466526.785,-32.227,-29.785,-12.207,-23.438
1626466526.789,-21.973,-29.297,-22.949,-7.812
1626466526.793,-53.711,-54.199,-33.691,-31.250
1626466526.795,-52.246,-54.199,-35.645,-47.363
1626466526.799,-8.301,-27.344,-23.438,-46.875
1626466526.803,23.438,-7.812,-22.949,-11.719
1626466526.807,-12.207,-28.809,-44.434,-50.293
1626466526.811,-24.414,-44.434,-48.828,-54.199
1626466526.815,9.277,-17.090,-30.273,-8.301
1626466526.819,46.875,9.277,-19.043,24.902
1626466526.822,31.250,-10.742,-42.969,24.414
1626466526.826,9.766,-26.855,-46.387,13.672
1626466526.830,44.434,-15.625,-26.367,36.133
1626466526.834,88.379,8.301,-13.184,85.449
1626466526.838,76.660,-1.953,-37.109,72.266
1626466526.841,50.293,-27.832,-41.992,40.527
1626466526.845,51.758,-23.926,-25.879,30.762
1626466526.849,77.637,-1.953,-8.789,60.059
1626466526.853,87.402,-6.348,-25.879,61.035
1626466526.857,44.922,-34.180,-40.039,4.883
1626466526.861,15.625,-35.156,-31.250,-8.789
1626466526.865,52.734,-17.578,-17.090,31.738
1626466526.868,68.359,-4.395,-21.973,55.176
1626466526.872,23.926,-19.531,-45.410,2.930
1626466526.876,-1.465,-41.016,-51.270,-20.020
1626466526.880,8.301,-36.133,-37.598,-0.977
1626466526.884,31.250,-16.602,-17.090,38.086
1626466526.885,5.859,-21.973,-31.738,13.184
1626466526.889,-30.762,-41.992,-39.062,-27.344
1626466526.893,-3.906,-35.156,-18.555,-5.859
1626466526.897,36.621,-15.625,3.906,39.062
1626466526.901,24.902,-24.414,-21.973,12.695
1626466526.905,-12.207,-36.621,-39.551,-27.344
1626466526.909,-27.344,-37.109,-30.273,-24.902
1626466526.912,3.418,-26.855,-12.695,1.953
1626466526.916,18.066,-20.996,-23.438,17.090
1626466526.920,-18.066,-43.945,-45.898,-12.207
1626466526.924,-27.344,-51.758,-38.086,-30.273
1626466526.928,6.348,-30.273,-19.531,-9.277
1626466526.930,26.367,-18.066,-24.414,24.902
1626466526.934,-17.578,-40.039,-39.062,-15.137
1626466526.938,-53.711,-57.129,-33.203,-42.969
1626466526.942,-35.156,-52.246,-28.320,-19.531
1626466526.946,3.906,-27.344,-21.484,21.484
1626466526.950,-0.977,-30.273,-31.738,3.906
1626466526.954,-39.062,-52.734,-35.156,-38.086
1626466526.957,-38.086,-47.363,-24.902,-26.367
1626466526.961,9.277,-15.625,-12.207,18.555
1626466526.965,-0.488,-18.066,-37.598,7.324
1626466526.969,-62.012,-60.059,-60.059,-49.805
1626466526.973,-62.988,-58.594,-43.457,-43.457
1626466526.990,-17.578,-27.344,-22.461,-9.766
1626466526.994,-16.113,-19.043,-32.715,-21.973
1626466526.998,-52.246,-41.992,-46.875,-62.012
1626466527.002,-61.523,-48.340,-42.480,-59.570
1626466527.006,-27.832,-28.320,-19.043,-20.996
1626466527.010,0.977,-13.672,-15.625,7.324
1626466527.014,-29.785,-33.203,-45.410,-19.043
1626466527.017,-50.293,-57.617,-49.805,-51.270
1626466527.021,-31.250,-47.852,-38.086,-41.992
1626466527.025,3.906,-24.414,-26.855,5.859
1626466527.029,-17.090,-30.273,-44.922,-9.277
1626466527.033,-46.875,-43.457,-50.781,-57.129
1626466527.035,-31.250,-46.387,-42.480,-58.594
1626466527.039,-2.441,-30.273,-23.438,-20.020
1626466527.043,-4.395,-25.879,-33.691,-13.184
1626466527.047,-41.504,-48.828,-44.922,-45.410
1626466527.051,-41.016,-51.270,-40.039,-59.570
1626466527.055,4.883,-16.602,-17.578,-22.461
1626466527.059,13.672,-6.348,-24.414,-6.836
1626466527.062,-29.297,-42.480,-46.387,-45.410
1626466527.066,-47.363,-53.711,-40.039,-60.059
1626466527.070,-36.133,-44.922,-44.434,-46.387
1626466527.074,-18.555,-27.832,-52.734,-17.090
1626466527.078,-35.156,-42.969,-60.059,-41.504
1626466527.081,-63.965,-56.152,-47.363,-65.430
1626466527.085,-54.688,-44.922,-28.809,-57.129
1626466527.089,-14.648,-24.414,-16.113,-16.602
1626466527.093,-29.297,-36.621,-36.621,-27.832
1626466527.097,-70.312,-68.848,-47.852,-70.312
1626466527.101,-65.430,-52.734,-33.691,-63.477
1626466527.105,-21.484,-20.508,-16.113,-15.137
1626466527.108,0.977,-25.879,-34.668,-14.160
1626466527.112,-38.086,-54.688,-56.152,-64.941
1626466527.116,-48.828,-54.199,-43.945,-60.059
1626466527.120,-5.859,-27.832,-22.949,-26.855
1626466527.124,5.859,-12.695,-28.809,-1.953
1626466527.125,-36.621,-32.715,-46.387,-46.387
1626466527.129,-57.617,-52.734,-44.922,-63.477
1626466527.133,-31.738,-38.574,-24.902,-34.180
1626466527.137,-11.230,-17.578,-12.695,1.953
1626466527.141,-37.598,-30.762,-36.133,-28.809
1626466527.145,-69.824,-48.828,-46.875,-77.637
1626466527.149,-76.660,-46.875,-31.250,-61.523
1626466527.152,-28.809,-22.949,-8.789,-14.160
1626466527.156,-38.086,-36.621,-32.715,-33.691
1626466527.160,-72.266,-69.824,-45.410,-67.383
1626466527.164,-57.617,-63.477,-30.273,-58.594
1626466527.168,-23.926,-39.551,-10.742,-21.973
1626466527.170,-17.578,-34.180,-17.578,-8.789
1626466527.174,-65.918,-59.082,-37.109,-63.477
1626466527.178,-72.266,-65.918,-31.738,-78.613
1626466527.182,-38.086,-44.922,-14.160,-40.527
1626466527.186,-7.812,-24.902,-12.207,-14.160
1626466527.190,-28.809,-34.668,-34.180,-40.039
1626466527.194,-59.570,-50.781,-37.598,-61.523
1626466527.197,-51.270,-46.875,-23.926,-42.969
1626466527.201,-16.602,-27.344,-17.578,-1.465
1626466527.205,-28.809,-36.621,-40.527,-30.273
1626466527.209,-65.430,-53.711,-35.156,-71.289
1626466527.213,-55.176,-52.246,-21.973,-47.852
1626466527.215,-12.695,-31.250,-22.461,-3.418
1626466527.219,-11.719,-24.414,-38.574,-17.578
1626466527.223,-54.688,-50.293,-46.387,-66.895
1626466527.227,-60.547,-53.711,-36.133,-74.219
1626466527.231,-21.973,-27.832,-17.090,-32.227
1626466527.235,-14.648,-17.090,-26.855,-12.207
1626466527.239,-52.734,-36.133,-45.410,-41.016
1626466527.242,-64.453,-47.363,-44.434,-63.965
1626466527.246,-32.715,-28.809,-22.461,-37.109
1626466527.250,-16.113,-14.648,-18.066,-6.348
1626466527.254,-41.016,-35.645,-43.945,-47.363
1626466527.258,-67.871,-56.641,-45.898,-75.195
1626466527.260,-52.246,-41.992,-34.180,-51.270
1626466527.264,-0.977,-11.719,-18.066,0.977
1626466527.268,-26.367,-17.578,-29.297,-27.344
1626466527.272,-69.336,-46.875,-32.715,-62.500
1626466527.276,-72.754,-50.293,-30.762,-62.500
1626466527.280,-42.969,-21.973,-21.484,-30.762
1626466527.284,-19.531,-18.066,-38.086,-18.066
1626466527.287,-57.129,-53.711,-52.734,-68.359
1626466527.291,-79.102,-62.500,-45.410,-74.707
1626466527.295,-44.434,-41.016,-32.227,-41.016
1626466527.299,-14.160,-30.762,-28.320,-23.438
1626466527.303,-56.152,-53.711,-44.922,-60.059
1626466527.320,-76.172,-57.129,-39.062,-76.172
1626466527.324,-46.387,-36.133,-11.719,-45.410
1626466527.328,-13.672,-20.020,-7.812,-5.371
1626466527.332,-41.016,-42.480,-36.133,-42.969
1626466527.336,-74.219,-59.570,-41.504,-76.172
1626466527.340,-41.504,-41.016,-31.250,-45.898
1626466527.344,11.230,-13.184,-19.531,-3.418
1626466527.347,-3.906,-21.973,-34.180,-20.508
1626466527.351,-51.270,-44.922,-42.480,-61.035
1626466527.355,-49.805,-50.293,-34.668,-49.805
1626466527.359,-17.090,-39.062,-12.695,-10.742
1626466527.363,-15.625,-31.738,-22.949,-9.277
1626466527.350,-60.547,-52.734,-42.480,-51.270
1626466527.354,-72.754,-62.988,-38.086,-75.195
1626466527.358,-24.414,-30.762,-15.625,-31.738
1626466527.362,2.441,-12.207,-16.113,5.371
1626466527.366,-51.758,-42.969,-41.504,-50.781
1626466527.370,-74.219,-54.688,-44.434,-69.824
1626466527.374,-34.668,-36.621,-26.855,-39.551
1626466527.377,3.906,-20.996,-12.207,-12.695
1626466527.381,-31.738,-47.852,-36.133,-51.270
1626466527.385,-78.125,-72.754,-51.270,-77.637
1626466527.389,-67.871,-65.430,-38.086,-62.500
1626466527.393,-35.156,-39.062,-21.484,-18.555
1626466527.410,-35.156,-35.156,-46.387,-17.090
1626466527.414,-70.312,-50.781,-44.434,-68.359
1626466527.418,-67.871,-49.805,-28.320,-73.730
1626466527.422,-25.879,-33.691,-19.043,-29.297
1626466527.426,-28.809,-29.297,-28.809,-31.738
1626466527.430,-72.754,-54.199,-44.922,-82.031
1626466527.434,-75.684,-70.312,-34.668,-87.402
1626466527.437,-35.156,-46.387,-15.625,-55.176
1626466527.441,-7.324,-14.648,-23.438,-27.832
1626466527.445,-42.480,-41.992,-56.641,-62.988
1626466527.449,-69.336,-70.312,-59.082,-83.984
1626466527.453,-30.762,-51.270,-23.926,-55.664
1626466527.455,4.883,-25.879,-8.789,-8.789
1626466527.459,-73.242,-54.199,-53.711,-57.617
1626466527.463,-125.488,-86.426,-53.711,-112.793
1626466527.467,-102.539,-81.543,-14.160,-107.910
1626466527.471,-81.543,-56.641,9.277,-85.938
1626466527.475,-98.145,-52.734,-18.555,-100.098
1626466527.479,-157.715,-75.195,-32.715,-156.738
1626466527.482,-185.059,-88.867,-32.715,-176.270
1626466527.486,-155.273,-81.543,-13.672,-149.902
1626466527.490,-177.246,-68.359,-3.418,-142.090
1626466527.494,-221.191,-85.449,-28.320,-179.199
1626466527.498,-226.074,-95.703,-36.133,-203.613
1626466527.500,-187.500,-79.590,-13.672,-160.156
1626466527.504,-133.301,-60.059,-5.371,-91.797
1626466527.508,-150.879,-76.660,-21.973,-113.770
1626466527.512,-166.504,-85.938,-26.367,-144.043
1626466527.516,-135.742,-61.035,-15.625,-121.582
1626466527.520,-92.773,-32.227,11.719,-64.453
1626466527.524,-105.469,-44.434,-9.766,-86.914
1626466527.527,-149.902,-74.707,-30.273,-133.789
1626466527.531,-139.160,-71.777,-20.996,-114.746
1626466527.535,-70.312,-50.781,6.836,-61.035
1626466527.539,-70.801,-54.688,-9.277,-57.617
1626466527.543,-112.305,-85.449,-39.551,-97.168
1626466527.546,-100.098,-90.820,-36.621,-94.727
1626466527.550,-54.688,-56.641,-14.160,-62.012
1626466527.554,-32.227,-28.320,-15.137,-32.715
1626466527.558,-71.289,-60.547,-39.551,-71.289
1626466527.562,-93.750,-82.031,-33.203,-103.027
1626466527.566,-62.012,-56.152,-8.789,-73.730
1626466527.570,-18.555,-30.273,-5.859,-26.855
1626466527.573,-54.199,-62.988,-41.504,-43.945
1626466527.577,-79.102,-81.055,-41.992,-67.383
1626466527.581,-51.758,-55.664,-21.484,-65.430
1626466527.585,-11.230,-28.809,-6.836,-10.742
1626466527.589,-14.160,-35.156,-26.855,-11.719
1626466527.590,-37.109,-63.477,-36.133,-59.082
1626466527.594,-44.922,-65.918,-22.461,-52.246
1626466527.598,-6.836,-34.668,-6.348,2.930
1626466527.602,4.395,-28.809,-26.367,-0.488
1626466527.606,-62.988,-57.129,-46.875,-57.617
1626466527.610,-84.473,-57.617,-41.504,-66.895
1626466527.614,-31.738,-28.320,-3.906,-36.621
1626466527.617,-12.695,-16.602,1.465,-12.207
1626466527.621,-67.871,-52.246,-39.062,-59.082
1626466527.625,-100.098,-71.289,-41.016,-77.148
1626466527.629,-61.035,-47.852,-24.414,-60.547
1626466527.633,-16.602,-21.973,-8.301,0.977
1626466527.635,-38.574,-45.410,-34.668,-19.043
1626466527.639,-72.754,-61.523,-43.945,-74.707
1626466527.643,-74.219,-44.922,-27.832,-50.293
1626466527.647,-30.762,-24.414,-15.625,-6.836
1626466527.651,-23.926,-23.438,-36.133,-19.043
1626466527.655,-69.824,-42.969,-46.387,-71.289
1626466527.659,-70.312,-57.617,-23.926,-63.965
1626466527.662,-20.508,-42.969,-5.859,-18.066
1626466527.666,11.719,-20.996,-27.832,-0.488
1626466527.670,-26.855,-42.969,-44.922,-36.133
1626466527.674,-69.336,-62.988,-37.109,-70.801
1626466527.678,-39.062,-44.922,-13.672,-29.785
1626466527.680,-4.395,-19.531,-6.836,30.762
1626466527.684,-33.691,-46.875,-40.039,-21.973
1626466527.688,-52.734,-68.359,-44.434,-63.477
1626466527.692,-31.250,-41.016,-19.531,-35.645
1626466527.696,1.953,-7.812,2.930,19.043
1626466527.700,-12.695,-23.926,-26.367,-12.207
1626466527.704,-63.477,-57.129,-42.480,-64.453
1626466527.707,-60.547,-47.852,-32.715,-48.340
1626466527.711,-13.184,-15.625,-16.113,1.465
1626466527.715,-6.348,-25.879,-27.344,-5.371
1626466527.719,-57.129,-62.500,-43.457,-64.453
1626466527.723,-57.617,-65.430,-31.738,-57.129
1626466527.726,-6.836,-36.133,-3.418,-15.625
1626466527.730,-12.207,-27.832,-20.508,-13.672
1626466527.734,-67.383,-53.711,-48.340,-62.500
1626466527.738,-85.938,-65.430,-47.852,-83.984
1626466527.742,-58.594,-41.504,-30.273,-48.828
1626466527.746,-48.828,-11.230,-15.137,-14.648
1626466527.750,-66.406,-36.621,-52.734,-62.012
1626466527.753,-91.797,-66.406,-60.547,-91.797
1626466527.757,-85.938,-55.176,-25.879,-60.547
1626466527.761,-32.715,-25.391,-4.883,-10.742
1626466527.765,-50.781,-28.809,-36.133,-38.574
1626466527.769,-90.332,-47.363,-49.316,-78.125
1626466527.785,-72.754,-46.387,-30.762,-58.594
1626466527.789,-26.855,-19.531,-3.906,-20.020
1626466527.793,-38.086,-7.324,-24.414,-10.254
1626466527.797,-76.660,-38.086,-47.852,-48.828
1626466527.801,-75.684,-49.805,-42.480,-62.500
1626466527.805,-34.180,-20.996,-21.973,-21.973
1626466527.809,-3.418,-4.395,-10.254,3.418
1626466527.812,-57.617,-32.227,-25.391,-36.621
1626466527.816,-75.195,-47.363,-28.320,-63.965
1626466527.820,-28.809,-38.086,-12.207,-30.273
1626466527.824,1.953,-10.742,-7.812,10.254
1626466527.828,-39.551,-25.391,-44.434,-36.133
1626466527.830,-65.918,-46.875,-41.504,-77.637
1626466527.834,-40.039,-36.133,-18.066,-57.129
1626466527.838,-2.441,-11.230,-7.812,-0.488
1626466527.842,-20.020,-19.043,-37.109,-23.438
1626466527.846,-61.523,-53.223,-51.270,-71.777
1626466527.850,-46.387,-46.875,-27.344,-66.406
1626466527.854,-26.367,-13.672,5.859,-19.531
1626466527.857,-22.461,-16.602,-20.020,-12.207
1626466527.861,-55.176,-53.223,-58.594,-77.148
1626466527.865,-71.777,-53.223,-52.246,-85.938
1626466527.869,-24.902,-23.438,-21.973,-28.809
1626466527.873,-2.930,-11.719,-17.578,1.465
1626466527.875,-40.527,-37.109,-40.527,-47.363
1626466527.879,-58.594,-49.805,-43.457,-70.312
1626466527.883,-34.668,-31.250,-19.531,-27.344
1626466527.887,1.465,-13.184,1.953,19.043
1626466527.891,-5.859,-30.762,-22.949,-19.531
1626466527.895,-45.898,-47.363,-37.109,-41.992
1626466527.899,-54.199,-42.969,-28.320,-37.598
1626466527.902,-12.695,-14.160,-1.953,-1.953
1626466527.906,-13.184,-12.207,-23.926,-0.977
1626466527.910,-55.176,-56.641,-46.387,-56.641
1626466527.914,-53.223,-55.176,-27.344,-44.434
1626466527.918,-4.395,-22.949,1.953,7.324
1626466527.920,0.488,-17.578,-9.277,10.742
1626466527.924,-31.738,-36.621,-42.480,-34.668
1626466527.928,-41.016,-45.898,-47.852,-62.012
1626466527.932,-25.391,-28.320,-25.879,-32.227
1626466527.936,16.113,-8.789,-17.090,20.996
1626466527.940,-18.066,-34.180,-43.945,-32.715
1626466527.944,-46.387,-53.223,-41.992,-79.590
1626466527.947,-38.574,-49.805,-20.508,-70.312
1626466527.951,-2.930,-24.414,-16.113,-24.414
1626466527.955,-2.930,-25.879,-36.621,-23.438
1626466527.959,-47.852,-58.105,-46.387,-64.941
1626466527.963,-52.246,-62.988,-36.621,-60.547
1626466527.965,-4.883,-27.832,-16.602,-15.625
1626466527.969,21.484,-19.043,-30.762,-12.695
1626466527.973,-29.297,-51.270,-37.598,-59.082
1626466527.977,-59.082,-66.406,-32.227,-66.895
1626466527.981,-18.555,-37.109,-15.137,-31.738
1626466527.985,5.859,-12.207,-16.113,-5.371
1626466527.989,-39.551,-37.598,-35.645,-50.293
1626466527.992,-66.406,-46.387,-37.109,-65.430
1626466527.996,-46.875,-30.762,-24.902,-26.855
1626466528.000,-1.953,-9.277,-14.648,14.160
1626466528.004,-3.906,-24.414,-38.574,-24.902
1626466528.008,-39.062,-52.734,-36.621,-55.664
1626466528.010,-26.367,-32.227,-15.137,-38.574
1626466528.014,2.930,-7.812,-7.324,6.348
1626466528.018,-20.020,-18.066,-30.273,1.465
1626466528.022,-61.523,-40.527,-49.805,-53.223
1626466528.026,-48.828,-37.598,-36.621,-57.129
1626466528.030,6.836,0.000,-6.836,-11.230
1626466528.034,-3.418,-5.371,-27.832,0.000
1626466528.037,-53.711,-43.457,-49.805,-39.551
1626466528.041,-47.363,-38.574,-37.598,-53.223
1626466528.045,-7.812,-18.066,-16.602,-19.531
1626466528.049,11.230,-10.254,-20.020,4.883
1626466528.053,-16.602,-37.109,-52.246,-27.832
1626466528.055,-48.828,-53.223,-45.410,-48.340
1626466528.059,-20.508,-37.109,-13.184,-24.902
1626466528.063,14.160,-11.719,-3.418,4.883
1626466528.067,-31.738,-24.414,-29.297,-20.996
1626466528.071,-52.734,-44.922,-29.297,-45.898
1626466528.075,-15.137,-23.438,-10.254,-36.621
1626466528.079,-0.977,-3.418,-7.812,-3.418
1626466528.082,-20.508,-23.438,-23.926,-3.906
1626466528.086,-43.457,-41.504,-30.273,-40.039
1626466528.090,-46.875,-43.945,-36.621,-59.570
1626466528.094,-27.832,-29.785,-21.484,-24.902
1626466528.098,-25.879,-28.320,-29.785,-4.395
1626466528.100,-62.500,-53.223,-47.363,-43.945
1626466528.104,-68.359,-52.734,-31.250,-68.359
1626466528.108,-17.090,-28.320,-15.137,-34.668
1626466528.112,13.184,-17.578,-22.949,-6.348
1626466528.116,-21.973,-40.527,-42.480,-41.016
1626466528.120,-51.758,-48.828,-39.062,-57.617
1626466528.124,-20.508,-33.203,-21.484,-34.180
1626466528.127,14.648,-22.949,-9.766,4.883
1626466528.131,-22.949,-33.691,-27.344,-30.273
1626466528.135,-43.945,-48.828,-39.062,-74.219
1626466528.139,-29.297,-43.945,-29.297,-62.012
1626466528.143,0.977,-19.043,-9.277,-29.297
1626466528.160,-10.742,-28.320,-30.273,-29.785
1626466528.164,-47.852,-62.500,-43.457,-60.059
1626466528.168,-34.180,-59.082,-32.227,-53.223
1626466528.172,-0.488,-28.320,-7.812,-16.113
1626466528.176,11.230,-26.855,-13.672,-16.602
1626466528.180,-45.410,-54.688,-40.039,-55.664
1626466528.184,-66.895,-62.988,-40.527,-62.500
1626466528.187,-3.418,-35.156,-22.949,-39.062
1626466528.191,14.160,-15.137,-26.855,-19.043
1626466528.195,-48.340,-58.594,-56.641,-55.176
1626466528.199,-70.801,-81.543,-47.363,-83.496
1626466528.203,-41.016,-48.828,-13.672,-47.363
1626466528.205,-27.832,-21.484,-9.277,-11.230
1626466528.209,-45.410,-40.527,-44.434,-34.180
1626466528.213,-67.871,-59.082,-46.875,-47.852
1626466528.217,-51.270,-61.035,-24.414,-31.738
1626466528.221,-6.348,-40.527,-4.883,0.977
1626466528.225,-20.508,-30.762,-30.762,3.418
1626466528.229,-59.570,-50.781,-47.363,-36.621
1626466528.232,-55.176,-50.293,-34.180,-62.012
1626466528.236,-18.555,-23.926,-15.625,-25.391
1626466528.240,-18.066,-21.973,-20.508,4.883
1626466528.244,-55.176,-45.410,-39.062,-55.664
1626466528.248,-66.895,-52.734,-40.039,-82.031
1626466528.250,-46.875,-32.227,-17.578,-35.156
1626466528.254,-17.090,-11.230,4.395,16.113
1626466528.258,-24.414,-27.344,-32.715,-23.438
1626466528.262,-71.289,-51.270,-58.105,-71.777
1626466528.266,-73.242,-50.781,-31.250,-66.895
1626466528.270,-13.672,-17.578,-9.277,-12.695
1626466528.274,-26.855,-22.949,-32.227,-12.695
1626466528.277,-70.801,-48.340,-42.480,-62.988
1626466528.281,-62.012,-36.621,-32.715,-68.359
1626466528.285,-20.996,-12.207,-6.348,-19.531
1626466528.289,-23.438,-12.695,-17.578,-6.348
1626466528.293,-83.496,-41.016,-40.039,-58.105
1626466528.295,-89.355,-43.945,-33.203,-70.801
1626466528.299,-41.992,-21.484,-14.648,-30.762
1626466528.303,-33.203,-8.301,-18.066,3.418
1626466528.307,-52.246,-29.785,-47.363,-41.504
1626466528.311,-49.805,-43.945,-47.363,-71.777
1626466528.315,-20.996,-22.949,-19.043,-41.504
1626466528.319,-6.348,13.184,-6.836,-10.742
1626466528.322,-43.945,-12.207,-45.410,-36.133
1626466528.326,-47.363,-49.316,-52.246,-81.543
1626466528.330,-25.879,-33.691,-20.508,-60.059
1626466528.334,7.324,-2.930,-6.836,11.230
1626466528.338,12.207,-4.395,-30.273,-6.836
1626466528.338,12.207,-4.395,-30.273,-6.836
1626466528.340,-31.250,-22.949,-38.574,-61.523
1626466528.344,-29.297,-25.391,-29.785,-57.129
1626466528.348,9.277,3.418,-1.953,-5.371
1626466528.352,18.555,11.230,-17.578,13.184
1626466528.356,-26.855,-27.832,-49.316,-51.270
1626466528.360,-44.922,-25.391,-34.668,-57.617
1626466528.364,-16.602,-0.977,-15.137,-11.230
1626466528.367,1.953,-4.883,-21.484,5.859
1626466528.371,-25.391,-25.879,-36.621,-33.203
1626466528.375,-50.781,-40.039,-35.645,-58.105
1626466528.379,-45.410,-38.574,-22.949,-36.621
1626466528.383,-19.043,-14.648,-18.066,-6.836
1626466528.385,-34.180,-18.555,-34.668,-23.438
1626466528.389,-70.801,-46.387,-35.645,-57.617
1626466528.393,-59.570,-37.109,-19.531,-76.660
1626466528.397,-6.836,-0.977,9.766,-21.484
1626466528.401,-19.531,-11.719,-13.672,10.742
1626466528.405,-66.406,-37.598,-43.457,-50.293
1626466528.409,-66.895,-42.480,-49.805,-68.359
1626466528.412,-24.414,-22.949,-28.809,-18.555
1626466528.416,-14.160,-5.371,-28.320,2.441
1626466528.420,-61.035,-32.715,-41.504,-56.152
1626466528.424,-62.500,-47.852,-28.809,-69.336
1626466528.428,-26.855,-27.832,-12.695,-24.902
1626466528.433,-15.137,-3.418,-20.508,-4.883
1626466528.437,-50.293,-27.344,-47.852,-49.316
1626466528.441,-63.477,-50.293,-45.410,-69.824
1626466528.445,-45.898,-32.227,-22.949,-50.293
1626466528.449,9.277,2.441,-13.184,1.953
1626466528.453,-20.508,-12.695,-45.410,-15.137
1626466528.457,-79.590,-46.875,-56.152,-64.941
1626466528.460,-69.336,-39.551,-34.180,-70.801
1626466528.464,-18.066,-4.395,-12.207,-13.184
1626466528.468,-0.488,-6.348,-37.598,-11.719
1626466528.472,-54.199,-42.969,-46.875,-62.988
1626466528.476,-73.730,-49.805,-37.598,-62.012
1626466528.475,-37.109,-13.672,-15.137,-19.531
1626466528.479,-9.766,2.441,-5.371,12.695
1626466528.483,-52.734,-26.855,-37.109,-33.691
1626466528.487,-78.613,-42.480,-50.781,-65.918
1626466528.491,-31.738,-26.855,-18.066,-25.879
1626466528.495,-2.930,-1.953,-11.719,16.602
1626466528.499,-46.875,-28.809,-53.711,-19.531
1626466528.502,-83.008,-49.805,-51.758,-62.988
1626466528.506,-50.781,-35.645,-24.902,-40.527
1626466528.510,-2.441,-21.973,-12.207,11.230
1626466528.514,-12.695,-20.996,-38.574,-14.160
1626466528.518,-44.922,-32.715,-42.969,-56.152
1626466528.535,-27.344,-38.086,-30.762,-53.223
1626466528.539,13.672,-10.254,-11.230,3.418
1626466528.543,10.742,-6.348,-22.461,4.883
1626466528.547,-31.250,-42.969,-48.340,-55.176
1626466528.551,-45.410,-46.875,-43.457,-80.078
1626466528.555,-0.977,-11.719,-10.254,-37.598
1626466528.559,12.207,9.766,-20.020,-5.859
1626466528.562,-33.691,-18.555,-47.363,-56.152
1626466528.566,-41.504,-36.621,-36.621,-79.590
1626466528.570,-17.578,-28.320,-26.855,-45.410
1626466528.574,14.160,-9.277,-23.926,1.953
1626466528.578,-8.301,-20.020,-41.992,-31.738
1626466528.580,-49.805,-41.016,-39.551,-78.125
1626466528.584,-32.227,-32.715,-19.043,-61.523
1626466528.588,-4.883,-4.883,0.488,-0.488
1626466528.592,-34.180,-13.184,-20.996,-11.719
1626466528.596,-55.176,-44.922,-45.410,-64.453
1626466528.600,-55.176,-48.340,-33.691,-67.383
1626466528.604,-30.762,-22.461,-4.883,-11.230
1626466528.607,-8.301,-21.973,-17.578,4.883
1626466528.611,-62.500,-50.781,-41.504,-45.410
1626466528.615,-92.285,-64.941,-33.203,-63.965
1626466528.619,-41.016,-41.992,-5.371,-17.090
1626466528.623,-4.883,-12.695,-9.766,43.945
1626466528.625,-41.992,-40.039,-38.574,2.930
1626466528.629,-73.730,-63.477,-36.133,-49.316
1626466528.633,-59.082,-44.434,-16.113,-27.344
1626466528.637,-8.301,-20.996,-1.953,4.883
1626466528.641,-18.066,-33.691,-27.832,-18.555
1626466528.645,-47.363,-40.039,-33.691,-41.504
1626466528.649,-37.109,-31.250,-24.414,-41.992
1626466528.652,-11.230,-21.973,-7.812,-4.395
1626466528.656,-6.348,-21.973,-27.832,-13.184
1626466528.660,-47.852,-45.410,-48.828,-72.266
1626466528.664,-46.875,-45.898,-39.062,-72.266
1626466528.668,4.883,-20.996,-14.648,-25.879
1626466528.670,11.719,-9.277,-31.738,-15.625
1626466528.674,-35.645,-39.551,-59.082,-58.594
1626466528.678,-49.805,-58.105,-40.527,-83.984
1626466528.682,-12.207,-33.691,-6.836,-54.199
1626466528.686,-0.977,-8.789,-6.836,-2.930
1626466528.690,-48.340,-21.484,-31.738,-27.832
1626466528.694,-64.453,-41.504,-32.227,-52.734
1626466528.697,-50.293,-48.340,-22.949,-38.574
1626466528.701,-18.555,-21.973,-11.719,-1.465
1626466528.705,-35.156,-25.391,-39.062,-24.414
1626466528.709,-85.938,-53.223,-45.898,-60.547
1626466528.713,-74.219,-53.223,-28.809,-48.340
1626466528.715,-31.250,-19.043,-5.859,8.301
1626466528.719,-36.133,-9.277,-20.996,7.324
1626466528.723,-64.941,-41.504,-34.180,-47.363
1626466528.727,-58.105,-50.781,-29.297,-46.387
1626466528.731,-27.832,-30.273,-17.578,-13.184
1626466528.735,-30.762,-11.230,-20.996,7.324
1626466528.739,-64.941,-39.062,-48.340,-38.574
1626466528.742,-74.219,-66.406,-46.875,-67.383
1626466528.746,-41.016,-44.434,-15.137,-31.250
1626466528.750,3.418,-14.648,-3.418,12.207
1626466528.754,-28.809,-36.133,-43.945,-18.555
1626466528.758,-71.289,-68.359,-52.734,-61.035
1626466528.761,-53.223,-50.293,-23.438,-53.223
1626466528.765,1.465,-12.207,-10.742,-11.230
1626466528.769,-13.184,-24.902,-42.969,-29.297
1626466528.773,-54.688,-52.734,-50.293,-77.148
1626466528.777,-45.898,-43.945,-28.320,-71.777
1626466528.781,8.789,-10.254,-0.488,-3.418
1626466528.785,13.672,-4.883,-23.926,5.371
1626466528.788,-36.621,-42.480,-57.617,-45.898
1626466528.792,-48.828,-51.758,-41.016,-55.176
1626466528.796,-1.953,-15.625,-12.695,-15.625
1626466528.800,9.277,-1.953,-15.137,18.555
1626466528.804,-52.734,-38.574,-41.016,-32.715
1626466528.805,-64.941,-49.805,-41.992,-67.871
1626466528.809,-17.578,-23.926,-16.113,-38.574
1626466528.813,14.648,3.906,-11.719,13.672
1626466528.817,-25.391,-14.160,-42.969,-16.113
1626466528.821,-64.453,-40.039,-39.551,-58.594
1626466528.825,-52.734,-25.391,-15.137,-39.551
1626466528.829,-14.648,-0.488,-4.395,7.812
1626466528.832,-28.320,-17.578,-39.551,-5.371
1626466528.836,-66.406,-43.457,-56.152,-60.547
1626466528.840,-89.844,-42.480,-35.156,-64.453
1626466528.844,-28.320,-15.625,-2.930,-14.648
1626466528.848,6.348,-3.418,-16.602,-10.254
1626466528.850,-49.805,-27.344,-48.340,-58.594
1626466528.854,-83.008,-41.504,-43.457,-80.078
1626466528.858,-35.645,-23.438,-11.719,-44.434
1626466528.862,8.789,-2.441,-14.648,-4.395
1626466528.866,-44.434,-27.832,-46.387,-56.641
1626466528.870,-69.336,-39.551,-42.480,-94.727
1626466528.874,-45.410,-24.414,-19.043,-54.688
1626466528.877,-5.859,-3.418,-1.953,2.441
1626466528.881,-21.484,-14.160,-42.969,-48.828
1626466528.885,-50.781,-35.645,-61.035,-88.379
1626466528.889,-40.039,-34.180,-38.574,-54.688
1626466528.893,8.789,-10.742,-17.090,-13.184
1626466528.910,0.488,-0.977,-41.016,-33.203
1626466528.914,-48.340,-28.809,-60.059,-81.543
1626466528.918,-58.105,-41.504,-43.457,-69.824
1626466528.922,-20.508,-14.160,-14.160,-25.879
1626466528.926,6.836,8.789,-29.297,-3.418
1626466528.930,-30.273,-15.625,-53.711,-50.293
1626466528.934,-76.660,-40.527,-42.480,-72.266
1626466528.937,-52.246,-22.949,-18.555,-22.949
1626466528.941,12.207,3.418,-20.508,24.902
1626466528.945,-36.133,-30.273,-59.082,-23.926
1626466528.949,-70.801,-49.316,-51.270,-63.965
1626466528.953,-40.527,-28.809,-24.902,-37.109
1626466528.955,-10.254,-2.441,-27.344,15.137
1626466528.959,-27.344,-16.602,-52.734,-10.742
1626466528.963,-62.500,-47.363,-44.434,-81.055
1626466528.967,-58.594,-45.410,-17.090,-63.477
1626466528.971,-20.996,-23.438,4.883,-5.859
1626466528.975,-23.438,-19.531,-21.484,-4.883
1626466528.979,-50.293,-46.387,-44.434,-44.922
1626466528.982,-42.969,-54.688,-30.762,-67.383
1626466528.986,-3.906,-30.762,-7.324,-15.137
1626466528.990,13.672,-14.160,-13.184,24.414
1626466528.994,-20.508,-35.645,-36.621,-29.785
1626466528.998,-47.363,-52.734,-32.715,-52.734
1626466529.001,-8.789,-30.762,-12.207,-21.973
1626466529.005,25.879,-11.719,-12.207,4.883
1626466529.009,-25.879,-34.668,-44.922,-33.691
1626466529.013,-61.523,-46.875,-44.922,-74.219
1626466529.017,-28.320,-33.203,-23.438,-52.734
1626466529.021,-1.953,-6.836,-7.812,-1.465
1626466529.025,-27.344,-17.578,-35.156,-16.602
1626466529.028,-43.457,-42.480,-45.410,-62.500
1626466529.032,-46.387,-42.480,-34.180,-64.453
1626466529.036,-23.926,-32.227,-24.902,-10.254
1626466529.040,-20.508,-32.715,-41.992,-0.977
1626466529.044,-62.012,-50.293,-57.129,-45.898
1626466529.045,-71.777,-58.594,-39.062,-49.316
1626466529.049,-29.297,-33.691,-5.859,-10.254
1626466529.053,-16.602,-16.602,-15.625,18.555
1626466529.057,-59.570,-45.410,-47.363,-35.156
1626466529.061,-80.078,-58.105,-40.039,-63.965
1626466529.065,-40.527,-30.273,-21.973,-31.250
1626466529.069,-4.395,-4.395,-15.625,18.066
1626466529.072,-49.805,-33.691,-48.340,-24.902
1626466529.076,-77.148,-56.152,-52.734,-73.242
1626466529.080,-48.340,-38.574,-28.809,-54.688
1626466529.084,0.977,-10.254,-18.555,-4.883
1626466529.088,-1.465,-16.113,-52.734,-17.090
1626466529.090,-37.109,-42.969,-62.500,-67.383
1626466529.094,-48.340,-47.852,-36.133,-62.500
1626466529.098,-6.836,-22.461,-10.254,-21.973
1626466529.102,7.324,-11.719,-32.227,-20.996
1626466529.106,-46.875,-46.875,-56.641,-64.941
1626466529.110,-63.965,-49.805,-46.387,-94.238
1626466529.114,-34.180,-17.090,-20.508,-54.688
1626466529.117,-15.137,-13.184,-24.414,-15.137
1626466529.121,-63.477,-48.828,-56.152,-67.383
1626466529.125,-89.844,-62.500,-52.246,-90.332
1626466529.129,-57.617,-43.457,-21.484,-54.199
1626466529.133,-23.438,-14.160,-6.836,8.789
1626466529.136,-52.734,-30.762,-45.410,-14.648
1626466529.140,-88.379,-58.105,-48.340,-68.848
1626466529.144,-69.336,-48.828,-26.855,-58.594
1626466529.148,-34.180,-26.367,-12.695,-5.859
1626466529.152,-26.367,-29.297,-31.250,4.883
1626466529.156,-56.152,-54.688,-33.203,-41.992
1626466529.160,-70.312,-55.664,-23.926,-54.199
1626466529.163,-32.715,-35.156,-17.090,-4.883
1626466529.167,-12.695,-23.438,-28.320,17.578
1626466529.171,-48.340,-51.270,-46.387,-47.852
1626466529.175,-69.336,-65.918,-41.016,-70.312
1626466529.179,-33.203,-39.062,-21.973,-31.738
1626466529.180,-3.906,-12.695,-17.578,9.277
1626466529.184,-41.992,-35.645,-41.992,-32.227
1626466529.188,-45.898,-43.945,-43.945,-79.590
1626466529.192,-23.926,-29.785,-30.762,-60.059
1626466529.196,8.301,-10.254,-5.859,1.465
1626466529.200,6.348,-20.996,-30.273,-27.832
1626466529.204,-50.293,-52.246,-54.199,-74.707
1626466529.207,-51.270,-52.246,-33.691,-68.848
1626466529.211,16.602,-23.926,-7.324,-34.180
1626466529.215,-0.977,-27.832,-26.367,-31.250
1626466529.219,-63.477,-58.594,-53.223,-69.824
1626466529.223,-55.664,-57.617,-45.410,-64.941
1626466529.227,-10.254,-21.973,-6.348,-18.066
1626466529.231,-1.953,-7.812,-17.090,3.906
1626466529.235,-56.641,-41.992,-44.922,-41.504
1626466529.239,-75.195,-57.129,-31.738,-66.895
1626466529.243,-24.414,-33.203,-4.883,-17.090
1626466529.247,17.090,1.465,4.883,35.156
1626466529.251,-29.785,-20.020,-33.203,-23.926
1626466529.254,-57.129,-50.781,-48.828,-63.477
1626466529.258,-37.109,-41.992,-32.715,-28.809
1626466529.262,-3.906,-15.137,-14.160,14.648
1626466529.266,-25.391,-22.461,-34.668,-14.160
1626466529.270,-63.965,-52.734,-39.551,-50.781
1626466529.285,-39.062,-45.410,-22.949,-41.992
1626466529.289,2.441,-8.789,-2.441,3.906
1626466529.293,-0.488,-9.766,-20.020,12.207
1626466529.297,-42.480,-43.945,-41.504,-39.062
1626466529.301,-58.594,-53.223,-41.504,-57.617
1626466529.305,-17.578,-24.414,-24.414,-28.809
1626466529.309,13.184,-7.324,-24.902,5.859
1626466529.312,-30.762,-29.297,-45.410,-39.062
1626466529.316,-46.387,-31.250,-36.621,-66.895
1626466529.320,-30.273,-35.645,-29.297,-49.316
1626466529.324,-4.883,-24.414,-27.832,-12.207
1626466529.328,-18.555,-34.668,-41.992,-35.156
1626466529.330,-50.781,-56.641,-40.039,-82.520
1626466529.334,-34.180,-37.109,-22.461,-64.453
1626466529.338,15.137,-13.672,-5.371,-6.348
1626466529.342,-15.625,-26.855,-31.250,-10.742
1626466529.346,-68.848,-51.758,-47.363,-69.824
1626466529.350,-57.617,-43.945,-36.133,-79.590
1626466529.354,-16.113,-27.832,-19.043,-34.668
1626466529.357,-10.254,-29.297,-39.551,-15.137
1626466529.361,-60.547,-58.105,-68.359,-59.570
1626466529.365,-70.312,-76.172,-58.105,-90.820
1626466529.369,-31.250,-51.270,-19.531,-48.340
1626466529.373,-9.766,-20.020,-10.254,5.371
1626466529.375,-51.270,-47.363,-54.688,-31.250
1626466529.379,-77.148,-73.242,-51.758,-74.219
1626466529.383,-37.598,-48.828,-11.719,-45.898
1626466529.387,15.625,-16.602,-4.395,9.766
1626466529.391,-5.859,-31.738,-44.922,-16.113
1626466529.395,-52.734,-45.410,-54.688,-61.035
1626466529.399,-50.781,-40.039,-37.598,-73.242
1626466529.402,4.883,-11.230,-15.137,-13.184
1626466529.406,19.531,-9.277,-38.086,7.812
1626466529.410,-22.461,-49.316,-56.152,-46.387
1626466529.414,-32.715,-52.246,-34.180,-66.895
1626466529.418,1.953,-25.879,-11.719,-22.461
1626466529.420,7.812,-4.883,-27.344,2.930
1626466529.424,-38.574,-32.715,-55.176,-51.270
1626466529.428,-45.410,-53.223,-44.922,-61.523
1626466529.432,-2.930,-30.762,-16.113,-23.438
1626466529.436,22.949,-7.812,-20.020,14.160
1626466529.440,-17.090,-23.926,-59.082,-26.367
1626466529.444,-41.504,-42.969,-52.246,-64.453
1626466529.447,-39.062,-45.410,-23.438,-36.133
1626466529.451,-9.277,-23.926,-20.020,14.160
1626466529.455,-23.438,-33.691,-42.969,-14.160
1626466529.459,-69.824,-61.035,-44.922,-50.781
1626466529.463,-52.734,-52.734,-28.320,-40.527
1626466529.465,-20.508,-22.461,-3.906,7.324
1626466529.469,-24.902,-22.949,-17.578,14.648
1626466529.473,-54.688,-52.734,-40.039,-27.832
1626466529.477,-64.941,-55.176,-41.504,-39.062
1626466529.481,-14.648,-27.832,-20.996,-2.930
1626466529.485,11.230,-11.719,-20.020,11.719
1626466529.489,-39.062,-33.691,-37.598,-43.945
1626466529.492,-72.754,-53.223,-30.762,-64.453
1626466529.496,-47.852,-51.270,-14.648,-29.297
1626466529.500,-9.766,-25.879,-19.531,13.672
1626466529.504,-38.574,-34.180,-41.504,-14.160
1626466529.508,-81.543,-54.199,-37.109,-51.758
1626466529.510,-47.852,-37.109,-26.855,-34.668
1626466529.514,20.020,-5.859,-7.324,14.160
1626466529.518,-2.441,-20.020,-31.738,-8.301
1626466529.522,-57.129,-51.270,-47.363,-49.316
1626466529.526,-57.617,-53.223,-25.391,-57.129
1626466529.530,-11.719,-14.160,-5.371,-13.672
1626466529.534,-15.137,-12.695,-38.086,-8.789
1626466529.537,-69.336,-60.547,-63.965,-72.266
1626466529.541,-55.664,-56.641,-37.109,-64.941
1626466529.545,-22.949,-26.855,-6.348,-18.066
1626466529.549,-24.414,-17.090,-18.555,1.465
1626466529.553,-51.758,-42.480,-46.387,-40.527
1626466529.555,-87.891,-61.523,-36.621,-71.289
1626466529.559,-62.988,-42.969,-20.996,-41.016
1626466529.563,0.000,-20.996,-14.648,3.906
1626466529.567,-33.203,-42.480,-40.527,-17.578
1626466529.571,-72.754,-61.035,-52.734,-58.105
1626466529.575,-58.105,-43.945,-28.809,-54.199
1626466529.579,-21.484,-13.184,-10.254,-4.395
1626466529.582,-21.973,-20.996,-33.203,-16.113
1626466529.586,-62.500,-48.828,-37.598,-77.148
1626466529.590,-71.289,-52.734,-31.738,-85.449
1626466529.594,-20.020,-28.320,-19.043,-32.715
1626466529.598,-12.695,-22.461,-30.273,-10.254
1626466529.603,-53.223,-41.992,-47.852,-69.336
1626466529.607,-48.340,-54.199,-37.598,-80.566
1626466529.611,-20.020,-38.086,-12.695,-39.551
1626466529.615,-8.789,-18.555,-20.020,-14.160
1626466529.619,-41.016,-42.969,-53.711,-57.129
1626466529.623,-66.895,-53.711,-43.945,-82.031
1626466529.627,-39.551,-40.527,-20.996,-48.828
1626466529.630,-12.207,-22.461,-14.648,-10.254
1626466529.634,-27.832,-35.156,-42.480,-39.062
1626466529.638,-65.430,-63.477,-44.922,-85.938
1626466529.642,-68.848,-58.594,-26.855,-77.637
1626466529.646,-15.625,-22.949,-4.395,-18.066
1626466529.660,-15.625,-20.508,-29.297,-11.719
1626466529.664,-65.430,-56.641,-46.387,-59.570
1626466529.668,-80.566,-60.547,-32.227,-62.012
1626466529.672,-35.156,-32.715,-8.301,-7.812
1626466529.676,-22.949,-20.996,-12.695,13.672
1626466529.680,-73.730,-46.875,-46.875,-50.781
1626466529.684,-77.637,-57.129,-39.062,-69.824
1626466529.687,-40.039,-30.762,0.488,-27.832
1626466529.691,-24.902,-17.090,-8.301,-19.043
1626466529.695,-50.293,-46.875,-45.898,-52.246
1626466529.699,-74.707,-61.523,-48.340,-68.848
1626466529.703,-47.852,-42.480,-21.973,-55.176
1626466529.705,8.301,-7.324,-2.930,-12.207
1626466529.709,-35.645,-23.438,-32.715,-39.551
1626466529.713,-85.449,-55.664,-41.016,-76.660
1626466529.717,-52.734,-52.734,-20.996,-60.059
1626466529.721,-7.812,-16.602,0.000,-16.602
1626466529.725,-10.254,-7.812,-23.926,-18.066
1626466529.729,-59.570,-34.180,-52.734,-74.219
1626466529.732,-78.125,-41.504,-46.875,-86.914
1626466529.736,-39.062,-23.438,-20.020,-29.297
1626466529.740,-24.414,-12.207,-23.926,-9.277
1626466529.744,-69.824,-37.598,-47.852,-64.941
1626466529.748,-74.219,-45.410,-39.551,-83.008
1626466529.750,-35.156,-25.879,-17.090,-43.945
1626466529.754,-8.301,-9.277,-12.207,1.465
1626466529.758,-47.852,-34.668,-41.504,-21.484
1626466529.762,-79.102,-53.711,-50.293,-50.293
1626466529.766,-63.477,-39.551,-35.645,-43.945
1626466529.770,-18.555,-14.160,-14.648,-6.836
1626466529.774,-38.086,-24.902,-32.227,-18.066
1626466529.777,-83.984,-56.152,-44.922,-60.059
1626466529.781,-75.195,-53.711,-31.738,-59.570
1626466529.785,-26.367,-29.297,-6.836,-5.859
1626466529.789,-15.137,-32.715,-17.090,5.859
1626466529.793,-57.617,-58.105,-41.504,-47.363
1626466529.795,-62.988,-55.664,-46.387,-68.848
1626466529.799,-34.668,-26.367,-20.020,-29.785
1626466529.803,-5.371,-9.766,-8.789,8.789
1626466529.807,-42.480,-39.551,-37.109,-46.875
1626466529.811,-78.613,-55.664,-39.062,-75.684
1626466529.815,-42.969,-33.691,-16.602,-36.621
1626466529.819,-1.953,-8.301,-6.836,-2.930
1626466529.822,-31.250,-31.250,-45.898,-35.156
1626466529.826,-58.594,-54.688,-50.781,-79.590
1626466529.830,-42.969,-39.551,-21.484,-62.500
1626466529.834,-12.695,-9.277,-4.395,-0.977
1626466529.838,-24.902,-14.648,-32.715,-18.555
1626466529.841,-64.941,-46.387,-51.270,-84.961
1626466529.845,-62.988,-55.176,-36.133,-81.055
1626466529.849,-28.320,-29.785,-14.648,-22.949
1626466529.853,-29.785,-26.367,-36.621,-17.578
1626466529.857,-64.453,-48.828,-54.199,-63.965
1626466529.861,-64.453,-45.410,-37.109,-68.848
1626466529.865,-24.414,-24.902,-24.902,-38.086
1626466529.868,-1.465,-19.043,-43.457,-8.789
1626466529.872,-34.180,-45.410,-58.594,-51.270
1626466529.876,-62.012,-57.129,-39.062,-82.520
1626466529.880,-37.109,-46.875,-21.484,-51.758
1626466529.884,-0.488,-20.508,-11.719,0.977
1626466529.885,-15.625,-25.879,-34.668,-24.902
1626466529.889,-54.688,-47.852,-42.480,-72.754
1626466529.893,-47.363,-49.805,-35.156,-50.781
1626466529.897,-11.230,-24.902,-10.742,1.953
1626466529.901,-14.160,-19.043,-27.344,-12.695
1626466529.905,-41.016,-45.410,-54.199,-53.711
1626466529.909,-72.266,-54.688,-50.781,-57.129
1626466529.912,-23.438,-42.480,-26.855,-31.250
1626466529.916,6.836,-24.414,-18.555,-4.883
1626466529.920,-44.434,-41.992,-36.133,-51.758
1626466529.924,-51.270,-54.688,-40.039,-82.031
1626466529.928,-7.812,-35.645,-24.414,-41.016
1626466529.930,17.578,-18.066,-18.066,-0.488
1626466529.934,-30.273,-39.551,-44.434,-44.434
1626466529.938,-69.336,-57.617,-38.574,-85.449
1626466529.942,-48.340,-47.363,-10.742,-59.082
1626466529.946,-7.812,-19.043,-8.301,0.977
1626466529.950,-18.555,-24.902,-36.133,-22.461
1626466529.954,-54.688,-58.594,-45.410,-80.566
1626466529.957,-51.758,-59.570,-32.715,-61.523
1626466529.961,-5.859,-25.391,-12.207,-3.418
1626466529.965,-20.508,-39.551,-27.344,-19.531
1626466529.969,-73.242,-77.148,-50.781,-78.125
1626466529.973,-70.801,-71.777,-44.434,-83.008
1626466529.975,-34.668,-42.969,-18.555,-26.367
1626466529.979,-19.531,-33.691,-28.320,-2.930
1626466529.983,-61.523,-61.523,-47.852,-57.129
1626466529.987,-73.242,-72.266,-44.922,-68.359
1626466529.991,-44.434,-56.152,-26.855,-40.039
1626466529.995,-21.484,-36.133,-16.602,-16.602
1626466529.999,-48.340,-56.641,-38.086,-37.598
1626466530.002,-83.984,-74.219,-34.668,-69.824
1626466530.006,-58.105,-52.246,-23.438,-51.758
1626466530.010,-5.371,-25.391,-17.090,3.418
1626466530.014,-28.320,-39.551,-38.086,-23.438
1626466530.018,-80.078,-64.453,-50.293,-75.195
1626466530.035,-62.012,-55.664,-41.992,-67.383
1626466530.039,-9.766,-21.484,-13.184,-19.531
1626466530.043,-3.906,-11.230,-20.508,-10.742
1626466530.047,-44.434,-47.852,-41.992,-66.895
1626466530.051,-50.293,-57.617,-40.527,-81.055
1626466530.055,-12.695,-22.949,-20.996,-47.363
1626466530.059,-7.812,-6.836,-23.438,-7.812
1626466530.062,-46.387,-40.039,-44.434,-43.945
1626466530.066,-73.242,-59.570,-55.664,-83.496
1626466530.070,-65.430,-49.805,-45.410,-47.363
1626466530.074,-24.414,-23.926,-23.438,-15.137
1626466530.078,-41.992,-40.039,-45.410,-52.246
1626466530.080,-74.219,-64.941,-42.969,-86.426
1626466530.084,-65.918,-55.176,-25.391,-70.312
1626466530.088,-34.180,-30.273,-11.719,-2.930
1626466530.092,-40.527,-37.598,-34.668,-14.160
1626466530.096,-66.406,-57.617,-49.805,-62.988
1626466530.100,-66.895,-46.387,-36.133,-70.312
1626466530.104,-44.922,-28.320,-18.066,-23.438
1626466530.107,-29.297,-20.020,-22.461,3.906
1626466530.111,-56.152,-48.828,-39.062,-47.852
1626466530.115,-97.168,-72.754,-41.992,-71.289
1626466530.119,-75.195,-56.641,-19.531,-25.391
1626466530.123,-28.320,-33.691,-19.043,4.395
1626466530.125,-62.988,-48.340,-52.734,-50.781
1626466530.129,-98.633,-61.035,-51.758,-73.242
1626466530.133,-71.777,-38.574,-21.973,-44.434
1626466530.137,-31.250,-17.578,-11.719,1.953
1626466530.141,-62.012,-42.969,-45.898,-33.691
1626466530.145,-91.309,-56.641,-50.293,-89.844
1626466530.149,-68.359,-42.969,-31.250,-65.918
1626466530.152,-34.668,-20.508,-14.648,-12.207
1626466530.156,-41.016,-23.926,-40.527,-19.531
1626466530.160,-72.754,-61.523,-58.594,-60.059
1626466530.164,-76.660,-58.594,-42.480,-70.312
1626466530.168,-24.414,-29.785,-24.414,-38.574
1626466530.170,-8.789,-20.508,-32.227,-2.930
1626466530.174,-59.570,-49.805,-50.781,-50.781
1626466530.178,-63.477,-60.547,-49.805,-78.125
1626466530.182,-31.250,-42.969,-28.809,-42.480
1626466530.186,-5.859,-20.996,-14.160,0.488
1626466530.190,-22.461,-38.086,-35.156,-41.504
1626466530.194,-49.316,-48.828,-34.668,-68.359
1626466530.197,-41.504,-38.574,-23.438,-38.574
1626466530.201,-2.930,-23.438,-21.484,-3.906
1626466530.205,-18.555,-31.250,-47.363,-19.531
1626466530.209,-58.594,-53.711,-50.781,-66.406
1626466530.213,-39.551,-52.246,-26.367,-52.246
1626466530.215,3.418,-25.391,-8.789,-6.348
1626466530.219,-5.371,-24.902,-37.598,-3.418
1626466530.223,-48.340,-56.641,-55.176,-54.199
1626466530.227,-55.176,-62.012,-34.668,-58.594
1626466530.231,-17.090,-36.133,-5.371,-1.953
1626466530.235,10.742,-14.160,-14.160,25.879
1626466530.239,-37.109,-38.086,-55.664,-36.621
1626466530.242,-74.707,-58.594,-59.570,-59.570
1626466530.246,-31.738,-42.969,-31.738,-22.949
1626466530.250,15.625,-11.719,-14.648,14.648
1626466530.254,-15.137,-31.250,-44.922,-24.902
1626466530.258,-45.898,-60.547,-57.129,-63.965
1626466530.260,-41.992,-44.922,-35.156,-35.645
1626466530.264,9.766,-9.277,-8.301,5.371
1626466530.268,-0.488,-21.484,-44.922,-5.859
1626466530.272,-46.387,-53.711,-64.941,-50.781
1626466530.276,-32.227,-47.363,-39.551,-64.941
1626466530.280,7.324,-13.672,-2.441,-9.766
1626466530.284,16.113,-8.301,-23.926,4.883
1626466530.287,-36.621,-44.922,-57.129,-50.293
1626466530.291,-56.152,-54.688,-43.945,-72.266
1626466530.295,-6.836,-39.062,-23.438,-47.852
1626466530.299,17.578,-20.996,-29.297,-20.996
1626466530.303,-22.461,-38.086,-55.176,-60.547
1626466530.306,-40.039,-46.387,-52.734,-77.637
1626466530.310,-15.137,-23.926,-34.180,-48.340
1626466530.314,12.207,-7.324,-28.809,-2.441
1626466530.318,-10.742,-29.785,-63.965,-29.297
1626466530.322,-41.992,-51.270,-57.617,-65.918
1626466530.326,-29.297,-37.598,-19.531,-48.828
1626466530.330,9.766,-10.742,-7.812,1.953
1626466530.333,-5.859,-20.996,-30.762,3.418
1626466530.337,-47.363,-48.828,-35.645,-41.504
1626466530.341,-51.270,-62.500,-22.461,-48.828
1626466530.345,-15.625,-39.062,-2.930,-13.184
1626466530.349,4.883,-14.648,-13.672,1.465
1626466530.350,-30.273,-38.574,-44.922,-40.527
1626466530.354,-52.734,-60.059,-43.457,-63.477
1626466530.358,-18.555,-39.551,-13.184,-29.785
1626466530.362,-6.348,-14.648,-5.859,4.883
1626466530.366,-52.246,-43.945,-30.762,-35.645
1626466530.370,-76.172,-58.105,-38.086,-78.125
1626466530.374,-50.293,-33.203,-23.438,-45.410
1626466530.377,-7.812,-14.648,-6.836,7.324
1626466530.381,-34.668,-31.738,-25.879,-34.668
1626466530.385,-93.262,-58.105,-36.133,-70.801
1626466530.389,-59.082,-52.246,-30.762,-64.941
1626466530.393,-6.348,-21.484,-16.113,-22.461
1626466530.410,-25.879,-13.672,-30.273,-16.113
1626466530.414,-65.430,-44.922,-48.828,-80.566
1626466530.418,-73.242,-58.105,-38.574,-69.336
1626466530.422,-33.691,-26.855,-7.324,-22.461
1626466530.426,-3.906,-8.301,-20.508,-21.484
1626466530.430,-47.363,-35.156,-50.781,-67.383
1626466530.434,-65.430,-47.852,-36.621,-69.336
1626466530.437,-30.762,-24.414,-6.348,-27.832
1626466530.441,5.371,-0.977,-12.207,-0.488
1626466530.445,-20.996,-33.203,-53.223,-38.574
1626466530.449,-54.199,-56.641,-60.059,-65.430
1626466530.453,-31.250,-41.992,-31.250,-43.945
1626466530.455,6.836,-14.648,-14.648,-6.348
1626466530.459,-19.531,-17.578,-48.340,-17.578
1626466530.463,-64.453,-47.363,-52.246,-51.758
1626466530.467,-59.082,-50.293,-28.320,-46.387
1626466530.471,-19.531,-21.973,-9.277,-0.488
1626466530.475,-8.789,-5.371,-28.320,8.789
1626466530.479,-53.711,-28.809,-55.664,-39.551
1626466530.482,-64.941,-49.805,-48.828,-65.430
1626466530.486,-19.531,-34.180,-18.066,-22.949
1626466530.490,-7.324,-14.648,-22.949,5.859
1626466530.494,-41.016,-40.039,-47.852,-40.527
1626466530.498,-58.105,-62.500,-41.992,-67.383
1626466530.500,-41.992,-46.875,-18.066,-39.062
1626466530.504,1.953,-31.738,-13.672,5.859
1626466530.508,-37.109,-44.922,-36.621,-29.297
1626466530.512,-79.102,-58.105,-38.574,-56.641
1626466530.516,-38.086,-47.852,-16.602,-44.434
1626466530.520,1.465,-11.230,-1.465,-9.277
1626466530.524,-22.461,-18.555,-47.852,-20.508
1626466530.527,-61.523,-54.688,-54.199,-72.754
1626466530.531,-75.195,-59.570,-29.785,-82.031
1626466530.535,-24.902,-37.598,-12.207,-43.457
1626466530.539,-4.395,-19.043,-20.020,-30.273
1626466530.543,-53.223,-46.387,-44.922,-81.055
1626466530.545,-49.316,-55.176,-39.062,-80.078
1626466530.549,-20.508,-28.320,-15.625,-27.344
1626466530.553,-2.441,-15.137,-9.277,11.719
1626466530.557,-30.273,-41.992,-39.551,-30.273
1626466530.561,-53.223,-60.059,-50.293,-66.406
1626466530.565,-29.785,-39.551,-25.879,-41.992
1626466530.569,1.953,-7.812,-10.742,17.578
1626466530.572,-25.391,-26.855,-42.969,-9.766
1626466530.576,-63.965,-51.758,-62.500,-66.406
1626466530.580,-46.387,-42.969,-41.504,-50.293
1626466530.584,9.766,-16.113,-6.836,-0.488
1626466530.588,-5.859,-20.020,-32.715,-4.883
1626466530.590,-48.828,-42.480,-47.363,-54.199
1626466530.594,-41.016,-47.852,-26.367,-57.617
1626466530.598,-12.695,-32.715,-6.836,-4.883
1626466530.602,-6.836,-20.996,-21.973,19.531
1626466530.606,-49.805,-48.828,-40.527,-39.062
1626466530.610,-68.359,-51.270,-32.227,-63.965
1626466530.614,-41.016,-20.508,-20.996,-19.043
1626466530.617,-23.926,-8.301,-24.902,12.207
1626466530.621,-38.086,-31.250,-44.434,-56.641
1626466530.625,-59.570,-51.758,-53.711,-86.426
1626466530.629,-52.246,-39.062,-42.480,-57.129
1626466530.633,-4.883,-10.254,-17.578,-9.766
1626466530.635,-36.133,-23.926,-36.621,-21.484
1626466530.639,-73.730,-59.570,-41.992,-60.547
1626466530.643,-52.734,-59.082,-19.043,-55.664
1626466530.647,-11.230,-28.320,2.441,-2.930
1626466530.651,-12.207,-26.367,-20.996,-5.371
1626466530.655,-58.105,-46.875,-41.504,-75.684
1626466530.659,-66.406,-43.457,-39.062,-83.496
1626466530.662,-30.762,-31.250,-22.461,-31.738
1626466530.666,-11.230,-26.367,-26.367,-7.812
1626466530.670,-51.270,-47.363,-44.922,-41.992
1626466530.674,-60.547,-63.477,-38.574,-64.453
1626466530.678,-28.320,-43.945,-20.020,-37.598
1626466530.680,-6.348,-20.020,-9.277,0.000
1626466530.684,-39.551,-40.527,-33.691,-39.551
1626466530.688,-74.707,-60.547,-42.480,-70.801
1626466530.692,-47.852,-47.852,-33.203,-53.711
1626466530.696,-0.488,-23.438,-19.043,-5.371
1626466530.700,-35.156,-27.832,-42.969,-20.996
1626466530.704,-74.219,-51.758,-61.035,-67.871
1626466530.707,-60.059,-50.781,-39.062,-76.660
1626466530.711,-18.066,-23.926,-8.301,-28.809
1626466530.715,-20.020,-27.344,-28.809,-24.902
1626466530.719,-67.871,-54.688,-53.223,-92.285
1626466530.723,-77.148,-59.570,-46.875,-94.238
1626466530.725,-31.738,-28.809,-20.508,-41.016
1626466530.729,-7.812,-1.465,-20.020,-9.766
1626466530.733,-53.223,-33.691,-51.270,-58.105
1626466530.737,-71.289,-59.570,-43.457,-78.613
1626466530.741,-40.527,-39.062,-16.602,-40.527
1626466530.745,-10.254,-9.766,-22.461,0.000
1626466530.749,-36.621,-30.762,-45.410,-41.016
1626466530.752,-64.941,-55.664,-43.945,-87.891
1626466530.756,-42.480,-40.039,-40.527,-68.359
1626466530.760,5.371,-24.414,-27.344,-16.113
1626466530.764,-6.836,-35.645,-35.645,-22.949
1626466530.768,-71.777,-62.012,-42.969,-69.824
1626466530.785,-69.824,-55.664,-32.227,-72.266
1626466530.789,-21.484,-29.785,-14.648,-23.926
1626466530.793,-16.113,-32.227,-30.762,-1.953
1626466530.797,-50.781,-57.617,-57.617,-46.875
1626466530.801,-70.801,-67.383,-52.734,-69.336
1626466530.805,-36.621,-36.621,-24.414,-22.949
1626466530.809,-10.742,-17.090,-19.531,3.418
1626466530.812,-42.480,-45.410,-46.875,-41.992
1626466530.816,-61.035,-66.895,-52.246,-66.406
1626466530.820,-44.922,-60.059,-28.320,-42.969
1626466530.824,-3.418,-27.344,-11.230,0.977
1626466530.828,-32.227,-44.922,-34.180,-20.508
1626466530.830,-62.988,-69.336,-44.922,-59.570
1626466530.834,-41.016,-50.293,-28.320,-57.617
1626466530.838,-4.395,-26.367,-7.812,-11.230
1626466530.842,-11.719,-32.715,-32.227,-22.461
1626466530.846,-50.781,-55.176,-50.293,-70.801
1626466530.850,-57.617,-54.688,-41.504,-77.148
1626466530.854,-21.484,-30.762,-19.531,-38.574
1626466530.857,-8.301,-31.738,-25.391,-13.672
1626466530.861,-63.965,-63.477,-48.828,-54.199
1626466530.865,-81.543,-72.754,-44.434,-75.684
1626466530.869,-34.180,-49.316,-22.949,-43.457
1626466530.873,8.301,-17.090,-11.719,9.766
1626466530.875,-32.227,-37.109,-29.297,-35.156
1626466530.879,-72.266,-59.570,-35.645,-87.891
1626466530.883,-45.410,-46.387,-24.902,-58.105
1626466530.887,-10.254,-24.414,-25.879,-10.742
1626466530.891,-43.457,-34.180,-44.434,-26.855
1626466530.895,-76.172,-52.734,-46.875,-70.801
1626466530.899,-55.664,-41.016,-36.621,-58.594
1626466530.902,-16.602,-11.719,-11.719,-11.230
1626466530.906,-26.367,-27.344,-27.832,-20.508
1626466530.910,-77.148,-64.941,-46.875,-59.570
1626466530.914,-68.359,-59.570,-34.668,-67.871
1626466530.918,-17.578,-28.320,-10.254,-28.320
1626466530.920,6.348,-16.113,-25.879,7.324
1626466530.924,-32.227,-49.805,-53.223,-39.062
1626466530.928,-57.129,-69.336,-40.039,-45.898
1626466530.932,-18.555,-38.086,-16.602,-14.160
1626466530.936,-10.254,-13.184,-16.602,-5.371
1626466530.940,-45.410,-27.344,-42.969,-39.062
1626466530.944,-62.988,-38.574,-44.922,-72.754
1626466530.947,-54.688,-39.551,-29.785,-65.918
1626466530.951,-17.090,-16.602,-21.484,-9.277
1626466530.955,-24.902,-16.602,-46.387,-27.832
1626466530.959,-68.848,-45.898,-56.152,-93.262
1626466530.963,-65.918,-50.781,-43.945,-78.613
1626466530.965,-6.836,-20.996,-22.949,-17.090
1626466530.969,0.000,-11.719,-37.598,-16.113
1626466530.973,-48.340,-36.133,-58.594,-76.172
1626466530.977,-57.617,-41.992,-51.758,-88.867
1626466530.981,-9.766,-18.555,-20.996,-27.832
1626466530.985,18.066,2.441,-15.625,0.977
1626466530.989,-17.578,-25.391,-44.434,-26.855
1626466530.992,-41.504,-45.410,-50.293,-51.758
1626466530.996,-25.879,-23.438,-20.508,-29.297
1626466531.000,8.301,-2.930,-2.930,24.414
1626466531.004,-12.207,-34.180,-43.945,-27.832
1626466531.008,-45.410,-59.570,-45.898,-69.824
1626466531.011,-41.016,-38.086,-22.949,-48.340
1626466531.015,0.977,-9.277,-11.719,5.859
1626466531.019,-11.719,-21.484,-41.504,14.160
1626466531.023,-59.082,-55.176,-54.199,-31.250
1626466531.027,-38.086,-53.711,-33.203,-41.504
1626466531.031,-4.883,-13.184,-8.789,-3.418
1626466531.035,-3.906,-6.348,-24.414,14.648
1626466531.038,-38.086,-49.316,-50.781,-40.527
1626466531.042,-36.133,-59.570,-30.762,-54.199
1626466531.046,7.812,-31.250,1.465,-4.883
1626466531.050,29.785,0.977,-5.371,38.086
1626466531.054,-1.953,-22.461,-38.574,-5.371
1626466531.055,-24.414,-48.340,-41.504,-42.969
1626466531.059,7.324,-31.738,-15.625,-2.930
1626466531.063,60.059,-4.883,-1.953,38.086
1626466531.067,33.691,-20.996,-34.668,1.465
1626466531.071,-17.090,-46.387,-43.457,-30.762
1626466531.075,-8.789,-35.645,-21.484,-20.508
1626466531.079,25.391,-20.020,-19.043,20.508
1626466531.082,22.461,-28.809,-48.340,13.672
1626466531.086,-28.320,-46.387,-52.246,-40.527
1626466531.090,-48.828,-53.711,-36.133,-56.152
1626466531.094,-10.742,-34.668,-14.160,-2.441
1626466531.098,8.301,-26.367,-23.926,24.902
1626466531.100,-35.156,-52.734,-44.922,-27.344
1626466531.104,-58.594,-64.453,-41.016,-49.316
1626466531.108,-20.020,-36.133,-22.461,-9.277
1626466531.112,14.160,-12.695,-13.672,27.832
1626466531.116,-15.625,-37.598,-42.969,-24.902
1626466531.120,-50.781,-52.734,-48.340,-43.457
1626466531.124,-37.598,-43.457,-22.949,-17.578
1626466531.127,15.137,-26.855,-4.883,21.973
1626466531.131,-10.254,-42.480,-33.691,-0.977
1626466531.135,-61.523,-72.266,-46.387,-46.387
1626466531.139,-51.270,-65.918,-30.762,-41.016
1626466531.143,5.371,-34.180,-4.883,8.789
1626466531.160,11.719,-28.320,-20.996,15.137
1626466531.164,-41.992,-53.711,-43.945,-41.016
1626466531.168,-41.504,-59.082,-35.645,-42.969
1626466531.172,0.000,-36.621,-4.395,6.836
1626466531.176,15.625,-21.484,-13.672,24.902
1626466531.180,-24.414,-35.156,-42.480,-25.879
1626466531.184,-41.016,-49.316,-38.086,-42.969
1626466531.187,-10.254,-37.598,-7.324,-6.836
1626466531.191,19.043,-17.090,2.441,23.926
1626466531.195,-20.508,-47.852,-46.387,-22.949
1626466531.199,-48.340,-71.289,-60.547,-58.594
1626466531.203,-20.020,-59.082,-32.715,-28.809
1626466531.205,17.090,-25.879,-8.789,27.832
1626466531.209,-4.395,-28.809,-31.250,6.836
1626466531.213,-46.387,-55.176,-45.898,-40.039
1626466531.217,-32.715,-54.199,-31.250,-33.691
1626466531.221,2.441,-28.320,-5.859,13.672
1626466531.225,-28.320,-20.020,-20.508,12.695
1626466531.229,-73.730,-54.688,-42.480,-37.109
1626466531.232,-65.430,-68.848,-31.738,-54.688
1626466531.236,-31.738,-41.992,-5.371,-14.160
1626466531.240,-2.441,-22.949,-12.207,22.949
1626466531.244,-35.645,-39.551,-38.086,-25.391
1626466531.248,-71.777,-60.547,-40.527,-58.105
1626466531.250,-38.574,-43.457,-20.996,-20.020
1626466531.254,7.324,-13.184,-0.977,28.320
1626466531.258,-22.461,-37.109,-28.809,-7.324
1626466531.262,-62.500,-68.359,-46.387,-48.340
1626466531.266,-46.875,-59.082,-28.809,-41.504
1626466531.270,-7.324,-25.879,2.930,17.090
1626466531.274,-12.695,-37.598,-19.043,16.602
1626466531.277,-48.340,-75.195,-42.480,-41.992
1626466531.281,-50.293,-71.777,-38.086,-54.688
1626466531.285,-10.254,-49.316,-18.066,-11.719
1626466531.289,3.906,-42.969,-31.738,-0.488
1626466531.293,-38.574,-69.824,-57.129,-47.363
1626466531.295,-43.457,-77.148,-36.133,-60.059
1626466531.299,-17.090,-50.781,-7.324,-18.066
1626466531.303,4.395,-20.996,-16.602,22.461
1626466531.307,-27.344,-42.480,-46.387,-25.391
1626466531.311,-59.570,-67.871,-40.527,-54.688
1626466531.315,-43.945,-49.805,-22.949,-32.715
1626466531.319,-14.160,-21.973,-13.672,0.000
1626466531.322,-29.785,-41.992,-37.109,-27.832
1626466531.326,-64.941,-65.430,-41.992,-54.199
1626466531.330,-64.941,-55.176,-20.508,-41.992
1626466531.334,-10.254,-27.344,-9.766,12.207
1626466531.338,-20.020,-27.344,-37.109,7.812
1626466531.340,-74.707,-53.711,-54.688,-60.059
1626466531.344,-67.383,-59.082,-40.039,-57.129
1626466531.348,-30.273,-37.109,-8.789,-11.230
1626466531.352,-11.719,-23.438,-29.297,8.789
1626466531.356,-56.641,-50.293,-57.617,-35.645
1626466531.360,-67.871,-59.082,-42.480,-69.824
1626466531.364,-19.043,-35.645,-15.625,-31.738
1626466531.367,-2.441,-20.996,-12.695,4.883
1626466531.371,-45.410,-49.316,-42.480,-54.199
1626466531.375,-79.102,-79.102,-37.109,-94.727
1626466531.379,-56.641,-65.918,-12.695,-45.410
1626466531.383,-20.020,-34.180,-11.719,-3.418
1626466531.385,-44.434,-45.898,-38.086,-41.504
1626466531.389,-78.125,-73.242,-35.156,-78.613
1626466531.393,-72.754,-65.918,-20.020,-79.590
1626466531.397,-27.344,-30.273,-3.418,-20.508
1626466531.401,-12.207,-24.902,-23.926,-11.719
1626466531.405,-48.828,-42.480,-40.527,-56.152
1626466531.409,-53.711,-55.176,-36.621,-57.617
1626466531.412,-8.789,-44.922,-17.578,-15.137
1626466531.416,20.508,-25.879,-18.066,16.113
1626466531.420,-30.762,-51.270,-50.293,-37.109
1626466531.424,-69.824,-69.336,-49.805,-78.613
1626466531.428,-40.527,-47.363,-22.461,-40.527
1626466531.430,-2.930,-17.578,-14.160,15.137
1626466531.434,-28.320,-35.156,-37.598,-25.391
1626466531.438,-62.500,-54.199,-37.109,-74.219
1626466531.442,-34.668,-43.457,-12.695,-47.363
1626466531.446,1.953,-16.113,5.371,7.324
1626466531.450,-29.297,-20.996,-29.785,-9.277
1626466531.454,-75.684,-52.246,-50.293,-63.477
1626466531.457,-78.613,-62.012,-30.762,-63.965
1626466531.461,-23.438,-25.879,-7.324,0.000
1626466531.465,-12.207,-15.137,-28.809,0.488
1626466531.469,-57.129,-51.270,-55.176,-53.711
1626466531.473,-62.500,-58.105,-42.480,-66.406
1626466531.476,-19.531,-24.902,-8.301,-44.922
1626466531.480,0.000,-11.719,-15.137,-11.719
1626466531.484,-41.992,-50.781,-55.176,-47.363
1626466531.488,-56.641,-67.871,-52.246,-83.984
1626466531.492,-44.434,-47.363,-9.277,-39.551
1626466531.496,-6.836,-22.949,7.812,21.973
1626466531.500,-27.832,-34.668,-34.180,-11.230
1626466531.503,-59.570,-47.852,-44.434,-50.781
1626466531.507,-34.180,-41.016,-25.879,-41.504
1626466531.511,1.465,-24.414,-10.254,-4.395
1626466531.515,-8.301,-30.273,-31.250,-12.695
1626466531.519,-48.828,-52.246,-39.062,-51.758
1626466531.535,-52.734,-53.223,-22.461,-60.547
1626466531.539,-12.207,-32.715,-0.488,-14.648
1626466531.543,-5.859,-26.367,-20.996,6.348
1626466531.547,-55.664,-43.945,-46.387,-46.387
1626466531.551,-61.523,-51.270,-39.551,-71.289
1626466531.555,-22.949,-24.902,-23.438,-28.809
1626466531.559,-3.906,-8.789,-28.320,24.902
1626466531.562,-40.527,-40.527,-43.457,-34.668
1626466531.566,-56.152,-49.805,-26.855,-87.402
1626466531.570,-40.039,-42.969,-11.230,-57.129
1626466531.574,-13.672,-22.461,-7.812,-3.418
1626466531.578,-32.715,-29.785,-42.969,-23.926
1626466531.580,-77.148,-55.176,-47.363,-57.617
1626466531.584,-57.617,-44.922,-23.926,-53.711
1626466531.588,-11.719,-16.113,-8.301,1.465
1626466531.592,-16.602,-20.996,-27.832,11.230
1626466531.596,-60.547,-49.316,-39.551,-48.340
1626466531.600,-66.895,-53.223,-29.297,-67.871
1626466531.604,-27.832,-30.762,-11.719,-14.648
1626466531.607,-13.672,-23.438,-27.344,10.742
1626466531.611,-48.828,-48.340,-44.434,-50.293
1626466531.615,-69.824,-64.453,-38.574,-73.242
1626466531.619,-34.668,-51.758,-22.949,-30.762
1626466531.623,-2.930,-29.785,-23.438,13.672
1626466531.625,-39.551,-42.969,-41.992,-22.461
1626466531.629,-63.477,-53.711,-39.062,-56.641
1626466531.633,-39.551,-40.039,-25.391,-35.156
1626466531.637,-0.488,-13.672,-7.812,6.836
1626466531.641,-18.066,-23.438,-33.203,-18.066
1626466531.645,-53.711,-44.922,-45.410,-61.035
1626466531.649,-53.223,-39.551,-28.320,-50.781
1626466531.652,-24.902,-16.602,-6.836,-1.465
1626466531.656,-16.113,-20.508,-31.738,-12.207
1626466531.660,-57.129,-54.199,-62.988,-62.988
1626466531.664,-62.012,-48.828,-52.734,-67.871
1626466531.668,-19.531,-22.461,-22.949,-32.227
1626466531.670,-14.648,-17.578,-21.973,-5.859
1626466531.674,-53.711,-45.898,-38.086,-65.430
1626466531.678,-66.895,-49.316,-32.715,-90.332
1626466531.682,-45.410,-25.879,-16.113,-33.691
1626466531.686,-9.766,-4.883,-10.254,7.324
1626466531.690,-28.320,-17.090,-38.574,-28.809
1626466531.694,-67.871,-36.133,-36.621,-61.523
1626466531.697,-57.129,-41.992,-17.090,-56.152
1626466531.701,-10.742,-22.461,-12.695,-5.371
1626466531.705,-20.996,-14.648,-37.598,-9.277
1626466531.709,-50.781,-35.645,-47.363,-51.758
1626466531.713,-44.434,-43.457,-34.180,-49.316
1626466531.716,0.000,-20.020,-8.301,2.441
1626466531.720,9.766,-7.324,-19.043,10.742
1626466531.724,-40.527,-33.203,-39.551,-47.363
1626466531.728,-43.945,-51.270,-40.527,-55.664
1626466531.732,-17.090,-34.180,-16.602,-20.996
1626466531.736,-3.418,-3.418,-14.160,18.555
1626466531.740,-31.250,-29.785,-46.387,-17.578
1626466531.743,-64.941,-55.176,-49.316,-63.965
1626466531.747,-41.016,-38.574,-28.809,-24.902
1626466531.751,5.371,-15.137,-8.789,17.578
1626466531.755,-19.531,-25.391,-37.109,-12.695
1626466531.759,-55.664,-51.758,-50.781,-51.758
1626466531.760,-47.852,-48.828,-32.227,-41.992
1626466531.764,-8.301,-20.508,-14.648,0.000
1626466531.768,-16.602,-24.414,-46.387,-14.648
1626466531.772,-55.664,-43.945,-55.176,-56.152
1626466531.776,-62.988,-37.109,-25.879,-52.246
1626466531.780,-28.809,-10.742,-1.953,-10.254
1626466531.784,-15.137,-8.301,-26.367,3.418
1626466531.787,-63.965,-45.898,-54.688,-55.176
1626466531.791,-69.824,-52.734,-46.387,-80.566
1626466531.795,-20.020,-28.320,-19.531,-42.969
1626466531.799,-2.441,-14.160,-19.531,-9.277
1626466531.803,-45.410,-39.062,-45.410,-43.457
1626466531.805,-70.801,-52.734,-42.969,-72.754
1626466531.809,-36.621,-35.156,-28.320,-32.715
1626466531.813,6.348,-7.812,-14.160,18.066
1626466531.817,-18.066,-19.531,-33.691,-9.277
1626466531.821,-48.828,-48.828,-43.945,-37.109
1626466531.825,-45.410,-38.574,-35.156,-45.410
1626466531.829,-9.766,-7.324,-23.926,-8.301
1626466531.832,-11.230,-18.555,-47.363,-9.277
1626466531.836,-46.387,-45.410,-56.152,-61.035
1626466531.840,-48.828,-45.898,-34.668,-60.547
1626466531.844,-10.742,-27.832,-8.301,-20.996
1626466531.848,-10.742,-25.391,-26.367,-0.488
1626466531.850,-54.688,-45.898,-61.035,-49.316
1626466531.854,-65.918,-53.223,-50.293,-66.406
1626466531.858,-19.043,-36.621,-22.949,-30.273
1626466531.862,8.301,-20.020,-21.484,10.254
1626466531.866,-35.645,-41.504,-55.664,-29.297
1626466531.870,-57.617,-51.758,-61.523,-62.988
1626466531.874,-35.156,-41.992,-30.273,-24.902
1626466531.877,15.137,-18.066,-2.441,28.320
1626466531.881,-4.395,-24.902,-31.738,-0.488
1626466531.885,-60.547,-50.781,-50.781,-54.199
1626466531.889,-55.176,-50.781,-36.133,-55.176
1626466531.893,-12.207,-30.762,-11.230,-4.883
1626466531.910,-8.301,-20.996,-30.762,-2.930
1626466531.914,-52.246,-46.875,-52.734,-52.246
1626466531.918,-61.523,-54.688,-44.434,-67.383
1626466531.922,-30.762,-38.086,-26.367,-28.809
1626466531.926,-11.230,-26.367,-26.855,-6.836
1626466531.930,-52.734,-39.062,-44.434,-50.781
1626466531.934,-88.867,-55.664,-42.969,-81.543
1626466531.937,-61.035,-41.992,-30.762,-54.199
1626466531.941,-12.207,-17.090,-33.203,-12.695
1626466531.945,-39.551,-43.457,-62.012,-42.480
1626466531.949,-77.148,-67.871,-53.223,-74.219
1626466531.953,-47.363,-52.246,-21.484,-58.105
1626466531.955,0.977,-10.742,-0.488,3.906
1626466531.959,-19.531,-14.648,-28.320,-15.625
1626466531.963,-58.594,-56.641,-45.410,-74.707
1626466531.967,-39.551,-53.223,-34.668,-60.547
1626466531.971,4.395,-22.949,-17.578,-14.648
1626466531.975,-12.207,-23.438,-27.344,-17.090
1626466531.979,-59.570,-48.340,-44.434,-67.383
1626466531.982,-51.758,-61.035,-42.969,-75.684
1626466531.986,-14.160,-40.527,-16.113,-26.855
1626466531.990,-4.883,-19.043,-13.672,4.883
1626466531.994,-50.293,-49.316,-44.922,-43.945
1626466531.998,-64.453,-64.453,-45.410,-72.266
1626466532.000,-31.738,-42.480,-26.367,-41.016
1626466532.004,-1.953,-22.949,-17.090,-6.836
1626466532.008,-27.344,-31.250,-42.480,-43.457
1626466532.012,-59.570,-47.363,-54.199,-69.336
1626466532.016,-41.992,-37.598,-30.762,-45.898
1626466532.020,-12.207,-13.672,-7.324,-1.465
1626466532.024,-25.391,-33.203,-30.273,-9.766
1626466532.027,-64.453,-58.594,-34.180,-60.059
1626466532.031,-74.707,-52.734,-32.227,-60.547
1626466532.035,-40.527,-34.180,-21.484,-27.344
1626466532.039,-20.020,-30.273,-25.879,-2.441
1626466532.043,-60.059,-62.500,-44.434,-43.945
1626466532.045,-75.684,-64.453,-31.738,-64.453
1626466532.049,-34.180,-37.109,-16.602,-15.137
1626466532.053,-18.555,-26.855,-23.438,21.973
1626466532.057,-51.758,-48.340,-40.039,-26.367
1626466532.061,-71.289,-54.199,-37.109,-54.199
1626466532.065,-52.734,-38.086,-18.555,-25.879
1626466532.069,-15.137,-14.648,-3.418,5.371
1626466532.072,-37.598,-39.062,-41.016,-27.344
1626466532.076,-69.824,-70.801,-57.617,-61.035
1626466532.080,-56.641,-55.176,-34.668,-46.875
1626466532.084,-2.441,-22.461,-9.766,6.836
1626466532.088,-14.648,-30.762,-38.086,8.301
1626466532.090,-63.965,-51.758,-53.711,-52.734
1626466532.094,-69.336,-55.176,-34.668,-70.312
1626466532.098,-31.250,-37.109,-13.184,-21.484
1626466532.102,-16.602,-26.367,-26.367,2.441
1626466532.106,-49.805,-52.246,-45.898,-47.852
1626466532.110,-61.035,-53.711,-33.203,-62.988
1626466532.114,-41.016,-38.086,-18.555,-25.879
1626466532.117,-12.207,-28.320,-30.762,-10.254
1626466532.121,-46.875,-47.852,-62.988,-65.430
1626466532.125,-66.895,-63.477,-62.012,-86.914
1626466532.129,-46.875,-49.316,-38.086,-48.340
1626466532.133,-16.602,-30.762,-26.367,0.488
1626466532.135,-41.992,-48.340,-57.617,-31.738
1626466532.139,-69.336,-67.871,-53.711,-71.289
1626466532.143,-52.246,-58.105,-25.879,-64.453
1626466532.147,-21.484,-40.039,4.395,1.953
1626466532.151,-8.789,-35.156,-20.996,18.066
1626466532.155,-41.992,-42.480,-54.688,-48.828
1626466532.159,-60.059,-44.922,-51.758,-77.637
1626466532.162,-24.902,-31.250,-28.320,-39.062
1626466532.166,-2.930,-15.137,-27.344,7.324
1626466532.170,-41.016,-41.504,-55.664,-27.344
1626466532.174,-60.547,-54.199,-55.176,-44.922
1626466532.178,-27.832,-34.180,-29.785,-19.531
1626466532.181,10.254,-11.719,-19.531,17.578
1626466532.185,-21.973,-30.273,-49.805,-6.836
1626466532.189,-62.012,-60.059,-56.641,-43.945
1626466532.193,-35.156,-54.199,-42.969,-54.199
1626466532.197,21.973,-20.996,-33.203,-20.996
1626466532.201,8.789,-17.578,-50.293,-6.836
1626466532.205,-57.129,-46.875,-53.711,-48.828
1626466532.208,-57.617,-48.340,-38.086,-48.340
1626466532.212,3.418,-21.973,-14.648,-9.277
1626466532.216,-0.977,-21.484,-35.645,-2.441
1626466532.220,-43.457,-47.852,-61.035,-47.363
1626466532.224,-42.480,-53.711,-43.457,-64.941
1626466532.225,-13.184,-27.832,-4.395,-15.137
1626466532.229,9.277,-3.906,-13.672,11.230
1626466532.233,-35.645,-32.227,-49.805,-38.086
1626466532.237,-65.430,-61.523,-44.922,-78.613
1626466532.241,-36.621,-44.434,-20.508,-53.223
1626466532.245,0.488,-16.602,-19.043,-12.207
1626466532.249,-38.086,-36.621,-54.688,-49.805
1626466532.252,-73.242,-66.406,-58.105,-80.078
1626466532.256,-55.664,-56.641,-30.273,-70.312
1626466532.260,-10.254,-21.484,2.441,-12.695
1626466532.264,-27.832,-35.156,-24.414,-16.113
1626466532.268,-71.289,-71.289,-41.992,-82.520
1626466532.285,-69.336,-61.035,-28.809,-68.359
1626466532.289,-23.926,-28.809,-14.160,-21.484
1626466532.293,-15.137,-23.926,-27.832,-33.691
1626466532.297,-67.383,-57.617,-47.852,-81.543
1626466532.301,-77.637,-69.824,-36.621,-87.891
1626466532.305,-48.828,-33.691,-8.789,-43.945
1626466532.309,-14.648,-2.930,-16.113,-12.207
1626466532.312,-44.434,-33.203,-54.688,-49.805
1626466532.316,-71.289,-62.012,-49.805,-77.148
1626466532.320,-47.852,-55.176,-25.391,-57.129
1626466532.324,-18.555,-34.668,-19.043,-10.254
1626466532.328,-30.762,-39.062,-49.805,-17.090
1626466532.330,-50.781,-59.570,-52.246,-54.688
1626466532.334,-44.434,-48.828,-29.785,-63.477
1626466532.338,-9.766,-19.531,-15.137,-18.555
1626466532.342,-13.672,-24.902,-41.992,-13.184
1626466532.346,-66.895,-48.340,-49.316,-69.336
1626466532.350,-67.871,-46.875,-35.156,-74.219
1626466532.354,-17.090,-20.996,-21.484,-37.598
1626466532.357,-0.488,-16.602,-24.414,-18.555
1626466532.361,-39.062,-43.945,-42.969,-48.828
1626466532.365,-67.871,-54.688,-41.992,-69.336
1626466532.369,-42.969,-32.715,-21.484,-34.668
1626466532.373,-13.184,-13.672,-19.043,11.230
1626466532.375,-51.758,-39.551,-49.316,-51.270
1626466532.379,-76.172,-64.453,-49.805,-96.191
1626466532.383,-45.898,-45.898,-22.461,-62.988
1626466532.387,-6.348,-13.672,-6.348,-14.160
1626466532.391,-27.832,-26.367,-41.992,-40.527
1626466532.395,-77.148,-44.922,-55.176,-80.566
1626466532.399,-62.500,-41.504,-39.062,-69.336
1626466532.402,-11.719,-21.484,-13.184,-21.973
1626466532.406,-15.625,-24.902,-33.203,-8.301
1626466532.410,-48.340,-55.176,-53.223,-51.758
1626466532.414,-56.641,-54.199,-36.621,-55.176
1626466532.418,-19.531,-29.297,-17.578,-20.020
1626466532.421,9.766,-11.719,-24.902,-12.207
1626466532.425,-44.434,-34.180,-46.875,-50.781
1626466532.429,-66.895,-55.176,-47.363,-67.871
1626466532.433,-33.203,-41.992,-30.762,-35.156
1626466532.437,7.812,-13.184,-27.344,13.184
1626466532.441,-7.324,-20.996,-47.363,-30.273
1626466532.445,-55.176,-50.293,-40.039,-71.777
1626466532.448,-49.316,-49.316,-31.250,-55.176
1626466532.452,-10.254,-20.508,-15.625,-9.277
1626466532.456,-26.367,-27.344,-29.297,-22.461
1626466532.460,-66.406,-58.594,-48.340,-68.848
1626466532.464,-63.477,-58.105,-46.387,-80.566
1626466532.465,-19.531,-25.391,-26.855,-45.410
1626466532.469,-16.602,-20.996,-37.598,-24.414
1626466532.473,-61.523,-54.199,-56.152,-78.125
1626466532.477,-75.684,-62.988,-44.434,-94.238
1626466532.481,-37.109,-37.598,-17.090,-48.340
1626466532.485,-19.043,-18.555,-19.043,-20.996
1626466532.489,-60.059,-41.504,-50.293,-66.895
1626466532.492,-72.754,-60.059,-52.246,-83.008
1626466532.496,-49.316,-47.852,-30.762,-57.617
1626466532.500,-20.508,-34.668,-21.484,-27.832
1626466532.504,-45.898,-50.293,-41.016,-49.316
1626466532.508,-73.730,-61.523,-34.180,-98.633
1626466532.510,-60.547,-53.223,-25.391,-78.125
1626466532.514,-8.789,-28.809,-14.648,-13.184
1626466532.518,-16.113,-34.668,-35.645,-27.832
1626466532.522,-67.871,-67.871,-59.082,-71.289
1626466532.526,-55.176,-64.941,-40.039,-63.965
1626466532.530,-3.906,-20.996,0.000,-10.254
1626466532.534,-2.441,-5.371,-22.461,7.812
1626466532.537,-49.805,-51.758,-61.035,-50.293
1626466532.541,-60.059,-69.824,-41.504,-69.336
1626466532.545,-29.785,-44.922,-13.672,-14.648
1626466532.549,-8.301,-19.531,-18.066,32.227
1626466532.553,-51.758,-40.527,-39.062,-37.109
1626466532.555,-70.312,-63.477,-35.156,-84.473
1626466532.559,-49.805,-53.711,-14.160,-32.715
1626466532.563,-19.043,-24.902,-7.812,14.160
1626466532.567,-34.668,-28.320,-41.016,-14.648
1626466532.571,-62.988,-47.852,-43.457,-60.547
1626466532.575,-44.922,-33.203,-22.461,-50.781
1626466532.579,-9.277,-14.160,-17.578,-6.348
1626466532.582,-20.996,-21.484,-41.992,-7.324
1626466532.586,-61.523,-42.480,-50.781,-40.527
1626466532.590,-53.711,-48.340,-30.762,-45.410
1626466532.594,-27.344,-27.832,-10.742,-5.371
1626466532.598,-9.766,-25.879,-18.555,-0.977
1626466532.600,-48.828,-53.223,-35.645,-50.293
1626466532.604,-62.988,-60.547,-42.480,-49.805
1626466532.608,-22.461,-34.668,-16.602,-12.207
1626466532.612,5.859,-11.719,-5.859,10.254
1626466532.616,-28.320,-37.109,-49.316,-32.715
1626466532.620,-52.734,-49.805,-50.781,-62.500
1626466532.624,-32.227,-37.109,-27.344,-35.156
1626466532.627,5.371,-20.020,-7.324,16.602
1626466532.631,-9.277,-27.832,-29.785,-5.371
1626466532.635,-48.828,-56.152,-49.316,-49.316
1626466532.639,-38.086,-54.688,-27.832,-31.250
1626466532.643,3.906,-33.691,-4.395,15.137
1626466532.660,7.324,-22.949,-24.902,20.508
1626466532.664,-46.875,-44.434,-43.457,-45.898
1626466532.668,-45.410,-56.641,-36.621,-63.477
1626466532.672,-0.977,-28.809,-8.789,-9.277
1626466532.676,-2.441,-22.461,-14.648,7.324
1626466532.680,-43.945,-51.270,-41.992,-45.410
1626466532.684,-52.246,-60.059,-39.551,-70.801
1626466532.687,-25.879,-48.828,-16.113,-50.293
1626466532.691,2.930,-25.879,-10.254,-8.789
1626466532.695,-38.086,-49.316,-42.969,-35.645
1626466532.699,-63.477,-73.730,-46.387,-66.406
1626466532.703,-29.785,-56.641,-27.832,-52.734
1626466532.705,1.953,-21.973,-3.906,0.977
1626466532.709,-6.348,-23.438,-20.020,-0.977
1626466532.713,-44.922,-51.758,-39.551,-47.852
1626466532.717,-48.828,-57.129,-32.715,-62.012
1626466532.721,-14.648,-29.785,-8.301,-6.836
1626466532.725,-5.371,-20.508,-21.973,17.578
1626466532.729,-55.664,-60.059,-43.945,-42.480
1626466532.732,-76.660,-74.219,-28.320,-61.035
1626466532.736,-30.273,-48.340,-8.301,-18.555
1626466532.740,5.371,-32.227,-18.066,17.090
1626466532.744,-37.598,-51.758,-39.551,-28.809
1626466532.748,-67.871,-64.941,-37.109,-64.941
1626466532.750,-36.133,-47.363,-18.555,-30.273
1626466532.754,10.742,-17.090,-7.812,21.484
1626466532.758,-18.555,-37.598,-45.898,-12.695
1626466532.762,-65.918,-65.430,-52.246,-50.781
1626466532.766,-53.223,-58.105,-27.832,-45.898
1626466532.770,-1.953,-21.973,-2.441,-9.277
1626466532.774,-6.348,-20.508,-30.273,-7.812
1626466532.777,-55.176,-52.734,-45.410,-48.340
1626466532.781,-62.988,-48.828,-29.785,-47.852
1626466532.785,-27.344,-35.156,-18.066,-2.930
1626466532.789,-11.719,-29.297,-28.809,-1.953
1626466532.793,-56.641,-48.828,-51.758,-46.387
1626466532.795,-68.359,-64.941,-47.852,-53.711
1626466532.799,-26.367,-43.945,-24.902,-25.879
1626466532.803,-8.789,-18.555,-23.438,3.906
1626466532.807,-59.082,-43.457,-49.805,-30.762
1626466532.811,-67.383,-67.383,-44.922,-65.430
1626466532.815,-37.109,-49.805,-20.508,-42.969
1626466532.819,-10.254,-15.137,-7.324,9.277
1626466532.822,-37.109,-36.621,-49.805,-33.203
1626466532.826,-83.008,-64.453,-67.383,-85.449
1626466532.830,-77.148,-50.293,-33.691,-67.383
1626466532.834,-25.391,-23.438,-10.742,-13.672
1626466532.838,-20.996,-20.508,-32.227,-8.789
1626466532.840,-75.684,-48.340,-45.410,-61.035
1626466532.844,-83.008,-60.547,-38.574,-87.402
1626466532.848,-42.969,-33.691,-23.926,-47.363
1626466532.852,-22.949,-20.020,-32.715,-0.977
1626466532.856,-62.988,-49.316,-49.805,-54.688
1626466532.860,-73.730,-43.945,-36.621,-86.914
1626466532.864,-45.898,-19.043,-10.254,-41.504
1626466532.867,-23.438,-19.531,-17.578,-2.441
1626466532.871,-50.293,-49.316,-47.852,-43.945
1626466532.875,-66.895,-61.523,-42.480,-67.871
1626466532.879,-44.434,-39.551,-22.949,-35.645
1626466532.883,-15.625,-14.648,-8.789,8.789
1626466532.886,-29.297,-32.227,-48.828,-5.859
1626466532.890,-54.199,-60.059,-57.617,-58.105
1626466532.894,-45.898,-61.035,-31.250,-64.453
1626466532.898,-7.812,-31.250,-12.695,-8.301
1626466532.902,-8.301,-17.090,-31.738,-3.906
1626466532.906,-56.641,-45.898,-48.340,-59.570
1626466532.910,-57.617,-50.781,-34.668,-52.246
1626466532.913,-12.695,-29.785,-9.766,-0.488
1626466532.917,-2.441,-13.672,-14.648,2.930
1626466532.921,-42.969,-39.062,-41.504,-50.781
1626466532.925,-66.895,-56.152,-46.875,-82.520
1626466532.929,-38.086,-43.457,-34.668,-55.176
1626466532.930,-4.883,-17.090,-21.973,2.930
1626466532.934,-35.645,-35.156,-52.246,-32.227
1626466532.938,-56.152,-58.594,-62.012,-73.242
1626466532.942,-51.270,-41.992,-40.527,-57.129
1626466532.946,-22.461,-10.742,-19.043,-3.906
1626466532.950,-20.508,-9.277,-40.039,-12.695
1626466532.954,-64.941,-41.016,-54.199,-68.359
1626466532.957,-65.918,-47.363,-41.016,-71.289
1626466532.961,-17.578,-17.090,-15.625,-18.555
1626466532.965,-15.137,-15.625,-35.156,0.488
1626466532.969,-40.039,-46.875,-62.988,-53.711
1626466532.973,-48.340,-55.176,-48.340,-75.684
1626466532.975,-27.832,-31.738,-21.973,-24.902
1626466532.979,17.090,-8.301,-24.414,24.902
1626466532.983,-20.996,-27.344,-42.480,-34.180
1626466532.987,-45.898,-44.434,-33.691,-72.266
1626466532.991,-11.719,-26.367,-20.020,-41.992
1626466532.995,31.250,3.418,-12.207,1.953
1626466532.999,0.000,-15.137,-45.898,-24.902
1626466533.002,-48.828,-46.387,-57.129,-69.336
1626466533.006,-25.391,-44.434,-33.203,-32.715
1626466533.010,10.254,-17.578,-10.254,19.531
1626466533.014,-4.395,-13.184,-37.109,4.883
1626466533.018,-41.504,-38.574,-47.363,-50.293
1626466533.035,-38.086,-41.992,-41.016,-56.152
1626466533.039,-5.859,-16.113,-19.531,-3.906
1626466533.043,2.441,-8.301,-21.973,14.160
1626466533.047,-29.297,-35.645,-41.504,-35.156
1626466533.051,-38.086,-44.922,-38.574,-49.316
1626466533.055,-2.441,-22.949,-15.137,-9.277
1626466533.059,21.484,-7.812,-4.883,30.762
1626466533.062,-19.531,-28.809,-41.016,-21.973
1626466533.066,-53.223,-41.016,-47.852,-75.195
1626466533.070,-41.504,-36.133,-22.949,-50.293
1626466533.074,-5.859,-12.695,-7.324,2.441
1626466533.078,-24.414,-29.297,-41.016,-17.578
1626466533.080,-51.270,-53.223,-57.129,-67.871
1626466533.084,-42.480,-42.969,-38.574,-52.246
1626466533.088,-10.254,-21.484,-11.230,-3.906
1626466533.092,-10.742,-30.762,-34.668,-15.625
1626466533.096,-63.477,-60.547,-53.223,-66.895
1626466533.100,-63.965,-53.711,-37.598,-67.383
1626466533.104,-20.996,-27.832,-15.137,-13.184
1626466533.107,-16.602,-15.137,-22.949,3.906
1626466533.111,-57.129,-43.945,-51.270,-56.641
1626466533.115,-59.082,-58.594,-47.852,-81.543
1626466533.119,-29.297,-32.715,-25.391,-42.969
1626466533.123,-16.113,-13.184,-13.184,0.488
1626466533.126,-45.898,-28.320,-38.574,-35.645
1626466533.130,-79.102,-47.852,-54.199,-73.730
1626466533.134,-65.918,-43.945,-29.785,-45.898
1626466533.138,-15.625,-18.066,-13.672,8.301
1626466533.142,-40.527,-24.902,-44.434,-17.090
1626466533.146,-86.426,-43.457,-40.527,-77.148
1626466533.150,-75.684,-40.039,-22.461,-71.777
1626466533.153,-33.691,-18.066,-6.348,-25.879
1626466533.157,-26.367,-15.625,-24.414,-18.555
1626466533.161,-76.172,-51.758,-50.781,-82.520
1626466533.165,-81.543,-52.246,-43.945,-110.352
1626466533.169,-35.645,-23.926,-12.695,-46.875
1626466533.170,-8.301,-10.742,-20.996,-4.395
1626466533.174,-40.527,-41.504,-52.246,-46.387
1626466533.178,-70.312,-57.617,-44.922,-76.172
1626466533.182,-30.273,-32.715,-22.461,-40.527
1626466533.186,6.348,-3.418,-16.602,0.977
1626466533.190,-37.598,-22.461,-50.293,-47.852
1626466533.194,-65.918,-48.828,-51.758,-79.590
