timestamps,TP9,AF7,AF8,TP10
1626647599.182,-10.254,-15.625,-19.531,0.488
1626647599.186,-75.684,-21.484,-22.461,-111.328
1626647599.190,-56.152,-8.789,0.488,-69.824
1626647599.194,18.066,-7.324,5.859,52.246
1626647599.198,-14.160,-47.363,-49.805,14.648
1626647599.202,-71.777,-44.922,-58.594,-95.703
1626647599.206,-52.246,1.465,-38.574,-79.102
1626647599.209,-1.953,-7.324,-44.434,31.250
1626647599.213,53.223,-21.484,2.930,87.891
1626647599.217,-24.902,-45.410,14.160,-40.039
1626647599.221,-120.605,-68.359,-7.324,-140.137
1626647599.225,-66.406,-33.203,-9.766,-45.898
1626647599.228,-94.727,-30.273,-57.129,-106.445
1626647599.232,-28.809,-33.691,-39.551,11.230
1626647599.236,45.410,-2.930,-16.113,64.453
1626647599.240,-26.367,-18.555,-34.668,-67.383
1626647599.244,-71.777,-40.527,-4.395,-100.586
1626647599.254,-12.207,-57.129,-8.789,6.836
1626647599.258,8.789,-54.688,-37.598,39.551
1626647599.262,-24.902,-5.859,-19.531,-35.645
1626647599.266,-74.707,-3.418,-21.973,-104.980
1626647599.270,-34.180,-7.812,-15.625,-28.809
1626647599.274,38.086,3.906,-13.672,67.383
1626647599.278,-75.195,-86.914,-98.145,-74.707
1626647599.281,-139.160,-116.211,-88.379,-177.734
1626647599.285,-27.832,-33.691,-0.977,-50.293
1626647599.289,41.504,3.418,-4.395,57.617
1626647599.293,51.270,17.578,-5.859,44.922
1626647599.297,-107.422,-76.660,-74.219,-150.391
1626647599.293,-142.090,-97.656,-69.824,-159.668
1626647599.297,38.574,-2.930,16.602,58.594
1626647599.301,60.059,-0.977,4.883,82.031
1626647599.305,-28.809,-14.648,-14.160,-50.293
1626647599.309,-79.102,-21.484,-4.883,-109.375
1626647599.313,-17.090,2.930,1.953,5.371
1626647599.317,35.645,-3.906,-25.391,83.008
1626647599.320,-30.273,-53.223,-40.527,-25.391
1626647599.324,-79.590,-32.227,-6.836,-100.586
1626647599.328,-108.887,-60.547,-42.480,-78.125
1626647599.332,-59.570,-60.059,-67.383,6.348
1626647599.336,-6.348,0.488,-25.391,9.766
1626647599.337,-75.195,-25.391,-17.090,-98.633
1626647599.341,-48.828,-16.602,8.789,-45.898
1626647599.345,-5.859,-46.387,-25.391,34.668
1626647599.349,12.695,-72.754,-29.297,25.879
1626647599.353,-35.645,-52.246,-7.324,-72.754
1626647599.357,-80.078,-40.039,-26.367,-107.422
1626647599.361,31.738,28.320,-12.695,41.992
1626647599.364,9.766,-21.484,-64.453,33.203
1626647599.368,-95.703,-76.172,-76.172,-115.234
1626647599.372,-104.004,-41.992,-24.902,-137.695
1626647599.376,-63.477,-54.199,-41.504,-46.875
1626647599.380,29.297,-12.695,-18.555,62.988
1626647599.412,-30.762,-32.715,-29.297,-42.969
1626647599.416,-160.156,-91.309,-88.379,-191.895
1626647599.420,-62.988,-31.250,-49.316,-67.871
1626647599.424,51.270,-17.090,-8.789,77.637
1626647599.428,47.852,-26.367,7.812,46.875
1626647599.432,-41.016,-15.625,-29.785,-77.637
1626647599.436,-187.988,-121.582,-177.246,-188.477
1626647599.439,-121.582,-145.020,-161.133,-85.449
1626647599.443,24.902,-37.598,-32.227,32.227
1626647599.447,-17.578,-6.836,-14.648,-67.383
1626647599.451,-62.988,-13.184,2.930,-104.492
1626647599.455,26.367,22.949,33.203,32.715
1626647599.454,80.566,46.875,30.762,94.238
1626647599.458,-0.977,5.859,6.348,-29.785
1626647599.462,-68.359,-25.391,-10.254,-109.863
1626647599.466,-31.738,-30.273,-20.996,-26.855
1626647599.470,12.207,-32.227,-47.363,41.504
1626647599.474,1.953,-19.043,-51.270,-15.137
1626647599.478,-49.316,-26.855,-35.156,-97.168
1626647599.481,-52.734,-19.531,-53.223,-51.758
1626647599.485,18.066,3.418,-54.688,60.547
1626647599.489,20.020,0.000,-15.137,24.414
1626647599.493,-69.824,-15.137,-12.207,-107.910
1626647599.497,-94.238,-26.855,-23.926,-114.746
1626647599.472,-9.766,-31.738,-9.766,12.207
1626647599.476,20.508,-34.668,-6.348,41.992
1626647599.480,-65.918,-62.988,-28.809,-87.891
1626647599.484,-81.055,-58.105,-28.809,-109.863
1626647599.488,3.906,-16.113,-13.672,15.625
1626647599.492,46.387,3.418,-35.156,71.777
1626647599.496,0.000,-20.996,-40.527,-23.926
1626647599.499,-93.262,-61.035,-51.758,-131.836
1626647599.503,-78.125,-41.992,-66.895,-65.918
1626647599.507,17.578,-1.465,-45.898,50.293
1626647599.511,6.348,-15.625,-24.414,-2.930
1626647599.515,-57.617,-7.812,2.930,-101.074
1626647599.534,-99.121,-41.504,-44.922,-102.539
1626647599.538,-125.488,-129.395,-145.020,-73.730
1626647599.542,-61.035,-88.867,-97.168,-40.527
1626647599.546,-23.438,-13.672,-14.160,-67.871
1626647599.550,-48.828,-8.301,-29.785,-78.125
1626647599.554,-10.742,-40.039,-53.711,11.230
1626647599.558,10.254,-54.199,-47.852,32.715
1626647599.561,-32.227,-52.734,-21.484,-67.871
1626647599.565,-87.402,-73.730,-16.113,-130.859
1626647599.569,-8.789,-31.250,-1.953,-7.812
1626647599.573,32.715,-14.648,-32.227,56.641
1626647599.577,-74.219,-67.383,-83.496,-89.844
1626647599.573,-99.609,-38.086,-42.480,-144.531
1626647599.577,-23.438,6.348,-5.859,-40.527
1626647599.581,35.156,6.836,-14.648,53.223
1626647599.585,22.461,13.672,-31.738,13.672
1626647599.589,-43.457,8.301,-46.387,-90.820
1626647599.593,-39.551,-4.883,-19.531,-57.129
1626647599.597,42.969,-13.672,3.906,63.477
1626647599.600,45.898,-25.391,-9.277,45.410
1626647599.604,-43.457,-35.645,-37.598,-90.820
1626647599.608,-145.508,-91.309,-98.633,-169.922
1626647599.612,-51.758,-73.242,-67.383,-21.973
1626647599.616,61.035,-24.414,-18.555,79.102
1626647599.620,-9.277,-18.066,-24.414,-40.039
1626647599.624,-62.500,4.395,-9.766,-99.121
1626647599.628,-52.734,-31.738,-34.668,-39.551
1626647599.632,20.508,-37.598,-17.090,52.734
1626647599.636,9.277,-15.137,-5.859,-9.766
1626647599.640,-71.777,-9.277,-20.020,-114.746
1626647599.644,-11.719,23.926,15.625,-17.090
1626647599.647,-0.488,-40.527,-46.387,36.133
1626647599.651,-47.852,-80.078,-83.984,-37.598
1626647599.655,-48.828,-42.480,-16.113,-84.961
1626647599.659,-59.570,-48.828,-17.578,-72.754
1626647599.663,51.758,17.090,8.789,63.965
1626647599.673,9.766,-36.621,-56.152,15.625
1626647599.677,-124.512,-90.820,-108.398,-145.996
1626647599.681,-87.402,-16.602,-39.551,-115.234
1626647599.685,-30.273,-13.672,-36.621,-16.113
1626647599.689,-0.488,-18.066,-29.297,34.668
1626647599.693,-55.664,-40.039,-52.734,-71.289
1626647599.697,-114.746,-57.617,-58.594,-151.367
1626647599.700,-40.039,-29.785,-26.367,-31.250
1626647599.704,38.086,-5.859,-26.855,73.242
1626647599.708,20.508,-9.277,-7.324,17.578
1626647599.712,-61.523,-30.762,-5.371,-89.844
1626647599.716,-63.965,-27.344,-24.902,-51.758
1626647599.714,6.836,-19.043,-45.898,59.082
1626647599.718,4.883,-16.602,-53.223,26.367
1626647599.722,-62.988,-16.602,-23.438,-92.285
1626647599.726,-79.102,-17.578,-10.254,-92.285
1626647599.730,19.531,3.418,-10.254,48.828
1626647599.734,66.895,6.836,-10.254,85.449
1626647599.738,-37.109,-38.086,-23.438,-62.012
1626647599.741,-96.191,-54.688,-17.578,-122.070
1626647599.745,-25.391,-50.781,-6.348,0.977
1626647599.749,-39.062,-103.516,-73.730,15.137
1626647599.753,-111.816,-111.328,-119.141,-106.445
1626647599.757,-84.961,-28.809,-63.965,-120.605
1626647599.800,-25.879,-0.488,-30.762,-24.414
1626647599.804,39.062,-4.395,-23.926,72.266
1626647599.808,23.438,-7.812,-10.254,21.484
1626647599.812,-67.383,-16.602,-1.465,-98.633
1626647599.816,-70.312,-7.812,-19.043,-68.359
1626647599.820,14.648,2.930,-23.438,59.570
1626647599.824,47.363,4.395,9.766,64.941
1626647599.827,-61.035,-53.223,-23.438,-90.820
1626647599.831,-104.980,-88.379,-38.086,-117.676
1626647599.835,5.859,-38.574,-7.324,34.180
1626647599.839,54.688,15.137,-0.977,83.984
1626647599.843,-13.184,14.648,-23.438,-30.273
1626647599.816,-84.961,-22.461,-55.664,-116.211
1626647599.820,-21.973,-27.832,-33.691,-7.812
1626647599.824,47.363,-27.832,-26.367,82.031
1626647599.828,-12.207,-16.602,-36.133,-20.996
1626647599.832,-83.008,-5.371,-2.441,-114.746
1626647599.836,-57.617,-12.695,21.484,-47.363
1626647599.840,5.371,-20.020,-8.789,51.758
1626647599.843,-9.277,-26.855,-23.926,6.836
1626647599.847,-96.191,-37.598,-8.789,-124.023
1626647599.851,-96.680,-39.062,-12.207,-108.887
1626647599.855,-28.809,-41.016,-30.762,11.230
1626647599.859,3.418,-40.527,-21.973,29.785
1626647599.873,-37.109,-34.668,-17.578,-70.312
1626647599.877,-80.078,-57.617,-39.062,-96.191
1626647599.881,1.953,-39.062,-29.297,34.180
1626647599.885,48.828,-17.090,-48.340,81.543
1626647599.889,-106.445,-95.703,-125.977,-111.328
1626647599.893,-176.270,-114.258,-97.656,-187.988
1626647599.897,-58.594,-54.199,-23.438,-30.762
1626647599.900,26.855,-17.090,1.953,70.312
1626647599.904,-34.668,-35.156,-27.832,-37.109
1626647599.908,-136.719,-55.664,-69.824,-164.062
1626647599.912,-53.711,-13.184,-7.324,-51.270
1626647599.916,37.109,-27.344,12.695,72.266
1626647599.917,38.086,-34.668,-9.766,48.340
1626647599.921,-40.527,-32.715,-32.227,-73.242
1626647599.925,-67.383,-18.555,-31.250,-75.195
1626647599.929,31.738,20.996,-5.859,61.035
1626647599.933,36.133,0.488,-10.742,54.199
1626647599.937,-53.223,-39.062,-18.066,-74.707
1626647599.941,-98.145,-52.734,-17.090,-125.488
1626647599.944,-48.828,-49.805,-32.227,-21.484
1626647599.948,21.973,-39.062,-34.668,61.523
1626647599.952,-12.207,-19.531,-14.648,-27.344
1626647599.956,-70.801,-16.602,-0.488,-102.539
1626647599.960,-38.086,-19.531,-12.207,-29.297
1626647599.951,13.184,-22.461,-24.414,54.688
1626647599.955,14.160,-25.879,-29.297,15.137
1626647599.959,-42.480,-17.578,-22.461,-83.496
1626647599.963,-47.363,-13.184,0.977,-47.852
1626647599.967,22.949,-23.926,-6.348,65.430
1626647599.971,-5.371,-51.270,-41.016,14.648
1626647599.975,-86.426,-62.012,-43.945,-116.211
1626647599.978,-85.449,-35.645,-29.785,-104.980
1626647599.982,1.465,-7.812,-15.625,27.344
1626647599.986,37.598,-21.973,-30.762,61.523
1626647599.990,-50.781,-47.852,-61.523,-70.801
1626647599.994,-159.180,-83.984,-78.613,-177.734
1626647599.991,-88.867,-65.918,-60.547,-66.895
1626647599.995,34.180,-3.418,-21.973,60.547
1626647599.999,0.488,-0.977,-19.043,-14.160
1626647600.003,-62.988,0.977,-10.742,-96.680
1626647600.007,-16.602,1.953,-12.207,-15.625
1626647600.011,38.574,-49.805,-41.504,72.266
1626647600.015,-1.953,-66.895,-40.039,4.395
1626647600.018,-75.195,-32.227,-17.090,-109.863
1626647600.022,-80.078,-18.555,-24.414,-94.727
1626647600.026,-57.129,-67.871,-81.543,-21.484
1626647600.030,-32.715,-70.312,-59.570,-7.812
1626647600.034,-47.852,-25.391,-14.160,-77.637
1626647600.048,-70.801,-25.879,-2.930,-92.773
1626647600.052,-2.930,-32.715,-0.488,20.020
1626647600.056,35.645,-27.832,-20.508,59.570
1626647600.060,-31.738,-15.137,-33.203,-46.875
1626647600.064,-95.215,-8.789,-38.574,-122.559
1626647600.068,-2.930,7.812,-15.625,-2.441
1626647600.072,57.129,-17.090,-30.762,86.426
1626647600.075,-47.852,-81.543,-79.590,-38.574
1626647600.079,-82.031,-48.828,-52.246,-108.398
1626647600.083,-23.926,-30.762,-35.645,-22.461
1626647600.087,22.949,-27.344,-28.320,65.918
1626647600.091,-1.465,-2.930,-18.555,12.695
1626647600.096,-92.285,-28.809,-24.414,-117.676
1626647600.100,-77.148,-32.715,-0.977,-87.402
1626647600.104,24.414,-11.230,16.113,54.688
1626647600.108,35.156,-13.184,-2.930,54.688
1626647600.112,-54.199,-46.387,-23.926,-76.660
1626647600.116,-85.449,-40.039,-26.367,-98.633
1626647600.120,31.738,9.277,-13.184,56.641
1626647600.123,63.965,-9.277,-24.902,91.797
1626647600.127,-25.879,-40.039,-44.922,-50.293
1626647600.131,-78.125,-15.625,-45.410,-128.418
1626647600.135,-74.707,-29.297,-73.730,-77.637
1626647600.139,-0.488,-27.344,-74.219,16.602
1626647600.136,18.555,6.836,-43.457,-22.461
1626647600.140,-55.176,8.301,-53.223,-130.371
1626647600.144,-20.508,32.715,-52.246,-67.871
1626647600.148,43.457,17.090,-70.801,31.250
1626647600.152,14.160,-11.719,-91.797,-14.160
1626647600.156,-32.227,20.508,-85.449,-113.770
1626647600.160,-26.367,34.668,-76.172,-99.609
1626647600.163,58.105,42.969,-59.082,33.203
1626647600.167,77.637,20.020,-75.684,46.387
1626647600.171,-0.977,-13.184,-88.867,-80.566
1626647600.175,-32.715,11.719,-68.848,-110.840
1626647600.179,55.176,35.156,-45.410,20.508
1626647600.200,119.141,22.949,-37.109,99.121
1626647600.204,20.020,-4.883,-79.590,-36.621
1626647600.208,-64.453,-0.977,-81.543,-141.602
1626647600.212,1.465,16.602,-38.086,-35.156
1626647600.216,73.730,37.109,-49.805,68.359
1626647600.220,58.594,52.246,-70.312,10.742
1626647600.224,-47.852,11.230,-97.656,-125.977
1626647600.227,-105.469,-37.109,-127.930,-136.719
1626647600.231,8.301,-13.184,-98.633,14.648
1626647600.235,59.082,4.395,-54.199,39.062
1626647600.239,-17.578,-7.324,-27.832,-74.219
1626647600.243,-57.617,-23.438,-35.645,-94.238
1626647600.240,-17.090,-17.578,-63.477,1.953
1626647600.244,33.203,-4.883,-56.152,49.316
1626647600.248,-7.324,-19.531,-35.645,-39.062
1626647600.252,-55.664,-13.184,-29.297,-96.191
1626647600.256,-14.160,-8.301,-40.039,-11.719
1626647600.260,46.875,-9.277,-32.715,74.219
1626647600.264,-10.254,-0.977,-48.828,-29.297
1626647600.267,-90.332,-14.648,-69.824,-146.973
1626647600.271,-49.316,-10.254,-55.176,-65.918
1626647600.275,36.133,9.277,-36.621,58.594
1626647600.279,-21.973,-40.527,-81.055,-27.832
1626647600.283,-80.078,-45.410,-60.059,-124.512
1626647600.271,-39.062,-16.602,-18.555,-62.500
1626647600.275,11.719,-22.461,-34.180,38.086
1626647600.279,36.621,-23.438,-38.086,47.852
1626647600.283,-41.016,-49.316,-55.176,-81.055
1626647600.287,-85.938,-47.852,-33.691,-116.211
1626647600.291,-12.207,-15.625,-15.137,1.953
1626647600.295,30.273,-0.977,-22.949,48.828
1626647600.298,-29.785,11.230,-30.273,-56.641
1626647600.302,-119.629,-16.113,-66.895,-147.461
1626647600.306,-81.543,-43.457,-63.477,-55.664
1626647600.310,20.508,-16.113,-36.133,63.965
1626647600.314,11.230,1.953,-46.875,13.672
1626647600.342,-56.152,-3.906,-28.809,-83.496
1626647600.346,-85.938,-52.734,-36.133,-72.266
1626647600.350,-23.438,-70.801,-41.992,19.531
1626647600.354,-0.488,-34.668,-33.203,-5.371
1626647600.358,-70.312,-24.902,-42.480,-121.582
1626647600.362,-62.500,-8.789,-29.297,-90.332
1626647600.366,-19.531,-0.488,-59.082,-2.930
1626647600.369,-19.043,-21.484,-83.496,-18.555
1626647600.373,-43.457,-4.395,-53.223,-103.516
1626647600.377,-61.523,0.977,-32.227,-125.488
1626647600.381,-11.719,-12.695,-12.695,-18.555
1626647600.385,26.367,-14.160,-29.297,39.062
1626647600.393,-15.625,13.184,-45.410,-50.781
1626647600.397,-96.191,-4.395,-45.410,-145.996
1626647600.401,-72.266,-46.387,-48.340,-76.660
1626647600.405,31.250,-21.973,-27.344,53.223
1626647600.409,3.418,-41.504,-55.664,-11.719
1626647600.413,-120.117,-66.406,-102.539,-165.527
1626647600.417,-99.121,-14.648,-55.664,-104.980
1626647600.420,-6.836,-4.395,-15.625,22.949
1626647600.424,15.137,-2.441,-4.395,6.836
1626647600.428,-77.148,-17.090,-38.086,-127.930
1626647600.432,-101.562,-28.320,-50.781,-134.766
1626647600.436,3.906,-3.418,-8.789,18.066
1626647600.432,27.832,-15.137,-15.625,45.898
1626647600.436,-49.805,-26.855,-40.039,-79.590
1626647600.440,-105.469,-25.879,-43.457,-133.789
1626647600.444,-47.363,-28.320,-45.898,-28.809
1626647600.448,28.320,7.324,-32.715,50.781
1626647600.452,-21.973,-5.859,-33.691,-45.898
1626647600.456,-91.797,-53.223,-33.203,-127.930
1626647600.459,-40.527,-32.715,-18.066,-35.156
1626647600.463,-5.859,-62.012,-75.684,27.344
1626647600.467,-54.199,-96.680,-97.656,-48.828
1626647600.471,-82.031,-32.715,-39.551,-120.605
1626647600.475,-40.039,3.906,-25.879,-59.082
1626647600.497,47.852,11.230,-10.254,72.266
1626647600.501,5.371,-24.902,-19.043,14.648
1626647600.505,-98.145,-49.805,-34.668,-128.906
1626647600.509,-105.957,-30.273,-39.062,-130.371
1626647600.513,-28.320,-27.344,-29.785,-2.441
1626647600.517,45.898,-27.344,2.441,64.453
1626647600.521,-28.809,-67.871,-27.344,-60.547
1626647600.524,-95.215,-64.941,-42.969,-125.000
1626647600.528,-18.066,-14.160,-7.324,-6.836
1626647600.532,38.574,10.254,-0.488,70.312
1626647600.536,2.930,23.438,-1.465,-5.859
1626647600.540,-105.469,-27.344,-32.715,-132.812
1626647600.519,-80.078,-45.410,-24.902,-67.383
1626647600.523,42.480,-3.906,1.953,77.637
1626647600.527,27.344,-11.230,-11.719,33.691
1626647600.531,-63.477,-17.578,-11.719,-88.379
1626647600.535,-94.727,-31.738,-36.621,-94.727
1626647600.539,6.836,-23.926,-26.367,48.340
1626647600.543,51.758,-19.531,0.000,73.730
1626647600.546,-36.133,-40.039,-23.438,-56.152
1626647600.550,-77.148,-48.828,-32.715,-88.867
1626647600.554,-45.410,-76.172,-42.969,-13.672
1626647600.558,-21.484,-114.258,-73.242,15.137
1626647600.562,-20.996,-77.148,-49.316,-43.457
1626647600.554,-51.758,0.488,-18.555,-86.914
1626647600.558,-17.090,15.137,-18.066,-7.324
1626647600.562,44.434,7.324,-13.184,67.383
1626647600.566,-50.781,-50.781,-55.176,-57.617
1626647600.570,-123.047,-67.871,-54.199,-148.438
1626647600.574,-37.598,-13.184,-1.953,-34.180
1626647600.578,57.129,-1.953,13.672,91.797
1626647600.581,42.969,-36.621,-3.418,49.316
1626647600.585,-69.336,-73.730,-48.828,-106.934
1626647600.589,-68.848,-65.430,-41.504,-86.914
1626647600.593,23.438,-43.945,-20.020,50.781
1626647600.597,42.480,-7.812,-29.785,52.734
1626647600.613,-13.672,25.879,-30.273,-50.781
1626647600.617,-100.098,-17.090,-59.082,-118.164
1626647600.621,-33.203,-39.062,-41.016,-5.371
1626647600.625,71.289,-14.648,-7.812,93.750
1626647600.629,18.066,-24.414,-31.250,-2.930
1626647600.633,-56.641,-23.438,-20.508,-90.332
1626647600.637,-70.801,-41.016,-26.855,-47.852
1626647600.640,0.977,-30.273,-33.203,51.758
1626647600.644,26.367,-4.883,-19.531,21.973
1626647600.648,-48.828,-25.391,-5.371,-86.426
1626647600.652,-38.086,-20.996,15.137,-36.621
1626647600.656,37.109,-0.977,6.836,75.684
1626647600.651,30.762,-10.742,-4.883,48.828
1626647600.655,-40.527,-25.879,-3.906,-65.918
1626647600.659,-69.336,-14.648,-6.836,-81.543
1626647600.663,-13.184,-7.324,-21.973,26.367
1626647600.667,3.418,-22.461,-51.758,32.227
1626647600.671,-45.898,-14.648,-49.316,-76.660
1626647600.675,-66.406,-5.371,-24.414,-93.750
1626647600.678,-22.949,-27.344,-20.996,6.348
1626647600.682,57.129,-29.297,-12.207,84.961
1626647600.686,4.395,-41.504,-32.715,-11.230
1626647600.690,-147.949,-87.891,-90.820,-165.039
1626647600.694,-91.797,-57.129,-62.500,-78.613
1626647600.691,25.879,-22.949,-15.137,64.941
1626647600.695,-3.906,-27.832,-24.902,8.789
1626647600.699,-86.914,-21.973,-28.809,-119.629
1626647600.703,-64.941,-10.742,-8.301,-67.383
1626647600.707,18.066,-16.602,0.977,60.547
1626647600.711,7.812,-29.785,-7.324,32.227
1626647600.715,-61.523,-39.062,-18.066,-86.426
1626647600.718,-79.590,-45.898,-34.668,-96.191
1626647600.722,-75.195,-63.477,-87.891,-31.250
1626647600.726,-45.898,-57.617,-96.191,-10.254
1626647600.730,-64.941,-29.297,-51.758,-89.844
1626647600.734,-113.281,-11.230,-16.602,-142.090
1626647600.752,-41.016,-3.906,-26.367,-37.109
1626647600.756,27.832,-1.465,-34.180,44.922
1626647600.760,-9.277,-8.789,-26.367,-35.156
1626647600.764,-94.727,-26.855,-45.410,-140.625
1626647600.768,-73.242,-23.438,-39.551,-69.824
1626647600.772,-1.953,-19.531,-36.621,30.762
1626647600.776,-54.688,-45.898,-66.406,-45.410
1626647600.779,-111.816,-29.785,-38.574,-142.578
1626647600.783,-85.938,-9.766,-10.254,-102.539
1626647600.787,-14.160,-16.113,-29.297,6.836
1626647600.791,28.320,-3.906,-23.438,30.762
1626647600.795,-112.793,-84.961,-87.402,-145.020
1626647600.813,-184.082,-114.258,-117.676,-212.891
1626647600.817,-27.344,-31.250,-41.016,-21.973
1626647600.821,46.875,-17.090,-16.602,57.617
1626647600.825,-5.371,-19.043,-12.207,-43.457
1626647600.829,-104.980,-27.832,-39.062,-141.602
1626647600.833,-60.059,-28.809,-38.574,-52.734
1626647600.837,60.547,-3.418,5.371,78.125
1626647600.840,33.691,12.207,10.254,14.648
1626647600.844,-70.801,-2.441,-7.812,-110.352
1626647600.848,-88.379,-23.926,-29.297,-81.055
1626647600.852,-15.137,-23.438,-44.922,27.344
1626647600.856,-0.488,-13.672,-50.781,5.859
1626647600.855,-80.078,-20.996,-67.383,-118.164
1626647600.859,-89.355,-25.879,-45.410,-107.422
1626647600.863,-59.082,-96.680,-70.312,-20.020
1626647600.867,-58.594,-125.488,-90.332,-25.879
1626647600.871,-69.824,-40.527,-39.062,-92.285
1626647600.875,-72.266,11.230,-23.926,-103.516
1626647600.879,17.090,20.996,-7.324,27.832
1626647600.882,22.461,-28.809,-23.926,51.758
1626647600.886,-68.359,-45.898,-36.621,-85.938
1626647600.890,-108.887,-18.066,-19.043,-145.508
1626647600.894,-66.895,-23.926,-21.973,-63.477
1626647600.898,28.809,-12.207,-20.020,46.875
1626647600.914,-4.395,-29.297,-43.457,-21.484
1626647600.918,-113.281,-48.828,-55.664,-145.020
1626647600.922,-86.426,-28.320,-34.180,-86.426
1626647600.926,9.766,-41.016,-38.574,41.016
1626647600.930,35.645,-37.109,-30.273,43.945
1626647600.934,-48.340,-11.230,-29.297,-80.566
1626647600.938,-91.797,-19.531,-27.344,-105.957
1626647600.941,-7.812,-27.832,-19.531,19.531
1626647600.945,29.785,-18.066,-33.691,53.711
1626647600.949,-36.133,-4.883,-25.391,-57.129
1626647600.953,-91.797,-14.160,-16.602,-116.699
1626647600.957,-56.641,-60.059,-34.668,-34.668
1626647600.973,3.906,-71.777,-34.180,46.387
1626647600.977,-8.301,-35.645,-7.324,-19.043
1626647600.981,-81.543,-30.273,-16.602,-116.699
1626647600.985,-56.152,-27.344,-34.180,-50.293
1626647600.989,32.227,-23.926,-34.180,65.918
1626647600.993,11.719,-30.762,-23.438,15.625
1626647600.997,-62.500,-18.066,-1.465,-89.844
1626647601.000,-61.523,-1.465,-6.348,-60.059
1626647601.004,-2.930,-20.996,-22.461,44.434
1626647601.008,-4.395,-52.734,-31.250,28.320
1626647601.012,-69.824,-46.387,-27.344,-85.938
1626647601.016,-92.285,-22.949,-21.484,-95.703
1626647600.980,-31.738,-18.066,-16.602,14.648
1626647600.984,31.738,-4.883,-3.418,75.684
1626647600.988,-43.457,-39.062,-38.086,-51.270
1626647600.992,-135.742,-83.984,-65.430,-146.973
1626647600.996,-37.598,-62.012,-20.020,-16.113
1626647601.000,62.012,-21.973,-2.441,89.844
1626647601.004,2.441,-12.695,-24.414,-5.859
1626647601.007,-109.375,-42.480,-48.340,-134.766
1626647601.011,-95.215,-47.363,-47.363,-81.055
1626647601.015,11.719,-8.789,-13.672,58.594
1626647601.019,23.438,-11.230,-1.953,36.621
1626647601.023,-63.477,-33.691,-15.137,-87.402
1626647601.031,-94.727,-39.551,-41.504,-91.797
1626647601.035,-14.648,-24.902,-35.645,24.902
1626647601.039,37.109,-20.020,-9.766,54.688
1626647601.043,-42.480,-41.016,-17.578,-67.383
1626647601.047,-83.496,-10.254,-16.113,-97.656
1626647601.051,-24.902,-3.906,-25.391,5.859
1626647601.055,-22.461,-63.477,-76.660,18.555
1626647601.058,-84.473,-80.078,-86.426,-93.262
1626647601.062,-104.492,-34.180,-37.109,-136.719
1626647601.066,-23.926,0.000,7.324,-16.113
1626647601.070,53.711,-8.789,16.113,84.473
1626647601.074,-17.090,-63.965,-34.180,-23.926
1626647601.073,-84.473,-49.805,-37.598,-122.559
1626647601.077,-49.316,-2.441,-21.973,-60.547
1626647601.081,17.090,-17.578,-25.391,44.434
1626647601.085,23.926,-47.363,-27.344,29.297
1626647601.089,-60.059,-48.340,-41.504,-99.121
1626647601.093,-70.312,-29.297,-30.762,-97.168
1626647601.097,24.414,-13.184,-10.254,41.504
1626647601.100,40.527,-11.719,-27.832,60.059
1626647601.104,-61.035,-24.414,-49.805,-78.125
1626647601.108,-131.348,-63.477,-47.852,-144.531
1626647601.112,-56.641,-72.754,-29.785,-23.926
1626647601.116,46.875,-28.320,-2.441,77.637
1626647601.118,2.930,-26.367,-3.418,-15.137
1626647601.122,-84.473,-40.527,-25.879,-113.770
1626647601.126,-62.500,-37.109,-43.457,-46.387
1626647601.130,9.766,-12.695,-33.203,60.059
1626647601.134,3.906,-7.812,-22.949,22.461
1626647601.138,-78.125,-34.180,-20.020,-99.121
1626647601.142,-75.195,-42.480,-13.672,-70.801
1626647601.145,-8.789,-40.039,-30.762,46.387
1626647601.149,32.227,-22.949,-32.715,51.758
1626647601.153,-41.504,-16.602,-33.203,-78.125
1626647601.157,-116.699,-43.457,-38.574,-128.418
1626647601.161,-45.410,-44.434,-22.461,-15.137
1626647601.173,-6.836,-33.691,-37.109,24.902
1626647601.177,-70.312,-22.461,-51.270,-89.355
1626647601.181,-102.051,-13.184,-34.180,-130.371
1626647601.185,-58.105,-34.180,-22.461,-27.832
1626647601.189,7.324,-28.320,-6.836,54.199
1626647601.193,-43.945,-62.012,-24.414,-46.387
1626647601.197,-177.246,-110.840,-77.148,-208.496
1626647601.200,-126.465,-68.359,-74.707,-120.117
1626647601.204,-1.465,-29.785,-44.922,28.809
1626647601.208,-21.973,-32.715,-42.480,-22.949
1626647601.212,-92.773,-14.160,-30.762,-130.371
1626647601.216,-61.035,17.578,-6.836,-76.660
1626647601.211,13.672,-1.465,-12.207,46.875
1626647601.215,10.254,-33.691,-27.344,30.762
1626647601.219,-47.852,-17.090,-25.391,-79.102
1626647601.223,-81.055,-14.160,-20.996,-102.539
1626647601.227,-18.555,-44.434,-24.414,12.207
1626647601.231,42.480,-30.273,-30.273,67.871
1626647601.235,-10.254,-2.930,-43.945,-40.527
1626647601.238,-73.730,7.324,-30.273,-116.699
1626647601.242,-37.598,7.324,-16.113,-32.715
1626647601.246,20.996,-6.836,-3.906,56.152
1626647601.250,-0.488,-17.090,2.930,-11.230
1626647601.254,-84.473,-15.625,-27.832,-119.141
1626647601.252,-70.312,-12.695,-34.180,-60.547
1626647601.256,9.277,-35.645,-25.391,54.199
1626647601.260,-42.969,-90.332,-69.336,-26.855
1626647601.264,-140.137,-91.797,-81.543,-163.086
1626647601.268,-91.309,-25.391,-31.250,-99.121
1626647601.272,1.465,-5.371,-28.809,25.879
1626647601.276,33.203,-4.395,-21.484,48.828
1626647601.279,-65.430,-39.062,-36.133,-85.449
1626647601.283,-97.656,-52.246,-23.926,-119.629
1626647601.287,5.371,-34.668,-9.766,17.090
1626647601.291,35.645,-22.461,-41.016,59.082
1626647601.295,-28.320,-14.648,-33.691,-46.875
1626647601.317,-109.375,-30.762,-61.035,-145.508
1626647601.321,-62.012,-16.113,-72.266,-58.105
1626647601.325,30.762,-30.762,-24.414,58.594
1626647601.329,-4.883,-60.547,-21.973,-10.742
1626647601.333,-81.543,-30.273,-36.133,-118.164
1626647601.337,-69.336,-20.996,-28.809,-80.078
1626647601.341,-3.906,-32.715,-31.250,19.043
1626647601.344,28.320,-11.230,-27.832,22.949
1626647601.348,-24.414,-4.395,-21.973,-68.359
1626647601.352,-67.383,-8.789,-19.531,-84.473
1626647601.356,-37.109,-28.809,-47.852,-1.953
1626647601.360,16.113,-25.879,-39.551,40.527
1626647601.372,-9.277,-17.578,-10.742,-46.387
1626647601.376,-68.359,-21.973,-18.066,-112.305
1626647601.380,-12.695,-19.531,-18.555,-10.254
1626647601.384,5.371,-51.758,-65.918,34.668
1626647601.388,-48.828,-50.781,-82.031,-61.523
1626647601.392,-81.543,-24.414,-42.969,-126.953
1626647601.396,-39.551,-30.762,-35.645,-50.781
1626647601.399,48.340,-20.996,-27.344,66.895
1626647601.403,25.879,-26.855,-27.344,9.766
1626647601.407,-99.609,-76.660,-70.312,-138.672
1626647601.411,-89.844,-68.359,-79.102,-94.727
1626647601.415,20.020,-30.762,-40.039,43.457
1626647601.414,20.996,-52.734,-18.066,24.902
1626647601.418,-29.785,-33.691,2.441,-69.336
1626647601.422,-57.617,-10.742,-1.465,-90.820
1626647601.426,-14.648,-11.230,-26.367,-4.395
1626647601.430,20.020,-26.855,-32.227,34.180
1626647601.434,-39.062,-31.250,-35.156,-68.359
1626647601.438,-88.867,-7.324,-42.969,-125.977
1626647601.441,-62.500,-37.598,-47.363,-43.457
1626647601.445,19.531,-32.715,-20.996,54.199
1626647601.449,43.945,9.766,-3.906,21.484
1626647601.453,-33.203,-2.441,-29.297,-66.406
1626647601.457,-42.480,-15.625,-33.691,-26.855
1626647601.454,-38.574,-80.078,-59.570,20.020
1626647601.458,-58.105,-127.930,-61.035,-26.855
1626647601.462,-67.871,-60.059,-24.902,-93.750
1626647601.466,-80.078,-31.738,-28.320,-83.008
1626647601.470,10.254,-25.391,-11.719,47.852
1626647601.474,42.480,-5.859,-18.555,64.453
1626647601.478,-43.457,0.488,-29.297,-62.988
1626647601.481,-72.266,6.836,-14.160,-90.332
1626647601.485,-4.883,-6.836,-2.441,20.996
1626647601.489,55.664,-9.277,17.090,84.473
1626647601.493,-48.828,-54.199,-41.992,-59.570
1626647601.497,-122.070,-94.238,-67.871,-144.531
1626647601.540,-8.789,-63.965,-21.973,-1.953
1626647601.544,32.715,-58.105,-36.621,62.500
1626647601.548,-17.578,-31.738,-42.480,-23.926
1626647601.552,-86.426,-15.137,-31.738,-118.164
1626647601.556,-74.707,-16.113,-26.367,-67.871
1626647601.560,32.715,11.719,-22.949,71.289
1626647601.564,54.199,10.254,-7.324,64.941
1626647601.567,-40.039,0.488,3.418,-65.430
1626647601.571,-113.281,-34.180,-37.109,-102.539
1626647601.575,-66.895,-79.590,-69.824,-12.207
1626647601.579,12.207,-54.688,-26.367,38.086
1626647601.583,-32.227,-47.852,-8.789,-56.641
1626647601.590,-51.758,-27.832,1.465,-75.684
1626647601.594,-13.184,-20.996,-6.836,8.789
1626647601.598,14.648,-35.645,-26.855,42.969
1626647601.602,-12.695,-3.906,-18.555,-30.273
1626647601.606,-80.566,2.441,-25.879,-117.188
1626647601.610,-31.738,-6.348,-13.672,-31.738
1626647601.614,41.504,-20.996,-8.301,69.336
1626647601.617,-34.180,-63.477,-69.336,-38.086
1626647601.621,-105.957,-62.988,-77.637,-145.996
1626647601.625,-53.223,-33.691,-39.062,-69.824
1626647601.629,40.527,-27.344,-45.898,63.477
1626647601.633,41.992,-39.551,-59.082,40.527
1626647601.590,-55.664,-41.504,-45.410,-98.633
1626647601.594,-68.359,-18.555,-15.625,-97.656
1626647601.598,23.926,-5.371,10.742,39.551
1626647601.602,47.852,-13.672,5.859,66.406
1626647601.606,-47.852,-28.320,-20.508,-74.707
1626647601.610,-128.418,-41.016,-42.480,-147.949
1626647601.614,-55.664,-26.367,-28.320,-24.414
1626647601.617,26.855,-17.090,-22.949,64.453
1626647601.621,-9.766,-38.574,-35.156,-17.090
1626647601.625,-72.266,-46.875,-42.480,-99.609
1626647601.629,-63.477,-42.480,-52.246,-52.246
1626647601.633,28.809,-4.883,-33.203,65.918
1626647601.633,26.855,-3.418,-22.461,19.531
1626647601.637,-90.820,-47.852,-33.203,-135.742
1626647601.641,-90.820,-39.551,-14.648,-106.445
1626647601.645,-46.875,-61.035,-36.133,-11.719
1626647601.649,-91.309,-124.023,-107.910,-64.941
1626647601.653,-125.977,-106.445,-104.980,-152.344
1626647601.657,-93.262,-58.105,-40.527,-118.652
1626647601.660,7.812,-34.180,-8.789,23.926
1626647601.664,41.016,-17.090,-22.949,57.617
1626647601.668,-19.043,-6.348,-27.344,-54.199
1626647601.672,-54.199,-6.348,-18.555,-106.934
1626647601.676,1.953,-5.371,-31.738,-3.906
1626647601.692,70.801,9.277,-31.250,87.891
1626647601.696,-3.906,-18.555,-32.715,-25.391
1626647601.700,-83.496,-47.363,-27.832,-127.441
1626647601.704,-38.086,-32.715,-14.160,-42.969
1626647601.708,25.391,-31.250,-19.531,56.152
1626647601.712,48.340,-52.734,4.883,39.062
1626647601.716,-46.875,-53.711,-15.137,-91.797
1626647601.719,-108.887,-30.762,-52.734,-118.652
1626647601.723,-9.277,-2.441,-27.832,16.113
1626647601.727,27.832,2.441,-16.602,39.551
1626647601.731,-44.434,2.441,-26.855,-71.777
1626647601.735,-90.332,-10.742,-54.199,-114.258
1626647601.732,-40.527,-51.270,-76.172,-21.484
1626647601.736,35.156,-54.199,-37.598,59.082
1626647601.740,-14.648,-34.668,-13.672,-40.527
1626647601.744,-87.891,-23.438,-28.809,-127.441
1626647601.748,-27.344,-20.508,-31.250,-22.949
1626647601.752,23.438,-29.785,-28.809,58.594
1626647601.756,-14.160,-19.043,-17.578,-20.996
1626647601.759,-88.379,-10.254,-18.555,-129.395
1626647601.763,-63.965,-0.488,-24.902,-73.242
1626647601.767,27.344,7.812,-22.949,53.711
1626647601.771,-6.348,-26.855,-48.340,-0.488
1626647601.775,-71.777,-24.902,-37.109,-108.887
1626647601.812,-54.688,-12.207,-24.414,-73.242
1626647601.816,19.531,-15.625,-45.410,46.387
1626647601.820,66.406,-12.695,-21.484,78.613
1626647601.824,-32.715,-48.340,-44.922,-64.453
1626647601.828,-108.887,-62.988,-69.336,-134.766
1626647601.832,-20.996,-32.227,-40.527,-7.324
1626647601.836,26.855,-12.695,-39.551,55.176
1626647601.839,-16.113,-7.324,-28.320,-32.227
1626647601.843,-120.117,-68.359,-63.477,-150.879
1626647601.847,-103.027,-82.031,-73.730,-91.309
1626647601.851,39.551,-10.254,-9.277,70.312
1626647601.855,39.062,6.348,-7.812,33.691
1626647601.839,-51.758,-19.531,-21.973,-83.496
1626647601.843,-76.172,-59.082,-27.832,-72.266
1626647601.847,4.395,-39.062,-26.367,41.016
1626647601.851,41.504,-11.719,-25.391,47.363
1626647601.855,-22.461,-12.695,-10.742,-63.477
1626647601.859,-55.176,-19.531,-15.137,-83.008
1626647601.863,-33.203,-37.598,-68.359,-6.348
1626647601.866,-0.488,-28.320,-57.617,33.203
1626647601.870,-13.672,-8.301,-23.438,-41.992
1626647601.874,-62.012,-23.438,-27.344,-101.074
1626647601.878,-12.207,-38.086,-19.043,7.324
1626647601.882,35.156,-31.738,-27.344,65.430
1626647601.918,-12.695,-36.621,-37.598,-28.320
1626647601.922,-62.500,-11.230,-21.484,-95.703
1626647601.926,-45.898,-11.230,-33.203,-50.293
1626647601.930,28.320,-30.273,-24.902,58.105
1626647601.934,-12.695,-58.594,-31.738,-0.488
1626647601.938,-121.094,-62.500,-67.871,-140.625
1626647601.942,-78.125,-17.090,-35.156,-84.473
1626647601.945,19.043,-6.348,0.000,48.828
1626647601.949,39.551,7.812,-5.859,51.270
1626647601.953,-41.992,2.441,-28.809,-77.148
1626647601.957,-140.137,-59.570,-81.543,-152.344
1626647601.961,-104.492,-116.211,-105.957,-65.918
1626647601.920,-2.441,-101.562,-60.059,32.715
1626647601.924,-3.418,-41.992,-21.484,-32.227
1626647601.928,-80.566,-9.277,-29.297,-123.535
1626647601.932,-44.922,2.441,-29.785,-38.086
1626647601.936,22.949,-18.555,-26.855,46.875
1626647601.940,3.418,-39.551,-28.320,-19.043
1626647601.944,-46.387,-30.273,-20.996,-91.309
1626647601.947,-48.340,-33.203,-22.949,-45.410
1626647601.951,-11.719,-33.691,-40.527,32.227
1626647601.955,-2.441,-7.324,-36.133,9.766
1626647601.959,-41.504,9.766,-14.648,-79.590
1626647601.963,-53.223,-12.695,-16.602,-76.660
1626647601.980,11.719,-34.668,-17.090,36.621
1626647601.984,9.277,-52.246,-37.109,24.902
1626647601.988,-68.848,-57.617,-56.152,-97.656
1626647601.992,-87.891,-31.250,-26.367,-106.934
1626647601.996,-19.531,-15.137,-4.883,8.301
1626647602.000,41.016,-11.719,12.695,70.312
1626647602.004,-41.992,-45.898,-31.250,-52.734
1626647602.007,-166.016,-69.824,-88.867,-182.617
1626647602.011,-93.262,-27.832,-45.410,-71.289
1626647602.015,32.227,-2.441,-27.832,73.242
1626647602.019,12.695,2.930,-29.785,18.066
1626647602.023,-99.121,-34.180,-36.133,-120.117
1626647602.013,-106.445,-66.406,-51.758,-95.703
1626647602.017,9.277,-53.711,-14.648,42.480
1626647602.021,22.949,-57.129,0.488,26.367
1626647602.025,-60.547,-42.480,-19.043,-91.309
1626647602.029,-81.055,-2.441,-26.855,-97.656
1626647602.033,0.488,1.953,-19.531,25.879
1626647602.037,29.297,-26.367,-20.020,54.199
1626647602.040,-56.641,-34.668,-21.484,-76.660
1626647602.044,-83.496,-9.766,-1.953,-113.281
1626647602.048,-14.160,-11.230,-7.324,-7.324
1626647602.052,2.441,-56.641,-48.828,27.344
1626647602.056,-27.344,-69.336,-43.457,-45.898
1626647602.053,-89.355,-47.852,-47.363,-133.301
1626647602.057,-58.105,-21.973,-47.852,-65.918
1626647602.061,41.016,-9.277,-24.414,63.477
1626647602.065,13.184,-7.812,-32.227,5.371
1626647602.069,-71.289,-3.906,-32.227,-119.141
1626647602.073,-66.895,-22.461,-8.301,-83.984
1626647602.077,2.441,-21.484,-19.531,32.227
1626647602.080,5.371,-11.230,-31.250,18.555
1626647602.084,-101.074,-50.293,-46.875,-128.418
1626647602.088,-156.250,-76.660,-70.312,-168.945
1626647602.092,-36.621,-42.969,-39.062,-7.324
1626647602.096,36.621,-36.133,-13.672,60.059
1626647602.134,-38.574,-40.039,-44.922,-59.570
1626647602.138,-101.074,-45.898,-44.434,-125.488
1626647602.142,-49.316,-54.199,-5.859,-33.203
1626647602.146,11.230,-47.363,-6.836,45.410
1626647602.150,-32.715,-32.227,-27.344,-39.551
1626647602.154,-83.496,0.977,-24.414,-116.699
1626647602.158,-80.566,-10.254,-45.898,-67.383
1626647602.161,-24.902,-51.270,-66.895,22.949
1626647602.165,-9.277,-62.012,-48.828,-2.441
1626647602.169,-73.730,-49.316,-23.438,-113.281
1626647602.173,-67.871,-26.367,-17.578,-87.891
1626647602.177,17.578,-5.371,-32.227,43.457
1626647602.153,47.852,-3.906,-22.949,62.500
1626647602.157,-50.781,-37.109,-26.367,-71.289
1626647602.161,-103.516,-26.367,-27.832,-118.164
1626647602.165,-26.855,-1.953,-15.625,-0.977
1626647602.169,34.180,-1.953,-14.648,62.988
1626647602.173,-33.691,-25.879,-42.969,-49.316
1626647602.177,-108.887,-38.574,-50.781,-131.348
1626647602.180,-59.570,-26.855,-34.180,-41.992
1626647602.184,23.926,-26.855,-23.926,59.570
1626647602.188,12.207,-22.461,-20.996,0.488
1626647602.192,-60.059,-28.320,-26.367,-103.516
1626647602.196,-53.711,-34.180,-31.250,-61.523
1626647602.192,17.578,-20.996,-31.738,44.922
1626647602.196,26.855,-13.672,-25.391,23.926
1626647602.200,-57.617,-20.020,-39.062,-104.980
1626647602.204,-120.605,-48.828,-81.055,-143.066
1626647602.208,-38.574,-50.781,-63.965,-15.137
1626647602.212,43.945,-2.441,-24.414,52.734
1626647602.216,-25.391,-3.418,-40.527,-71.777
1626647602.219,-83.984,-37.598,-49.316,-125.977
1626647602.223,-61.035,-84.473,-69.824,-39.551
1626647602.227,1.465,-77.148,-54.199,32.227
1626647602.231,9.277,-14.160,-10.742,-15.625
1626647602.235,-59.570,-2.441,-14.160,-100.586
1626647602.253,-36.621,-5.859,-13.672,-36.133
1626647602.257,39.062,10.254,-10.742,65.430
1626647602.261,0.000,9.277,-21.484,-1.953
1626647602.265,-92.773,-28.809,-27.344,-116.699
1626647602.269,-75.195,-30.273,-24.414,-71.289
1626647602.273,2.441,-21.484,-34.668,37.109
1626647602.277,-13.672,-50.293,-65.918,-2.441
1626647602.280,-76.172,-38.574,-43.945,-107.422
1626647602.284,-77.637,-31.250,-13.184,-92.285
1626647602.288,15.625,-29.297,-13.672,39.062
1626647602.292,72.754,-2.930,0.488,87.402
1626647602.296,-64.941,-30.273,-64.453,-91.309
1626647602.291,-158.203,-55.664,-110.352,-186.035
1626647602.295,-59.570,-29.297,-65.918,-47.852
1626647602.299,15.625,-10.254,-32.227,46.387
1626647602.303,-10.742,-21.973,-17.578,-29.785
1626647602.307,-85.938,-39.062,-12.695,-125.977
1626647602.311,-42.969,-16.602,8.301,-43.945
1626647602.315,48.340,-8.301,12.207,76.660
1626647602.318,14.648,-29.785,-14.160,20.508
1626647602.322,-39.062,-12.207,-5.371,-79.590
1626647602.326,-34.668,-5.859,-2.441,-58.594
1626647602.330,-12.207,-33.203,-42.480,15.625
1626647602.334,-5.859,-32.715,-67.383,5.371
1626647602.349,-69.824,-62.500,-77.637,-109.375
1626647602.353,-81.543,-36.621,-52.246,-112.793
1626647602.357,-17.090,-1.953,-46.875,-4.883
1626647602.361,15.137,-23.438,-44.922,31.250
1626647602.365,-21.484,-36.133,-27.832,-52.246
1626647602.369,-69.824,-20.020,-20.020,-110.840
1626647602.373,-6.348,10.742,-4.395,-6.348
1626647602.376,44.434,-19.531,-23.438,64.941
1626647602.380,-26.367,-62.988,-61.035,-37.598
1626647602.384,-69.336,-43.945,-37.598,-106.445
1626647602.388,-56.152,-44.922,-26.367,-54.688
1626647602.392,18.555,-52.734,-24.414,52.246
1626647602.392,11.719,-45.898,-33.203,14.160
1626647602.396,-92.285,-53.223,-45.898,-124.023
1626647602.400,-90.820,-41.016,-35.645,-99.609
1626647602.404,-5.859,-31.738,-39.062,24.902
1626647602.408,26.855,-9.277,-30.762,45.898
1626647602.412,-39.551,-3.418,-22.949,-66.406
1626647602.416,-100.098,-20.508,-43.945,-118.652
1626647602.419,-32.715,-16.602,-39.551,0.488
1626647602.423,27.344,-45.410,-38.574,62.500
1626647602.427,-34.180,-56.152,-49.316,-53.223
1626647602.431,-96.680,-29.297,-22.949,-125.000
1626647602.435,-70.312,-44.434,-13.184,-49.316
1626647602.451,5.859,-47.363,-9.766,47.852
1626647602.455,7.324,-34.668,-7.324,-4.395
1626647602.459,-66.895,-11.719,-18.066,-105.469
1626647602.463,-87.402,-11.230,-35.156,-82.031
1626647602.467,2.930,-5.859,-32.227,40.039
1626647602.471,41.016,-19.043,-28.320,48.340
1626647602.475,-45.898,-49.316,-34.668,-74.707
1626647602.478,-71.777,-34.180,-17.578,-80.078
1626647602.482,6.348,-8.301,-17.578,44.434
1626647602.486,9.277,-27.344,-67.383,40.039
1626647602.490,-92.773,-75.684,-86.426,-105.957
1626647602.494,-118.652,-68.848,-37.598,-133.789
1626647602.494,-29.785,-44.434,-13.672,-11.230
1626647602.498,43.457,-18.066,-25.391,75.684
1626647602.502,-7.324,-20.996,-30.273,-16.602
1626647602.506,-79.590,-32.715,-13.672,-115.234
1626647602.510,-47.363,-24.902,-9.766,-36.133
1626647602.514,17.578,-22.461,-14.160,65.918
1626647602.518,9.766,-17.090,-13.184,15.137
1626647602.521,-97.656,-41.504,-55.664,-119.629
1626647602.525,-126.465,-77.148,-73.242,-113.770
1626647602.529,6.836,-47.363,-36.621,49.316
1626647602.533,59.082,-19.043,-25.391,73.242
1626647602.537,2.441,-25.391,-7.324,-34.180
1626647602.532,-63.965,-55.664,-21.973,-82.031
1626647602.536,-10.742,-28.320,-17.090,19.531
1626647602.540,42.969,-6.836,-5.859,66.895
1626647602.544,-36.621,-38.086,-44.922,-62.988
1626647602.548,-71.777,-27.344,-25.879,-101.074
1626647602.552,-27.832,-23.926,-33.691,-13.184
1626647602.556,18.555,-21.484,-61.035,49.805
1626647602.559,4.395,2.441,-36.133,-11.230
1626647602.563,-71.777,-29.785,-25.391,-115.723
1626647602.567,-26.855,-27.344,-7.324,-37.109
1626647602.571,29.297,-40.527,-22.461,62.988
1626647602.575,-30.762,-80.078,-62.500,-23.926
1626647602.573,-72.754,-39.551,-47.363,-116.211
1626647602.577,-61.523,-19.531,-31.250,-76.660
1626647602.581,31.738,-8.301,0.000,51.270
1626647602.585,50.293,-12.695,3.418,51.270
1626647602.589,-127.441,-93.262,-90.332,-158.691
1626647602.593,-146.484,-55.176,-82.520,-171.387
1626647602.597,0.977,14.648,-19.043,16.602
1626647602.600,42.480,-16.602,-23.926,64.453
1626647602.604,-24.414,-42.480,-38.574,-41.016
1626647602.608,-113.281,-65.430,-65.430,-134.277
1626647602.612,-59.570,-28.320,-47.363,-36.133
1626647602.616,33.691,13.672,-16.602,76.660
1626647602.636,5.859,-12.695,-1.465,4.395
1626647602.640,-91.309,-34.668,-7.324,-117.676
1626647602.644,-91.309,-39.062,-18.066,-83.008
1626647602.648,9.277,-41.504,-14.160,46.387
1626647602.652,37.109,-18.555,-8.301,39.551
1626647602.656,-38.086,-15.625,-13.184,-63.965
1626647602.660,-62.500,-16.602,-23.438,-61.035
1626647602.663,-2.441,-20.508,-23.438,38.574
1626647602.667,28.809,-42.969,-16.602,53.223
1626647602.671,-41.992,-20.508,-25.391,-71.777
1626647602.675,-102.051,-3.418,-32.227,-122.070
1626647602.679,-52.246,-26.855,-48.340,-17.578
1626647602.712,1.953,-48.340,-59.570,36.621
1626647602.716,-14.648,-27.344,-30.762,-43.945
1626647602.720,-62.988,-19.043,-30.273,-115.234
1626647602.724,-45.898,-21.973,-40.039,-51.270
1626647602.728,48.340,-5.371,-1.953,66.895
1626647602.732,32.227,-17.578,-11.719,11.230
1626647602.736,-104.004,-59.082,-59.082,-143.066
1626647602.739,-81.543,-43.457,-36.133,-81.543
1626647602.743,31.250,-39.551,-19.531,58.594
1626647602.747,28.320,-49.316,-24.414,31.250
1626647602.751,-77.148,-37.598,-40.527,-103.027
1626647602.755,-132.812,-52.734,-69.336,-138.184
1626647602.756,-19.531,-37.109,-46.875,10.742
1626647602.760,56.152,-17.090,-18.066,73.730
1626647602.764,-8.301,-3.418,-17.578,-38.574
1626647602.768,-77.637,-15.137,-33.203,-109.375
1626647602.772,-28.320,-33.203,-26.855,-8.789
1626647602.776,46.875,-19.531,-18.555,79.102
1626647602.780,-14.648,-10.254,-26.855,-23.926
1626647602.783,-95.703,-22.949,-26.855,-122.559
1626647602.787,-53.711,-30.273,-39.551,-48.340
1626647602.791,23.926,-30.762,-33.691,63.477
1626647602.795,13.184,-34.180,-16.113,28.320
1626647602.799,-73.242,-48.828,-17.090,-91.309
1626647602.761,-59.082,-40.527,-0.977,-60.547
1626647602.765,31.250,-14.160,7.324,64.941
1626647602.769,9.277,-43.457,-22.461,38.574
1626647602.773,-78.125,-64.453,-41.504,-94.727
1626647602.777,-90.820,-38.574,-25.879,-108.887
1626647602.781,-13.184,-13.672,-12.207,15.625
1626647602.785,22.461,-9.766,-30.273,50.293
1626647602.788,-33.691,-13.184,-43.945,-60.059
1626647602.792,-85.449,-14.648,-37.598,-118.164
1626647602.796,-51.270,-23.438,-46.387,-29.297
1626647602.800,30.762,-38.574,-25.391,64.941
1626647602.804,17.578,-32.715,2.930,4.395
1626647602.813,-95.703,-59.570,-29.785,-118.164
1626647602.817,-73.242,-71.777,-25.879,-66.895
1626647602.821,19.531,-35.156,-9.277,52.246
1626647602.825,-1.953,-20.508,-29.785,1.953
1626647602.829,-79.102,-22.949,-35.645,-114.746
1626647602.833,-118.652,-47.852,-61.035,-122.070
1626647602.837,-83.496,-93.262,-101.074,-37.598
1626647602.840,-61.035,-115.723,-101.074,-33.203
1626647602.844,-102.539,-81.055,-73.242,-130.859
1626647602.848,-63.965,-20.508,-14.160,-93.750
1626647602.852,8.301,-40.039,-8.789,30.273
1626647602.856,25.391,-53.223,-33.203,62.012
1626647602.856,-14.160,-32.227,-29.297,-27.344
1626647602.860,-80.078,-27.344,-31.738,-108.887
1626647602.864,-37.109,-22.461,-12.207,-18.555
1626647602.868,14.648,-51.758,-25.391,62.012
1626647602.872,-11.230,-59.082,-42.480,-9.766
1626647602.876,-73.242,-30.762,-21.484,-104.004
1626647602.880,-78.125,-26.367,-23.438,-65.430
1626647602.883,17.090,-22.949,-2.441,57.617
1626647602.887,36.621,-16.113,6.348,41.992
1626647602.891,-72.266,-32.715,-31.738,-99.609
1626647602.895,-103.516,-52.246,-35.645,-106.934
1626647602.899,-11.719,-60.547,-10.254,32.227
1626647602.898,41.016,-36.621,-5.859,68.848
1626647602.902,-32.227,-23.926,-15.625,-57.617
1626647602.906,-124.023,-61.523,-37.109,-140.625
1626647602.910,-58.594,-60.059,-27.832,-30.273
1626647602.914,29.297,-39.062,-10.742,60.059
1626647602.918,-17.578,-30.273,-22.461,-35.156
1626647602.922,-81.055,-13.184,-28.320,-115.234
1626647602.925,-81.055,-62.012,-50.781,-64.453
1626647602.929,2.930,-70.312,-38.574,40.039
1626647602.933,13.184,-25.391,-10.742,9.766
1626647602.937,-65.430,-26.367,-14.648,-92.773
1626647602.941,-60.547,-26.855,-28.320,-55.664
1626647602.971,-14.160,-45.410,-54.688,33.691
1626647602.975,33.691,-5.371,-5.371,61.035
1626647602.979,-30.762,6.836,20.508,-47.852
1626647602.983,-107.422,-52.734,-20.508,-104.980
1626647602.987,-31.738,-57.617,-27.344,19.043
1626647602.991,20.020,-41.504,-24.414,54.688
1626647602.995,-46.875,-48.340,-31.250,-59.570
1626647602.998,-97.656,-40.039,-37.598,-109.375
1626647603.002,-28.809,-30.273,-16.602,-4.883
1626647603.006,44.434,-38.574,-11.719,78.613
1626647603.010,-44.922,-68.848,-58.594,-41.992
1626647603.014,-149.902,-78.613,-77.637,-164.062
1626647602.997,-63.965,-36.133,-36.621,-56.152
1626647603.001,47.363,-6.348,0.488,76.660
1626647603.005,45.898,-8.301,10.254,45.410
1626647603.009,-61.523,-41.504,-8.789,-89.355
1626647603.013,-108.398,-66.895,-20.508,-101.074
1626647603.017,-18.066,-56.152,-20.020,25.879
1626647603.021,11.719,-50.293,-20.020,35.156
1626647603.024,-57.129,-35.645,-24.414,-78.125
1626647603.028,-100.098,-24.902,-46.875,-108.398
1626647603.032,-44.434,-14.648,-41.504,-6.348
1626647603.036,20.020,-28.809,-21.484,59.570
1626647603.040,-30.273,-60.547,-29.297,-38.574
1626647603.033,-87.402,-32.227,-14.648,-109.375
1626647603.037,-53.711,-18.066,-10.254,-28.809
1626647603.041,-46.387,-62.500,-62.012,4.395
1626647603.045,-64.453,-75.195,-69.336,-63.477
1626647603.049,-66.406,-20.508,-25.879,-102.051
1626647603.053,-36.621,7.324,-5.371,-39.551
1626647603.057,8.301,-27.344,-26.367,47.363
1626647603.060,-24.414,-78.125,-72.754,-13.184
1626647603.064,-51.758,-78.125,-34.180,-91.309
1626647603.068,-39.551,-53.223,1.953,-62.500
1626647603.072,8.789,-17.578,-8.301,35.645
1626647603.076,32.715,-6.836,-12.695,48.340
1626647603.097,-46.875,-30.273,-27.344,-74.707
1626647603.101,-94.727,-31.250,-35.645,-112.305
1626647603.105,-24.414,-35.156,-31.738,1.953
1626647603.109,4.395,-44.434,-29.785,45.410
1626647603.113,-41.016,-17.090,-20.996,-48.828
1626647603.117,-134.766,-57.617,-69.824,-162.598
1626647603.121,-89.844,-78.613,-63.965,-72.266
1626647603.124,59.570,-6.836,12.695,92.773
1626647603.128,30.273,-3.418,7.812,24.902
1626647603.132,-83.008,-51.758,-20.020,-104.980
1626647603.136,-98.633,-83.984,-27.344,-79.590
1626647603.140,-23.926,-61.523,-32.715,24.414
1626647603.137,-3.418,-20.020,-32.715,13.184
1626647603.141,-75.684,-1.953,-42.969,-98.145
1626647603.145,-83.984,0.000,-33.203,-87.402
1626647603.149,-4.395,-14.160,-11.230,39.551
1626647603.153,25.879,-38.574,-13.672,59.082
1626647603.157,-28.320,-41.016,-31.738,-44.434
1626647603.161,-72.754,-24.902,-49.316,-91.309
1626647603.164,-14.160,-23.438,-25.391,2.441
1626647603.168,4.395,-46.387,-46.387,35.156
1626647603.172,-97.168,-83.008,-113.770,-99.121
1626647603.176,-120.117,-51.758,-68.359,-139.648
1626647603.180,-29.297,-18.066,-15.625,-13.184
1626647603.193,66.895,5.859,10.254,102.539
1626647603.197,41.016,9.766,13.672,34.180
1626647603.201,-56.152,-17.578,-6.348,-93.750
1626647603.205,-67.871,-23.438,-13.184,-68.848
1626647603.209,1.465,-39.062,-32.715,36.621
1626647603.213,30.273,-47.852,-30.273,34.668
1626647603.217,-55.176,-54.199,-43.457,-97.168
1626647603.220,-131.836,-64.453,-90.820,-146.484
1626647603.224,-13.672,-13.672,-54.688,5.371
1626647603.228,58.105,0.977,-14.648,69.336
1626647603.232,-0.488,-15.625,-15.137,-31.738
1626647603.236,-78.125,-42.480,-34.668,-110.840
1626647603.233,-66.895,-62.500,-73.242,-49.805
1626647603.237,62.988,-6.836,-33.203,86.914
1626647603.241,49.316,9.277,5.859,31.250
1626647603.245,-55.176,-30.762,-9.277,-96.680
1626647603.249,-51.270,-36.133,-20.508,-51.758
1626647603.253,14.160,-13.672,-23.438,55.664
1626647603.257,20.020,-17.090,-14.648,22.949
1626647603.260,-49.805,-44.922,-18.066,-85.938
1626647603.264,-66.406,-39.062,-27.832,-73.730
1626647603.268,16.602,-5.859,-14.160,42.480
1626647603.272,-25.879,-63.965,-52.246,-8.301
1626647603.276,-104.980,-82.031,-60.059,-135.742
1626647603.272,-73.730,-39.062,-18.066,-110.352
1626647603.276,-1.465,-27.344,-11.230,15.137
1626647603.280,49.805,1.465,-18.555,68.848
1626647603.284,1.465,5.859,-15.625,-25.879
1626647603.288,-64.453,-14.160,-9.277,-91.797
1626647603.292,-48.828,-36.133,-39.062,-31.738
1626647603.296,23.926,-13.184,-41.504,54.199
1626647603.299,16.113,4.395,-24.902,2.441
1626647603.303,-93.750,-54.688,-64.941,-132.812
1626647603.307,-160.156,-139.648,-125.488,-151.855
1626647603.311,-37.598,-86.914,-69.824,0.977
1626647603.315,43.457,-20.996,-9.766,40.527
1626647603.315,-47.363,-24.414,-17.090,-82.520
1626647603.319,-70.801,-19.531,-29.297,-89.844
1626647603.323,-1.953,-20.996,-38.574,28.809
1626647603.327,19.531,-11.230,-30.762,46.875
1626647603.331,-34.668,-14.648,-20.508,-61.523
1626647603.335,-76.172,-22.461,-14.160,-97.168
1626647603.339,-38.086,-23.926,-22.461,-8.301
1626647603.342,4.395,-24.902,-23.926,48.340
1626647603.346,-25.391,-35.156,-17.578,-27.832
1626647603.350,-68.848,-33.691,-22.461,-87.891
1626647603.354,-17.578,-22.461,-19.531,2.930
1626647603.358,20.020,-48.828,-34.180,60.547
1626647603.373,-9.766,-33.203,-22.949,-4.395
1626647603.377,-60.059,2.930,-2.930,-89.355
1626647603.381,-66.406,-13.184,-19.043,-64.941
1626647603.385,33.691,2.441,-2.441,70.312
1626647603.389,32.715,0.977,-20.508,43.457
1626647603.393,-100.586,-57.129,-75.684,-128.906
1626647603.397,-104.004,-62.500,-60.547,-117.188
1626647603.400,-7.324,-31.250,-35.156,25.879
1626647603.404,56.152,-3.418,-7.324,83.496
1626647603.408,-14.160,-29.785,-8.789,-34.180
1626647603.412,-146.973,-98.633,-73.730,-151.367
1626647603.416,-55.176,-40.039,-47.363,-26.367
1626647603.412,62.500,17.090,-11.230,85.449
1626647603.416,0.000,-8.301,-48.340,-22.949
1626647603.420,-101.074,-33.691,-72.754,-141.113
1626647603.424,-74.219,-38.086,-58.105,-70.312
1626647603.428,17.578,-29.297,-15.625,45.410
1626647603.432,6.836,-25.879,-20.020,-1.953
1626647603.436,-52.246,-1.953,-18.066,-99.609
1626647603.439,-19.531,22.949,18.066,-50.293
1626647603.443,-17.090,-37.598,-31.250,3.906
1626647603.447,-36.621,-58.594,-50.781,-29.297
1626647603.451,-62.988,-20.996,-42.969,-113.770
1626647603.455,-91.309,-25.879,-51.758,-125.488
1626647603.458,28.320,0.977,-0.488,36.621
1626647603.462,52.734,-25.879,-32.227,65.430
1626647603.466,-51.758,-59.570,-67.383,-75.684
1626647603.470,-60.547,-4.395,-15.625,-94.238
1626647603.474,-20.020,-2.930,-34.180,-6.348
1626647603.478,16.113,-19.531,-64.453,55.664
1626647603.482,-26.855,-17.090,-61.035,-29.297
1626647603.485,-79.590,-20.020,-16.602,-106.445
1626647603.489,-45.898,-29.297,0.488,-36.133
1626647603.493,17.090,-29.785,-32.227,45.898
1626647603.497,14.648,-20.020,-31.738,15.625
1626647603.501,-86.426,-52.734,-44.434,-117.188
1626647603.512,-82.520,-39.062,-43.457,-95.703
1626647603.516,35.645,9.766,-7.324,56.152
1626647603.520,32.715,-10.742,-14.648,41.016
1626647603.524,-48.828,-15.137,-35.156,-81.055
1626647603.528,-87.402,-10.742,-35.156,-111.816
1626647603.532,-89.355,-60.059,-83.984,-61.035
1626647603.536,-68.359,-84.473,-104.004,-31.738
1626647603.539,-37.598,-42.969,-47.852,-63.965
1626647603.543,-67.871,-30.762,-38.574,-110.840
1626647603.547,-29.785,-36.133,-18.555,-23.926
1626647603.551,48.340,-26.367,6.836,80.566
1626647603.555,14.160,-11.230,-13.184,4.395
1626647603.564,-65.918,-5.859,-20.020,-115.234
1626647603.568,-52.734,-14.160,-7.324,-64.453
1626647603.572,13.184,-41.016,-23.926,42.480
1626647603.576,6.348,-77.148,-41.016,11.230
1626647603.580,-39.062,-42.969,-11.230,-74.707
1626647603.584,-37.598,0.977,-0.977,-59.570
1626647603.588,14.160,6.836,-28.809,35.156
1626647603.591,10.742,-9.766,-42.969,30.273
1626647603.595,-106.934,-70.312,-78.613,-126.465
1626647603.599,-115.234,-47.852,-58.105,-142.090
1626647603.603,4.395,-2.441,-19.043,10.742
1626647603.607,27.344,-21.484,-30.762,51.270
1626647603.642,-19.531,-27.344,-16.602,-39.062
1626647603.646,-90.820,-49.316,-30.273,-123.535
1626647603.650,-37.109,-43.945,-26.855,-36.133
1626647603.654,59.570,-23.926,-5.859,83.496
1626647603.658,23.926,-32.227,-33.203,14.160
1626647603.662,-42.480,-20.020,-39.551,-97.168
1626647603.666,-69.336,-49.805,-34.180,-86.426
1626647603.669,-35.156,-85.449,-64.941,-2.441
1626647603.673,5.859,-43.945,-74.219,4.395
1626647603.677,-48.340,-32.715,-47.363,-99.609
1626647603.681,-72.754,-30.762,-29.297,-98.633
1626647603.685,-5.859,-17.578,-36.133,22.949
1626647603.696,41.016,-8.789,-20.020,66.406
1626647603.700,-28.320,-26.855,-16.113,-54.199
1626647603.704,-95.703,-47.852,-17.090,-119.629
1626647603.708,-30.762,-42.969,-3.418,-6.836
1626647603.712,48.340,-16.602,5.859,79.102
1626647603.716,8.789,-1.953,4.395,-4.395
1626647603.720,-72.754,-18.066,-19.043,-104.492
1626647603.723,-50.293,-19.531,-34.180,-36.621
1626647603.727,42.480,-21.484,-13.672,87.402
1626647603.731,-6.836,-57.617,-47.363,2.441
1626647603.735,-124.023,-65.430,-69.824,-138.672
1626647603.739,-85.938,-34.180,-38.086,-77.148
1626647603.717,20.508,-30.762,-29.785,58.594
1626647603.721,43.945,-27.344,-26.367,61.035
1626647603.725,-60.547,-5.371,-40.039,-83.984
1626647603.729,-107.910,-13.184,-37.109,-122.559
1626647603.733,-4.883,-29.297,-4.395,19.043
1626647603.737,32.715,-36.133,-6.836,61.035
1626647603.741,-25.879,-24.414,-14.648,-45.410
1626647603.744,-82.031,-19.531,-16.602,-100.098
1626647603.748,-41.016,-37.109,-14.160,-10.254
1626647603.752,34.180,-50.781,-15.625,72.266
1626647603.756,-25.391,-59.082,-56.641,-22.461
1626647603.760,-100.098,-42.969,-61.523,-122.559
1626647603.753,-70.801,-46.387,-39.551,-63.477
1626647603.757,-4.883,-48.340,-37.109,39.062
1626647603.761,11.230,-10.254,-25.879,21.484
1626647603.765,-47.852,-7.812,-24.414,-76.172
1626647603.769,-57.129,-31.738,-14.648,-62.500
1626647603.773,10.742,-26.367,-4.883,44.434
1626647603.777,-32.227,-54.199,-73.242,-3.906
1626647603.780,-152.344,-104.004,-118.164,-170.410
1626647603.784,-151.367,-75.195,-72.266,-177.246
1626647603.788,-42.480,-42.969,-35.156,-22.949
1626647603.792,44.922,-30.762,-11.230,68.359
1626647603.796,-39.551,-47.363,-52.246,-67.383
1626647603.803,-180.664,-98.633,-113.281,-210.449
1626647603.807,-98.145,-59.082,-64.453,-86.426
1626647603.811,24.414,3.418,-22.461,47.363
1626647603.815,3.418,5.859,-27.344,-14.648
1626647603.819,-62.500,-6.348,-13.184,-104.492
1626647603.823,-47.363,-8.301,-3.418,-55.664
1626647603.827,30.273,-12.695,-10.742,56.152
1626647603.830,22.949,-32.715,-24.902,35.156
1626647603.834,-66.895,-49.316,-34.180,-87.891
1626647603.838,-112.305,-73.242,-50.781,-116.699
1626647603.842,-23.438,-34.180,-40.527,10.254
1626647603.846,51.758,2.930,-22.949,67.383
1626647603.841,-43.457,-30.762,-49.316,-68.359
1626647603.845,-114.258,-26.367,-49.316,-137.207
1626647603.849,-60.059,-22.949,-37.598,-40.527
1626647603.853,9.766,-33.203,-24.414,39.062
1626647603.857,-20.508,-25.879,-15.625,-34.668
1626647603.861,-90.332,-23.438,-21.973,-116.699
1626647603.865,-41.504,-26.367,-8.789,-29.297
1626647603.868,16.602,-25.879,-11.719,58.594
1626647603.872,-54.688,-62.500,-64.453,-43.945
1626647603.876,-141.602,-81.543,-78.125,-161.621
1626647603.880,-93.750,-41.992,-39.551,-88.867
1626647603.884,12.207,-9.277,-24.902,49.805
1626647603.924,23.438,-15.625,-16.113,46.875
1626647603.928,-56.152,-27.344,-11.230,-74.219
1626647603.932,-94.238,-36.133,-21.973,-100.098
1626647603.936,-31.250,-34.668,-30.273,8.789
1626647603.940,16.113,-16.602,-25.879,52.246
1626647603.944,-16.602,-7.324,-7.812,-37.598
1626647603.948,-117.188,-51.758,-41.504,-138.184
1626647603.951,-81.055,-56.152,-54.199,-49.805
1626647603.955,29.297,-30.273,-20.996,62.988
1626647603.959,-8.789,-22.461,-24.902,-15.625
1626647603.963,-70.312,-18.555,-16.602,-89.844
1626647603.967,-43.945,-34.668,-7.812,-34.668
1626647603.940,10.254,-58.105,-19.531,52.734
1626647603.944,-1.953,-45.410,-32.227,10.254
1626647603.948,-68.359,-15.625,-41.504,-103.516
1626647603.952,-83.984,-14.160,-43.457,-90.332
1626647603.956,3.418,0.488,-18.555,33.691
1626647603.960,45.410,7.812,-8.789,50.293
1626647603.964,-33.691,-10.742,-13.672,-64.941
1626647603.967,-74.707,-33.691,-7.812,-96.680
1626647603.971,12.207,-18.066,7.812,25.879
1626647603.975,35.156,-37.109,-15.625,59.570
1626647603.979,-43.457,-46.387,-32.227,-57.129
1626647603.983,-92.773,-29.297,-23.926,-120.117
1626647604.005,-31.250,-31.250,-31.250,-25.879
1626647604.009,64.941,-16.602,-12.207,83.008
1626647604.013,-28.320,-62.012,-41.016,-37.109
1626647604.017,-149.414,-83.496,-72.754,-175.293
1626647604.021,-77.148,-44.922,-28.320,-71.777
1626647604.025,6.348,-36.621,-8.789,48.828
1626647604.029,18.066,-34.180,-14.648,23.438
1626647604.032,-60.059,-62.500,-35.645,-89.355
1626647604.036,-124.512,-110.352,-73.242,-120.117
1626647604.040,-36.133,-94.238,-56.641,2.930
1626647604.044,23.926,-52.734,-13.672,41.504
1626647604.048,-56.641,-41.016,-10.254,-84.473
1626647604.036,-124.512,-52.734,-26.367,-140.137
1626647604.040,-59.082,-84.961,-26.855,-24.902
1626647604.044,43.945,-56.641,-3.906,73.242
1626647604.048,-6.836,-9.766,-11.230,-22.949
1626647604.052,-86.426,-16.113,-23.926,-108.398
1626647604.056,-44.434,-37.598,-40.039,-31.738
1626647604.060,14.648,-47.852,-47.852,53.223
1626647604.063,2.441,-35.156,-20.996,5.371
1626647604.067,-69.336,-17.578,-4.395,-84.473
1626647604.071,-58.594,-38.086,-10.742,-43.945
1626647604.075,17.090,-41.992,-18.555,57.617
1626647604.079,8.301,-27.344,-25.879,26.855
1626647604.073,-67.383,-15.137,-26.367,-92.773
1626647604.077,-92.285,-26.367,-21.484,-98.633
1626647604.081,-7.324,-37.109,-14.160,24.414
1626647604.085,51.758,-4.395,-8.789,64.941
1626647604.089,-20.508,-4.395,-23.438,-57.129
1626647604.093,-62.012,-9.766,-18.066,-99.609
1626647604.097,-11.719,-15.137,-22.461,4.883
1626647604.100,28.320,-43.457,-37.109,62.500
1626647604.104,2.441,-54.688,-32.715,-11.230
1626647604.108,-95.703,-78.613,-68.848,-124.023
1626647604.112,-79.590,-74.219,-65.430,-65.430
1626647604.116,27.832,-16.113,-21.484,65.430
1626647604.126,34.668,19.043,-8.789,31.738
1626647604.130,-42.480,-1.465,-10.742,-79.102
1626647604.134,-52.734,-27.832,-8.789,-57.617
1626647604.138,30.273,-32.227,-0.977,63.965
1626647604.142,42.969,-26.367,-5.859,64.453
1626647604.146,-35.645,-17.578,-26.367,-60.059
1626647604.150,-71.777,-17.578,-34.180,-91.309
1626647604.153,-41.016,-52.246,-36.133,-7.324
1626647604.157,-15.137,-86.426,-46.875,20.020
1626647604.161,-41.504,-63.477,-32.715,-60.547
1626647604.165,-86.914,-34.668,-13.184,-108.887
1626647604.169,-29.785,-32.715,-11.230,-9.277
1626647604.193,52.246,-21.973,-15.137,88.867
1626647604.197,12.207,-13.184,-20.508,6.836
1626647604.201,-83.496,-43.457,-34.180,-118.164
1626647604.205,-55.176,-29.785,-34.668,-59.082
1626647604.209,15.137,0.000,-46.875,55.176
1626647604.213,-13.184,-16.113,-78.613,-0.488
1626647604.217,-58.594,-23.926,-59.570,-100.098
1626647604.220,-42.480,-15.137,-22.949,-61.523
1626647604.224,0.488,-13.672,-33.691,30.273
1626647604.228,18.066,-19.531,-30.762,35.645
1626647604.232,-51.270,-41.016,-28.320,-79.102
1626647604.236,-98.145,-44.434,-41.016,-118.164
1626647604.238,-4.883,-12.207,-31.250,-5.859
1626647604.241,-96.680,-25.391,-47.363,-118.652
1626647604.245,-69.824,-33.203,-44.434,-64.941
1626647604.249,-7.812,-39.551,-62.012,29.297
1626647604.253,5.859,-23.438,-49.316,15.137
1626647604.257,-59.082,-18.066,-29.785,-92.285
1626647604.279,-79.590,-28.320,-26.367,-93.750
1626647604.283,1.465,-20.996,-21.484,29.297
1626647604.287,-10.742,-61.035,-57.617,4.883
1626647604.291,-111.328,-102.051,-94.727,-139.160
1626647604.295,-91.309,-46.875,-49.316,-120.605
1626647604.299,22.949,-6.348,-11.230,39.551
1626647604.303,55.176,-33.691,-31.738,82.031
1626647604.306,-69.336,-86.914,-76.172,-82.520
1626647604.310,-129.883,-61.523,-56.152,-162.109
1626647604.314,-39.551,-8.789,-3.906,-38.086
1626647604.318,22.949,-33.203,-19.531,45.898
1626647604.322,2.441,-31.250,-25.391,-8.301
1626647604.336,-77.148,-20.508,-26.367,-113.281
1626647604.340,-81.055,-37.598,-30.273,-95.703
1626647604.344,10.742,-21.973,-21.973,31.738
1626647604.348,20.020,-7.324,-29.785,31.738
1626647604.352,-60.547,-1.465,-30.273,-91.797
1626647604.356,-103.027,-13.672,-43.457,-122.070
1626647604.360,-29.785,-27.832,-36.133,7.324
1626647604.363,32.715,-14.648,-17.578,69.336
1626647604.367,-31.250,-26.855,-37.109,-58.105
1626647604.371,-79.590,-39.062,-18.066,-117.676
1626647604.375,-62.988,-54.199,-39.062,-48.828
1626647604.379,-52.734,-79.102,-96.680,-21.484
1626647604.377,-37.598,-49.316,-46.875,-51.270
1626647604.381,-73.242,-17.090,-10.742,-105.469
1626647604.385,-47.363,2.930,-24.414,-37.598
1626647604.389,14.160,-16.602,-55.176,44.922
1626647604.393,-68.848,-83.984,-110.352,-69.336
1626647604.397,-101.074,-64.453,-53.711,-141.602
1626647604.401,-31.250,-24.414,12.207,-51.758
1626647604.404,44.922,-21.484,-1.953,70.801
1626647604.408,4.883,-49.805,-52.246,29.785
1626647604.412,-105.957,-75.684,-70.801,-117.676
1626647604.416,-87.402,-7.324,-26.367,-108.887
1626647604.420,-3.418,23.438,-19.043,12.207
1626647604.398,23.926,-2.441,-31.250,43.457
1626647604.402,-38.086,-21.973,-39.551,-62.500
1626647604.406,-113.770,-50.293,-59.570,-143.066
1626647604.410,-41.992,-35.645,-36.133,-31.738
1626647604.414,55.176,-12.695,-8.789,80.566
1626647604.418,23.926,-15.137,-3.906,11.230
1626647604.422,-63.477,-24.902,-13.672,-101.562
1626647604.425,-85.449,-53.711,-49.316,-84.473
1626647604.429,15.625,-36.621,-29.297,51.270
1626647604.433,43.945,-13.184,1.465,40.039
1626647604.437,-52.246,-20.996,-12.207,-98.145
1626647604.441,-70.801,-18.555,-27.832,-92.773
1626647604.452,-8.301,-41.016,-39.062,22.949
1626647604.456,29.785,-36.621,-27.832,44.922
1626647604.460,-14.160,-1.465,-21.484,-57.129
1626647604.464,-70.801,-11.230,-33.203,-103.027
1626647604.468,-9.277,-14.160,-18.066,2.930
1626647604.472,10.742,-40.039,-49.805,28.809
1626647604.476,-138.672,-121.582,-129.395,-149.414
1626647604.479,-166.504,-90.820,-93.262,-194.824
1626647604.483,-23.438,-10.254,-17.578,-30.273
1626647604.487,65.918,-9.277,-6.836,83.496
1626647604.491,13.184,-48.828,-40.527,-3.906
1626647604.495,-79.590,-59.082,-43.945,-122.559
1626647604.497,-39.551,-13.672,-13.672,-52.246
1626647604.501,58.105,16.113,-5.371,75.684
1626647604.505,55.176,8.301,-3.418,54.688
1626647604.509,-49.316,-12.207,-21.484,-83.984
1626647604.513,-62.988,-16.113,-24.414,-71.777
1626647604.517,30.273,-10.254,-7.812,68.359
1626647604.521,64.453,-24.414,0.000,88.867
1626647604.524,-0.977,-20.508,-1.465,-24.902
1626647604.528,-77.148,-17.090,-20.508,-85.449
1626647604.532,-66.895,-51.758,-68.359,-31.250
1626647604.536,-0.977,-45.410,-54.199,35.645
1626647604.540,-20.508,-31.738,-25.879,-31.738
1626647604.533,-100.586,-39.551,-39.551,-125.977
1626647604.537,-53.711,-20.996,-30.762,-41.504
1626647604.541,27.832,-4.395,-14.648,59.570
1626647604.545,12.695,-10.254,-13.672,11.230
1626647604.549,-65.918,-24.414,-27.832,-97.656
1626647604.553,-60.059,-25.391,-21.973,-67.383
1626647604.557,20.996,-25.879,-17.090,57.617
1626647604.560,16.113,-39.062,-34.180,36.621
1626647604.564,-49.805,-37.109,-30.762,-81.543
1626647604.568,-76.660,-40.527,-24.414,-84.961
1626647604.572,-2.441,-20.020,-11.719,34.668
1626647604.576,33.203,-12.207,-11.719,59.570
1626647604.612,-42.969,-26.855,-30.273,-62.988
1626647604.616,-94.238,-23.926,-27.344,-123.535
1626647604.620,-30.762,-32.715,-20.508,-12.695
1626647604.624,30.762,-29.297,-28.809,68.848
1626647604.628,-17.578,-19.531,-31.738,-26.367
1626647604.632,-95.703,-15.625,-50.781,-125.977
1626647604.636,-54.688,-15.625,-39.062,-45.898
1626647604.639,26.367,-41.504,-17.578,63.477
1626647604.643,-7.324,-49.805,-31.738,-1.953
1626647604.647,-60.547,-4.395,-12.695,-98.145
1626647604.651,-54.688,-8.301,-9.277,-64.941
1626647604.655,-16.113,-59.082,-22.949,29.297
1626647604.640,-4.883,-66.406,-19.531,22.461
1626647604.644,-66.895,-52.734,-39.551,-92.773
1626647604.648,-114.746,-29.785,-60.547,-123.047
1626647604.652,-64.941,-18.555,-60.547,-24.902
1626647604.656,8.789,-18.555,-28.809,35.156
1626647604.660,-10.254,-14.648,-6.348,-42.969
1626647604.664,-81.055,-23.926,-9.277,-118.164
1626647604.667,-34.668,-41.504,-1.465,-25.391
1626647604.671,29.297,-74.707,-17.578,57.617
1626647604.675,-8.789,-62.988,-25.391,-18.555
1626647604.679,-81.055,-22.949,-17.578,-115.234
1626647604.683,-75.684,-20.508,-23.926,-74.219
1626647604.702,-7.324,-22.949,-40.527,36.621
1626647604.706,-16.113,-42.969,-72.754,0.977
1626647604.710,-74.219,-54.688,-53.223,-106.934
1626647604.714,-73.730,-34.668,-24.902,-85.938
1626647604.718,-0.488,-22.461,-19.043,30.273
1626647604.722,43.945,-14.160,6.348,57.617
1626647604.726,-47.852,-38.574,-19.043,-79.590
1626647604.729,-114.258,-77.148,-45.410,-135.254
1626647604.733,-24.902,-63.965,-24.414,1.953
1626647604.737,39.062,-31.250,-26.855,69.336
1626647604.741,0.488,0.977,-25.391,-20.996
1626647604.745,-54.688,15.137,-15.137,-90.332
1626647604.753,-41.504,-26.855,-34.180,-32.227
1626647604.757,7.324,-55.176,-43.945,47.363
1626647604.761,-12.695,-38.086,-29.785,-11.230
1626647604.765,-81.543,-22.461,-17.578,-116.699
1626647604.769,-78.613,-32.227,-20.996,-81.543
1626647604.773,1.465,-43.457,-33.203,37.109
1626647604.777,22.461,-42.969,-32.715,35.156
1626647604.780,-40.527,-35.645,-25.391,-71.777
1626647604.784,-54.199,-26.367,-13.184,-70.312
1626647604.788,4.883,-19.043,-22.949,33.203
1626647604.792,-24.902,-41.992,-71.289,10.742
1626647604.796,-110.352,-71.777,-85.449,-117.188
1626647604.780,-96.191,-39.551,-37.598,-122.559
1626647604.784,-15.137,-10.742,-15.625,-6.348
1626647604.788,45.898,-0.977,-22.461,65.430
1626647604.792,-14.160,-28.320,-40.527,-34.668
1626647604.796,-95.215,-62.988,-40.039,-127.930
1626647604.800,-46.875,-57.129,-20.996,-46.387
1626647604.804,29.297,-24.414,-1.953,57.617
1626647604.807,3.418,-9.766,-4.883,0.488
1626647604.811,-113.281,-53.711,-55.664,-148.926
1626647604.815,-129.395,-82.520,-75.195,-131.348
1626647604.819,10.742,-40.527,-28.809,47.852
1626647604.823,52.734,-4.883,-24.414,67.871
1626647604.814,-37.109,-15.137,-30.762,-68.359
1626647604.818,-110.840,-47.363,-44.434,-129.395
1626647604.822,-52.734,-42.969,-43.945,-20.996
1626647604.826,15.625,-37.109,-25.391,41.016
1626647604.830,-40.039,-31.738,-20.020,-66.895
1626647604.834,-84.473,-13.184,-8.301,-117.188
1626647604.838,-52.246,-37.109,-32.715,-33.203
1626647604.841,2.930,-54.688,-43.945,41.992
1626647604.845,9.766,-24.902,-24.414,0.000
1626647604.849,-69.824,-59.570,-34.668,-104.004
1626647604.853,-45.898,-63.477,-17.578,-53.223
1626647604.857,20.996,-13.672,-26.367,41.992
1626647604.876,-18.555,-27.344,-41.992,-20.020
1626647604.880,-82.520,-25.879,-34.180,-117.676
1626647604.884,-100.098,-18.066,-46.387,-102.539
1626647604.888,-27.344,-13.672,-29.297,12.207
1626647604.892,-0.977,-37.598,-24.414,18.066
1626647604.896,-86.426,-71.777,-58.105,-115.234
1626647604.900,-102.539,-46.875,-41.016,-127.441
1626647604.903,-20.020,-44.922,-16.602,-1.465
1626647604.907,51.758,-40.039,2.441,67.871
1626647604.911,2.930,-13.184,0.488,-28.320
1626647604.915,-89.844,-23.926,-27.344,-119.629
1626647604.919,-50.293,-16.113,-18.066,-31.738
1626647604.935,14.160,-18.555,-19.531,48.828
1626647604.939,-14.648,-43.457,-27.832,-28.320
1626647604.943,-91.309,-39.551,-28.809,-127.930
1626647604.947,-99.121,-50.293,-41.992,-102.539
1626647604.951,-14.160,-56.641,-31.738,18.555
1626647604.955,22.461,-41.016,-21.484,23.926
1626647604.959,-47.852,-25.391,-39.551,-97.656
1626647604.962,-71.777,-16.113,-36.133,-87.402
1626647604.966,-30.762,-50.293,-61.035,8.301
1626647604.970,-40.527,-90.820,-105.469,-18.555
1626647604.974,-58.594,-62.500,-57.129,-92.773
1626647604.978,-72.754,-41.504,-20.508,-104.492
1626647604.980,-36.621,-20.020,-25.879,-12.695
1626647604.984,19.531,-22.461,-27.344,50.293
1626647604.988,-24.414,-38.086,-29.297,-43.457
1626647604.992,-98.633,-33.691,-30.762,-122.070
1626647604.996,-61.035,-41.992,-35.156,-40.039
1626647605.000,43.457,-13.672,-10.254,81.543
1626647605.004,28.320,4.883,0.000,31.250
1626647605.007,-81.055,-28.809,-32.715,-103.027
1626647605.011,-83.496,-41.992,-32.715,-72.266
1626647605.015,-11.230,-23.438,-19.531,41.504
1626647605.019,1.465,-8.301,-20.508,29.297
1626647605.023,-78.125,-54.199,-42.480,-98.633
1626647605.033,-90.332,-75.195,-37.598,-94.238
1626647605.037,3.906,-23.438,-11.230,49.316
1626647605.041,36.621,-0.488,-26.367,74.219
1626647605.045,-24.902,8.789,-21.484,-31.738
1626647605.049,-122.559,-41.016,-47.852,-127.930
1626647605.053,-79.102,-62.988,-61.523,-48.828
1626647605.057,13.672,-39.062,-30.273,52.246
1626647605.060,-38.574,-44.434,-43.457,-45.898
1626647605.064,-98.633,-34.180,-52.246,-129.395
1626647605.068,-58.105,-47.852,-53.711,-55.176
1626647605.072,-43.945,-106.445,-83.984,-7.324
1626647605.076,-65.918,-97.168,-83.984,-57.617
1626647605.091,-69.824,-12.695,-41.504,-109.863
1626647605.095,-50.293,5.371,-25.391,-68.359
1626647605.099,1.465,-18.555,-33.691,36.133
1626647605.103,4.883,-30.273,-41.016,17.090
1626647605.107,-33.203,-5.859,-20.996,-82.031
1626647605.111,-58.105,-26.367,-15.625,-98.633
1626647605.115,2.441,-48.828,-21.484,14.160
1626647605.118,57.617,-1.465,-23.438,77.148
1626647605.122,-66.895,-51.270,-81.055,-86.914
1626647605.126,-143.555,-85.938,-75.684,-170.898
1626647605.130,-25.391,-22.461,-8.789,-12.207
1626647605.134,55.176,-7.324,-11.719,85.449
1626647605.114,5.859,-14.160,-24.902,-6.836
1626647605.118,-70.312,-21.484,-11.719,-104.004
1626647605.122,-39.551,-24.414,5.859,-37.109
1626647605.126,35.156,-21.484,-1.465,72.754
1626647605.130,23.438,-17.090,-18.066,28.809
1626647605.134,-53.711,-3.906,-24.902,-92.773
1626647605.138,-79.102,-8.789,-30.273,-82.520
1626647605.141,-13.184,-31.250,-19.043,31.250
1626647605.145,26.367,-56.152,-7.324,48.340
1626647605.149,-31.738,-50.781,-14.160,-61.035
1626647605.153,-81.055,-25.879,-28.809,-104.980
1626647605.157,-61.523,-40.527,-48.340,-31.738
1626647605.153,0.977,-34.668,-35.156,35.645
1626647605.157,-14.160,-20.508,-25.879,-39.062
1626647605.161,-71.777,-21.973,-37.598,-115.723
1626647605.165,-0.488,-0.977,-3.906,-2.441
1626647605.169,32.715,-30.273,-25.879,58.105
1626647605.173,-34.180,-51.270,-75.195,-40.527
1626647605.177,-61.035,-1.465,-44.434,-108.398
1626647605.180,-46.875,-2.930,-28.809,-57.617
1626647605.184,29.785,-24.414,-18.555,56.152
1626647605.188,15.137,-52.246,-33.203,17.090
1626647605.192,-121.582,-90.820,-75.684,-142.578
1626647605.196,-125.000,-82.031,-67.871,-133.301
1626647605.193,-6.348,-28.809,-47.852,19.043
1626647605.197,32.227,-5.859,-33.691,52.246
1626647605.201,-8.301,9.277,0.000,-38.574
1626647605.205,-56.152,13.672,-1.465,-82.031
1626647605.209,-37.598,-6.348,-28.320,-9.766
1626647605.213,6.836,-30.762,-36.133,41.992
1626647605.217,-31.738,-51.758,-28.320,-40.527
1626647605.220,-104.004,-44.922,-24.902,-127.930
1626647605.224,-102.051,-46.387,-51.758,-82.520
1626647605.228,-12.695,-28.809,-43.457,30.273
1626647605.232,18.066,-20.020,-11.719,17.090
1626647605.236,-52.734,-28.320,-16.602,-89.844
1626647605.253,-64.941,-38.086,-29.297,-72.266
1626647605.257,-5.371,-53.223,-40.527,31.738
1626647605.261,28.320,-14.648,-21.484,41.504
1626647605.265,-17.578,5.371,-6.348,-51.758
1626647605.269,-43.457,-15.625,-9.766,-59.570
1626647605.273,-8.301,-30.762,-24.902,21.973
1626647605.277,-30.273,-65.430,-62.500,4.883
1626647605.280,-81.543,-77.637,-68.359,-101.562
1626647605.284,-92.773,-55.664,-48.340,-130.371
1626647605.288,-34.180,-24.902,-34.180,-24.414
1626647605.292,41.504,26.855,-14.648,62.988
1626647605.296,-37.109,-16.113,-64.941,-58.594
1626647605.291,-130.371,-64.453,-84.473,-174.316
1626647605.295,-45.410,-20.020,-27.832,-61.523
1626647605.299,62.012,-1.465,5.371,78.125
1626647605.303,43.457,-11.230,7.812,31.250
1626647605.307,-73.242,-40.527,-32.227,-119.629
1626647605.311,-103.516,-56.152,-58.105,-116.211
1626647605.315,-17.090,-27.344,-53.711,14.160
1626647605.318,14.160,-29.297,-46.875,25.391
1626647605.322,-45.898,-43.945,-36.621,-82.520
1626647605.326,-104.492,-41.992,-44.434,-126.953
1626647605.330,-43.945,-16.113,-36.621,-23.926
1626647605.334,28.320,19.043,-24.414,49.316
1626647605.347,-35.156,0.000,-46.875,-54.199
1626647605.351,-94.727,-19.043,-43.457,-121.094
1626647605.355,-54.199,-42.969,-39.062,-38.574
1626647605.359,26.855,-53.223,-17.090,58.105
1626647605.363,25.391,-22.461,-0.488,11.230
1626647605.367,-47.363,6.836,-17.090,-88.867
1626647605.371,-30.273,6.836,-12.207,-35.645
1626647605.374,0.000,-28.320,-46.875,38.086
1626647605.378,-39.062,-44.922,-74.219,-26.855
1626647605.382,-81.055,-29.297,-40.039,-118.652
1626647605.386,-87.402,-34.180,-33.203,-101.074
1626647605.390,-1.953,-25.879,-19.043,24.902
1626647605.411,19.531,-34.180,-34.668,35.156
1626647605.415,-62.500,-43.457,-62.988,-87.402
1626647605.419,-85.449,-42.480,-35.645,-115.723
1626647605.423,-11.230,-29.785,-9.277,0.488
1626647605.427,46.875,-6.348,-3.906,70.312
1626647605.431,-20.020,-14.648,-36.621,-38.086
1626647605.435,-119.629,-41.992,-73.730,-151.855
1626647605.438,-111.328,-46.875,-77.148,-93.750
1626647605.442,-20.020,-35.645,-48.340,21.973
1626647605.446,-5.371,-39.551,-26.367,-15.625
1626647605.450,-73.242,-39.062,-34.668,-116.699
1626647605.454,-75.684,-46.387,-41.992,-74.219
1626647605.437,13.184,-35.645,-16.113,53.711
1626647605.441,41.504,-12.207,-4.883,41.016
1626647605.445,-35.645,-9.766,-14.160,-78.613
1626647605.449,-91.309,-31.250,-38.574,-107.422
1626647605.453,-37.598,-25.879,-42.969,-3.906
1626647605.457,17.090,5.371,-23.438,45.898
1626647605.461,-28.809,6.836,-26.367,-51.758
1626647605.464,-97.656,-12.207,-40.527,-123.047
1626647605.468,-45.410,-27.344,-38.086,-22.461
1626647605.472,24.902,-43.945,-34.668,52.734
1626647605.476,-20.508,-62.500,-31.738,-39.551
1626647605.480,-86.426,-56.641,-25.879,-120.605
1626647605.474,-32.227,-32.227,2.930,-31.250
1626647605.478,62.500,-32.227,25.391,94.727
1626647605.482,30.273,-28.320,-8.789,33.203
1626647605.486,-79.590,-21.973,-40.527,-104.004
1626647605.490,-102.051,-27.344,-49.805,-94.727
1626647605.494,-5.859,-1.465,-32.715,28.320
1626647605.498,42.480,9.277,-7.324,43.945
1626647605.501,-67.383,-45.410,-42.969,-96.680
1626647605.505,-172.363,-114.258,-96.680,-168.457
1626647605.509,-95.215,-107.910,-75.684,-48.828
1626647605.513,21.484,-36.133,-9.766,54.199
1626647605.517,-8.789,-20.020,5.859,-28.320
1626647605.533,-110.840,-53.711,-32.715,-129.883
1626647605.537,-72.266,-42.969,-44.922,-48.828
1626647605.541,29.297,-4.395,-19.043,63.477
1626647605.545,-4.395,-13.184,-22.461,-12.695
1626647605.549,-64.941,-24.902,-13.672,-98.145
1626647605.553,-47.852,-29.785,-17.578,-43.457
1626647605.557,-14.160,-57.129,-47.852,24.414
1626647605.560,-0.977,-31.250,-29.297,0.977
1626647605.564,-52.734,-4.883,-9.766,-90.820
1626647605.568,-58.105,-20.508,-6.348,-72.266
1626647605.572,7.324,-31.250,-20.996,37.598
1626647605.576,6.836,-67.383,-50.781,31.738
1626647605.617,-44.434,-76.172,-41.992,-73.242
1626647605.621,-69.336,-28.320,-19.531,-99.609
1626647605.625,5.371,11.230,1.953,23.438
1626647605.629,54.199,-26.855,7.324,79.590
1626647605.633,-42.969,-64.941,-41.504,-53.223
1626647605.637,-106.445,-27.832,-54.688,-129.395
1626647605.641,-37.598,-13.672,-28.320,-25.879
1626647605.644,16.602,-22.461,-25.391,48.340
1626647605.648,-26.367,-20.508,-24.902,-33.691
1626647605.652,-111.816,-34.668,-31.738,-136.719
1626647605.656,-69.336,-40.527,-14.648,-62.500
1626647605.660,34.180,-40.039,-12.207,69.824
1626647605.624,32.227,-60.059,-18.555,42.480
1626647605.628,-52.734,-63.477,-19.531,-83.008
1626647605.632,-93.750,-54.688,-37.109,-106.445
1626647605.636,16.602,-12.207,-14.648,33.691
1626647605.640,72.266,-0.977,-7.812,74.219
1626647605.644,-26.367,-22.461,-39.551,-67.871
1626647605.648,-75.684,-16.113,-32.715,-109.375
1626647605.651,-62.012,-51.758,-57.129,-42.969
1626647605.655,-5.371,-46.875,-58.594,19.531
1626647605.659,4.883,-0.977,-14.648,-20.508
1626647605.663,-71.777,-19.043,-17.090,-108.887
1626647605.667,-25.879,-30.273,-15.625,-23.926
1626647605.689,2.930,-62.500,-56.641,42.480
1626647605.693,-31.738,-60.547,-67.383,-33.691
1626647605.697,-66.406,-14.648,-34.668,-108.887
1626647605.701,-50.293,-8.789,-25.879,-61.035
1626647605.705,48.828,0.000,4.883,70.801
1626647605.709,33.203,-10.254,-13.184,34.668
1626647605.713,-128.906,-90.332,-81.055,-156.738
1626647605.716,-195.312,-151.367,-106.445,-198.242
1626647605.720,-48.340,-83.984,-50.293,-11.719
1626647605.724,69.336,-6.348,11.230,89.844
1626647605.728,7.324,-1.953,1.953,-23.438
1626647605.732,-66.406,-16.113,-5.859,-87.891
1626647605.714,-28.809,-27.344,-7.812,-3.418
1626647605.718,24.414,-24.414,-36.133,53.711
1626647605.722,-19.043,-15.137,-43.945,-34.180
1626647605.726,-99.121,-34.180,-51.270,-124.023
1626647605.730,-54.199,-27.344,-57.617,-37.109
1626647605.734,56.641,13.184,-2.441,91.797
1626647605.738,24.414,-5.859,9.277,26.367
1626647605.741,-85.938,-27.832,-12.695,-103.516
1626647605.745,-72.754,-16.113,0.977,-67.871
1626647605.749,-57.129,-73.242,-50.293,-9.277
1626647605.753,-62.500,-81.055,-68.359,-24.414
1626647605.757,-58.105,-32.715,-27.832,-79.102
1626647605.755,-73.242,-30.762,-32.715,-94.727
1626647605.759,-0.977,-0.488,-9.766,27.344
1626647605.763,38.086,5.859,-6.836,70.312
1626647605.767,-23.926,-16.602,-28.320,-46.387
1626647605.771,-86.914,-24.414,-32.715,-114.258
1626647605.775,-49.805,-14.160,-31.738,-27.832
1626647605.779,18.066,-4.395,-22.949,52.246
1626647605.782,-47.363,-63.965,-52.734,-48.828
1626647605.786,-108.887,-88.867,-49.805,-133.301
1626647605.790,-41.992,-42.480,-7.812,-35.156
1626647605.794,35.645,-18.555,5.859,80.078
1626647605.798,29.297,-25.391,6.836,45.898
1626647605.834,-56.152,-20.508,-10.742,-75.195
1626647605.838,-69.336,-4.395,-25.391,-62.988
1626647605.842,11.719,-16.113,-14.160,57.617
1626647605.846,37.598,-14.648,-5.371,68.848
1626647605.850,-29.785,-0.488,-10.742,-51.758
1626647605.854,-89.355,-31.738,-46.875,-111.328
1626647605.858,-61.035,-80.078,-87.891,-29.785
1626647605.861,19.531,-51.270,-57.617,60.059
1626647605.865,-2.930,-17.090,-27.344,-9.277
1626647605.869,-64.453,-21.484,-15.137,-91.309
1626647605.873,-46.387,-41.504,-21.484,-29.785
1626647605.877,16.602,-49.316,-26.855,63.477
1626647605.860,6.836,-25.391,-12.207,14.648
1626647605.864,-69.824,-6.348,-22.949,-92.285
1626647605.868,-48.828,-6.348,-18.555,-40.527
1626647605.872,6.836,-30.273,-15.137,54.688
1626647605.876,-14.160,-40.527,-39.062,6.348
1626647605.880,-69.824,-22.461,-26.855,-97.168
1626647605.884,-83.496,-32.715,-14.160,-94.238
1626647605.887,-1.953,-29.785,-4.883,28.320
1626647605.891,31.250,-31.250,-17.578,47.852
1626647605.895,-78.613,-78.125,-69.336,-104.980
1626647605.899,-114.258,-68.848,-57.617,-136.719
1626647605.903,-18.066,-35.156,-14.160,-2.441
1626647605.894,25.391,-20.020,-7.812,60.547
1626647605.898,-5.371,7.812,3.906,-16.602
1626647605.902,-62.500,-4.883,-4.395,-97.656
1626647605.906,-48.340,-32.227,-25.879,-39.062
1626647605.910,28.809,-24.902,-32.227,62.012
1626647605.914,16.602,-25.391,-38.574,16.602
1626647605.918,-59.570,-20.996,-24.414,-90.332
1626647605.921,-91.797,-50.293,-44.434,-96.680
1626647605.925,-17.090,-68.848,-50.293,8.789
1626647605.929,26.367,-53.711,-20.020,31.738
1626647605.933,-58.105,-53.223,-31.738,-93.750
1626647605.937,-71.289,-28.320,-33.691,-97.168
1626647605.956,-31.250,-42.969,-40.527,7.324
1626647605.960,-1.465,-43.457,-36.621,39.062
1626647605.964,-11.230,0.977,-20.020,-33.691
1626647605.968,-81.055,-16.113,-34.668,-97.656
1626647605.972,-41.504,-26.855,-36.621,-9.766
1626647605.976,33.203,-13.184,-25.391,69.824
1626647605.980,-2.441,-31.738,-15.625,-14.648
1626647605.983,-65.918,-39.062,-5.859,-98.145
1626647605.987,-41.016,-38.086,-5.371,-28.320
1626647605.991,30.273,-28.809,-6.348,73.242
1626647605.995,0.488,-28.809,-27.344,13.184
1626647605.999,-94.238,-41.504,-44.434,-112.793
1626647605.995,-73.730,-43.457,-26.855,-75.195
1626647605.999,16.113,-45.410,-15.137,51.758
1626647606.003,21.973,-33.203,-17.578,45.898
1626647606.007,-52.246,-28.320,-24.414,-70.312
1626647606.011,-80.566,-30.273,-36.133,-93.750
1626647606.015,-11.719,-40.039,-35.156,19.531
1626647606.019,30.273,-46.387,-33.203,68.359
1626647606.022,-22.949,-17.090,-31.738,-35.156
1626647606.026,-95.215,-26.367,-41.504,-117.188
1626647606.030,-85.938,-79.590,-68.359,-58.105
1626647606.034,26.855,-40.039,-36.133,64.453
1626647606.038,20.996,-14.648,-24.902,7.812
1626647606.056,-76.660,-40.527,-30.762,-112.793
1626647606.060,-79.590,-47.363,-34.668,-74.707
1626647606.064,-20.020,-55.664,-43.945,30.762
1626647606.068,8.301,-29.297,-21.973,26.367
1626647606.072,-70.801,-16.113,-27.344,-95.703
1626647606.076,-93.750,-31.250,-37.598,-96.680
1626647606.080,-11.230,-45.898,-35.156,20.996
1626647606.083,-3.418,-68.359,-45.410,25.879
1626647606.087,-46.875,-39.551,-31.738,-71.289
1626647606.091,-70.801,-25.879,-13.672,-95.703
1626647606.095,-8.789,-40.527,-8.301,17.090
1626647606.099,55.664,-29.297,-15.625,85.938
1626647606.091,-9.766,-33.691,-29.297,-24.902
1626647606.095,-92.773,-33.203,-32.227,-120.117
1626647606.099,-54.199,-24.902,-35.156,-47.363
1626647606.103,22.949,-19.531,-38.574,48.828
1626647606.107,-3.906,-27.344,-32.715,-13.672
1626647606.111,-88.379,-49.805,-39.062,-131.836
1626647606.115,-80.078,-45.898,-40.527,-84.473
1626647606.118,3.906,-27.832,-25.391,41.504
1626647606.122,20.996,-21.484,-22.949,25.391
1626647606.126,-26.367,-20.996,-2.930,-67.871
1626647606.130,-81.543,-52.734,-21.973,-92.773
1626647606.134,-82.520,-94.727,-85.938,-37.109
1626647606.132,-15.137,-41.016,-56.152,12.695
1626647606.136,-40.527,-17.090,-19.043,-67.383
1626647606.140,-95.215,-28.809,-31.250,-113.770
1626647606.144,-34.668,-15.137,-33.691,-4.883
1626647606.148,41.504,-13.672,-16.113,83.496
1626647606.152,0.977,-25.391,-29.297,-5.371
1626647606.156,-86.914,-47.363,-39.551,-113.770
1626647606.159,-47.363,-27.344,-2.441,-33.691
1626647606.163,9.277,-24.902,-13.672,52.246
1626647606.167,-24.902,-35.645,-49.805,-15.137
1626647606.171,-76.172,-38.574,-28.809,-107.910
1626647606.175,-68.848,-55.664,-13.184,-75.195
1626647606.190,20.996,-25.391,-5.371,51.270
1626647606.194,13.184,-12.207,-34.180,30.273
1626647606.198,-90.332,-26.367,-62.500,-112.305
1626647606.202,-110.840,-25.879,-37.598,-122.559
1626647606.206,-32.227,-42.480,-13.672,7.812
1626647606.210,34.180,-45.898,1.465,67.871
1626647606.214,-33.691,-42.969,-23.438,-57.129
1626647606.217,-119.141,-50.293,-54.199,-145.020
1626647606.221,-39.551,-15.625,-29.785,-23.438
1626647606.225,30.762,-7.812,-27.832,62.988
1626647606.229,-17.578,-24.902,-37.598,-25.391
1626647606.233,-83.496,-24.902,-28.320,-116.211
1626647606.236,-108.398,-72.754,-71.777,-95.703
1626647606.240,-29.785,-78.125,-68.848,11.719
1626647606.244,14.160,-31.250,-31.738,16.113
1626647606.248,-63.477,-42.969,-41.016,-102.051
1626647606.252,-63.477,-46.875,-23.926,-83.008
1626647606.256,12.207,-25.879,-12.695,35.645
1626647606.260,26.367,-12.207,-21.484,37.598
1626647606.263,-47.852,-28.320,-23.438,-74.219
1626647606.267,-68.848,-30.273,-14.648,-89.355
1626647606.271,11.719,-16.113,4.883,36.621
1626647606.275,8.301,-64.453,-26.367,49.316
1626647606.279,-55.176,-56.152,-51.758,-66.895
1626647606.280,-85.938,-7.324,-33.691,-118.652
1626647606.284,-53.223,-14.648,-32.227,-40.039
1626647606.288,24.902,-20.996,-24.902,56.152
1626647606.292,-21.484,-31.250,-33.691,-26.855
1626647606.296,-101.074,-32.715,-35.156,-126.953
1626647606.300,-52.734,-19.531,-24.414,-52.734
1626647606.304,29.785,-2.441,-33.691,62.500
1626647606.307,13.184,-5.859,-42.480,19.531
1626647606.311,-81.543,-48.340,-46.875,-116.699
1626647606.315,-91.309,-64.941,-41.992,-107.422
1626647606.319,4.883,-41.016,-37.109,25.391
1626647606.323,41.504,-38.574,-36.621,51.270
1626647606.352,-28.320,-12.207,-28.320,-60.059
1626647606.356,-98.633,-13.184,-25.879,-127.441
1626647606.360,-26.855,-29.297,-15.137,-17.578
1626647606.364,49.316,-13.672,-5.859,67.871
1626647606.368,-5.371,-26.855,-10.254,-31.738
1626647606.372,-63.477,-30.762,-2.930,-108.887
1626647606.376,-52.246,-18.555,-28.320,-49.805
1626647606.379,-50.293,-75.684,-90.332,-11.719
1626647606.383,-64.453,-94.727,-85.938,-60.547
1626647606.387,-55.176,-29.297,-19.043,-102.539
1626647606.391,-22.949,5.371,-0.977,-46.387
1626647606.395,21.484,-25.879,-31.738,45.898
1626647606.420,21.484,-47.852,-43.945,22.461
1626647606.424,-33.203,-35.156,-22.949,-80.566
1626647606.428,-70.801,-48.828,-20.020,-98.145
1626647606.432,-10.742,-41.016,-16.602,7.812
1626647606.436,25.879,-30.273,-28.809,37.109
1626647606.440,-52.246,-35.156,-63.477,-90.332
1626647606.444,-91.309,-0.977,-41.016,-126.465
1626647606.447,-30.273,-10.742,-33.691,-16.113
1626647606.451,37.598,-7.812,-41.504,58.594
1626647606.455,-7.324,3.418,-52.734,-29.785
1626647606.459,-115.723,-39.551,-74.219,-149.902
1626647606.463,-74.219,-41.016,-32.715,-62.500
1626647606.420,22.949,-24.902,5.859,60.059
1626647606.424,5.859,-12.695,-12.695,0.977
1626647606.428,-71.777,-22.949,-30.762,-111.328
1626647606.432,-97.656,-64.941,-45.898,-112.793
1626647606.436,-13.672,-56.152,-31.738,13.184
1626647606.440,45.898,-15.137,-7.324,53.711
1626647606.444,-20.508,-1.953,-27.832,-63.477
1626647606.447,-86.914,0.000,-42.969,-109.863
1626647606.451,-51.758,-21.973,-49.805,-27.832
1626647606.455,-0.977,-43.945,-45.410,13.184
1626647606.459,-29.785,-43.457,-32.715,-71.777
1626647606.463,-72.754,-35.156,-32.715,-121.094
1626647606.455,-22.949,-19.043,-29.785,-24.902
1626647606.459,-9.277,-46.387,-57.129,9.766
1626647606.463,-40.527,-38.086,-56.152,-59.082
1626647606.467,-74.707,-4.395,-29.297,-116.211
1626647606.471,-60.547,-31.250,-38.574,-63.965
1626647606.475,44.434,-12.207,-19.531,68.848
1626647606.479,36.133,-1.465,-18.066,31.738
1626647606.482,-134.277,-104.492,-102.051,-157.715
1626647606.486,-173.340,-141.602,-122.070,-167.480
1626647606.490,-23.438,-50.293,-45.410,6.348
1626647606.494,34.668,-10.742,-11.230,36.621
1626647606.498,-84.961,-51.758,-44.922,-119.629
1626647606.533,-143.066,-56.152,-53.711,-156.250
1626647606.537,-20.508,-9.766,-10.254,7.324
1626647606.541,45.898,2.930,-1.465,75.195
1626647606.545,-17.090,1.465,-16.113,-29.785
1626647606.549,-104.004,-39.062,-45.410,-134.277
1626647606.553,-87.402,-79.102,-66.406,-72.266
1626647606.557,16.113,-30.762,-29.785,52.246
1626647606.560,13.184,0.488,-17.578,-0.977
1626647606.564,-50.293,10.742,-9.277,-90.820
1626647606.568,-48.340,-7.324,-2.441,-47.852
1626647606.572,1.953,-50.781,-21.484,39.062
1626647606.576,18.555,-39.551,-20.020,24.902
1626647606.559,-59.570,-25.391,-28.320,-87.402
1626647606.563,-71.777,-13.184,-17.578,-74.219
1626647606.567,-8.301,-38.574,-20.508,34.668
1626647606.571,-6.348,-45.410,-44.922,30.273
1626647606.575,-41.504,-11.719,-32.227,-57.617
1626647606.579,-73.242,-14.648,-25.879,-88.867
1626647606.583,-20.508,-11.719,-15.137,9.766
1626647606.586,42.480,-2.441,-4.883,77.637
1626647606.590,-38.086,-39.551,-37.598,-45.410
1626647606.594,-118.652,-50.293,-42.969,-138.184
1626647606.598,-42.480,-9.766,-11.230,-32.227
1626647606.602,34.180,-3.418,-19.043,70.312
1626647606.617,14.648,-13.672,-17.578,20.508
1626647606.621,-107.910,-44.922,-56.152,-132.324
1626647606.625,-104.492,-46.387,-61.035,-93.750
1626647606.629,20.996,-24.902,-17.090,64.453
1626647606.633,17.578,-38.574,-25.391,32.715
1626647606.637,-43.945,-20.996,-18.555,-69.824
1626647606.641,-99.609,-22.461,-44.922,-106.934
1626647606.644,-60.059,-51.758,-73.730,-27.832
1626647606.648,10.742,-43.945,-46.387,33.203
1626647606.652,-35.156,-29.297,-26.855,-60.547
1626647606.656,-80.078,-30.762,-22.949,-112.793
1626647606.660,-12.207,-16.113,-15.625,3.418
1626647606.653,56.641,1.953,-6.348,82.031
1626647606.657,16.113,9.766,-8.301,-4.395
1626647606.661,-68.848,-14.648,-18.066,-105.469
1626647606.665,-48.828,-29.297,-18.555,-43.945
1626647606.669,15.625,-30.762,-34.668,51.270
1626647606.673,-9.766,-51.270,-53.223,-9.277
1626647606.677,-75.195,-40.039,-38.574,-110.352
1626647606.680,-71.289,-17.090,-25.879,-79.590
1626647606.684,4.883,-11.719,-19.043,45.410
1626647606.688,5.371,-44.434,-35.645,32.227
1626647606.692,-123.535,-111.328,-90.332,-137.695
1626647606.696,-150.879,-98.633,-80.566,-164.551
1626647606.720,-18.066,-34.180,-26.367,-0.977
1626647606.724,58.105,-15.137,-3.906,75.195
1626647606.728,1.465,2.930,-2.441,-30.762
1626647606.732,-77.148,-5.371,-18.066,-111.816
1626647606.736,-44.922,-24.414,-12.695,-26.367
1626647606.740,20.996,-28.809,-12.207,53.711
1626647606.744,-7.324,-31.738,-22.461,-16.602
1626647606.747,-103.027,-36.133,-42.969,-130.371
1626647606.751,-104.492,-53.711,-62.500,-91.309
1626647606.755,6.348,-30.762,-38.574,50.781
1626647606.759,23.438,-16.602,-27.344,34.180
1626647606.763,-55.176,-33.691,-29.297,-83.008
1626647606.757,-65.918,-31.738,-22.461,-71.289
1626647606.761,-7.324,-39.551,-29.297,29.785
1626647606.765,42.480,-29.785,-8.789,56.152
1626647606.769,0.977,-15.137,7.324,-36.621
1626647606.773,-67.871,-20.020,-18.555,-95.215
1626647606.777,-9.277,-16.602,-17.578,9.277
1626647606.781,49.316,-35.156,-22.461,78.613
1626647606.784,-13.672,-21.484,-47.852,-26.367
1626647606.788,-91.309,-10.254,-41.504,-117.676
1626647606.792,-45.410,-10.254,-16.602,-32.227
1626647606.796,22.949,-9.277,-4.883,60.059
1626647606.800,-16.602,-36.133,-12.695,-10.254
1626647606.793,-78.613,-50.293,-22.461,-110.352
1626647606.797,-36.621,-46.875,-16.113,-47.852
1626647606.801,49.805,-20.996,-6.348,79.102
1626647606.805,36.133,-4.395,-5.859,45.410
1626647606.809,-84.961,-50.293,-25.391,-106.445
1626647606.813,-104.980,-51.270,-18.555,-110.352
1626647606.817,-18.066,-15.137,-14.160,14.160
1626647606.820,10.254,-5.371,-27.344,43.457
1626647606.824,-30.762,-11.230,-4.883,-47.852
1626647606.828,-112.793,-66.895,-48.828,-130.859
1626647606.832,-140.137,-123.535,-136.719,-104.980
1626647606.836,-37.598,-77.148,-73.730,-3.418
1626647606.833,12.695,-18.066,22.461,-10.742
1626647606.837,-61.523,-36.621,12.695,-94.238
1626647606.841,-50.293,-23.926,-14.648,-37.598
1626647606.845,33.691,1.465,-16.602,70.801
1626647606.849,14.160,-6.836,-29.297,16.113
1626647606.853,-80.078,-17.578,-36.133,-111.816
1626647606.857,-78.613,-35.156,-20.020,-83.496
1626647606.860,13.672,-27.832,-2.441,48.340
1626647606.864,-12.695,-57.129,-55.664,-1.465
1626647606.868,-113.770,-85.938,-77.148,-145.508
1626647606.872,-75.195,-22.461,-12.695,-92.773
1626647606.876,13.184,-4.395,-15.137,32.227
1626647606.894,8.301,-48.340,-41.992,36.621
1626647606.898,-63.965,-54.688,-36.621,-74.707
1626647606.902,-97.168,-37.109,-4.395,-119.629
1626647606.906,-36.133,-28.320,7.324,-15.137
1626647606.910,26.855,-21.973,-0.488,62.012
1626647606.914,-15.137,-26.855,-11.230,-23.438
1626647606.918,-110.352,-38.086,-35.645,-137.207
1626647606.921,-82.031,-37.109,-39.551,-67.871
1626647606.925,14.648,-32.227,-21.484,61.035
1626647606.929,23.438,-12.695,-11.230,33.203
1626647606.933,-55.176,-10.742,-25.879,-85.938
1626647606.937,-81.055,-34.668,-39.551,-84.961
1626647606.932,2.441,-18.066,-18.066,45.898
1626647606.936,36.621,-16.113,-18.066,55.176
1626647606.940,-50.781,-46.387,-47.363,-84.473
1626647606.944,-81.055,-43.945,-36.133,-105.469
1626647606.948,-15.137,-56.152,-26.367,9.277
1626647606.952,29.297,-44.922,-30.762,51.270
1626647606.956,-15.137,-7.812,-35.645,-42.969
1626647606.959,-71.777,-5.371,-31.250,-106.445
1626647606.963,-28.320,3.906,-25.879,-23.926
1626647606.967,14.648,-1.953,-37.109,45.898
1626647606.971,-72.754,-67.383,-84.473,-72.266
1626647606.975,-131.348,-64.941,-98.145,-159.180
1626647606.991,-35.645,-8.301,-55.176,-48.828
1626647606.995,44.434,-10.254,-23.438,70.312
1626647606.999,5.371,-29.785,-11.230,18.066
1626647607.003,-79.590,-41.016,-19.531,-115.723
1626647607.007,-73.730,-36.621,-9.277,-88.379
1626647607.011,24.414,-19.043,6.348,45.898
1626647607.015,49.805,1.953,-5.371,53.223
1626647607.018,-65.918,-54.199,-51.270,-99.609
1626647607.022,-125.000,-74.219,-68.359,-152.832
1626647607.026,-22.461,-10.254,-19.043,-8.789
1626647607.030,28.809,-4.883,-1.465,54.199
1626647607.034,-20.020,-7.324,-4.883,-42.480
1626647607.033,-117.676,-48.340,-45.898,-146.484
1626647607.037,-83.008,-75.684,-56.152,-61.523
1626647607.041,47.363,-28.809,-0.488,84.473
1626647607.045,-0.488,-23.438,-24.414,2.441
1626647607.049,-100.098,-22.949,-80.078,-132.812
1626647607.053,-82.031,-34.668,-53.711,-96.191
1626647607.057,-2.441,-40.527,-1.465,24.902
1626647607.060,13.184,-15.625,-5.371,16.602
1626647607.064,-61.035,-7.812,-25.879,-104.004
1626647607.068,-89.355,-16.602,-24.902,-108.398
1626647607.072,4.395,-28.320,-9.277,32.227
1626647607.076,5.371,-62.012,-48.340,36.621
1626647607.091,-71.777,-57.617,-64.941,-90.820
1626647607.095,-82.031,-41.992,-24.902,-112.793
1626647607.099,-32.715,-52.246,-27.344,-16.113
1626647607.103,9.766,-37.109,-36.133,41.504
1626647607.107,-22.461,-31.738,-37.109,-42.480
1626647607.111,-78.613,-27.832,-35.156,-123.047
1626647607.115,-47.852,-9.277,-30.273,-47.852
1626647607.118,36.621,1.953,-22.461,63.965
1626647607.122,7.812,-33.203,-15.137,10.742
1626647607.126,-100.098,-84.473,-43.945,-129.883
1626647607.130,-91.797,-60.547,-63.477,-99.121
1626647607.134,16.113,-12.695,-37.598,46.387
1626647607.112,17.578,-17.090,-29.785,28.320
1626647607.116,-74.219,-20.020,-35.645,-103.027
1626647607.120,-109.863,-26.367,-37.109,-125.977
1626647607.124,-32.715,-30.273,-24.902,-3.418
1626647607.128,14.648,-26.367,-21.973,43.945
1626647607.132,-28.809,-30.273,-23.926,-50.781
1626647607.136,-75.684,-45.898,-27.344,-112.793
1626647607.139,-33.691,-43.457,-25.391,-16.113
1626647607.143,31.738,-30.762,-18.555,72.266
1626647607.147,-15.625,-30.762,-43.457,-21.973
1626647607.151,-103.027,-19.531,-58.105,-135.254
1626647607.155,-65.430,-3.906,-15.137,-58.594
1626647607.181,14.648,-20.020,-2.441,54.688
1626647607.185,-47.363,-71.777,-62.012,-33.203
1626647607.189,-124.512,-66.406,-62.012,-154.297
1626647607.193,-89.844,-20.996,-18.066,-105.957
1626647607.197,13.672,-14.160,-1.953,33.691
1626647607.201,9.277,-68.359,-39.062,16.113
1626647607.205,-106.445,-105.957,-77.148,-137.207
1626647607.208,-110.352,-53.711,-54.688,-131.836
1626647607.212,-11.719,-10.254,-27.832,5.371
1626647607.216,44.922,-23.438,-10.742,62.988
1626647607.220,-33.203,-56.641,-31.738,-60.547
1626647607.224,-125.488,-58.594,-54.199,-159.180
1626647607.214,-65.430,-26.855,-44.434,-54.688
1626647607.218,27.344,-7.324,-35.645,60.547
1626647607.222,10.742,1.465,-25.391,-0.488
1626647607.226,-66.406,-19.531,-11.230,-110.840
1626647607.230,-66.895,-50.293,-4.883,-65.430
1626647607.234,14.160,-31.250,-1.953,52.246
1626647607.238,6.836,-30.273,-20.508,16.113
1626647607.241,-85.938,-49.316,-44.434,-109.863
1626647607.245,-77.148,-27.344,-31.250,-81.543
1626647607.249,4.883,-50.781,-39.551,41.016
1626647607.253,20.020,-75.195,-56.152,51.270
1626647607.257,-35.645,-37.598,-31.738,-50.293
1626647607.278,-104.004,-23.926,-21.484,-115.723
1626647607.282,-58.105,-7.812,-14.160,-18.066
1626647607.286,11.230,-20.508,-11.719,58.105
1626647607.290,-15.137,-32.715,-9.766,-25.391
1626647607.294,-70.312,-4.883,-5.371,-97.168
1626647607.298,-46.875,-3.906,-20.508,-34.180
1626647607.302,26.855,-14.648,-20.508,64.941
1626647607.305,25.879,-12.695,-2.441,32.227
1626647607.309,-47.852,-28.320,-8.789,-79.590
1626647607.313,-43.945,-44.434,-20.020,-47.852
1626647607.317,18.066,-46.387,-31.250,59.082
1626647607.321,17.578,-38.574,-28.320,27.832
1626647607.339,-45.898,-42.480,-11.230,-82.031
1626647607.343,-66.406,-31.250,-12.207,-87.891
1626647607.347,6.836,-9.277,-29.297,29.785
1626647607.351,38.574,-14.160,-35.645,62.988
1626647607.355,-22.949,-25.391,-15.625,-44.434
1626647607.359,-67.871,-21.973,-8.789,-96.680
1626647607.363,-39.551,-20.508,-31.250,-14.160
1626647607.366,-5.371,-41.992,-39.062,45.898
1626647607.370,-29.785,-54.199,-20.508,-30.273
1626647607.374,-99.121,-62.012,-22.461,-125.488
1626647607.378,-61.523,-52.734,-18.066,-56.641
1626647607.382,28.320,-35.645,-10.254,62.500
1626647607.352,15.625,-30.762,-24.414,9.766
1626647607.356,-46.387,-20.020,-18.555,-90.332
1626647607.360,-68.848,-29.785,-26.367,-75.195
1626647607.364,3.418,-25.391,-25.391,32.227
1626647607.368,58.105,7.324,-4.883,60.059
1626647607.372,-51.758,-14.648,-32.715,-91.797
1626647607.376,-115.723,-41.504,-49.805,-139.648
1626647607.379,-24.902,-54.199,-34.668,-4.395
1626647607.383,26.367,-66.406,-41.504,46.875
1626647607.387,-28.809,-30.273,-57.129,-50.781
1626647607.391,-97.168,-15.137,-60.547,-124.512
1626647607.395,-51.758,-22.461,-34.180,-41.504
1626647607.391,10.742,-27.344,-23.926,41.016
1626647607.395,-15.137,-42.969,-37.598,-32.227
1626647607.399,-62.012,-18.555,-14.160,-104.004
1626647607.403,-47.363,-5.371,-2.930,-47.363
1626647607.407,15.137,-19.043,-15.137,48.340
1626647607.411,13.672,-17.090,-29.297,20.996
1626647607.415,-61.035,-15.625,-37.598,-95.215
1626647607.418,-39.551,-15.137,-13.184,-56.641
1626647607.422,27.832,-34.180,-23.438,53.711
1626647607.426,6.836,-45.898,-57.617,20.020
1626647607.430,-77.148,-46.875,-52.246,-103.027
1626647607.434,-127.930,-80.078,-37.598,-140.625
1626647607.483,-47.852,-58.105,-21.484,-17.090
1626647607.487,20.996,-10.742,-12.207,53.223
1626647607.491,-29.297,-28.320,-24.414,-46.875
1626647607.495,-95.703,-37.598,-41.016,-125.977
1626647607.499,-59.082,-22.949,-34.180,-46.875
1626647607.503,42.480,-16.602,-0.977,68.359
1626647607.507,30.273,-30.762,-7.324,11.230
1626647607.510,-69.824,-23.438,-29.297,-112.305
1626647607.514,-61.035,-14.160,-33.203,-68.848
1626647607.518,5.859,-42.480,-50.781,33.203
1626647607.522,7.812,-41.504,-57.617,10.254
1626647607.526,-66.406,-33.691,-58.105,-105.957
1626647607.492,-96.191,-51.758,-52.734,-117.676
1626647607.496,-24.902,-48.340,-33.203,4.883
1626647607.500,8.301,-42.969,-26.367,37.109
1626647607.504,-20.996,-28.809,-10.742,-45.898
1626647607.508,-63.477,-13.184,-20.020,-89.844
1626647607.512,-30.273,-27.344,-47.363,-8.301
1626647607.516,21.973,-25.879,-45.410,51.270
1626647607.519,-40.039,-56.641,-45.410,-59.570
1626647607.523,-94.238,-55.664,-23.926,-131.836
1626647607.527,-54.688,-20.020,-19.531,-50.293
1626647607.531,8.301,-17.578,-29.785,41.992
1626647607.535,8.789,-25.391,-37.598,2.930
1626647607.574,-58.594,-33.691,-40.527,-95.703
1626647607.578,-63.965,-46.387,-24.902,-70.312
1626647607.582,19.531,-29.785,-16.602,53.223
1626647607.586,29.297,-10.254,-21.973,54.199
1626647607.590,-51.758,-22.461,-21.484,-71.289
1626647607.594,-63.477,-14.648,-11.230,-74.219
1626647607.598,-4.883,-5.371,-26.367,25.391
1626647607.601,12.695,-31.738,-33.203,47.363
1626647607.605,-56.641,-63.477,-35.156,-62.012
1626647607.609,-106.934,-50.293,-43.457,-121.094
1626647607.613,-40.039,-15.625,-32.227,-13.672
1626647607.617,22.949,-6.348,-37.109,55.664
1626647607.592,-16.602,-47.852,-36.133,-30.762
1626647607.596,-77.148,-83.008,-20.020,-117.188
1626647607.600,-55.664,-34.668,-25.391,-62.988
1626647607.604,8.301,8.301,-41.504,34.668
1626647607.608,8.789,9.277,-40.527,3.418
1626647607.612,-56.641,-5.371,-29.297,-101.074
1626647607.616,-77.637,-23.438,-34.668,-92.773
1626647607.619,-5.859,-18.066,-40.527,26.855
1626647607.623,17.578,-21.973,-57.617,38.574
1626647607.627,-38.086,-38.574,-52.246,-69.336
1626647607.631,-57.617,-35.645,-8.301,-82.031
1626647607.635,-16.602,-40.039,-14.160,13.672
1626647607.637,18.555,-36.621,-45.898,44.434
1626647607.641,-30.762,-50.781,-47.852,-59.082
1626647607.645,-95.215,-58.594,-42.969,-128.906
1626647607.649,-46.875,-7.812,-26.367,-39.551
1626647607.653,31.250,14.648,-7.812,59.082
1626647607.657,-6.836,-15.625,-32.227,-19.043
1626647607.661,-80.078,-16.602,-43.945,-124.512
1626647607.664,-83.008,-29.297,-41.992,-78.125
1626647607.668,17.090,-28.320,-17.578,52.734
1626647607.672,74.707,27.832,20.020,64.941
1626647607.676,-30.273,-0.488,-10.742,-80.566
1626647607.680,-70.801,-45.410,-34.668,-90.332
1626647607.698,12.695,-37.109,-18.555,41.016
1626647607.702,27.832,-24.414,-28.320,45.898
1626647607.706,-45.898,-32.227,-43.945,-80.078
1626647607.710,-94.727,-61.523,-49.805,-129.395
1626647607.714,-30.762,-47.363,-37.109,-12.695
1626647607.718,25.391,-40.039,-35.645,53.223
1626647607.722,-29.297,-53.711,-46.875,-49.805
1626647607.725,-80.566,-23.438,-23.926,-118.652
1626647607.729,-36.621,-4.883,-18.066,-36.133
1626647607.733,17.578,-12.695,-29.785,50.293
1626647607.737,-4.395,-37.598,-27.344,-4.395
1626647607.741,-56.152,-45.898,-11.719,-88.379
1626647607.731,-42.969,-25.391,-12.207,-43.945
1626647607.735,-3.418,-35.156,-49.316,38.086
1626647607.739,11.230,-24.902,-46.387,18.555
1626647607.743,-52.246,-24.414,-22.461,-91.797
1626647607.747,-95.215,-45.410,-24.902,-104.004
1626647607.751,-33.691,-42.480,-39.551,1.465
1626647607.755,-5.859,-39.551,-52.246,24.902
1626647607.758,-60.059,-54.688,-49.805,-78.613
1626647607.762,-92.773,-27.832,-24.414,-116.699
1626647607.766,-35.645,-12.695,-19.043,-6.348
1626647607.770,21.484,-33.203,-33.203,64.941
1626647607.774,0.488,-30.273,-18.066,-8.789
1626647607.834,-68.848,-40.039,-23.438,-96.191
1626647607.838,-60.059,-58.594,-60.059,-41.992
1626647607.842,12.207,-47.852,-57.617,52.734
1626647607.846,-11.719,-32.715,-43.457,-9.766
1626647607.850,-103.027,-46.875,-40.039,-132.812
1626647607.854,-99.121,-45.898,-28.320,-106.934
1626647607.858,-2.930,-17.090,-15.137,31.738
1626647607.861,16.602,-24.414,-18.555,31.250
1626647607.865,-48.828,-29.785,-25.879,-87.891
1626647607.869,-76.660,-16.602,-24.902,-97.656
1626647607.873,-24.414,-26.855,-34.180,1.953
1626647607.877,24.902,-28.809,-29.785,41.504
1626647607.834,-8.301,-14.648,-13.184,-46.387
1626647607.838,-61.035,-30.762,-16.602,-102.051
1626647607.842,-35.156,-52.246,-44.922,-29.297
1626647607.846,2.441,-63.965,-61.035,25.879
1626647607.850,-30.762,-71.777,-51.270,-42.480
1626647607.854,-109.375,-52.246,-51.758,-153.809
1626647607.858,-78.613,-12.207,-41.016,-90.332
1626647607.861,8.301,9.277,-36.621,33.691
1626647607.865,-1.465,12.207,-38.086,-15.625
1626647607.869,-65.430,7.812,-22.461,-117.676
1626647607.873,-57.617,-32.227,-27.832,-95.703
1626647607.877,7.812,-48.340,-31.250,20.508
1626647607.891,12.695,-24.902,-17.090,30.273
1626647607.895,-44.434,-8.301,-15.137,-79.590
1626647607.899,-73.730,-3.906,-13.184,-106.934
1626647607.903,-29.297,-17.090,-23.926,-18.555
1626647607.907,10.742,-33.203,-28.809,29.785
1626647607.911,-26.855,-41.992,-36.621,-52.734
1626647607.915,-100.098,-63.477,-63.477,-133.301
1626647607.918,-43.457,-47.363,-52.246,-46.875
1626647607.922,37.109,-10.254,-32.715,48.828
1626647607.926,-15.137,-22.949,-24.414,-29.297
1626647607.930,-92.285,-25.879,-12.695,-126.953
1626647607.934,-73.730,-7.812,-19.531,-79.590
1626647607.976,7.324,0.977,-27.832,31.250
1626647607.980,11.230,-2.930,-44.434,4.883
1626647607.984,-61.035,-16.602,-42.969,-112.793
1626647607.988,-67.383,-27.832,-6.836,-98.145
1626647607.992,-10.254,-55.176,-12.695,8.789
1626647607.996,-8.789,-70.312,-50.781,-2.441
1626647608.000,-71.289,-44.922,-55.664,-114.258
1626647608.003,-110.352,-36.133,-53.223,-149.414
1626647608.007,-34.668,-21.484,-44.922,-24.902
1626647608.011,35.156,-4.883,-36.133,57.129
1626647608.015,-6.836,-13.184,-40.527,-35.156
1626647608.019,-85.449,-35.645,-43.945,-126.465
1626647607.981,-62.500,-44.434,-51.758,-56.152
1626647607.985,31.250,-30.273,-33.203,66.406
1626647607.989,14.160,-30.273,-29.785,15.625
1626647607.993,-71.777,-20.996,-32.715,-98.633
1626647607.997,-74.707,-31.738,-16.113,-67.871
1626647608.001,18.555,-35.645,-17.578,55.176
1626647608.005,44.922,-20.020,-30.273,45.410
1626647608.008,-65.918,-27.832,-46.875,-97.656
1626647608.012,-103.516,-19.531,-43.457,-106.934
1626647608.016,-15.137,-19.531,-46.875,19.043
1626647608.020,24.414,-27.344,-39.551,50.293
1626647608.024,-28.320,-30.762,-26.367,-56.152
1626647608.018,-72.266,-35.156,-31.738,-107.422
1626647608.022,-23.438,-41.504,-24.902,-13.184
1626647608.026,25.879,-55.664,-26.855,57.129
1626647608.030,-3.906,-50.781,-27.832,-16.113
1626647608.034,-42.969,-35.645,-5.859,-86.914
1626647608.038,-23.438,-12.695,0.000,-24.414
1626647608.042,-1.953,-16.602,-32.715,43.457
1626647608.045,-24.902,-15.625,-54.688,-18.555
1626647608.049,-84.961,-13.672,-48.828,-120.117
1626647608.053,-83.984,-38.086,-29.297,-84.961
1626647608.057,10.742,-25.879,-12.207,46.387
1626647608.061,26.855,-13.184,-20.508,46.875
1626647608.074,-59.082,-44.922,-40.039,-83.008
1626647608.078,-103.516,-47.852,-61.035,-126.953
1626647608.082,-38.574,-27.832,-41.016,-15.625
1626647608.086,30.273,-19.531,-1.465,53.711
1626647608.090,-37.109,-31.250,-11.719,-59.082
1626647608.094,-114.746,-55.176,-28.320,-138.672
1626647608.098,-64.941,-47.852,-26.855,-41.992
1626647608.101,6.836,-32.227,-29.785,44.434
1626647608.105,-1.953,-19.043,-23.926,-12.695
1626647608.109,-82.520,-45.898,-34.180,-115.723
1626647608.113,-90.332,-68.359,-44.434,-83.496
1626647608.117,-8.789,-42.480,-42.969,27.832
1626647608.112,10.742,-5.859,-32.715,9.766
1626647608.116,-84.473,-21.973,-47.852,-120.605
1626647608.120,-108.398,-50.781,-59.082,-111.328
1626647608.124,0.000,-31.250,-20.508,30.273
1626647608.128,23.926,-23.926,-13.672,41.504
1626647608.132,-27.832,-20.508,-20.996,-54.199
1626647608.136,-39.062,-5.371,-2.441,-68.848
1626647608.139,-7.812,-32.227,-12.207,13.672
1626647608.143,-9.277,-58.105,-55.664,31.738
1626647608.147,-62.988,-66.895,-62.988,-74.707
1626647608.151,-99.609,-75.195,-27.832,-133.301
1626647608.155,-54.688,-58.105,-12.695,-40.527
1626647608.172,-7.324,-43.457,-27.832,35.645
1626647608.176,-26.855,-27.344,-20.996,-21.484
1626647608.180,-93.262,-15.625,-20.020,-118.652
1626647608.184,-81.543,-30.762,-32.715,-77.637
1626647608.188,7.324,-32.227,-23.438,47.852
1626647608.192,11.230,-49.805,-22.461,24.414
1626647608.196,-76.172,-63.477,-34.668,-106.445
1626647608.199,-94.727,-48.340,-30.762,-115.234
1626647608.203,7.812,-27.344,-18.555,22.949
1626647608.207,45.410,-26.367,-28.809,55.664
1626647608.211,-48.340,-50.293,-40.039,-80.566
1626647608.215,-117.188,-39.551,-49.805,-144.531
1626647608.192,-76.660,-33.691,-66.406,-52.734
1626647608.196,-20.508,-39.551,-54.199,15.625
1626647608.200,-35.156,-34.180,-25.879,-55.176
1626647608.204,-85.449,-35.156,-17.090,-124.023
1626647608.208,-66.406,-31.250,-32.227,-61.523
1626647608.212,6.348,-20.508,-34.668,39.062
1626647608.216,7.812,-15.625,-25.879,-1.953
1626647608.219,-58.594,-21.973,-15.625,-105.957
1626647608.223,-71.289,-41.992,-17.578,-82.031
1626647608.227,-12.695,-66.895,-27.832,12.695
1626647608.231,15.137,-62.012,-22.949,14.648
1626647608.235,-41.992,-31.250,-22.461,-81.055
1626647608.256,-79.590,-14.160,-37.598,-97.168
1626647608.260,-25.879,-24.414,-44.434,-1.953
1626647608.264,15.625,-31.250,-37.598,39.551
1626647608.268,-38.574,-34.180,-44.922,-64.453
1626647608.272,-104.980,-46.875,-49.316,-131.348
1626647608.276,-51.270,-42.969,-41.992,-29.785
1626647608.280,28.320,-24.902,-22.949,58.594
1626647608.283,-11.230,-26.367,-20.996,-19.531
1626647608.287,-95.215,-29.785,-45.898,-131.348
1626647608.291,-70.312,-37.109,-38.086,-71.777
1626647608.295,10.254,-81.543,-21.484,47.852
1626647608.299,30.762,-60.059,-0.977,35.645
1626647608.293,-26.367,8.789,7.812,-66.406
1626647608.297,-71.777,6.836,-30.762,-77.148
1626647608.301,-10.254,-4.883,-31.738,35.645
1626647608.305,36.621,-11.230,-14.160,62.500
1626647608.309,-16.113,-15.625,-20.020,-47.363
1626647608.313,-62.500,-21.484,-19.531,-82.031
1626647608.317,-20.508,-15.625,-30.273,17.578
1626647608.320,16.602,-2.441,-35.156,51.270
1626647608.324,-58.594,-30.273,-55.176,-73.242
1626647608.328,-117.188,-41.016,-72.754,-145.508
1626647608.332,-42.480,-33.691,-45.898,-32.715
1626647608.336,31.250,-43.457,-20.996,66.406
1626647608.382,1.465,-41.504,-15.137,-0.488
1626647608.386,-80.078,-38.086,-28.320,-109.863
1626647608.390,-43.457,-24.414,-14.648,-39.551
1626647608.394,47.852,-0.488,4.395,86.914
1626647608.398,1.953,-28.809,-30.762,14.160
1626647608.402,-92.285,-59.570,-38.574,-119.141
1626647608.406,-89.355,-45.898,-19.043,-98.633
1626647608.409,-23.926,-25.391,-29.297,13.184
1626647608.413,19.531,7.324,-18.555,50.781
1626647608.417,-53.223,-14.648,-38.574,-59.082
1626647608.421,-131.348,-58.594,-61.035,-125.000
1626647608.425,-52.246,-70.312,-27.832,-4.883
1626647608.433,35.645,-63.477,-6.348,79.102
1626647608.437,-18.555,-52.246,-16.113,-21.484
1626647608.441,-102.539,-41.504,-29.297,-122.070
1626647608.445,-65.918,-29.297,-31.250,-43.945
1626647608.449,-0.488,-32.715,-28.809,51.270
1626647608.453,-15.137,-27.344,-41.016,-4.395
1626647608.457,-91.797,-28.809,-57.129,-107.422
1626647608.460,-74.707,-29.297,-25.879,-53.223
1626647608.464,9.277,-43.457,-5.371,68.359
1626647608.468,2.930,-53.223,-26.367,30.762
1626647608.472,-86.426,-49.316,-45.410,-103.516
1626647608.476,-112.305,-56.641,-49.316,-106.934
1626647608.433,-34.180,-43.457,-41.016,12.207
1626647608.437,18.555,-26.367,-28.809,53.223
1626647608.441,-26.855,-19.531,-35.156,-48.340
1626647608.445,-80.566,-10.254,-36.133,-103.027
1626647608.449,-30.762,-28.320,-14.160,1.953
1626647608.453,25.391,-55.664,-10.254,63.477
1626647608.457,-9.766,-42.969,-21.484,-19.043
1626647608.460,-64.941,-12.207,-30.273,-92.285
1626647608.464,-31.250,-17.090,-22.461,-26.367
1626647608.468,20.020,-43.945,-18.555,56.152
1626647608.472,-22.461,-73.730,-38.574,-22.461
1626647608.476,-97.656,-60.059,-39.062,-134.766
1626647608.482,-91.797,-35.645,-31.738,-92.285
1626647608.486,-13.184,-37.109,-30.762,28.809
1626647608.490,20.020,-35.156,-16.113,39.551
1626647608.494,-21.973,-25.391,3.906,-47.852
1626647608.498,-41.992,-10.254,10.742,-56.152
1626647608.502,12.695,4.395,4.883,36.133
1626647608.506,48.340,6.836,-2.441,59.570
1626647608.509,-17.090,-11.719,-12.695,-53.223
1626647608.513,-104.492,-23.926,-36.133,-140.625
1626647608.517,-78.125,-39.551,-62.012,-69.336
1626647608.521,22.949,-17.090,-41.992,40.039
1626647608.525,-5.859,-6.348,-43.457,-35.645
1626647608.580,-114.746,-19.531,-71.777,-161.133
1626647608.584,-95.215,-9.766,-72.266,-107.422
1626647608.588,-6.836,-17.578,-58.105,9.277
1626647608.592,-1.953,-12.207,-43.945,-15.137
1626647608.596,-90.820,-22.461,-55.664,-141.113
1626647608.600,-99.609,-40.527,-44.922,-122.070
1626647608.604,22.461,-24.414,0.977,39.551
1626647608.607,48.340,-16.602,-9.277,53.223
1626647608.611,-55.664,-24.902,-56.641,-93.262
1626647608.615,-95.215,-36.133,-48.340,-125.977
1626647608.619,-43.945,-21.973,-30.273,-20.996
1626647608.623,-7.812,-7.324,-35.156,27.832
1626647608.580,-53.711,-21.973,-44.922,-72.754
1626647608.584,-115.234,-43.457,-50.781,-155.273
1626647608.588,-64.941,-53.223,-41.992,-58.105
1626647608.592,8.789,-40.039,-43.945,34.668
1626647608.596,-7.812,1.465,-42.969,-26.367
1626647608.600,-77.637,-12.695,-40.039,-122.559
1626647608.604,-59.082,-38.574,-42.969,-77.637
1626647608.607,50.293,-22.461,-14.648,62.988
1626647608.611,47.852,-24.902,-4.883,41.504
1626647608.615,-69.824,-36.621,-40.527,-105.957
1626647608.619,-99.609,-37.109,-44.922,-115.723
1626647608.623,-40.039,-44.922,-42.480,-8.301
1626647608.613,-2.930,-43.945,-32.227,24.902
1626647608.617,-49.805,-39.551,-26.855,-79.102
1626647608.621,-92.285,-31.250,-39.551,-124.512
1626647608.625,-20.020,-11.719,-26.855,1.953
1626647608.629,35.156,-28.809,-27.832,68.359
1626647608.633,-21.973,-42.969,-39.062,-33.203
1626647608.637,-91.797,-42.480,-39.551,-122.559
1626647608.640,-38.086,-19.043,-21.484,-32.227
1626647608.644,65.918,-1.465,-4.395,101.074
1626647608.648,39.551,-7.324,-22.461,41.016
1626647608.652,-94.238,-29.785,-44.434,-118.652
1626647608.656,-110.352,-50.293,-35.645,-101.562
1626647608.692,-22.949,-18.066,-28.320,26.367
1626647608.696,3.418,-6.348,-37.109,20.996
1626647608.700,-52.734,-24.414,-30.273,-83.496
1626647608.704,-72.754,-27.832,-18.066,-83.008
1626647608.708,-11.230,-23.438,-19.531,27.344
1626647608.712,31.250,-24.414,-24.414,71.777
1626647608.716,-35.156,-59.570,-41.992,-41.992
1626647608.719,-116.699,-79.102,-50.293,-121.094
1626647608.723,-39.551,-35.645,-26.367,-3.418
1626647608.727,25.391,-41.016,-24.902,73.730
1626647608.731,-21.484,-51.270,-22.949,-13.184
1626647608.735,-66.406,-10.742,-16.113,-83.984
1626647608.759,-66.895,-18.555,-43.457,-45.410
1626647608.763,-28.320,-38.086,-55.176,31.250
1626647608.767,-25.391,-33.203,-48.340,-7.812
1626647608.771,-75.684,-31.738,-45.410,-109.863
1626647608.775,-59.570,-20.508,-32.715,-70.312
1626647608.779,31.250,-13.672,-28.320,60.059
1626647608.783,32.715,-48.340,-38.086,48.340
1626647608.786,-79.102,-78.613,-46.387,-101.562
1626647608.790,-106.934,-49.805,-44.922,-124.023
1626647608.794,0.488,-4.395,-10.742,21.484
1626647608.798,35.156,-11.230,-3.906,67.383
1626647608.802,-47.363,-43.945,-35.645,-56.641
1626647608.775,-106.445,-24.902,-46.387,-125.488
1626647608.779,-62.988,-17.090,-43.945,-46.875
1626647608.783,4.395,-36.133,-38.086,41.992
1626647608.787,-17.578,-35.156,-31.250,-18.555
1626647608.791,-100.098,-48.340,-33.203,-126.953
1626647608.795,-85.449,-55.664,-38.574,-78.613
1626647608.799,17.578,-40.039,-33.203,44.434
1626647608.802,26.367,-45.898,-26.855,25.879
1626647608.806,-54.199,-35.645,-21.973,-91.797
1626647608.810,-77.148,-4.883,-21.484,-88.867
1626647608.814,-9.277,1.465,-30.273,29.297
1626647608.818,20.508,-19.531,-41.504,42.969
1626647608.820,-35.645,-17.090,-29.297,-63.965
1626647608.824,-88.867,-9.277,-29.785,-103.516
1626647608.828,-42.480,-36.133,-30.762,-12.695
1626647608.832,31.250,-41.992,-28.809,54.688
1626647608.836,-21.973,-39.551,-52.734,-47.852
1626647608.840,-76.660,-20.020,-40.527,-113.281
1626647608.844,8.789,11.719,3.906,16.113
1626647608.847,60.059,-19.043,-6.348,87.891
1626647608.851,-6.348,-54.688,-32.227,-13.672
1626647608.855,-98.633,-51.758,-27.832,-129.883
1626647608.859,-94.727,-28.320,-22.949,-86.426
1626647608.863,22.949,7.324,13.184,66.406
1626647608.858,46.875,6.836,23.926,59.570
1626647608.862,-53.711,-23.438,-12.207,-77.148
1626647608.866,-93.750,-55.176,-32.715,-90.332
1626647608.870,-31.738,-64.941,-33.691,19.531
1626647608.874,2.441,-48.828,-36.621,37.598
1626647608.878,-58.105,-37.109,-39.062,-77.637
1626647608.882,-108.398,-36.621,-38.574,-122.070
1626647608.885,-56.152,-50.293,-34.668,-22.949
1626647608.889,-0.977,-65.918,-28.809,43.457
1626647608.893,-28.320,-59.082,-27.344,-33.203
1626647608.897,-87.402,-58.105,-30.762,-114.258
1626647608.901,-44.922,-53.711,-21.484,-34.668
1626647608.958,30.762,-21.484,-9.277,66.895
1626647608.962,10.742,-11.230,-19.043,7.812
1626647608.966,-55.664,-20.996,-15.625,-87.402
1626647608.970,-73.242,-56.152,-19.043,-68.359
1626647608.974,-23.926,-75.195,-58.105,16.602
1626647608.978,-11.230,-40.527,-70.801,9.277
1626647608.982,-70.801,-8.789,-53.223,-95.215
1626647608.985,-92.285,-13.184,-39.062,-101.562
1626647608.989,-40.527,-28.809,-38.086,0.977
1626647608.993,1.953,-26.367,-38.574,34.668
1626647608.997,-30.762,-37.109,-18.555,-53.223
1626647609.001,-100.586,-61.035,-22.949,-122.559
1626647608.958,-43.945,-54.688,-30.273,-21.973
1626647608.962,35.645,-25.879,-30.762,70.312
1626647608.966,-12.207,-19.531,-37.109,-20.020
1626647608.970,-91.797,-54.199,-47.363,-125.000
1626647608.974,-75.195,-44.922,-41.504,-71.777
1626647608.978,7.324,-17.578,-8.301,36.621
1626647608.982,5.371,-25.391,-11.230,3.418
1626647608.985,-64.941,-24.414,-37.109,-101.074
1626647608.989,-81.543,-42.480,-40.527,-86.914
1626647608.993,-20.996,-57.129,-32.227,19.531
1626647608.997,18.555,-48.828,-17.090,40.527
1626647609.001,-20.996,-31.738,10.742,-47.852
1626647608.993,-95.215,-45.898,-14.648,-100.098
1626647608.997,-50.781,-34.668,-34.180,-12.695
1626647609.001,31.250,3.418,-18.066,57.129
1626647609.005,-22.949,-8.789,-26.367,-36.621
1626647609.009,-113.770,-50.293,-53.223,-129.395
1626647609.013,-64.941,-65.918,-49.805,-40.039
1626647609.017,28.320,-40.527,-27.832,62.500
1626647609.020,-7.324,-36.133,-33.691,-14.160
1626647609.024,-79.590,-42.969,-42.480,-112.305
1626647609.028,-44.922,-41.504,-27.344,-41.504
1626647609.032,29.297,-41.016,-23.926,64.941
1626647609.036,6.836,-18.555,-43.945,15.137
1626647609.034,-88.867,-17.090,-49.316,-120.117
1626647609.038,-116.211,-44.434,-29.297,-126.465
1626647609.042,-30.273,-46.387,-8.301,5.371
1626647609.046,15.137,-31.738,-15.625,32.227
1626647609.050,-51.270,-40.527,-24.902,-84.961
1626647609.054,-85.938,-37.109,-24.902,-115.723
1626647609.058,-24.414,-25.879,-31.738,-5.859
1626647609.061,23.926,-41.504,-18.555,56.641
1626647609.065,-13.184,-62.500,-18.066,-35.645
1626647609.069,-82.520,-71.289,-29.297,-117.188
1626647609.073,-50.293,-42.969,-33.203,-37.598
1626647609.077,3.906,-37.109,-47.363,44.434
1626647609.091,-47.852,-51.270,-69.824,-40.527
1626647609.095,-110.840,-29.785,-62.012,-142.578
1626647609.099,-90.820,-35.645,-37.109,-94.238
1626647609.103,-10.254,-36.621,-39.551,24.414
1626647609.107,20.020,-14.648,-26.367,31.250
1626647609.111,-64.453,-38.574,-20.508,-94.727
1626647609.115,-110.840,-72.754,-47.852,-126.953
1626647609.118,-41.992,-59.570,-46.875,-11.230
1626647609.122,14.648,-25.391,-24.414,35.156
1626647609.126,-25.391,-17.578,-12.695,-52.734
1626647609.130,-97.168,-59.570,-26.855,-116.699
1626647609.134,-55.176,-59.082,-41.016,-23.926
1626647609.140,10.254,-30.762,-42.480,48.340
1626647609.144,-28.809,-37.598,-35.156,-44.922
1626647609.148,-78.613,-45.898,-15.137,-114.258
1626647609.152,-45.410,-43.457,-25.391,-34.668
1626647609.156,13.672,-52.246,-46.875,60.547
1626647609.160,3.906,-43.457,-36.133,20.508
1626647609.164,-55.176,0.977,-24.902,-86.426
1626647609.167,-75.684,1.953,-50.293,-78.613
1626647609.171,-42.480,-25.391,-70.801,8.789
1626647609.175,-9.277,-33.203,-43.945,15.137
1626647609.179,-36.133,-35.645,-17.090,-64.453
1626647609.183,-79.590,-38.086,-27.344,-97.168
1626647609.193,-37.598,-36.621,-32.715,-3.418
1626647609.197,19.043,-34.668,-23.438,54.688
1626647609.201,-12.695,-24.902,-12.695,-35.645
1626647609.205,-75.195,-28.809,-28.809,-106.445
1626647609.209,-38.574,-21.484,-50.781,-25.879
1626647609.213,31.250,-2.441,-29.785,64.941
1626647609.217,-26.367,-23.438,-31.250,-26.855
1626647609.220,-118.652,-45.410,-53.711,-140.625
1626647609.224,-53.223,-27.344,-29.297,-42.969
1626647609.228,30.762,-34.180,-19.043,62.988
1626647609.232,-8.301,-48.340,-36.133,0.000
1626647609.236,-89.355,-44.922,-32.715,-111.328
1626647609.243,-97.656,-54.688,-31.250,-97.656
1626647609.247,-17.090,-29.785,-28.809,24.414
1626647609.251,23.926,-1.465,-31.250,42.969
1626647609.255,-43.945,-22.461,-38.574,-72.754
1626647609.259,-82.031,-28.809,-15.625,-94.238
1626647609.263,-45.898,-41.016,-37.109,-17.090
1626647609.267,-9.277,-61.523,-59.082,18.555
1626647609.270,-38.086,-47.363,-32.715,-61.035
1626647609.274,-109.863,-51.270,-33.203,-138.672
1626647609.278,-49.316,-33.203,-19.043,-35.156
1626647609.282,37.109,-3.418,-4.883,68.848
1626647609.286,0.488,-5.371,-32.227,-11.719
1626647609.318,-65.430,-3.418,-43.945,-112.305
1626647609.322,-59.570,-12.695,-34.180,-69.336
1626647609.326,6.348,-36.621,-33.203,30.273
1626647609.330,9.277,-65.918,-33.691,7.812
1626647609.334,-68.848,-53.223,-41.992,-111.328
1626647609.338,-55.664,-17.090,-36.621,-90.332
1626647609.342,20.020,-16.602,-32.227,33.203
1626647609.345,33.203,-10.742,-41.016,43.945
1626647609.349,-41.504,-15.137,-52.734,-83.984
1626647609.353,-116.211,-41.504,-63.477,-151.855
1626647609.357,-48.340,-27.344,-28.320,-29.297
1626647609.361,22.949,-8.789,-25.391,44.434
1626647609.353,-21.973,-16.602,-47.363,-52.734
1626647609.357,-79.102,-27.832,-40.039,-125.000
1626647609.361,-29.785,-37.598,-31.738,-29.297
1626647609.365,56.152,-28.809,-18.555,82.031
1626647609.369,14.160,-31.250,-32.715,-1.465
1626647609.373,-67.383,-30.762,-28.320,-111.816
1626647609.377,-40.039,-12.207,-12.695,-51.758
1626647609.380,15.137,-19.531,-40.527,44.434
1626647609.384,-5.859,-47.363,-59.570,6.836
1626647609.388,-79.590,-33.203,-51.270,-107.910
1626647609.392,-83.496,-6.348,-30.273,-105.957
1626647609.396,-7.812,-3.906,-7.812,17.090
1626647609.383,29.785,-21.484,-14.160,55.664
1626647609.387,-24.902,-31.250,-27.832,-51.270
1626647609.391,-78.613,-32.715,-24.414,-114.258
