timestamps,TP9,AF7,AF8,TP10
1626.4656012370003,35.156,-33.691,-53.223,-26.855
1626.4656012410003,-36.621,-32.715,-46.387,-57.617
1626.4656012449998,-106.445,-33.691,-8.301,-37.598
1626.4656012489997,-43.457,-33.203,-6.836,0.488
1626.4656012529997,28.32,-38.574,-40.527,-17.09
1626.4656012570001,-1.465,-42.48,-46.387,-46.387
1626.465601261,-86.914,-45.41,-18.066,-44.922
1626.465601264,-52.246,-40.527,-12.207,0.977
1626.465601268,16.113,-36.621,-51.27,-2.93
1626.4656012720002,8.301,-40.527,-65.918,-50.781000000000006
1626.465601276,-88.867,-40.039,-30.273000000000003,-66.406
1626.4656012799999,-77.148,-28.809,-2.93,-15.625
1626.465601283,8.301,-29.296999999999997,-23.438000000000002,3.906
1626.4656012870003,37.598,-38.086,-48.34,-29.785
1626.4656012910002,-54.688,-41.992,-39.062,-54.199
1626.4656012950002,-88.867,-41.992,-8.301,-17.09
1626.4656012990001,-11.23,-37.109,-16.602,7.812
1626.465601303,48.828,-33.691,-46.875,-15.137
1626.4656013070003,-12.207,-41.504,-51.27,-50.781000000000006
1626.46560131,-86.426,-42.968999999999994,-12.695,-33.691
1626.465601314,-37.598,-40.039,-8.789,8.301
1626.465601318,24.414,-46.387,-44.434,-11.23
1626.465601322,-0.977,-47.363,-57.129,-46.387
1626.465601326,-83.49600000000001,-45.898,-20.996,-48.34
1626.4656013279998,-55.176,-41.504,-3.418,-6.348
1626.465601332,22.461,-40.527,-28.809,0.488
1626.465601336,23.926,-46.875,-46.875,-35.156
1626.46560134,-79.59,-43.945,-26.855,-60.547
1626.4656013439999,-75.195,-33.691,0.488,-17.578
1626.4656013479998,4.883,-34.668,-25.391,-0.488
1626.4656013520002,23.438000000000002,-43.945,-61.035,-35.645
1626.465601355,-64.941,-53.711000000000006,-51.758,-69.336
1626.465601359,-97.16799999999999,-48.34,-11.23,-41.992
1626.465601363,-24.414,-48.828,-18.555,-3.418
1626.465601367,30.273000000000003,-47.363,-52.246,-29.296999999999997
1626.465601371,-25.879,-39.551,-49.316,-61.523
1626.4656013720003,-100.586,-33.203,-9.277000000000001,-44.922
1626.4656013760002,-45.898,-31.25,-4.395,-1.465
1626.4656013800002,19.531,-39.062,-40.527,-9.766
1626.465601384,7.324,-44.922,-57.129,-56.152
1626.4656013879999,-74.219,-38.574,-18.555,-62.012
1626.4656013920003,-54.199,-23.926,9.766,-3.418
1626.4656013960002,10.742,-37.598,-33.203,-2.93
1626.465601399,20.508000000000003,-46.875,-60.547,-43.945
1626.465601403,-62.5,-29.785,-27.831999999999997,-56.152
1626.4656014070001,-67.383,-26.366999999999997,7.324,-13.672
1626.465601411,1.953,-34.668,-14.648,6.348
1626.465601415,30.761999999999997,-35.156,-54.688,-30.761999999999997
1626.465601417,-46.387,-41.016000000000005,-46.387,-62.5
1626.465601421,-87.891,-32.715,-6.348,-36.133
1626.465601425,-16.113,-20.508000000000003,-16.113,-5.371
1626.465601429,44.434,-24.414,-48.828,-22.461
1626.4656014329998,0.0,-33.203,-58.105,-60.059
1626.465601437,-80.566,-35.156,-14.16,-46.387
1626.465601441,-39.551,-36.621,-5.371,-1.953
1626.465601444,25.879,-40.527,-38.574,-11.23
1626.465601448,21.484,-37.598,-42.968999999999994,-42.48
1626.465601452,-83.984,-48.34,-24.901999999999997,-61.035
1626.465601456,-79.102,-53.223,-8.301,-17.09
1626.46560146,7.812,-34.668,-22.949,5.371
1626.4656014770003,23.438000000000002,-35.645,-46.387,-32.227
1626.465601481,-69.824,-45.41,-28.809,-58.105
1626.465601485,-86.914,-39.551,4.395,-20.508000000000003
1626.465601489,-10.254000000000001,-31.738000000000003,-22.461,3.906
1626.465601493,35.156,-34.18,-58.105,-18.555
1626.4656014970003,-29.296999999999997,-40.039,-45.41,-49.805
1626.4656015010003,-81.543,-37.109,-2.93,-23.926
1626.465601504,-23.926,-32.715,-10.742,6.836
1626.465601508,22.949,-37.109,-49.805,-20.996
1626.4656015120001,-27.344,-46.875,-51.758,-58.105
1626.465601516,-112.79299999999999,-41.992,-17.578,-56.152
1626.46560152,-67.383,-26.366999999999997,-7.324,-12.695
1626.465601522,15.625,-22.461,-38.574,-16.602
1626.465601526,5.371,-44.922,-58.105,-56.152
1626.46560153,-90.82,-51.27,-28.809,-68.359
1626.465601534,-71.289,-28.809,4.395,-19.531
1626.4656015379999,3.418,-31.25,-19.043,-9.277000000000001
1626.465601542,29.785,-37.598,-47.363,-38.574
1626.465601546,-59.082,-38.574,-37.598,-66.406
1626.465601549,-83.984,-27.831999999999997,-5.859,-29.785
1626.465601553,-4.883,-16.113,-20.02,0.488
1626.4656015570001,33.691,-20.996,-57.617,-38.086
1626.465601561,-31.25,-20.02,-56.641000000000005,-72.75399999999999
1626.465601565,-103.027,-32.715,-23.926,-52.246
1626.4656015670002,-54.688,-35.645,-22.949,-18.066
1626.4656015710002,16.602,-26.366999999999997,-53.711000000000006,-34.18
1626.465601575,-12.695,-40.039,-63.477,-70.801
1626.465601579,-104.98,-43.945,-24.414,-60.059
1626.4656015829999,-68.359,-36.621,-10.742,-15.137
1626.465601587,12.695,-30.273000000000003,-37.109,-8.301
1626.465601591,20.02,-24.901999999999997,-57.129,-29.785
1626.465601594,-76.172,-34.18,-43.945,-52.733999999999995
1626.465601598,-75.195,-40.527,-13.184000000000001,-17.09
1626.4656016020003,-1.465,-34.668,-25.879,0.488
1626.4656016059998,29.785,-27.344,-53.223,-29.296999999999997
1626.4656016099998,-47.363,-33.691,-42.968999999999994,-65.918
1626.4656016120002,-78.613,-30.761999999999997,-4.395,-36.133
1626.4656016160002,-6.348,-19.043,-14.16,0.488
1626.46560162,49.316,-18.066,-54.199,-22.949
1626.4656016239999,-2.441,-18.066,-57.129,-58.105
1626.4656016279998,-82.031,-20.508000000000003,-18.555,-40.039
1626.4656016320002,-27.344,-25.391,-16.113,0.0
1626.4656016360002,48.828,-18.066,-52.246,-17.578
1626.465601639,24.901999999999997,-19.043,-62.988,-54.199
1626.465601643,-84.473,-38.086,-32.227,-56.641000000000005
1626.465601647,-62.012,-32.227,-1.953,-2.93
1626.465601651,25.391,-22.949,-26.366999999999997,7.324
1626.465601655,32.227,-44.922,-60.059,-35.156
1626.465601657,-67.383,-57.129,-36.133,-63.477
1626.465601661,-68.848,-40.039,0.0,-14.16
1626.465601665,12.695,-23.926,-20.996,21.484
1626.4656016689999,50.293,-23.438000000000002,-51.758,-15.137
1626.4656016729998,-30.761999999999997,-26.366999999999997,-40.039,-59.082
1626.465601677,-73.73,-22.461,-0.488,-41.016000000000005
1626.465601681,-12.207,-21.484,-13.184000000000001,-5.859
1626.465601684,32.227,-23.926,-43.457,-17.578
1626.4656016879999,-13.184000000000001,-36.621,-46.387,-53.223
1626.465601692,-86.914,-37.598,-15.625,-50.293
1626.465601696,-43.945,-29.296999999999997,-14.16,-9.277000000000001
1626.4656017,33.691,-24.414,-49.316,-11.23
1626.4656017020002,30.273000000000003,-20.996,-58.593999999999994,-41.992
1626.4656017060001,-67.87100000000001,-32.227,-24.414,-52.246
1626.46560171,-46.875,-28.809,-2.441,-6.348
1626.465601714,25.879,-21.484,-31.25,-0.977
1626.465601718,40.039,-26.855,-53.223,-36.133
1626.4656017220002,-53.711000000000006,-35.645,-31.738000000000003,-53.711000000000006
1626.4656017260002,-91.79700000000001,-44.434,-15.625,-29.296999999999997
1626.465601729,-26.366999999999997,-41.504,-33.691,-8.789
1626.4656017329999,30.761999999999997,-34.18,-45.898,-23.438000000000002
1626.4656017370003,-39.062,-36.621,-41.016000000000005,-58.593999999999994
1626.4656017410002,-97.656,-30.273000000000003,-7.812,-34.668
1626.465601745,-43.457,-29.296999999999997,-16.602,6.348
1626.465601748,21.484,-28.32,-48.828,-8.789
1626.465601752,-11.23,-33.203,-53.223,-45.41
1626.465601756,-92.285,-35.645,-21.973000000000003,-39.551
1626.46560176,-56.641000000000005,-28.32,-8.789,0.488
1626.465601764,11.719000000000001,-24.414,-36.621,-8.301
1626.465601768,17.09,-25.391,-52.733999999999995,-40.527
1626.4656017720001,-81.055,-34.668,-32.227,-57.129
1626.465601775,-72.75399999999999,-27.831999999999997,-12.695,-14.648
1626.465601779,8.789,-17.09,-33.691,0.977
1626.465601783,32.227,-29.296999999999997,-56.152,-27.344
1626.4656017870002,-67.383,-40.039,-39.551,-61.523
1626.4656017910002,-94.238,-38.086,-7.324,-33.691
1626.4656017920001,-7.812,-27.344,-18.066,-2.93
1626.465601796,45.898,-22.461,-45.898,-22.949
1626.4656018,-18.555,-30.273000000000003,-47.852,-55.663999999999994
1626.4656018039998,-80.078,-28.32,-11.23,-39.551
1626.4656018079997,-20.02,-20.02,-6.836,3.906
1626.465601812,40.039,-29.296999999999997,-46.387,-10.254000000000001
1626.465601816,6.836,-41.504,-65.43,-49.805
1626.465601819,-81.055,-36.133,-23.438000000000002,-47.852
1626.465601823,-50.781000000000006,-29.296999999999997,-5.371,-4.395
1626.4656018270002,15.625,-38.086,-44.434,-15.137
1626.4656018310002,13.672,-41.992,-55.176,-51.27
1626.4656018350001,-84.961,-38.574,-20.508000000000003,-63.477
1626.4656018520002,-75.684,-31.738000000000003,-1.465,-23.926
1626.465601856,5.371,-31.738000000000003,-31.738000000000003,-10.254000000000001
1626.4656018599999,28.32,-36.133,-57.129,-40.039
1626.4656018639998,-63.477,-41.016000000000005,-47.852,-70.312
1626.4656018679998,-89.355,-36.621,-5.371,-33.691
1626.4656018720002,-11.23,-29.785,-6.836,-0.488
1626.4656018760002,45.898,-34.668,-40.527,-26.855
1626.465601879,-9.766,-41.016000000000005,-42.968999999999994,-58.105
1626.4656018829999,-88.37899999999999,-37.598,-3.418,-37.598
1626.465601887,-48.34,-35.645,-6.348,-4.395
1626.465601891,24.414,-43.945,-52.246,-19.531
1626.465601895,15.137,-46.875,-60.547,-47.852
1626.4656018979997,-82.031,-41.504,-24.414,-49.805
1626.4656019020001,-50.781000000000006,-35.645,-0.488,-7.812
1626.465601906,32.715,-34.18,-24.414,0.0
1626.46560191,37.598,-39.551,-46.875,-31.738000000000003
1626.465601914,-70.801,-45.898,-28.32,-58.105
1626.465601918,-68.848,-31.25,6.836,-12.695
1626.4656019220001,12.695,-31.25,-18.066,5.371
1626.4656019249999,40.527,-35.156,-54.199,-27.344
1626.4656019289998,-42.968999999999994,-33.203,-44.434,-60.547
1626.4656019329998,-87.402,-38.574,-6.836,-37.109
1626.465601937,-19.043,-31.25,-15.137,-3.906
1626.465601941,48.34,-26.855,-49.316,-22.461
1626.4656019420001,-0.488,-38.574,-49.805,-46.875
1626.465601946,-92.773,-40.039,-2.93,-39.551
1626.46560195,-44.434,-41.016000000000005,2.93,-1.465
1626.465601954,27.831999999999997,-47.852,-28.809,-5.371
1626.465601958,2.93,-51.27,-40.039,-46.875
1626.4656019620002,-99.609,-51.27,-10.742,-62.5
1626.4656019660001,-78.613,-52.246,7.324,-17.578
1626.4656019689999,-2.441,-50.293,-22.461,-11.719000000000001
1626.4656019729998,11.23,-49.805,-43.457,-45.898
1626.4656019770002,-83.008,-51.27,-27.831999999999997,-70.801
1626.465601981,-92.285,-48.828,10.254000000000001,-25.879
1626.465601985,-0.488,-41.504,-2.441,14.16
1626.465601988,54.688,-31.738000000000003,-33.691,-10.254000000000001
1626.465601992,-26.366999999999997,-36.621,-31.738000000000003,-45.898
1626.465601996,-97.656,-41.992,3.906,-22.949
1626.465602,-35.645,-41.504,-0.488,6.836
1626.465602004,22.461,-44.922,-40.039,-16.602
1626.465602008,-19.043,-42.48,-44.434,-46.875
1626.465602012,-90.82,-48.34,-9.766,-39.551
1626.465602015,-44.922,-47.363,8.789,0.0
1626.465602019,17.578,-41.992,-20.508000000000003,-2.441
1626.4656020229997,9.766,-48.828,-46.875,-37.598
1626.4656020270002,-80.078,-49.316,-20.02,-55.176
1626.4656020310001,-68.848,-40.527,1.465,-13.184000000000001
1626.465602033,13.672,-31.738000000000003,-25.879,0.0
1626.4656020370003,54.199,-31.25,-50.293,-28.32
1626.4656020410002,-35.156,-30.273000000000003,-35.156,-52.733999999999995
1626.465602045,-74.707,-27.344,-0.977,-18.066
1626.465602049,-13.184000000000001,-25.391,-16.602,-0.488
1626.4656020529999,42.968999999999994,-16.602,-42.48,-30.273000000000003
1626.465602057,-21.484,-33.691,-43.945,-59.57
1626.46560206,-98.145,-53.223,-18.555,-52.733999999999995
1626.465602064,-45.41,-40.527,-14.16,-20.996
1626.465602068,17.09,-29.785,-40.039,-29.296999999999997
1626.4656020720001,-7.324,-28.809,-49.316,-57.617
1626.4656020759999,-94.238,-35.156,-12.695,-52.733999999999995
1626.465602077,-51.27,-32.227,0.488,-2.441
1626.465602081,32.715,-21.973000000000003,-36.133,5.371
1626.465602085,26.366999999999997,-28.809,-52.246,-36.621
1626.465602089,-82.031,-43.457,-23.926,-59.082
1626.465602093,-76.172,-37.598,2.441,-13.184000000000001
1626.465602097,3.418,-30.761999999999997,-19.531,0.0
1626.465602101,24.414,-39.551,-49.316,-41.992
1626.4656021039998,-70.312,-51.27,-34.668,-78.613
1626.4656021079998,-104.98,-45.898,-0.977,-48.34
1626.4656021120002,-26.855,-45.898,-23.438000000000002,-7.812
1626.4656021160001,35.645,-45.41,-48.34,-22.949
1626.4656021199999,-45.898,-46.387,-38.574,-69.336
1626.4656021220003,-115.234,-46.875,-2.441,-50.293
1626.4656021260002,-42.968999999999994,-47.852,-2.93,0.0
1626.4656021300002,20.508000000000003,-54.199,-28.809,-15.137
1626.465602134,-9.766,-62.012,-38.574,-55.176
1626.4656021379997,-111.32799999999999,-58.593999999999994,-2.441,-51.27
1626.4656021420003,-75.684,-45.41,25.879,-0.977
1626.465602146,4.395,-51.27,-9.766,-4.395
1626.465602149,9.766,-53.223,-40.039,-36.133
1626.465602153,-80.078,-51.27,-18.066,-51.758
1626.4656021570001,-79.59,-45.898,15.625,-17.578
1626.465602161,-4.883,-43.945,0.0,11.719000000000001
1626.465602165,17.09,-55.176,-32.227,-19.531
1626.465602182,-64.941,-55.176,-21.973000000000003,-58.105
1626.465602186,-108.398,-51.27,14.648,-23.926
1626.46560219,-44.922,-49.805,-0.977,6.348
1626.465602194,20.508000000000003,-46.875,-40.039,-20.02
1626.465602198,-32.715,-46.875,-48.34,-58.593999999999994
1626.4656022020001,-114.258,-45.898,-11.719000000000001,-45.41
1626.465602206,-52.733999999999995,-37.598,-3.418,4.883
1626.4656022089998,23.926,-39.062,-31.738000000000003,-0.488
1626.4656022129998,7.812,-48.828,-44.434,-34.18
1626.465602217,-93.262,-50.781000000000006,-20.02,-46.387
1626.465602221,-72.75399999999999,-46.875,-4.395,-5.859
1626.4656022249999,11.23,-41.992,-26.366999999999997,5.371
1626.4656022270003,30.273000000000003,-38.574,-47.852,-29.785
1626.465602231,-68.359,-41.992,-33.203,-51.758
1626.465602235,-88.37899999999999,-38.086,-4.395,-16.113
1626.4656022389997,-11.719000000000001,-35.645,-20.996,8.301
1626.4656022429997,36.621,-48.828,-48.34,-17.09
1626.465602247,-36.133,-57.617,-38.086,-46.875
1626.465602251,-97.16799999999999,-59.082,-7.812,-20.996
1626.465602254,-28.809,-48.828,-17.578,21.484
1626.465602258,40.039,-44.434,-46.875,1.465
1626.4656022620002,-8.301,-56.152,-53.223,-46.387
1626.4656022660001,-90.82,-49.316,-15.625,-33.691
1626.46560227,-34.668,-36.621,-6.348,22.461
1626.465602272,41.504,-41.016000000000005,-42.48,10.742
1626.465602276,24.414,-51.27,-49.805,-31.738000000000003
1626.46560228,-70.312,-48.828,-20.508000000000003,-37.598
1626.465602284,-58.105,-41.016000000000005,0.0,5.859
1626.465602288,17.578,-36.133,-23.926,10.254000000000001
1626.465602292,42.968999999999994,-33.691,-53.223,-25.879
1626.465602296,-48.34,-37.598,-36.133,-46.875
1626.465602299,-62.012,-34.18,8.301,-9.277000000000001
1626.465602303,11.23,-31.738000000000003,-8.789,15.137
1626.4656023070002,52.246,-34.668,-49.316,-13.672
1626.465602311,-10.742,-37.109,-47.363,-48.828
1626.465602315,-72.75399999999999,-41.992,-11.719000000000001,-29.296999999999997
1626.465602317,-12.695,-34.18,-17.09,10.742
1626.465602321,52.246,-34.18,-47.852,3.418
1626.465602325,7.324,-38.574,-52.246,-29.296999999999997
1626.465602329,-88.37899999999999,-33.691,-15.137,-35.645
1626.4656023329999,-43.945,-35.156,-4.883,15.625
1626.465602337,45.898,-31.25,-39.062,14.16
1626.465602341,39.551,-30.273000000000003,-59.57,-37.598
1626.4656023439998,-75.195,-42.968999999999994,-40.039,-57.617
1626.4656023479997,-68.359,-47.852,-18.555,-18.066
1626.4656023520001,14.648,-40.527,-41.016000000000005,-0.488
1626.4656023559999,39.062,-40.039,-59.082,-26.366999999999997
1626.4656023599998,-55.663999999999994,-47.363,-41.504,-54.688
1626.4656023620003,-87.402,-38.086,-1.953,-21.973000000000003
1626.4656023660002,-17.09,-30.761999999999997,-13.184000000000001,8.789
1626.46560237,33.691,-40.527,-52.246,-19.531
1626.465602374,-16.602,-45.898,-52.246,-50.293
1626.4656023779999,-84.473,-46.875,-11.719000000000001,-28.32
1626.4656023820003,-21.484,-37.598,-5.859,17.09
1626.4656023860002,55.663999999999994,-38.086,-39.551,5.371
1626.465602389,25.391,-46.387,-48.828,-32.715
1626.465602393,-66.406,-47.852,-14.648,-37.598
1626.465602397,-44.922,-42.48,-2.441,-1.465
1626.465602401,28.32,-39.551,-24.414,7.812
1626.465602405,39.551,-38.574,-44.922,-23.926
1626.465602407,-75.195,-36.133,-29.785,-49.316
1626.465602411,-83.49600000000001,-30.273000000000003,-2.93,-10.254000000000001
1626.465602415,-2.93,-29.785,-24.414,3.418
1626.4656024189999,29.785,-34.18,-54.688,-31.738000000000003
1626.4656024229998,-44.922,-36.133,-42.968999999999994,-54.688
1626.465602427,-81.055,-33.691,-3.906,-19.043
1626.465602431,-9.766,-32.227,-17.578,11.719000000000001
1626.465602434,39.551,-38.574,-54.688,-10.742
1626.465602438,-11.719000000000001,-43.457,-48.34,-42.968999999999994
1626.465602442,-75.684,-36.133,-1.953,-22.949
1626.465602446,-31.738000000000003,-27.344,-3.906,15.625
1626.46560245,30.273000000000003,-35.156,-38.574,-3.418
1626.4656024529997,23.926,-38.086,-52.246,-31.25
1626.465602457,-72.266,-31.738000000000003,-30.273000000000003,-43.457
1626.465602461,-70.801,-28.32,-16.602,-20.508000000000003
1626.4656024649998,6.836,-30.273000000000003,-45.898,-14.16
1626.4656024689998,17.578,-38.086,-66.895,-47.852
1626.4656024729998,-95.70299999999999,-40.527,-42.968999999999994,-81.055
1626.4656024770002,-109.375,-37.109,-11.719000000000001,-39.062
1626.46560248,-25.879,-33.203,-31.738000000000003,-6.348
1626.4656024839999,25.879,-29.296999999999997,-51.758,-26.366999999999997
1626.4656024879998,-55.176,-36.133,-48.34,-63.477
1626.465602492,-104.492,-34.18,-19.531,-44.922
1626.465602496,-29.296999999999997,-28.32,-20.996,-5.859
1626.4656024970002,43.457,-24.414,-53.711000000000006,-18.555
1626.4656025010001,5.859,-29.785,-53.223,-53.711000000000006
1626.465602505,-92.285,-36.621,-17.09,-49.805
1626.4656025089998,-52.733999999999995,-37.598,-7.324,-8.301
1626.4656025129998,24.901999999999997,-35.156,-32.715,-16.113
1626.4656025170002,12.695,-39.062,-49.316,-50.781000000000006
1626.4656025210002,-90.33200000000001,-45.898,-28.809,-64.941
1626.465602524,-70.801,-38.086,-8.301,-18.555
1626.4656025279999,10.254000000000001,-35.645,-32.227,-8.301
1626.465602532,29.785,-35.645,-56.641000000000005,-44.434
1626.465602536,-69.336,-34.668,-44.922,-66.406
1626.46560254,-93.262,-35.156,-18.066,-27.831999999999997
1626.465602542,-6.836,-25.879,-28.809,0.488
1626.465602546,39.551,-29.785,-56.641000000000005,-26.366999999999997
1626.4656025499999,-35.645,-40.039,-58.105,-62.988
1626.4656025539998,-87.891,-38.574,-25.879,-43.945
1626.4656025579998,-21.484,-34.18,-24.901999999999997,-1.465
1626.465602562,39.551,-33.691,-55.663999999999994,-18.555
1626.465602566,-1.953,-36.621,-55.176,-62.988
1626.465602569,-87.402,-35.156,-13.672,-58.593999999999994
1626.4656025729998,-39.062,-31.738000000000003,-7.324,-6.836
1626.4656025770003,33.691,-37.109,-49.805,-16.113
1626.465602581,17.09,-47.852,-65.918,-55.176
1626.465602585,-88.867,-59.57,-34.668,-72.266
1626.4656026020002,-79.102,-50.781000000000006,-10.254000000000001,-28.809
1626.465602606,3.906,-32.227,-22.949,-4.395
1626.46560261,21.973000000000003,-35.645,-42.48,-42.48
1626.4656026139999,-70.801,-39.551,-31.738000000000003,-72.266
1626.4656026179998,-92.285,-30.273000000000003,2.93,-30.761999999999997
1626.4656026220002,-20.508000000000003,-20.996,-15.625,-3.418
1626.4656026260002,19.043,-18.555,-56.641000000000005,-28.809
1626.465602629,-54.688,-34.668,-57.617,-67.383
1626.465602633,-113.77,-41.992,-19.531,-57.617
1626.465602637,-43.945,-31.25,-12.207,-12.695
1626.465602641,20.996,-29.785,-46.387,-19.043
1626.465602645,-6.348,-36.133,-50.781000000000006,-60.059
1626.465602647,-104.492,-35.645,-7.812,-60.547
1626.465602651,-76.172,-32.715,5.371,-14.648
1626.4656026549999,10.742,-29.296999999999997,-25.879,-12.207
1626.4656026589998,3.418,-37.598,-47.363,-52.733999999999995
1626.4656026629998,-94.238,-43.457,-23.438000000000002,-67.87100000000001
1626.465602667,-77.148,-33.203,7.324,-13.184000000000001
1626.465602671,2.93,-28.32,-21.484,2.93
1626.4656026740001,35.645,-25.879,-54.199,-31.25
1626.4656026779999,-51.27,-32.715,-45.41,-58.593999999999994
1626.465602682,-88.37899999999999,-37.598,-15.625,-36.621
1626.465602686,-16.113,-30.761999999999997,-26.366999999999997,-10.254000000000001
1626.46560269,40.527,-29.296999999999997,-56.152,-30.761999999999997
1626.465602693,-10.254000000000001,-26.366999999999997,-47.363,-57.129
1626.4656026970001,-86.914,-32.227,-9.277000000000001,-45.898
1626.465602701,-40.039,-42.968999999999994,-13.672,-16.602
1626.4656027049998,24.414,-47.852,-46.387,-22.461
1626.4656027089998,3.418,-47.852,-55.663999999999994,-61.523
1626.4656027129997,-93.75,-42.968999999999994,-27.344,-69.336
1626.465602717,-64.941,-37.109,-11.23,-13.672
1626.46560272,22.949,-34.668,-32.227,0.0
1626.465602724,25.391,-43.945,-56.152,-43.457
1626.465602728,-75.195,-47.852,-33.691,-78.125
1626.4656027320002,-79.102,-34.668,-0.977,-39.551
1626.4656027360002,-3.906,-32.715,-24.414,-16.113
1626.4656027370002,26.855,-33.691,-58.593999999999994,-47.363
1626.465602741,-49.805,-35.645,-54.688,-78.613
1626.4656027449998,-91.309,-28.32,-17.09,-47.852
1626.4656027489998,-31.25,-25.879,-25.879,-9.766
1626.4656027529998,26.855,-30.273000000000003,-54.199,-25.391
1626.4656027570002,-25.391,-28.32,-54.199,-61.523
1626.4656027610001,-113.77,-29.785,-22.949,-59.57
1626.4656027639999,-64.941,-29.785,-15.137,-20.508000000000003
1626.4656027679998,0.488,-38.574,-56.152,-28.809
1626.465602772,-9.277000000000001,-45.898,-69.824,-62.5
1626.465602776,-91.79700000000001,-39.551,-24.414,-62.012
1626.46560278,-64.453,-26.855,3.906,-8.789
1626.4656027820001,12.695,-37.109,-26.855,-1.953
1626.465602786,31.738000000000003,-42.968999999999994,-54.688,-42.48
1626.46560279,-57.129,-28.809,-38.574,-68.359
1626.465602794,-78.613,-27.831999999999997,-14.648,-26.855
1626.465602798,-2.93,-25.391,-30.273000000000003,-3.418
1626.4656028020001,42.48,-22.949,-51.27,-34.668
1626.465602806,-30.273000000000003,-35.156,-44.434,-64.941
1626.465602809,-88.37899999999999,-41.504,-6.836,-36.133
1626.465602813,-37.598,-39.062,-14.16,4.395
1626.4656028170002,16.113,-38.086,-53.223,-17.578
1626.4656028210002,-22.949,-37.598,-56.152,-56.641000000000005
1626.4656028250001,-112.79299999999999,-37.109,-16.113,-46.875
1626.465602827,-65.43,-32.227,-9.766,-0.488
1626.465602831,17.578,-24.414,-44.922,-0.977
1626.465602835,11.719000000000001,-35.645,-61.523,-38.086
1626.465602839,-83.008,-41.504,-30.761999999999997,-58.593999999999994
1626.465602843,-60.059,-35.645,0.977,-13.184000000000001
1626.4656028470001,23.438000000000002,-35.645,-23.438000000000002,-3.906
1626.465602851,32.227,-35.156,-59.57,-44.922
1626.4656028539998,-63.477,-40.039,-37.598,-68.359
1626.4656028579998,-91.79700000000001,-38.574,-3.418,-37.109
1626.4656028620002,-29.296999999999997,-39.551,-22.949,-15.137
1626.4656028660002,18.066,-49.316,-54.199,-42.48
1626.4656028699999,-49.316,-58.105,-55.176,-72.266
1626.4656028720003,-110.84,-50.781000000000006,-11.23,-44.434
1626.4656028760003,-43.457,-39.062,-8.301,-9.277000000000001
1626.46560288,22.461,-42.48,-53.223,-30.761999999999997
1626.4656028839997,-13.184000000000001,-46.875,-64.941,-62.988
1626.4656028879997,-104.00399999999999,-39.062,-27.831999999999997,-62.5
1626.465602892,-64.941,-26.855,-8.301,-15.137
1626.465602896,4.395,-33.691,-41.504,-13.184000000000001
1626.465602899,-4.883,-55.176,-60.547,-55.176
1626.465602903,-104.98,-56.152,-27.831999999999997,-70.801
1626.4656029070002,-97.16799999999999,-42.968999999999994,1.953,-12.207
1626.465602911,-11.719000000000001,-36.133,-22.949,3.418
1626.4656029149999,17.09,-41.016000000000005,-55.176,-41.016000000000005
1626.465602918,-60.547,-37.109,-40.527,-68.848
1626.4656029220002,-94.238,-37.109,-5.859,-36.133
1626.4656029260002,-21.484,-41.992,-19.043,-8.301
1626.4656029300002,29.785,-43.945,-55.176,-38.086
1626.4656029340001,-41.504,-51.27,-55.176,-73.242
1626.465602938,-113.77,-46.387,-14.648,-62.988
1626.4656029420003,-54.199,-41.992,-17.578,-21.484
1626.465602945,26.855,-38.574,-49.316,-18.555
1626.465602949,7.812,-38.086,-54.688,-51.27
1626.465602953,-95.70299999999999,-46.875,-19.531,-59.082
1626.465602957,-75.195,-48.828,-6.348,-11.23
1626.465602961,-6.348,-51.758,-40.527,-5.859
1626.4656029770003,7.324,-44.434,-52.246,-35.645
1626.4656029809998,-82.031,-37.598,-28.32,-58.105
1626.4656029849998,-90.82,-31.738000000000003,-2.93,-26.366999999999997
1626.4656029889998,-27.831999999999997,-28.32,-20.02,-10.742
1626.4656029929997,15.137,-36.621,-41.504,-37.109
1626.4656029970001,-59.082,-47.363,-35.156,-59.082
1626.465603001,-108.887,-49.316,-1.953,-28.809
1626.465603004,-50.293,-46.875,-8.301,-1.953
1626.4656030079998,0.488,-47.852,-41.504,-26.855
1626.465603012,-41.992,-44.922,-42.48,-61.523
1626.465603016,-113.281,-41.992,-5.371,-49.316
1626.46560302,-62.988,-39.551,-9.277000000000001,-4.395
1626.465603022,9.277000000000001,-42.968999999999994,-46.875,-9.277000000000001
1626.465603026,-0.488,-38.574,-50.293,-41.504
1626.46560303,-92.773,-35.156,-18.555,-52.246
1626.465603034,-74.219,-40.527,-1.953,-12.207
1626.465603038,10.254000000000001,-34.18,-28.32,0.977
1626.465603042,32.715,-29.785,-50.293,-26.366999999999997
1626.465603046,-64.453,-35.645,-30.273000000000003,-50.293
1626.465603049,-74.707,-25.879,12.695,-11.23
1626.465603053,3.906,-24.414,-4.395,9.766
1626.4656030570002,32.227,-41.504,-45.41,-23.926
1626.4656030610001,-38.086,-34.668,-35.645,-51.758
1626.465603065,-76.66,-22.461,4.395,-16.602
1626.465603067,-19.531,-24.414,-1.953,24.901999999999997
1626.465603071,36.133,-27.344,-37.109,5.371
1626.465603075,-1.953,-27.831999999999997,-41.016000000000005,-35.156
1626.465603079,-79.59,-29.785,-2.93,-32.227
1626.465603083,-36.133,-30.273000000000003,0.977,8.301
1626.465603087,31.25,-26.855,-41.016000000000005,-3.418
1626.465603091,26.855,-28.32,-61.035,-34.668
1626.4656030939998,-67.383,-33.203,-25.879,-44.922
1626.4656030979997,-52.246,-34.18,-0.977,-8.301
1626.4656031020002,23.438000000000002,-37.109,-27.344,5.371
1626.465603106,41.016000000000005,-40.527,-54.199,-37.598
1626.4656031099998,-59.57,-44.922,-40.527,-78.125
1626.4656031120003,-80.566,-40.039,-3.906,-37.109
1626.4656031160002,-1.953,-29.296999999999997,-21.484,-1.953
1626.46560312,38.574,-28.32,-61.523,-31.738000000000003
1626.465603124,-25.391,-30.761999999999997,-59.57,-66.895
1626.4656031279999,-83.49600000000001,-35.645,-15.625,-46.875
1626.4656031320003,-21.484,-24.901999999999997,-16.113,-6.348
1626.4656031360003,41.992,-20.996,-52.733999999999995,-14.16
1626.465603139,9.277000000000001,-40.527,-58.593999999999994,-56.641000000000005
1626.465603143,-74.707,-41.016000000000005,-22.461,-62.988
1626.4656031470001,-41.992,-27.831999999999997,-13.672,-16.602
1626.465603151,35.156,-23.438000000000002,-49.805,-13.184000000000001
1626.465603155,26.855,-35.645,-60.059,-44.434
1626.465603158,-73.242,-38.086,-30.761999999999997,-57.129
1626.4656031620002,-60.547,-24.414,-4.395,-13.184000000000001
1626.4656031660002,12.695,-29.296999999999997,-24.901999999999997,1.953
1626.4656031700001,36.621,-29.296999999999997,-50.293,-17.578
1626.465603174,-41.992,-28.32,-38.086,-42.48
1626.465603178,-63.477,-24.414,-10.254000000000001,-19.043
1626.4656031820002,-9.766,-28.32,-26.366999999999997,9.766
1626.465603185,33.691,-40.039,-62.988,-19.531
1626.465603189,-19.531,-37.598,-52.733999999999995,-48.34
1626.4656031929999,-80.566,-22.949,-7.324,-17.09
1626.465603197,-19.531,-14.648,-9.277000000000001,14.16
1626.465603201,36.133,-18.555,-47.852,-15.137
1626.4656032020002,13.184000000000001,-20.508000000000003,-55.176,-47.852
1626.4656032060002,-70.801,-23.438000000000002,-19.043,-41.992
1626.46560321,-40.527,-19.043,-10.254000000000001,4.883
1626.4656032139999,29.785,-16.602,-45.41,0.977
1626.4656032179998,23.438000000000002,-23.926,-63.965,-39.551
1626.465603222,-73.73,-29.296999999999997,-36.621,-54.688
1626.465603226,-67.87100000000001,-30.273000000000003,-11.719000000000001,-6.836
1626.465603229,0.488,-38.086,-36.133,3.906
1626.465603233,23.926,-41.504,-62.5,-37.109
1626.4656032370003,-56.152,-40.039,-47.363,-67.87100000000001
1626.4656032410003,-80.078,-29.296999999999997,-8.301,-31.25
1626.4656032449998,-1.465,-20.02,-11.23,4.883
1626.4656032470002,38.086,-19.531,-49.805,-21.484
1626.4656032510002,-24.901999999999997,-36.621,-54.688,-60.059
1626.4656032550001,-82.031,-46.875,-6.348,-41.016000000000005
1626.4656032589999,-17.09,-32.715,0.0,13.672
1626.4656032629998,41.016000000000005,-27.831999999999997,-37.109,4.883
1626.4656032670002,14.16,-31.738000000000003,-45.898,-36.133
1626.4656032710002,-68.848,-33.203,-10.742,-41.504
1626.465603274,-33.691,-20.02,7.324,4.395
1626.465603278,35.156,-20.02,-32.227,1.953
1626.465603282,32.227,-33.691,-59.57,-40.039
1626.465603286,-61.523,-38.574,-41.016000000000005,-60.059
1626.46560329,-57.129,-36.133,-2.93,-19.043
1626.465603292,20.508000000000003,-26.366999999999997,-15.137,5.859
1626.465603296,48.34,-20.996,-50.781000000000006,-20.508000000000003
1626.4656032999999,-29.785,-28.809,-40.039,-49.316
1626.4656033039998,-76.172,-38.574,7.324,-16.602
1626.4656033079998,-12.207,-41.016000000000005,3.906,22.461
1626.465603312,37.598,-41.992,-34.668,-5.859
1626.465603316,-13.672,-45.898,-38.574,-43.457
1626.465603319,-80.566,-41.016000000000005,2.441,-30.761999999999997
1626.4656033229999,-22.461,-31.738000000000003,10.254000000000001,8.789
1626.465603327,36.621,-30.761999999999997,-29.785,-0.488
1626.465603331,5.371,-27.344,-51.27,-45.898
1626.465603335,-83.984,-24.901999999999997,-21.973000000000003,-58.105
1626.4656033520002,-57.129,-27.831999999999997,-2.93,-8.789
1626.465603356,17.578,-34.18,-28.809,-0.488
1626.46560336,28.32,-40.527,-48.828,-41.504
1626.465603364,-69.824,-41.504,-32.715,-64.453
1626.4656033679998,-75.195,-36.621,7.324,-24.901999999999997
1626.4656033720003,4.883,-33.203,-11.23,-4.883
1626.4656033760002,31.738000000000003,-34.18,-46.875,-33.691
1626.465603379,-49.316,-38.086,-40.039,-62.988
1626.465603383,-99.609,-37.109,-7.324,-39.551
1626.465603387,-29.296999999999997,-28.32,-11.23,-2.441
1626.465603391,24.414,-23.926,-48.34,-16.113
1626.465603395,-22.949,-36.133,-52.246,-56.152
1626.465603397,-97.656,-43.457,-4.395,-54.688
1626.465603401,-31.738000000000003,-32.715,10.254000000000001,6.836
1626.465603405,42.48,-31.25,-26.855,4.883
1626.4656034089999,14.16,-43.457,-50.781000000000006,-47.363
1626.4656034129998,-75.195,-41.504,-18.066,-50.781000000000006
1626.465603417,-43.945,-19.531,10.254000000000001,-1.465
1626.465603421,23.926,-19.531,-24.414,-3.418
1626.465603424,21.973000000000003,-23.926,-56.641000000000005,-42.968999999999994
1626.465603428,-67.383,-31.738000000000003,-45.898,-63.965
1626.465603432,-82.031,-38.086,-8.301,-29.296999999999997
1626.465603436,-0.488,-24.901999999999997,-20.02,5.371
1626.46560344,32.227,-36.133,-56.152,-24.414
1626.4656034420002,-36.133,-39.062,-46.387,-55.176
1626.4656034460002,-78.613,-27.831999999999997,0.0,-31.25
1626.4656034500001,-13.672,-21.973000000000003,-3.418,9.766
1626.465603454,32.227,-19.531,-43.457,-0.977
1626.465603458,-15.137,-31.25,-49.805,-44.922
1626.4656034620002,-84.473,-36.621,-8.301,-35.645
1626.4656034660002,-38.086,-39.551,2.441,8.789
1626.465603469,17.09,-45.41,-36.133,-0.488
1626.4656034729999,2.93,-44.922,-61.523,-40.527
1626.4656034770003,-76.66,-44.922,-30.273000000000003,-48.34
1626.465603481,-62.5,-37.109,7.812,-4.395
1626.465603485,-4.395,-36.621,-18.066,1.465
1626.4656034870002,20.508000000000003,-39.551,-50.781000000000006,-36.621
1626.4656034910001,-72.266,-41.992,-36.133,-81.055
1626.4656034949999,-103.027,-40.527,4.883,-41.504
1626.4656034989998,-20.02,-35.645,-6.348,3.906
1626.4656035029998,9.766,-38.574,-47.852,-29.785
1626.4656035070002,-48.828,-40.527,-45.41,-62.988
1626.4656035110002,-97.656,-37.109,-3.906,-43.945
1626.465603514,-40.039,-33.691,-7.812,-7.324
1626.4656035179999,12.695,-44.922,-49.805,-26.855
1626.465603522,-20.02,-48.828,-60.059,-64.453
1626.465603526,-96.68,-32.227,-14.648,-57.617
1626.46560353,-57.129,-24.901999999999997,2.441,-8.301
1626.4656035320002,14.16,-33.691,-38.086,-9.277000000000001
1626.4656035360001,2.441,-43.945,-63.477,-52.733999999999995
1626.46560354,-95.70299999999999,-51.27,-31.25,-83.49600000000001
1626.4656035439998,-86.426,-41.016000000000005,0.0,-40.039
1626.4656035479998,-14.648,-33.203,-20.02,-12.695
1626.465603552,7.324,-35.156,-48.34,-42.48
1626.465603556,-70.312,-36.621,-49.316,-72.266
1626.465603559,-112.305,-44.434,-17.09,-45.41
1626.465603563,-32.715,-42.968999999999994,-27.344,-12.695
1626.4656035670002,22.461,-38.086,-64.941,-35.645
1626.4656035710002,-38.086,-45.898,-63.965,-68.848
1626.4656035750002,-110.352,-48.828,-25.879,-55.176
1626.4656035770001,-42.968999999999994,-35.156,-10.742,0.0
1626.465603581,22.949,-31.738000000000003,-39.062,-7.812
1626.465603585,-0.977,-41.992,-50.293,-47.363
1626.465603589,-85.93799999999999,-54.199,-21.484,-64.941
1626.465603593,-55.176,-47.852,-6.348,-25.391
1626.4656035970002,22.949,-22.949,-30.761999999999997,-9.277000000000001
1626.465603601,22.949,-26.855,-53.223,-40.527
1626.4656036039999,-73.242,-43.945,-42.48,-67.87100000000001
1626.4656036079998,-84.473,-42.48,-20.02,-41.992
1626.4656036120002,-17.578,-35.645,-40.039,-24.901999999999997
1626.4656036160002,12.695,-28.809,-62.988,-50.781000000000006
1626.46560362,-66.895,-27.344,-38.574,-76.172
1626.4656036229999,-117.18799999999999,-22.461,10.742,-58.593999999999994
1626.465603627,-57.129,-19.531,0.0,-28.809
1626.465603631,-16.602,-22.949,-39.062,-52.246
1626.465603635,-82.031,-28.809,-32.715,-103.027
1626.465603639,-157.227,-26.366999999999997,15.625,-99.12100000000001
1626.465603643,-113.281,-24.414,24.414,-59.082
1626.465603647,-63.965,-33.203,-16.113,-77.148
1626.46560365,-85.93799999999999,-42.968999999999994,-33.691,-120.605
1626.465603654,-169.43400000000003,-35.645,-2.441,-126.95299999999999
1626.465603658,-141.602,-26.366999999999997,24.414,-71.289
1626.4656036620001,-61.523,-27.831999999999997,-11.23,-61.523
1626.465603666,-55.663999999999994,-40.039,-47.363,-102.051
1626.465603667,-132.32399999999998,-41.016000000000005,-18.066,-116.699
1626.465603671,-132.812,-39.062,7.812,-72.266
1626.465603675,-55.176,-41.992,-20.02,-39.551
1626.465603679,-2.93,-35.156,-48.828,-54.688
1626.465603683,-57.129,-33.203,-38.574,-74.707
1626.465603687,-109.863,-32.227,-1.953,-52.246
1626.465603691,-43.945,-33.691,-9.277000000000001,-10.254000000000001
1626.465603694,20.02,-30.273000000000003,-35.645,-19.043
1626.465603698,-22.949,-35.645,-39.551,-50.293
1626.4656037020002,-99.12100000000001,-44.434,-8.301,-40.527
1626.4656037060001,-42.48,-41.504,0.488,14.16
1626.46560371,22.949,-41.016000000000005,-37.598,1.953
1626.4656037270001,8.301,-47.363,-60.547,-47.852
1626.4656037309999,-72.266,-55.176,-27.831999999999997,-50.781000000000006
1626.4656037349998,-52.246,-48.34,3.906,3.418
1626.4656037389998,19.043,-41.504,-22.949,22.461
1626.4656037429997,31.738000000000003,-51.27,-51.27,-19.531
1626.4656037470002,-46.875,-52.733999999999995,-36.621,-51.758
1626.4656037510001,-64.453,-47.852,-9.277000000000001,-12.695
1626.4656037539999,12.207,-41.016000000000005,-18.555,26.855
1626.4656037579998,50.781000000000006,-42.48,-55.663999999999994,-5.371
1626.465603762,-18.066,-58.105,-57.129,-48.828
1626.465603766,-78.613,-46.875,-9.766,-25.879
1626.46560377,-21.484,-40.527,-2.93,21.973000000000003
1626.4656037720001,42.48,-40.527,-46.387,7.812
1626.465603776,11.719000000000001,-42.48,-60.547,-31.738000000000003
1626.46560378,-71.289,-49.316,-24.901999999999997,-26.855
1626.465603784,-34.18,-40.527,-12.695,11.23
1626.465603788,35.645,-30.761999999999997,-38.574,8.789
1626.4656037920001,42.968999999999994,-28.32,-61.035,-21.973000000000003
1626.465603796,-48.34,-41.016000000000005,-49.316,-41.992
1626.465603799,-40.039,-40.527,-13.184000000000001,9.766
1626.465603803,45.898,-33.203,-35.156,31.25
1626.4656038070002,53.711000000000006,-40.527,-71.289,-11.719000000000001
1626.4656038110002,-15.137,-39.062,-48.34,-32.715
1626.4656038150001,-36.133,-35.156,-11.23,-0.488
1626.465603817,16.113,-32.227,-22.461,33.691
1626.465603821,54.688,-34.18,-54.688,14.16
1626.465603825,1.465,-43.457,-54.688,-28.809
1626.465603829,-55.176,-41.992,-13.184000000000001,-16.113
1626.465603833,1.465,-33.203,-6.348,31.25
1626.4656038370001,51.758,-34.18,-49.316,25.879
1626.465603841,20.996,-43.945,-64.941,-19.043
1626.4656038439998,-61.035,-43.945,-24.901999999999997,-22.949
1626.4656038479998,-26.366999999999997,-37.598,-1.465,27.831999999999997
1626.4656038520002,39.551,-37.109,-39.062,20.996
1626.465603856,43.457,-35.645,-61.523,-16.113
1626.4656038599999,-34.18,-34.18,-28.809,-29.296999999999997
1626.4656038629998,-35.156,-25.879,10.254000000000001,15.625
1626.465603867,28.32,-26.366999999999997,-19.043,29.296999999999997
1626.465603871,44.434,-35.645,-63.965,-9.277000000000001
1626.465603875,-30.761999999999997,-46.387,-52.246,-37.598
1626.465603879,-53.223,-39.551,-11.719000000000001,-0.977
1626.4656038829999,25.879,-16.602,-15.625,35.645
1626.465603887,67.87100000000001,-17.09,-56.641000000000005,-5.371
1626.46560389,8.789,-18.555,-59.57,-52.733999999999995
1626.465603894,-69.824,-18.066,-24.414,-46.387
1626.4656038979997,-20.02,-16.113,-22.461,7.812
1626.465603902,45.898,-17.09,-57.617,6.836
1626.465603906,23.438000000000002,-25.391,-76.172,-38.086
1626.465603907,-59.57,-23.438000000000002,-43.945,-46.875
1626.465603911,-26.366999999999997,-16.602,-12.695,9.766
1626.465603915,46.875,-17.09,-37.109,29.296999999999997
1626.465603919,48.34,-26.366999999999997,-63.477,-4.395
1626.465603923,-36.621,-23.926,-42.968999999999994,-25.879
1626.465603927,-52.246,-17.578,-8.301,1.465
1626.465603931,10.742,-27.831999999999997,-36.133,8.789
1626.465603934,29.785,-41.992,-70.312,-26.855
1626.465603938,-44.434,-37.109,-55.663999999999994,-56.152
1626.4656039420001,-79.102,-30.273000000000003,-16.113,-27.344
1626.465603946,-16.113,-39.062,-16.602,11.23
1626.46560395,38.086,-35.156,-52.246,-8.301
1626.465603952,0.0,-29.296999999999997,-62.5,-46.875
1626.465603956,-80.566,-30.761999999999997,-31.25,-53.711000000000006
1626.46560396,-34.668,-24.901999999999997,-23.926,-16.602
1626.465603964,40.039,-15.625,-57.129,-9.766
1626.4656039679999,22.461,-23.926,-70.801,-48.828
1626.465603972,-74.707,-31.738000000000003,-36.621,-68.359
1626.465603976,-69.824,-31.738000000000003,-20.996,-26.366999999999997
1626.4656039789998,-6.348,-32.715,-45.898,-15.625
1626.4656039829997,25.391,-25.391,-65.918,-44.434
1626.4656039870001,-55.176,-28.809,-49.805,-57.129
1626.465603991,-77.148,-34.668,-10.742,-18.555
1626.4656039949998,4.883,-29.296999999999997,-28.32,8.789
1626.4656039970002,46.875,-25.879,-57.617,-12.207
1626.4656040010002,-18.066,-36.621,-49.316,-45.41
1626.4656040050002,-68.848,-32.715,-3.906,-22.461
1626.465604009,-5.371,-27.344,-4.883,13.672
1626.4656040129998,45.41,-31.25,-44.922,-4.395
1626.4656040170003,1.465,-33.691,-51.27,-45.41
1626.4656040210002,-84.473,-35.645,-22.461,-54.688
1626.465604024,-43.945,-21.484,-5.371,-2.93
1626.465604028,22.461,-15.625,-32.715,0.488
1626.465604032,12.207,-34.668,-54.199,-38.574
1626.465604036,-68.848,-36.621,-27.344,-42.48
1626.46560404,-60.059,-34.668,0.977,0.0
1626.465604043,4.395,-39.551,-15.625,10.742
1626.4656040470002,23.926,-38.086,-44.922,-20.996
1626.4656040510001,-54.688,-39.062,-34.668,-52.246
1626.465604055,-79.102,-39.551,2.93,-15.137
1626.465604059,-1.953,-31.738000000000003,-9.277000000000001,19.531
1626.465604063,42.968999999999994,-34.18,-48.34,-11.719000000000001
1626.4656040670002,-31.25,-47.363,-60.547,-57.129
1626.46560407,-95.215,-39.551,-18.066,-37.109
1626.4656040739999,-24.901999999999997,-26.366999999999997,-2.93,21.973000000000003
1626.4656040779998,30.761999999999997,-37.598,-44.922,1.953
1626.465604082,-1.465,-41.992,-58.593999999999994,-48.34
1626.465604086,-86.914,-27.831999999999997,-18.066,-51.27
1626.465604105,-53.223,-24.414,2.441,0.488
1626.465604109,18.066,-27.344,-27.831999999999997,7.812
1626.465604113,19.043,-25.879,-57.129,-36.133
1626.465604117,-81.055,-43.457,-40.527,-69.336
1626.465604121,-79.102,-29.785,-6.836,-32.227
1626.465604125,17.578,-9.277000000000001,-21.973000000000003,-3.418
1626.465604129,30.761999999999997,-33.203,-58.593999999999994,-38.574
1626.4656041320002,-55.663999999999994,-34.18,-47.363,-74.707
1626.4656041360001,-80.566,-24.414,-6.348,-35.645
1626.46560414,-20.02,-36.621,-27.831999999999997,-5.371
1626.465604144,14.16,-38.086,-67.383,-40.039
1626.4656041479998,-33.691,-36.621,-59.082,-65.43
1626.465604147,-107.42200000000001,-44.922,-17.578,-51.27
1626.465604151,-59.082,-39.062,-15.625,-12.695
1626.465604155,15.137,-33.691,-52.246,-22.949
1626.465604159,4.883,-38.086,-60.059,-56.641000000000005
1626.4656041629999,-75.195,-34.668,-22.949,-59.57
1626.465604167,-51.758,-26.366999999999997,0.0,-7.812
1626.465604171,18.066,-31.738000000000003,-32.715,10.254000000000001
1626.465604174,19.043,-37.598,-59.57,-32.715
1626.465604178,-75.195,-45.898,-46.387,-67.383
1626.465604182,-79.102,-49.805,-16.113,-23.926
1626.465604186,3.418,-36.621,-31.25,5.859
1626.46560419,38.086,-34.18,-56.641000000000005,-24.414
1626.4656041920002,-27.831999999999997,-37.598,-41.016000000000005,-50.293
1626.4656041960002,-80.078,-34.668,-11.23,-27.344
1626.4656042000001,-17.578,-26.855,-12.695,15.137
1626.465604204,41.992,-30.273000000000003,-42.968999999999994,-0.488
1626.4656042079998,-0.977,-38.086,-50.293,-44.922
1626.4656042120002,-70.312,-31.25,-11.23,-31.25
1626.465604216,-28.32,-38.086,-2.441,12.695
1626.465604219,30.761999999999997,-40.527,-41.016000000000005,-2.93
1626.465604223,12.695,-40.039,-62.012,-49.805
1626.4656042270003,-84.473,-41.016000000000005,-27.831999999999997,-63.965
1626.465604231,-71.289,-34.18,3.906,-6.836
1626.465604235,3.418,-34.668,-29.785,3.418
1626.4656042370002,24.901999999999997,-31.738000000000003,-55.176,-36.621
1626.4656042410002,-72.266,-36.133,-43.945,-61.523
1626.465604245,-96.68,-34.668,-8.789,-23.438000000000002
1626.4656042489999,-15.137,-30.761999999999997,-11.719000000000001,5.371
1626.4656042529998,22.461,-32.715,-46.875,-21.973000000000003
1626.4656042570002,-28.809,-28.32,-36.621,-51.27
1626.4656042610002,-84.473,-24.414,7.812,-36.621
1626.465604264,-26.366999999999997,-23.926,0.0,0.977
1626.4656042679999,29.785,-39.551,-51.758,-16.602
1626.465604272,-6.836,-43.945,-61.035,-58.593999999999994
1626.465604276,-87.891,-39.062,-12.207,-56.641000000000005
1626.46560428,-53.711000000000006,-41.016000000000005,-0.488,-9.277000000000001
1626.465604282,20.996,-34.18,-35.156,-0.488
1626.465604286,8.301,-38.086,-51.758,-35.645
1626.4656042899999,-88.37899999999999,-43.945,-24.901999999999997,-63.477
1626.4656042939998,-76.172,-34.18,3.906,-20.508000000000003
1626.4656042979998,-1.953,-29.785,-16.602,-1.465
1626.465604302,21.973000000000003,-36.621,-45.41,-38.574
1626.465604306,-68.848,-41.504,-39.551,-67.87100000000001
1626.4656043090001,-108.398,-40.039,-9.766,-40.039
1626.4656043129999,-26.366999999999997,-29.785,-13.184000000000001,-1.953
1626.465604317,26.366999999999997,-30.273000000000003,-43.457,-17.578
1626.465604321,-34.18,-41.504,-49.805,-57.617
1626.465604325,-101.074,-47.852,-12.207,-54.688
1626.465604329,-40.039,-39.062,-7.812,-7.324
1626.4656043329999,31.25,-23.438000000000002,-39.062,-4.883
1626.465604337,7.324,-24.901999999999997,-54.199,-42.48
1626.465604341,-78.613,-27.344,-19.531,-44.922
1626.465604345,-29.785,-16.113,8.301,14.648
1626.465604349,49.805,-9.277000000000001,-28.32,22.949
1626.465604353,38.574,-24.414,-60.059,-30.761999999999997
1626.4656043559999,-56.641000000000005,-32.715,-34.668,-56.152
1626.4656043599998,-49.316,-27.344,0.977,-1.953
1626.4656043639998,20.508000000000003,-27.831999999999997,-10.742,23.438000000000002
1626.4656043679997,37.109,-28.809,-40.039,-16.113
1626.4656043720001,-39.551,-30.761999999999997,-40.039,-53.711000000000006
1626.4656043720001,-69.824,-24.901999999999997,-2.441,-19.531
1626.465604376,-7.324,-28.809,-7.324,12.695
1626.46560438,35.645,-38.574,-54.199,-20.508000000000003
1626.4656043839998,-15.625,-34.668,-56.641000000000005,-60.547
1626.4656043879997,-83.008,-29.296999999999997,-5.371,-35.645
1626.4656043920002,-24.414,-23.438000000000002,-0.977,17.578
1626.4656043960001,29.785,-34.18,-41.016000000000005,-0.977
1626.4656043989999,-1.465,-44.922,-55.176,-45.41
1626.4656044029998,-75.195,-36.621,-19.043,-39.062
1626.465604407,-41.992,-34.18,4.883,11.23
1626.465604411,34.18,-35.156,-28.809,12.207
1626.465604415,31.738000000000003,-45.41,-50.781000000000006,-25.391
1626.4656044170001,-73.73,-46.387,-28.32,-52.733999999999995
1626.465604421,-74.219,-27.344,-3.418,-4.883
1626.465604425,25.391,-19.531,-19.043,33.691
1626.465604429,39.062,-30.761999999999997,-47.363,-18.066
1626.465604433,-66.406,-40.039,-36.621,-69.336
1626.4656044370001,-116.211,-41.016000000000005,6.836,-48.828
1626.465604441,-59.082,-42.968999999999994,-12.207,-29.296999999999997
1626.465604444,-12.695,-56.152,-53.711000000000006,-58.593999999999994
1626.465604448,-71.777,-64.941,-48.828,-104.00399999999999
1626.4656044520002,-150.391,-56.152,-11.23,-99.12100000000001
1626.4656044560002,-109.863,-53.223,0.0,-56.641000000000005
1626.4656044600001,-49.316,-51.758,-36.133,-60.059
1626.4656044770002,-40.039,-43.945,-51.758,-84.961
1626.465604481,-118.652,-47.363,-22.949,-93.262
1626.4656044849999,-103.027,-52.246,-6.348,-45.41
1626.4656044889998,-27.831999999999997,-52.246,-35.645,-34.668
1626.4656044929998,-12.695,-51.27,-65.43,-75.684
1626.4656044970002,-83.49600000000001,-45.41,-44.434,-99.12100000000001
1626.4656045010001,-92.285,-40.039,-8.789,-49.805
1626.4656045039999,-39.062,-49.805,-32.227,-20.508000000000003
1626.4656045079998,5.859,-52.733999999999995,-59.57,-43.945
1626.465604512,-49.316,-46.387,-45.898,-77.148
1626.465604516,-98.145,-40.039,-12.207,-55.663999999999994
1626.46560452,-41.504,-37.598,-19.531,-10.742
1626.4656045220001,13.672,-37.598,-48.828,-30.273000000000003
1626.465604526,-12.207,-42.968999999999994,-54.199,-76.66
1626.46560453,-102.051,-43.457,-25.391,-71.289
1626.465604534,-69.824,-41.992,-18.066,-23.438000000000002
1626.465604538,1.953,-43.945,-47.852,-31.738000000000003
1626.4656045420002,-0.488,-35.645,-57.617,-73.242
1626.465604546,-91.309,-38.086,-31.738000000000003,-86.914
1626.465604549,-79.102,-33.203,-3.418,-35.645
1626.465604553,0.0,-30.761999999999997,-33.203,-14.648
1626.4656045570002,11.719000000000001,-45.898,-74.707,-52.246
1626.4656045610002,-62.988,-40.039,-48.34,-74.707
1626.4656045650001,-87.402,-27.831999999999997,-4.395,-38.574
1626.465604568,-18.555,-29.785,-13.184000000000001,-11.23
1626.465604572,36.133,-31.738000000000003,-38.574,-34.18
1626.465604576,-30.273000000000003,-38.086,-51.27,-68.848
1626.46560458,-105.95700000000001,-47.363,-21.484,-62.012
1626.465604584,-49.805,-37.109,-16.113,-19.043
1626.465604588,19.043,-27.344,-49.316,-27.831999999999997
1626.465604592,-2.441,-32.715,-63.965,-66.406
1626.465604595,-103.027,-47.363,-30.761999999999997,-74.707
1626.465604599,-70.312,-51.27,-12.207,-30.273000000000003
1626.465604603,11.23,-36.133,-39.062,-25.391
1626.4656046070002,11.23,-25.879,-56.152,-58.593999999999994
1626.4656046110001,-87.891,-29.296999999999997,-31.25,-75.195
1626.4656046120003,-91.309,-33.203,-3.906,-41.016000000000005
1626.465604616,-11.23,-39.551,-31.25,-33.203
1626.4656046199998,11.23,-49.805,-69.824,-67.383
1626.4656046239998,-71.777,-52.733999999999995,-52.733999999999995,-86.914
1626.4656046279997,-102.539,-44.434,-4.883,-58.105
1626.4656046320001,-29.785,-40.527,-15.625,-26.366999999999997
1626.465604636,9.277000000000001,-44.434,-59.082,-44.434
1626.465604639,-42.968999999999994,-42.968999999999994,-62.012,-77.637
1626.4656046429998,-106.445,-52.733999999999995,-23.926,-57.617
1626.465604647,-56.641000000000005,-51.758,-18.555,-8.301
1626.465604651,11.23,-40.039,-43.457,-11.719000000000001
1626.4656046549999,-4.395,-40.527,-54.688,-43.945
1626.4656046720002,-88.37899999999999,-30.761999999999997,-20.996,-43.945
1626.465604676,-53.223,-26.366999999999997,3.418,17.09
1626.46560468,18.066,-37.598,-36.133,19.043
1626.465604684,16.602,-43.457,-64.453,-34.668
1626.465604688,-69.336,-43.457,-38.574,-58.593999999999994
1626.4656046920002,-67.87100000000001,-32.715,6.348,-13.184000000000001
1626.4656046960001,3.906,-26.366999999999997,-14.16,15.625
1626.4656046989999,20.02,-50.781000000000006,-67.383,-21.973000000000003
1626.4656047029998,-58.105,-62.012,-63.965,-56.152
1626.465604707,-83.49600000000001,-38.574,-8.301,-20.996
1626.465604711,-5.859,-22.461,-14.648,18.066
1626.465604715,39.062,-28.809,-62.988,-7.324
1626.465604702,-6.836,-30.273000000000003,-58.593999999999994,-51.758
1626.465604706,-67.87100000000001,-31.25,-15.625,-48.34
1626.46560471,-15.625,-38.574,-12.695,2.93
1626.465604714,32.227,-36.133,-57.129,-13.672
1626.465604718,-1.465,-40.039,-67.87100000000001,-63.965
1626.465604722,-82.031,-41.992,-21.484,-54.199
1626.465604726,-47.363,-29.785,6.348,6.836
1626.4656047289998,18.555,-28.809,-24.901999999999997,8.789
1626.4656047329997,13.184000000000001,-43.457,-51.758,-34.18
1626.4656047370001,-69.336,-52.733999999999995,-31.738000000000003,-51.27
1626.465604741,-73.73,-41.504,-4.883,-9.766
1626.4656047449998,-7.812,-36.133,-25.391,8.301
1626.4656047470003,18.066,-40.527,-52.733999999999995,-21.484
1626.4656047510002,-44.922,-42.48,-37.109,-50.781000000000006
1626.4656047550002,-89.355,-38.574,0.488,-34.18
1626.465604759,-11.719000000000001,-31.738000000000003,-15.625,2.93
1626.4656047629999,42.968999999999994,-31.25,-56.152,-23.438000000000002
1626.4656047670003,-14.16,-33.691,-59.57,-66.406
1626.4656047710002,-86.914,-36.133,-19.043,-54.688
1626.465604774,-26.366999999999997,-26.366999999999997,-2.441,1.465
1626.465604778,39.062,-22.461,-42.968999999999994,-0.488
1626.4656047820001,12.207,-27.344,-59.082,-42.968999999999994
1626.465604786,-75.684,-34.668,-31.738000000000003,-48.34
1626.46560479,-51.758,-35.156,-14.648,0.977
1626.465604794,15.137,-33.691,-38.574,11.719000000000001
1626.465604798,16.113,-42.48,-62.988,-39.062
1626.4656048020001,-76.66,-43.457,-46.875,-74.219
1626.465604806,-85.93799999999999,-34.668,-13.672,-28.809
1626.4656048099998,-10.254000000000001,-31.738000000000003,-30.761999999999997,1.465
1626.4656048139998,24.901999999999997,-32.715,-63.477,-32.227
1626.4656048179997,-40.039,-46.875,-60.547,-74.707
1626.4656048210002,-101.56200000000001,-50.293,-12.695,-55.663999999999994
1626.4656048250001,-40.039,-38.574,-4.883,-9.277000000000001
1626.465604829,1.465,-45.898,-50.781000000000006,-35.156
1626.465604833,-41.504,-53.711000000000006,-62.988,-72.266
1626.4656048370002,-104.00399999999999,-39.062,-22.461,-57.617
1626.4656048520003,-44.922,-21.484,-3.418,1.953
1626.465604856,16.602,-29.296999999999997,-37.109,11.23
1626.46560486,-7.812,-46.387,-62.5,-37.109
1626.465604864,-93.75,-43.457,-29.296999999999997,-48.828
1626.465604868,-67.87100000000001,-25.391,7.812,0.977
1626.4656048720003,11.719000000000001,-25.879,-28.32,6.348
1626.4656048760003,9.277000000000001,-37.598,-77.637,-33.691
1626.465604879,-71.289,-35.645,-49.805,-58.105
1626.465604883,-79.59,-34.18,-4.395,-25.391
1626.4656048870002,-7.812,-33.203,-19.531,10.254000000000001
1626.465604891,22.461,-31.25,-62.012,-12.207
1626.465604895,-39.551,-39.551,-61.523,-61.035
1626.465604897,-96.68,-37.109,-7.812,-49.316
1626.465604901,-30.761999999999997,-25.391,-4.883,0.977
1626.465604905,21.973000000000003,-20.996,-47.852,-21.484
1626.465604909,-23.926,-29.296999999999997,-60.547,-70.801
1626.4656049129999,-100.586,-44.922,-26.855,-72.75399999999999
1626.465604917,-57.617,-34.668,-7.324,-22.461
1626.465604921,4.395,-28.809,-45.41,-14.16
1626.465604924,3.906,-35.156,-66.406,-45.41
1626.465604928,-81.543,-39.062,-33.203,-62.988
1626.4656049320001,-83.49600000000001,-37.598,-2.441,-25.879
1626.465604936,-11.719000000000001,-34.668,-29.785,-8.789
1626.46560494,2.93,-45.898,-69.824,-40.039
1626.4656049420003,-70.312,-46.387,-51.758,-64.941
1626.4656049460002,-91.79700000000001,-39.062,-8.301,-34.18
1626.46560495,-20.996,-40.039,-19.531,0.488
1626.465604954,19.043,-35.645,-53.223,-21.484
1626.4656049579999,-33.691,-35.156,-54.199,-63.965
1626.465604962,-88.37899999999999,-29.785,-16.602,-47.363
1626.465604966,-32.715,-27.344,-7.812,1.465
1626.465604969,18.066,-33.691,-52.733999999999995,-10.742
1626.4656049729997,-22.949,-37.598,-74.707,-56.641000000000005
1626.4656049770003,-106.445,-34.668,-31.25,-67.87100000000001
1626.4656049809998,-50.293,-24.901999999999997,-3.418,-15.137
1626.4656049849998,29.296999999999997,-19.043,-32.715,0.977
1626.4656049870002,27.831999999999997,-25.391,-66.406,-43.457
1626.4656049910002,-55.663999999999994,-29.296999999999997,-40.527,-71.289
1626.465604995,-59.082,-20.996,2.441,-25.879
1626.4656049989999,17.09,-25.879,-19.531,7.324
1626.4656050029998,44.434,-30.273000000000003,-54.199,-28.809
1626.4656050070002,-33.203,-29.296999999999997,-40.527,-67.383
1626.4656050110002,-71.289,-20.996,0.977,-32.715
1626.465605014,-8.789,-14.16,-6.836,5.371
1626.465605018,20.508000000000003,-37.598,-54.688,-15.137
1626.465605022,-25.879,-49.316,-58.105,-47.363
1626.465605026,-87.402,-41.992,-10.254000000000001,-35.156
1626.46560503,-30.761999999999997,-30.273000000000003,4.395,14.16
1626.465605034,23.926,-27.344,-35.645,11.719000000000001
1626.465605038,-1.465,-38.574,-59.082,-34.668
1626.465605042,-88.867,-36.133,-27.831999999999997,-56.641000000000005
1626.465605046,-70.312,-23.926,2.93,-7.324
1626.46560505,14.16,-21.484,-21.973000000000003,13.184000000000001
1626.465605054,20.996,-34.668,-55.663999999999994,-30.761999999999997
1626.465605058,-60.547,-33.691,-27.831999999999997,-58.593999999999994
1626.4656050610001,-75.195,-33.691,0.0,-32.227
1626.465605065,-0.977,-27.831999999999997,-25.391,-13.672
1626.465605069,41.992,-15.137,-60.547,-41.504
1626.465605073,-31.25,-27.344,-60.059,-72.75399999999999
1626.4656050770002,-77.148,-22.949,-8.301,-41.016000000000005
1626.4656050770002,-8.301,-10.742,-5.371,8.789
1626.4656050810001,39.062,-29.296999999999997,-49.805,-9.277000000000001
1626.465605085,-7.324,-40.527,-59.082,-51.27
1626.465605089,-83.008,-39.062,-19.531,-41.992
1626.465605093,-28.809,-29.296999999999997,-0.488,14.648
1626.4656050970002,49.805,-28.809,-40.039,10.742
1626.4656051010002,29.785,-42.968999999999994,-67.383,-41.992
1626.465605104,-84.961,-51.27,-33.203,-59.57
1626.4656051079999,-57.129,-32.715,0.488,4.395
1626.4656051120003,14.648,-30.761999999999997,-27.831999999999997,14.16
1626.4656051160002,15.137,-39.062,-64.941,-35.156
1626.46560512,-58.105,-33.691,-52.733999999999995,-64.941
1626.4656051220002,-74.707,-35.645,-13.672,-27.831999999999997
1626.4656051260001,-13.184000000000001,-35.645,-24.414,6.836
1626.46560513,26.855,-31.25,-53.711000000000006,-23.438000000000002
1626.4656051339998,-24.414,-37.109,-44.922,-61.523
1626.4656051379998,-78.613,-29.785,0.977,-37.109
1626.4656051420002,-18.555,-17.578,0.488,7.324
1626.4656051460001,31.25,-28.809,-47.363,-7.324
1626.4656051489999,1.953,-34.18,-53.223,-47.363
1626.4656051529998,-71.777,-32.715,-10.254000000000001,-51.758
1626.465605157,-38.574,-36.133,6.348,3.906
1626.465605161,28.809,-30.273000000000003,-25.879,15.137
1626.465605165,21.484,-28.32,-46.875,-23.926
1626.4656051670001,-76.172,-34.668,-25.391,-54.199
1626.465605171,-63.965,-31.738000000000003,5.371,-13.184000000000001
1626.465605175,13.184000000000001,-32.227,-15.137,13.184000000000001
1626.4656051789998,24.901999999999997,-39.551,-51.758,-25.391
1626.4656051829998,-55.176,-43.457,-39.062,-65.918
1626.465605187,-90.33200000000001,-39.551,3.906,-32.715
1626.465605191,-20.508000000000003,-43.457,-9.766,6.348
1626.465605194,29.296999999999997,-42.968999999999994,-45.41,-20.508000000000003
1626.465605198,-18.555,-32.227,-44.922,-54.199
1626.4656052020002,-83.984,-37.109,-9.766,-31.738000000000003
1626.4656052060002,-22.461,-29.785,7.324,20.02
1626.4656052100001,38.574,-29.785,-35.156,5.859
1626.4656052270002,4.883,-40.527,-57.617,-37.598
1626.465605231,-77.637,-28.809,-14.648,-45.41
1626.4656052349999,-48.828,-29.296999999999997,-1.465,-1.953
1626.4656052389998,17.09,-37.109,-32.715,1.953
1626.4656052429998,25.879,-30.761999999999997,-52.246,-33.203
1626.4656052470002,-52.733999999999995,-28.809,-29.785,-54.688
1626.4656052510002,-55.663999999999994,-25.391,6.836,-12.207
1626.465605254,14.648,-29.296999999999997,-7.812,17.09
1626.4656052579999,39.062,-40.527,-45.41,-15.137
1626.465605262,-33.203,-45.898,-45.898,-51.758
1626.465605266,-73.242,-33.691,1.953,-28.32
1626.46560527,-14.648,-22.461,-3.418,14.16
1626.4656052729997,34.668,-32.227,-47.363,-2.93
1626.4656052770001,-7.812,-32.715,-48.34,-47.852
1626.465605281,-99.609,-31.25,-10.254000000000001,-45.898
1626.465605285,-53.223,-35.156,2.93,4.883
1626.465605289,20.02,-32.227,-27.831999999999997,5.859
1626.465605293,11.23,-31.25,-42.968999999999994,-35.645
1626.4656052970001,-70.801,-24.414,-13.184000000000001,-49.805
1626.4656052999999,-48.34,-20.02,11.23,0.977
1626.4656053039998,20.02,-38.086,-24.901999999999997,10.742
1626.4656053079998,20.508000000000003,-42.48,-64.453,-33.691
1626.465605312,-59.082,-30.761999999999997,-33.691,-55.176
1626.465605316,-68.848,-31.738000000000003,9.277000000000001,-14.648
1626.4656053170002,6.348,-30.761999999999997,-6.836,14.16
1626.465605321,31.25,-32.227,-42.48,-18.066
1626.465605325,-28.809,-37.598,-39.062,-51.27
1626.465605329,-68.848,-34.18,0.488,-24.901999999999997
1626.465605333,-8.789,-22.461,5.371,14.16
1626.4656053370002,46.387,-18.066,-30.761999999999997,0.488
1626.4656053410001,9.277000000000001,-26.855,-37.109,-33.203
1626.4656053439999,-79.102,-34.18,-4.883,-43.945
1626.4656053479998,-43.457,-40.527,-4.883,1.953
1626.4656053520002,26.855,-44.434,-36.621,2.93
1626.465605356,10.742,-39.062,-49.805,-40.039
1626.46560536,-71.289,-33.203,-18.555,-51.27
1626.465605363,-51.27,-25.391,6.348,-6.348
1626.465605367,16.602,-22.949,-20.02,9.766
1626.465605371,32.227,-20.02,-39.062,-25.391
1626.465605375,-53.223,-20.02,-35.156,-64.941
1626.465605379,-77.637,-30.273000000000003,-8.301,-35.156
1626.465605383,-3.906,-34.668,-9.766,4.395
1626.465605387,27.831999999999997,-40.039,-57.129,-26.855
1626.46560539,-30.273000000000003,-41.992,-55.663999999999994,-62.012
1626.465605394,-81.055,-31.738000000000003,-10.742,-39.062
1626.4656053979998,-27.344,-26.366999999999997,-20.02,-1.465
1626.4656054020002,21.484,-30.761999999999997,-50.293,-18.066
1626.4656054060001,-16.602,-41.992,-58.105,-63.477
1626.465605408,-87.402,-44.922,-21.973000000000003,-63.965
1626.4656054120003,-41.504,-30.273000000000003,6.836,5.371
1626.465605416,24.901999999999997,-33.691,-28.32,19.043
1626.46560542,15.137,-41.016000000000005,-61.523,-32.227
1626.465605424,-68.848,-26.366999999999997,-34.668,-56.641000000000005
1626.465605428,-54.688,-20.996,-7.324,-15.625
1626.465605432,7.812,-32.715,-34.668,-8.789
1626.465605435,9.766,-41.016000000000005,-65.43,-44.922
1626.465605439,-66.895,-44.434,-47.363,-69.336
1626.4656054429997,-85.93799999999999,-42.968999999999994,-4.883,-30.761999999999997
1626.465605447,-5.859,-34.18,-18.555,7.812
1626.4656054509999,27.344,-33.203,-58.105,-22.949
1626.465605452,-43.945,-37.598,-56.152,-62.012
1626.465605456,-94.238,-32.715,-12.695,-42.48
1626.46560546,-37.598,-41.504,-13.184000000000001,0.0
1626.465605464,23.438000000000002,-35.645,-47.852,-7.324
1626.465605468,7.324,-34.668,-52.246,-36.133
1626.465605472,-74.219,-41.992,-19.531,-43.457
1626.465605476,-43.945,-41.504,-0.488,-3.906
1626.4656054789998,20.508000000000003,-42.48,-33.203,-0.488
1626.4656054829998,16.113,-35.645,-63.477,-39.551
1626.4656054870002,-76.66,-40.039,-46.875,-63.965
1626.4656054910001,-69.336,-39.062,-6.836,-21.973000000000003
1626.4656054949999,7.812,-39.062,-16.602,5.859
1626.4656054979998,27.831999999999997,-46.875,-51.758,-26.366999999999997
1626.465605502,-46.387,-51.758,-44.434,-60.547
1626.465605506,-76.172,-45.898,-1.465,-26.855
1626.46560551,-8.301,-39.062,-11.719000000000001,9.766
1626.465605514,34.18,-30.761999999999997,-54.688,-17.578
1626.4656055179998,-18.066,-31.25,-43.945,-54.688
1626.465605522,-84.473,-36.133,-4.883,-45.898
1626.465605525,-25.879,-33.691,-11.719000000000001,-1.465
1626.465605529,26.366999999999997,-36.133,-43.457,-6.836
1626.465605533,-5.859,-37.109,-49.805,-49.805
1626.465605537,-82.031,-35.156,-17.578,-62.012
1626.465605541,-51.758,-30.273000000000003,4.395,-11.719000000000001
1626.465605542,28.32,-19.531,-21.973000000000003,11.23
1626.465605546,36.621,-27.831999999999997,-51.27,-32.227
1626.46560555,-62.5,-41.992,-31.738000000000003,-70.801
1626.465605554,-73.242,-36.133,7.324,-21.484
1626.4656055579999,-0.977,-26.366999999999997,-10.742,12.695
1626.465605562,35.645,-35.156,-50.293,-12.207
1626.465605566,-36.621,-53.711000000000006,-53.223,-51.758
1626.465605569,-96.191,-53.711000000000006,-12.695,-41.992
1626.465605573,-33.203,-40.527,-9.277000000000001,0.977
1626.4656055770001,22.949,-36.621,-51.758,-12.207
1626.465605581,-12.695,-42.48,-54.199,-50.293
1626.465605585,-87.402,-41.504,-4.395,-39.551
1626.4656056020003,-47.363,-39.551,6.836,9.766
1626.465605606,27.831999999999997,-34.668,-28.809,11.719000000000001
1626.4656056099998,13.184000000000001,-39.062,-56.152,-23.438000000000002
1626.4656056139997,-90.33200000000001,-49.316,-32.227,-55.663999999999994
1626.4656056179997,-62.988,-32.715,1.465,-7.812
1626.465605622,25.879,-17.09,-19.531,22.949
1626.465605626,41.016000000000005,-27.831999999999997,-47.852,-17.09
1626.465605629,-48.34,-32.715,-33.203,-53.711000000000006
1626.465605633,-64.453,-24.414,4.395,-16.113
1626.4656056370002,-3.418,-32.715,-20.02,6.836
1626.4656056410001,19.043,-41.016000000000005,-61.035,-29.296999999999997
1626.4656056449999,-48.828,-41.992,-61.035,-67.87100000000001
1626.465605647,-98.145,-35.156,-12.695,-43.457
1626.465605651,-32.227,-32.715,-2.93,-0.488
1626.465605655,20.996,-38.086,-43.457,-25.879
1626.465605659,-10.742,-42.968999999999994,-54.199,-62.988
1626.465605663,-90.33200000000001,-43.945,-19.043,-56.641000000000005
1626.465605667,-53.223,-41.016000000000005,-3.906,-8.789
1626.465605671,15.137,-34.18,-39.551,-4.395
1626.465605674,12.207,-38.086,-61.035,-40.039
1626.465605678,-79.102,-42.48,-33.691,-57.129
1626.4656056820002,-71.777,-35.645,-5.371,-17.578
1626.4656056860001,14.648,-32.715,-12.695,1.953
1626.46560569,31.738000000000003,-39.062,-41.992,-28.32
1626.4656057070001,-60.059,-47.852,-46.875,-66.406
1626.4656057109999,-90.82,-41.504,-10.742,-45.898
1626.4656057149998,-7.812,-27.831999999999997,-11.719000000000001,-1.953
1626.4656057189998,42.968999999999994,-25.391,-46.875,-17.09
1626.4656057229997,-16.602,-33.691,-47.363,-56.152
1626.4656057270001,-68.848,-32.715,1.465,-42.968999999999994
1626.4656057309999,-23.926,-35.156,-6.348,7.812
1626.465605734,23.438000000000002,-41.992,-49.805,-5.371
1626.465605738,0.977,-44.922,-59.082,-56.152
1626.4656057420002,-92.285,-47.363,-19.043,-56.641000000000005
1626.4656057460002,-60.059,-41.504,1.953,-11.23
1626.46560575,18.555,-42.968999999999994,-29.785,-5.859
1626.465605738,24.414,-41.992,-49.805,-39.551
1626.4656057420002,-69.336,-43.945,-30.273000000000003,-65.43
1626.4656057460002,-72.75399999999999,-44.922,-0.977,-18.066
1626.46560575,0.488,-38.574,-25.391,4.395
1626.4656057539999,31.25,-36.133,-54.688,-36.133
1626.4656057579998,-49.316,-37.109,-45.41,-67.383
1626.465605762,-99.609,-45.898,-11.719000000000001,-42.968999999999994
1626.4656057650002,-18.555,-46.387,-9.277000000000001,-0.977
1626.4656057690001,32.715,-40.039,-47.852,-13.184000000000001
1626.4656057729997,-26.855,-53.711000000000006,-63.477,-59.57
1626.4656057770003,-90.33200000000001,-49.805,-17.578,-58.593999999999994
1626.4656057810002,-44.434,-38.086,-4.395,-13.184000000000001
1626.465605782,11.23,-39.062,-41.992,-14.648
1626.465605786,11.719000000000001,-37.109,-45.41,-44.922
1626.46560579,-69.336,-41.016000000000005,-10.254000000000001,-47.852
1626.4656057939999,-51.27,-38.574,4.883,0.0
1626.4656057979998,14.16,-41.504,-33.203,9.766
1626.465605802,22.461,-43.457,-58.105,-17.578
1626.465605806,-63.477,-40.527,-32.715,-46.875
1626.465605809,-83.008,-39.062,-3.418,-20.996
1626.465605813,-13.672,-37.598,-24.414,8.789
1626.465605817,17.578,-39.062,-53.711000000000006,-19.043
1626.465605821,-43.945,-41.504,-45.41,-53.223
1626.465605825,-98.145,-51.27,-6.836,-37.109
1626.465605829,-41.992,-54.199,-18.066,-10.742
1626.465605833,22.949,-41.504,-52.733999999999995,-29.296999999999997
1626.465605837,-11.23,-38.574,-54.199,-63.477
1626.465605841,-91.309,-39.551,-18.066,-62.5
1626.465605845,-32.715,-25.391,2.93,-2.93
1626.465605849,43.945,-22.949,-37.598,1.953
1626.465605853,15.625,-42.48,-66.895,-47.363
1626.465605856,-86.914,-52.246,-34.668,-66.406
1626.4656058599999,-75.195,-44.922,-1.953,-28.32
1626.4656058639998,-5.371,-44.434,-27.344,-19.043
1626.4656058679998,12.207,-35.156,-55.176,-44.922
1626.4656058720002,-70.312,-35.645,-34.18,-66.895
1626.465605887,-96.191,-48.828,0.488,-41.504
1626.465605891,-29.785,-43.457,-18.555,-17.09
1626.465605895,16.602,-31.738000000000003,-56.152,-34.668
1626.465605899,-45.898,-40.527,-49.805,-77.148
1626.4656059029999,-93.75,-40.039,-5.371,-57.129
1626.465605907,-20.508000000000003,-29.785,-7.812,-1.953
1626.465605911,30.273000000000003,-33.203,-44.922,-14.648
1626.465605914,-9.277000000000001,-39.551,-48.828,-58.105
1626.465605918,-89.844,-41.504,-15.137,-54.688
1626.4656059220001,-51.27,-36.133,-3.906,-2.441
1626.465605926,21.484,-28.809,-33.691,-0.977
1626.46560593,22.949,-23.926,-59.57,-38.086
1626.465605918,-67.383,-25.879,-35.645,-52.733999999999995
1626.4656059220001,-62.5,-35.156,-6.348,-11.719000000000001
1626.465605926,19.531,-34.18,-35.645,14.648
1626.46560593,39.551,-32.227,-61.523,-16.113
1626.465605934,-56.641000000000005,-41.016000000000005,-38.086,-55.663999999999994
1626.465605938,-90.33200000000001,-48.34,6.836,-22.949
1626.4656059420001,-14.648,-41.992,-2.93,14.16
1626.4656059449999,25.391,-42.968999999999994,-47.852,-13.672
1626.4656059489998,-19.531,-46.387,-50.293,-50.781000000000006
1626.4656059529998,-76.66,-42.968999999999994,-9.277000000000001,-39.551
1626.465605957,-30.273000000000003,-42.968999999999994,-13.184000000000001,-3.906
1626.465605961,41.016000000000005,-28.809,-39.551,-5.859
1626.465605978,24.901999999999997,-20.02,-40.527,-33.691
1626.4656059820002,-60.059,-27.831999999999997,-5.859,-38.574
1626.4656059860001,-41.992,-34.668,5.371,1.953
1626.46560599,20.508000000000003,-34.18,-33.691,-2.441
1626.465605994,22.461,-34.668,-55.663999999999994,-52.246
1626.465605998,-70.312,-46.387,-32.715,-70.801
1626.4656060020002,-64.453,-39.551,-0.488,-15.625
1626.4656060050002,12.207,-23.438000000000002,-20.996,16.113
1626.4656060089999,25.879,-27.344,-55.176,-23.926
1626.4656060129998,-46.387,-26.855,-38.086,-60.547
1626.4656060170003,-76.172,-15.137,9.277000000000001,-28.809
1626.4656060210002,-8.789,-22.461,-4.395,6.836
1626.465606022,38.574,-34.18,-51.758,-23.438000000000002
1626.465606026,-15.625,-34.668,-55.663999999999994,-65.918
1626.46560603,-77.148,-17.578,-9.277000000000001,-46.875
1626.4656060339998,-20.996,-15.137,-3.418,0.488
1626.4656060379998,27.831999999999997,-31.738000000000003,-44.922,-14.16
1626.465606042,16.602,-29.785,-53.223,-49.316
1626.465606046,-68.848,-30.761999999999997,-26.366999999999997,-55.663999999999994
1626.465606049,-62.5,-34.668,-5.371,-14.648
1626.4656060529999,6.836,-39.551,-32.227,-5.859
1626.465606057,17.578,-41.992,-61.523,-45.41
1626.465606061,-70.801,-32.715,-41.504,-73.242
1626.465606065,-81.055,-26.366999999999997,-3.418,-28.32
1626.4656060670002,0.488,-31.25,-13.672,1.465
1626.4656060710001,41.016000000000005,-32.227,-46.875,-22.461
1626.465606075,-34.668,-33.203,-43.945,-59.57
1626.465606079,-84.961,-33.691,-9.277000000000001,-43.945
1626.465606083,-26.366999999999997,-33.691,-13.184000000000001,0.977
1626.4656060870002,28.32,-22.461,-43.945,-4.883
1626.4656060910002,-14.648,-25.879,-52.246,-44.922
1626.465606094,-104.00399999999999,-39.551,-13.672,-43.457
1626.4656060979999,-65.918,-41.016000000000005,-5.859,-1.953
1626.4656061020003,8.301,-41.016000000000005,-49.316,-8.789
1626.465606106,9.766,-40.039,-67.87100000000001,-52.246
1626.46560611,-87.402,-49.316,-35.645,-78.125
1626.4656061120002,-74.707,-46.875,-1.953,-24.901999999999997
1626.4656061160001,11.23,-35.645,-28.809,-1.953
1626.4656061199998,35.645,-27.344,-58.593999999999994,-32.715
1626.4656061239998,-54.199,-30.761999999999997,-38.086,-58.105
1626.4656061279998,-81.543,-35.156,-4.883,-29.296999999999997
1626.4656061320002,-3.906,-32.227,-20.508000000000003,-2.93
1626.4656061360001,36.133,-35.645,-55.663999999999994,-29.296999999999997
1626.4656061389999,-35.645,-41.504,-59.082,-57.129
1626.4656061429998,-103.027,-52.246,-21.484,-45.898
1626.465606147,-45.41,-46.875,-19.531,-15.137
1626.465606151,12.695,-39.551,-55.176,-26.855
1626.465606155,-23.438000000000002,-40.039,-58.593999999999994,-62.5
1626.4656061570001,-95.70299999999999,-28.32,-15.137,-57.617
1626.465606161,-51.758,-27.831999999999997,-4.395,-15.137
1626.465606165,17.09,-31.25,-41.504,-20.996
1626.465606169,8.301,-39.551,-57.617,-53.223
1626.465606173,-79.102,-46.875,-28.809,-59.082
1626.4656061770002,-63.965,-29.296999999999997,3.418,-17.09
1626.4656061809999,13.184000000000001,-15.625,-18.555,-0.977
1626.465606184,29.296999999999997,-29.296999999999997,-58.105,-32.227
1626.465606188,-53.711000000000006,-41.504,-53.711000000000006,-65.918
1626.4656061920002,-76.172,-39.062,-10.742,-23.926
1626.4656061960002,-19.531,-34.668,-14.16,13.672
1626.4656062000001,14.648,-41.992,-51.27,-18.066
1626.465606204,-40.527,-51.27,-55.176,-54.199
1626.465606208,-104.98,-42.968999999999994,-11.23,-45.41
1626.4656062120002,-48.828,-42.968999999999994,-6.348,-6.836
1626.465606216,12.695,-44.922,-54.688,-15.137
1626.46560622,-14.648,-41.016000000000005,-72.75399999999999,-54.688
1626.4656062239999,-97.656,-45.41,-27.344,-61.523
1626.4656062279998,-59.082,-41.992,-6.836,-22.461
1626.465606231,11.23,-40.527,-43.457,-23.438000000000002
1626.465606235,14.648,-42.48,-62.988,-55.176
1626.465606239,-70.312,-42.48,-38.086,-67.383
1626.4656062429997,-72.266,-41.016000000000005,-9.766,-22.461
1626.4656062470003,10.742,-28.809,-35.156,5.371
1626.4656062470003,42.48,-21.973000000000003,-62.5,-21.484
1626.465606251,-38.574,-36.133,-41.504,-55.176
1626.465606255,-72.75399999999999,-37.598,-0.977,-21.973000000000003
1626.4656062589997,-7.812,-36.133,-14.648,6.836
1626.4656062629997,29.785,-33.203,-50.781000000000006,-16.602
1626.465606267,-14.16,-33.691,-46.875,-50.293
1626.465606271,-84.961,-53.711000000000006,-21.484,-53.711000000000006
1626.465606274,-30.273000000000003,-53.223,-20.508000000000003,-6.836
1626.4656062779998,41.504,-37.598,-48.828,0.977
1626.465606282,9.766,-41.504,-67.383,-40.039
1626.465606286,-77.637,-39.551,-32.227,-47.852
1626.4656062899999,-47.852,-30.761999999999997,0.0,6.348
1626.465606295,22.461,-30.761999999999997,-28.32,18.066
1626.465606299,20.508000000000003,-41.504,-58.593999999999994,-25.879
1626.465606303,-83.984,-51.758,-43.945,-56.152
1626.4656063070001,-83.008,-46.387,-4.883,-8.301
1626.465606311,5.371,-37.598,-12.695,15.137
1626.465606315,33.203,-34.668,-52.246,-23.438000000000002
1626.465606319,-32.715,-32.715,-52.733999999999995,-50.293
1626.465606322,-68.848,-31.738000000000003,-5.859,-24.901999999999997
1626.465606326,-3.906,-31.25,-10.742,7.812
1626.46560633,33.203,-42.48,-54.199,-11.719000000000001
1626.4656063339999,-26.855,-57.617,-58.105,-50.781000000000006
1626.4656063379998,-89.844,-52.733999999999995,-11.719000000000001,-47.363
1626.4656063520003,-32.715,-40.039,0.488,-1.953
1626.4656063559999,20.996,-33.691,-38.574,-4.395
1626.4656063599998,-1.465,-35.645,-62.012,-46.875
1626.4656063639998,-84.961,-41.016000000000005,-38.086,-54.688
1626.4656063679997,-59.082,-39.062,-18.066,-8.301
1626.4656063720001,8.789,-40.527,-45.898,-7.812
1626.465606376,14.16,-41.504,-67.87100000000001,-43.945
1626.4656063789998,-74.219,-38.086,-49.316,-68.359
1626.4656063829998,-89.355,-33.691,-6.836,-25.391
1626.465606387,-12.207,-30.273000000000003,-19.043,3.906
1626.465606391,16.602,-36.621,-56.152,-38.086
1626.465606395,-60.059,-43.945,-45.898,-69.336
1626.465606397,-107.42200000000001,-36.621,-1.465,-41.992
1626.465606401,-37.598,-35.645,0.977,-6.836
1626.465606405,18.066,-36.133,-46.387,-24.414
1626.465606409,-27.344,-37.109,-64.941,-69.824
1626.465606413,-97.656,-34.668,-22.461,-61.035
1626.4656064170001,-37.598,-22.949,-5.859,-4.395
1626.465606421,24.414,-22.461,-45.41,-12.207
1626.465606424,13.672,-27.344,-62.012,-51.758
1626.465606428,-72.266,-21.484,-26.855,-62.5
1626.4656064320002,-65.43,-28.809,4.883,-19.043
1626.4656064360001,9.277000000000001,-46.387,-20.02,-11.23
1626.46560644,24.414,-45.41,-50.781000000000006,-43.945
1626.465606442,-61.035,-38.574,-31.738000000000003,-68.848
1626.465606446,-77.637,-35.645,2.93,-37.109
1626.46560645,0.488,-25.391,-17.09,1.465
1626.465606454,34.18,-27.344,-56.152,-20.02
1626.465606458,-23.926,-36.133,-46.875,-56.641000000000005
1626.465606462,-76.66,-20.508000000000003,1.465,-37.598
1626.465606466,-35.156,-23.438000000000002,-4.883,-9.766
1626.4656064689998,16.113,-42.968999999999994,-49.805,-31.25
1626.4656064729998,-16.602,-40.039,-62.5,-69.824
1626.4656064770002,-104.98,-41.504,-29.785,-79.59
1626.465606481,-52.733999999999995,-35.645,-5.371,-19.043
1626.4656064849999,26.366999999999997,-29.296999999999997,-34.18,-5.859
1626.4656064870003,21.484,-35.645,-54.688,-41.504
1626.4656064910002,-69.824,-37.109,-25.879,-59.57
1626.465606495,-66.895,-24.901999999999997,-3.418,-19.531
1626.465606499,6.348,-21.484,-30.273000000000003,2.441
1626.465606503,27.831999999999997,-31.738000000000003,-56.152,-28.809
1626.4656065070003,-53.711000000000006,-34.668,-43.457,-54.688
1626.4656065110003,-86.426,-28.809,0.0,-30.273000000000003
1626.465606514,-26.855,-40.039,-11.719000000000001,1.465
1626.465606518,19.531,-61.035,-61.523,-19.043
1626.4656065220001,-27.831999999999997,-58.593999999999994,-60.547,-60.547
1626.465606526,-98.633,-41.016000000000005,-3.906,-43.945
1626.46560653,-33.691,-22.461,0.977,14.648
1626.465606532,37.109,-21.973000000000003,-53.223,5.371
1626.465606536,14.16,-33.691,-66.895,-37.598
1626.46560654,-88.867,-39.551,-31.25,-56.641000000000005
1626.465606544,-66.895,-37.598,-13.184000000000001,-20.996
1626.4656065479999,15.137,-29.785,-41.992,-14.648
1626.465606552,27.831999999999997,-26.855,-64.453,-51.758
1626.465606556,-51.758,-32.227,-41.016000000000005,-62.988
1626.465606559,-62.012,-38.574,-6.836,-23.926
1626.465606563,-5.371,-37.109,-26.366999999999997,-14.16
1626.4656065670001,23.926,-38.574,-60.547,-43.457
1626.465606571,-44.922,-41.016000000000005,-57.617,-69.336
1626.465606575,-95.70299999999999,-36.621,-25.879,-39.551
1626.4656065770002,-30.273000000000003,-31.25,-23.438000000000002,-0.488
1626.4656065810002,26.366999999999997,-37.109,-57.617,-22.949
1626.465606585,-12.695,-39.551,-61.035,-53.711000000000006
1626.465606589,-72.75399999999999,-29.296999999999997,-13.672,-33.691
1626.4656065929998,-17.578,-24.901999999999997,-0.488,12.695
1626.465606597,45.41,-30.273000000000003,-44.434,-3.418
1626.465606601,18.555,-41.016000000000005,-67.87100000000001,-46.387
1626.465606604,-70.801,-45.41,-29.785,-59.082
1626.4656066079997,-51.27,-37.598,-3.906,-14.648
1626.4656066120003,15.625,-37.598,-33.203,-1.953
1626.4656066160003,25.879,-40.039,-67.383,-38.574
1626.4656066199998,-57.617,-34.668,-50.781000000000006,-68.848
1626.465606623,-64.453,-25.391,-9.277000000000001,-29.785
1626.4656066270002,3.418,-27.831999999999997,-30.273000000000003,-6.348
1626.4656066310001,26.366999999999997,-40.039,-65.43,-36.133
1626.465606635,-32.715,-44.434,-52.246,-61.523
1626.465606639,-76.66,-33.691,-2.441,-42.968999999999994
1626.465606643,-16.602,-26.855,-1.465,-9.277000000000001
1626.4656066470002,30.761999999999997,-27.831999999999997,-49.316,-27.831999999999997
1626.4656066500002,-22.949,-34.18,-57.129,-57.617
1626.465606654,-93.75,-30.761999999999997,-4.395,-44.434
1626.465606658,-42.968999999999994,-23.926,6.836,5.371
1626.4656066620003,23.926,-29.296999999999997,-36.133,-0.977
1626.4656066660002,19.043,-28.32,-49.316,-41.504
1626.465606667,-65.918,-29.785,-15.137,-54.199
1626.465606671,-50.293,-28.32,5.859,-9.766
1626.465606675,20.508000000000003,-21.973000000000003,-23.926,5.371
1626.4656066789998,36.133,-22.461,-62.988,-28.809
1626.4656066829998,-48.34,-35.645,-49.316,-58.593999999999994
1626.465606687,-64.941,-31.25,3.906,-16.113
1626.465606691,-1.953,-28.32,-17.578,11.23
1626.465606694,37.598,-27.831999999999997,-58.593999999999994,-28.32
1626.4656066979999,-14.648,-24.901999999999997,-42.48,-55.663999999999994
1626.465606702,-93.262,-29.296999999999997,-4.883,-41.016000000000005
1626.465606706,-56.152,-36.133,-7.324,-7.812
1626.46560671,-4.395,-47.852,-40.039,-27.831999999999997
1626.4656067270002,-21.973000000000003,-40.527,-42.48,-54.199
1626.465606731,-103.027,-32.715,-5.371,-58.593999999999994
1626.465606735,-65.43,-38.086,0.977,-25.391
1626.465606739,8.789,-41.016000000000005,-38.086,-20.02
1626.4656067429999,8.789,-36.621,-58.105,-55.176
1626.4656067470003,-83.008,-40.527,-27.831999999999997,-72.75399999999999
1626.4656067510002,-83.984,-38.086,2.441,-22.461
1626.465606754,-13.672,-37.598,-21.973000000000003,4.883
1626.465606758,11.23,-36.621,-53.223,-25.391
1626.465606762,-65.918,-44.434,-44.434,-59.082
1626.465606766,-90.82,-48.828,1.953,-28.809
1626.46560677,-15.625,-39.062,-6.836,12.695
1626.465606772,31.738000000000003,-35.645,-53.223,-8.301
1626.465606776,-21.484,-40.527,-60.059,-49.805
1626.46560678,-90.82,-38.574,-16.602,-41.016000000000005
1626.4656067839999,-35.645,-34.668,-10.742,0.977
1626.4656067879998,30.273000000000003,-34.668,-44.434,-7.812
1626.465606792,15.137,-36.133,-46.875,-44.922
1626.465606796,-69.336,-37.598,-11.719000000000001,-51.27
1626.465606799,-33.203,-24.414,6.836,0.488
1626.465606803,35.645,-30.761999999999997,-33.691,7.324
1626.465606807,10.742,-60.059,-72.75399999999999,-49.316
1626.465606811,-79.102,-56.641000000000005,-39.551,-67.383
1626.465606815,-73.73,-44.922,0.977,-21.484
1626.4656068170002,-9.766,-45.41,-19.531,1.465
1626.4656068210002,13.672,-44.922,-52.246,-32.715
1626.4656068250001,-62.988,-44.922,-48.34,-70.801
1626.465606829,-94.238,-35.156,-0.977,-40.039
1626.465606833,-13.672,-25.391,-5.859,0.0
1626.4656068370002,36.621,-29.296999999999997,-43.945,-24.901999999999997
1626.4656068410002,-13.672,-34.18,-45.898,-63.965
1626.465606844,-93.262,-41.504,-14.16,-61.523
1626.4656068479999,-53.223,-49.316,-11.719000000000001,-15.625
1626.4656068520003,20.508000000000003,-32.227,-43.945,-10.742
1626.465606856,6.836,-32.227,-49.316,-45.41
1626.46560686,-87.402,-41.992,-13.672,-59.57
1626.4656068620002,-56.641000000000005,-32.227,5.859,-14.648
1626.4656068660001,14.16,-30.761999999999997,-22.461,-5.859
1626.4656068699999,11.23,-37.109,-50.293,-43.945
1626.4656068739998,-78.125,-50.781000000000006,-34.668,-67.383
1626.4656068779998,-81.543,-42.48,0.0,-29.785
1626.4656068820002,-4.395,-24.901999999999997,-20.996,-3.418
1626.4656068860002,28.809,-29.296999999999997,-57.129,-32.227
1626.465606889,-41.992,-38.574,-48.828,-69.336
1626.4656068929999,-88.867,-37.109,-8.789,-42.968999999999994
1626.465606897,-32.715,-33.691,-17.578,0.0
1626.465606901,19.043,-36.621,-47.363,-16.602
1626.465606905,-21.484,-39.551,-46.875,-55.663999999999994
1626.4656069070002,-99.12100000000001,-41.504,-12.695,-53.711000000000006
1626.4656069110001,-48.828,-39.062,-2.441,-7.324
1626.4656069149999,18.066,-36.621,-40.527,-16.113
1626.4656069189998,-2.441,-41.016000000000005,-51.758,-56.641000000000005
1626.4656069229998,-86.426,-40.039,-20.508000000000003,-61.035
1626.465606927,-53.711000000000006,-32.715,0.0,-9.277000000000001
1626.465606931,11.23,-36.621,-36.621,3.418
1626.465606934,11.23,-49.316,-71.289,-36.621
1626.465606938,-55.176,-39.551,-44.922,-61.035
1626.4656069420002,-63.965,-27.831999999999997,-0.488,-21.484
1626.4656069460002,4.395,-27.344,-12.695,11.23
1626.46560695,41.992,-24.414,-53.223,-19.531
1626.4656069520001,-27.831999999999997,-35.156,-49.805,-63.477
1626.465606956,-86.426,-35.645,-7.324,-33.691
1626.46560696,-25.391,-23.438000000000002,-5.859,18.555
1626.465606964,33.691,-25.879,-38.086,-2.93
1626.465606968,-2.441,-34.668,-41.016000000000005,-40.527
1626.4656069720002,-87.402,-39.062,-9.766,-47.363
1626.4656069760001,-39.551,-28.809,-4.395,-0.977
1626.4656069789999,32.715,-26.855,-41.992,3.906
1626.4656069829998,11.719000000000001,-37.598,-66.895,-43.945
1626.4656069870002,-76.172,-46.875,-33.203,-61.523
1626.4656069910002,-64.941,-33.203,-3.906,-6.836
1626.465606995,9.277000000000001,-23.438000000000002,-29.785,2.93
1626.4656069970001,27.344,-38.574,-61.035,-38.574
1626.465607001,-59.082,-40.527,-43.945,-60.547
1626.465607005,-79.59,-38.086,1.465,-24.901999999999997
1626.4656070089998,-7.324,-35.156,-16.602,7.324
1626.4656070129997,20.996,-28.32,-56.152,-23.926
1626.4656070170001,-30.273000000000003,-26.855,-42.968999999999994,-58.105
1626.465607021,-83.008,-29.785,-7.324,-49.316
1626.4656070239998,-30.273000000000003,-27.344,-17.09,-10.742
1626.4656070279998,39.062,-18.066,-54.199,-10.742
1626.465607032,-3.418,-25.391,-62.012,-52.246
1626.465607036,-92.773,-31.738000000000003,-24.414,-66.406
1626.46560704,-42.48,-20.996,-4.395,-12.207
1626.465607042,22.461,-26.855,-36.621,-5.859
1626.465607046,7.324,-37.598,-57.129,-50.781000000000006
1626.46560705,-78.613,-33.691,-26.855,-63.477
1626.465607054,-65.918,-19.531,6.836,-5.859
1626.465607058,12.207,-17.09,-19.531,6.836
1626.4656070620001,38.574,-25.391,-62.988,-37.109
1626.465607066,-42.968999999999994,-31.25,-60.059,-62.012
1626.465607069,-80.566,-24.901999999999997,-17.09,-28.32
1626.465607073,-2.441,-19.531,-16.113,6.348
1626.4656070770002,33.203,-29.296999999999997,-56.641000000000005,-23.926
1626.4656070810001,-32.715,-43.457,-61.523,-67.87100000000001
1626.465607085,-81.055,-33.203,-15.137,-48.34
1626.4656071020001,-12.207,-23.438000000000002,-15.137,0.977
1626.4656071059999,40.527,-28.32,-60.059,-10.742
1626.4656071099998,5.371,-37.109,-69.824,-51.27
1626.4656071139998,-68.848,-38.086,-19.043,-56.641000000000005
1626.4656071179998,-37.109,-27.344,4.395,-10.254000000000001
1626.4656071220002,30.273000000000003,-25.391,-35.645,1.465
1626.4656071260001,34.18,-30.273000000000003,-67.87100000000001,-34.18
1626.4656071289999,-66.895,-36.621,-45.41,-68.848
1626.4656071329998,-68.848,-35.156,-5.859,-32.227
1626.465607137,-0.488,-32.715,-33.203,-6.348
1626.465607141,10.254000000000001,-37.109,-71.289,-41.504
1626.465607145,-61.035,-42.968999999999994,-49.316,-78.125
1626.4656071470001,-89.355,-38.086,-4.395,-44.434
1626.465607151,-19.043,-31.738000000000003,-19.531,-2.441
1626.465607155,29.296999999999997,-33.203,-62.988,-27.344
1626.465607159,-19.043,-33.691,-68.848,-62.012
1626.465607163,-86.426,-28.32,-20.508000000000003,-54.688
1626.4656071670001,-25.391,-19.531,-10.254000000000001,-9.766
1626.465607171,27.831999999999997,-24.414,-44.434,-13.184000000000001
1626.465607174,0.0,-36.133,-50.293,-52.246
1626.465607178,-84.473,-43.945,-19.531,-56.641000000000005
1626.4656071820002,-59.57,-44.434,-2.441,-6.348
1626.4656071860002,13.184000000000001,-39.551,-29.296999999999997,-2.93
1626.4656071900001,21.973000000000003,-34.18,-56.152,-38.086
1626.465607192,-59.082,-25.391,-31.25,-63.477
1626.465607196,-65.43,-25.879,5.859,-24.414
1626.4656072,1.465,-31.738000000000003,-16.113,6.836
1626.465607204,26.366999999999997,-28.809,-54.688,-28.32
1626.465607208,-44.922,-35.645,-50.293,-69.824
1626.4656072120001,-87.891,-38.086,-8.789,-45.898
1626.465607216,-15.137,-28.32,-15.137,-5.371
1626.4656072189998,31.25,-27.831999999999997,-55.176,-26.366999999999997
1626.4656072229998,-21.484,-41.016000000000005,-69.824,-66.895
1626.4656072270002,-99.12100000000001,-38.574,-36.621,-52.733999999999995
1626.465607231,-45.41,-28.32,-13.672,-2.93
1626.4656072349999,28.809,-27.344,-41.992,-9.766
1626.4656072370003,17.578,-26.855,-65.918,-44.922
1626.4656072410003,-80.566,-37.109,-41.992,-64.453
1626.4656072449998,-62.988,-37.598,-11.719000000000001,-21.973000000000003
1626.4656072489997,18.066,-25.879,-37.109,-3.906
1626.4656072529997,29.785,-30.273000000000003,-66.406,-35.156
1626.465607257,-52.733999999999995,-27.831999999999997,-44.434,-53.711000000000006
1626.465607261,-72.266,-19.531,-3.418,-8.789
1626.465607264,-11.23,-35.156,-23.438000000000002,14.648
1626.465607268,13.184000000000001,-46.875,-72.266,-18.066
1626.4656072720002,-40.527,-46.387,-62.012,-49.805
1626.4656072760001,-85.93799999999999,-45.41,-7.324,-29.296999999999997
1626.4656072799999,-21.973000000000003,-26.366999999999997,-5.859,10.742
1626.4656072839998,36.621,-22.949,-50.293,-2.441
1626.4656072879998,-2.441,-40.527,-68.359,-47.363
1626.465607292,-85.93799999999999,-38.574,-25.879,-47.852
1626.465607296,-43.457,-33.203,-8.301,4.883
1626.4656072999999,31.738000000000003,-37.109,-45.41,0.977
1626.4656073039998,34.668,-36.621,-58.105,-43.457
1626.4656073079998,-56.152,-35.156,-32.227,-51.27
1626.4656073110002,-57.129,-41.992,-3.906,-0.488
1626.4656073150002,15.137,-36.133,-19.531,15.137
1626.465607319,30.761999999999997,-27.344,-55.663999999999994,-13.672
1626.4656073229999,-52.733999999999995,-35.645,-47.363,-44.922
1626.465607327,-75.195,-25.879,0.0,-13.672
1626.4656073279998,-0.488,-15.137,-7.812,26.366999999999997
1626.465607332,36.133,-28.32,-53.711000000000006,-4.395
1626.465607336,-20.996,-37.109,-56.152,-42.48
1626.46560734,-94.727,-39.062,-19.043,-33.203
1626.4656073439999,-41.016000000000005,-33.691,-8.789,13.184000000000001
1626.4656073479998,29.785,-33.203,-42.968999999999994,1.465
1626.4656073520002,2.441,-39.551,-59.57,-36.133
1626.465607355,-79.102,-42.968999999999994,-21.973000000000003,-37.109
1626.465607359,-45.41,-38.574,-1.953,4.883
1626.465607363,22.461,-36.133,-28.32,7.324
1626.465607367,22.461,-40.039,-56.641000000000005,-34.18
1626.465607371,-66.895,-45.41,-30.761999999999997,-52.246
1626.4656073720002,-65.918,-42.968999999999994,4.395,-6.836
1626.4656073760002,0.0,-33.203,-20.02,13.672
1626.4656073800002,24.414,-31.25,-55.176,-22.461
1626.465607384,-45.41,-42.968999999999994,-46.387,-59.082
1626.4656073879999,-86.914,-44.922,-0.977,-26.366999999999997
1626.4656073920003,-15.625,-34.18,-3.418,12.207
1626.4656073960002,34.668,-34.18,-47.363,-8.789
1626.465607399,-20.02,-42.48,-58.593999999999994,-49.316
1626.465607403,-89.355,-35.156,-9.766,-47.363
1626.465607407,-36.621,-20.508000000000003,0.977,0.488
1626.465607411,27.831999999999997,-21.973000000000003,-36.133,2.441
1626.465607415,15.137,-32.715,-55.176,-45.41
1626.465607417,-77.148,-33.691,-26.855,-63.477
1626.465607421,-50.781000000000006,-20.02,6.836,0.977
1626.465607425,27.344,-15.625,-23.438000000000002,13.184000000000001
1626.4656074289999,31.25,-24.901999999999997,-55.663999999999994,-27.831999999999997
1626.4656074329998,-52.246,-31.25,-24.414,-47.363
1626.465607437,-64.941,-36.621,4.395,-14.16
1626.465607441,1.465,-37.109,-33.203,8.789
1626.465607444,31.738000000000003,-41.016000000000005,-66.895,-25.391
1626.465607448,-45.41,-46.387,-56.152,-72.75399999999999
1626.465607452,-111.816,-41.992,-18.066,-60.547
1626.465607456,-44.434,-40.039,-22.461,-11.719000000000001
1626.46560746,14.16,-39.551,-53.223,-26.366999999999997
1626.4656074770003,-30.761999999999997,-42.968999999999994,-54.688,-73.73
1626.465607481,-93.262,-42.968999999999994,-10.254000000000001,-61.523
1626.465607485,-42.48,-38.574,-1.953,-4.395
1626.465607489,24.414,-31.738000000000003,-47.363,-1.465
1626.4656074929999,8.301,-32.715,-62.5,-47.363
1626.4656074970003,-75.684,-34.668,-21.484,-58.593999999999994
1626.4656075010002,-56.641000000000005,-35.645,9.766,-11.23
1626.465607504,5.371,-40.527,-20.996,-1.465
1626.465607508,20.996,-42.48,-48.34,-35.645
1626.4656075120001,-62.988,-46.875,-31.25,-64.941
1626.465607516,-84.961,-43.457,8.789,-27.344
1626.46560752,-11.719000000000001,-26.366999999999997,-9.277000000000001,4.883
1626.465607522,18.066,-20.508000000000003,-45.898,-20.996
1626.465607526,-39.062,-27.831999999999997,-33.691,-55.663999999999994
1626.46560753,-87.891,-34.668,-8.301,-46.387
1626.465607534,-37.109,-38.086,-16.602,-1.953
1626.4656075379999,18.066,-30.273000000000003,-45.898,-11.23
1626.465607542,-10.742,-32.227,-54.688,-45.41
1626.465607546,-96.191,-44.922,-18.555,-48.34
1626.465607549,-60.059,-47.852,3.418,-11.23
1626.465607553,7.324,-47.363,-38.086,-16.602
1626.465607557,-1.953,-47.852,-68.848,-57.129
1626.465607561,-81.543,-41.504,-35.645,-64.941
1626.465607565,-64.941,-34.18,-0.488,-20.996
1626.4656075670002,4.395,-31.25,-29.785,-7.812
1626.4656075710002,16.113,-42.968999999999994,-63.965,-41.016000000000005
1626.4656075750001,-60.547,-44.922,-42.968999999999994,-63.965
1626.465607579,-83.49600000000001,-37.109,-4.883,-31.738000000000003
1626.4656075829998,-8.789,-31.25,-16.113,0.488
1626.465607587,22.949,-28.32,-57.617,-22.461
1626.465607591,-46.387,-47.363,-59.082,-63.965
1626.465607594,-103.516,-49.316,-7.324,-50.293
1626.465607598,-34.668,-36.621,3.906,1.953
1626.4656076020003,20.996,-36.621,-38.086,-10.742
1626.465607606,-17.09,-42.968999999999994,-54.688,-55.663999999999994
1626.46560761,-96.68,-42.48,-23.438000000000002,-56.641000000000005
1626.4656076120002,-62.012,-43.457,-1.465,-5.371
1626.4656076160002,7.812,-41.016000000000005,-32.715,0.0
1626.46560762,7.812,-35.645,-59.082,-38.574
1626.4656076239999,-69.336,-40.039,-33.691,-61.523
1626.4656076279998,-60.547,-37.109,2.441,-18.066
1626.4656076320002,6.836,-29.296999999999997,-17.09,8.301
1626.4656076360002,21.973000000000003,-33.203,-60.059,-25.391
1626.465607639,-53.711000000000006,-37.598,-52.246,-58.105
1626.4656076429999,-91.309,-40.527,-12.207,-32.715
1626.465607647,-30.761999999999997,-45.898,-20.02,-2.93
1626.465607651,21.484,-44.434,-51.27,-24.901999999999997
1626.465607655,-26.366999999999997,-37.598,-48.828,-54.688
1626.465607657,-95.215,-44.922,-3.418,-36.621
1626.465607661,-32.715,-41.016000000000005,2.93,11.719000000000001
1626.4656076649999,32.227,-28.32,-42.48,-2.93
1626.4656076689998,3.418,-34.668,-65.43,-45.898
1626.4656076729998,-86.426,-35.156,-29.296999999999997,-56.641000000000005
1626.465607677,-53.223,-23.438000000000002,-0.977,-14.648
1626.465607681,32.227,-22.461,-25.879,8.301
1626.465607684,32.715,-34.668,-57.129,-25.391
1626.4656076879999,-68.359,-45.898,-39.551,-61.035
1626.465607692,-61.523,-28.809,5.371,-14.16
1626.465607696,24.901999999999997,-14.16,-9.766,16.602
1626.4656077,35.156,-26.855,-48.828,-22.949
1626.4656077020002,-47.852,-36.133,-41.504,-56.641000000000005
1626.4656077060001,-86.914,-30.273000000000003,2.93,-34.18
1626.46560771,-20.02,-34.18,-7.812,7.324
1626.465607714,32.715,-30.761999999999997,-47.852,-10.254000000000001
1626.465607718,-8.789,-24.414,-54.688,-57.617
1626.4656077220002,-73.242,-23.926,-8.301,-49.316
1626.4656077260001,-25.879,-25.391,-1.465,-5.859
1626.4656077289999,21.973000000000003,-28.809,-51.27,-16.113
1626.4656077329998,-2.93,-21.484,-67.87100000000001,-48.828
1626.4656077370003,-91.79700000000001,-27.344,-33.691,-59.082
1626.4656077410002,-62.5,-37.109,-3.906,-15.137
1626.465607745,15.625,-38.574,-28.32,-5.371
1626.4656077470001,17.578,-33.691,-55.663999999999994,-40.039
1626.465607751,-66.406,-37.598,-35.645,-62.012
1626.465607755,-82.031,-39.062,-0.977,-29.785
1626.4656077589998,-8.789,-32.715,-13.184000000000001,-3.906
1626.4656077629998,29.296999999999997,-24.414,-44.434,-30.761999999999997
1626.4656077670002,-32.715,-27.344,-45.41,-65.43
1626.4656077710001,-92.773,-41.016000000000005,-15.625,-47.363
1626.4656077739999,-37.109,-37.109,-16.113,3.418
1626.4656077779998,15.625,-39.551,-49.316,-25.391
1626.465607782,-24.414,-39.551,-66.406,-69.336
1626.465607786,-90.82,-39.062,-24.414,-48.828
1626.46560779,-36.133,-38.086,1.465,4.395
1626.4656077939999,32.227,-24.901999999999997,-38.086,1.465
1626.4656077979998,1.465,-29.296999999999997,-63.477,-49.805
1626.465607802,-87.402,-37.598,-27.831999999999997,-73.73
1626.465607806,-60.059,-28.809,1.953,-21.484
1626.46560781,14.648,-30.761999999999997,-24.901999999999997,-2.441
1626.465607814,24.901999999999997,-28.32,-55.663999999999994,-41.016000000000005
1626.4656078179999,-56.641000000000005,-34.668,-39.062,-62.5
1626.465607821,-70.312,-43.945,5.371,-23.438000000000002
1626.465607825,9.766,-38.574,-9.766,12.695
1626.465607829,33.691,-46.387,-56.641000000000005,-16.113
1626.465607833,-33.203,-50.781000000000006,-49.316,-58.105
1626.465607837,-63.477,-36.133,0.977,-33.203
1626.4656078520002,-0.977,-33.691,-5.371,14.648
1626.465607856,30.273000000000003,-37.598,-46.387,-8.301
1626.4656078599999,-18.555,-44.434,-52.733999999999995,-61.035
1626.4656078639998,-86.426,-45.898,-15.137,-54.199
1626.4656078679998,-37.109,-32.227,2.93,2.93
1626.4656078720002,32.227,-28.809,-35.645,0.488
1626.4656078760001,4.395,-39.551,-67.383,-49.316
1626.465607879,-91.79700000000001,-39.062,-30.273000000000003,-71.289
1626.4656078829998,-70.801,-34.668,8.301,-26.366999999999997
1626.465607887,2.93,-32.715,-17.578,-0.488
1626.465607891,8.789,-40.039,-57.129,-43.945
1626.465607895,-60.547,-53.711000000000006,-44.434,-81.055
1626.4656078970002,-58.593999999999994,-46.387,1.953,-30.273000000000003
1626.465607901,-5.859,-40.527,-15.137,8.301
1626.465607905,10.254000000000001,-44.434,-53.711000000000006,-17.578
1626.465607909,-30.761999999999997,-42.48,-40.527,-46.875
1626.4656079129998,-73.242,-36.621,2.441,-24.901999999999997
1626.465607917,-14.648,-27.344,0.0,13.672
1626.465607921,30.273000000000003,-26.855,-47.852,-1.953
1626.465607924,-4.395,-33.691,-64.941,-45.898
1626.465607928,-90.33200000000001,-43.945,-22.949,-59.082
1626.4656079320002,-57.129,-43.457,-3.418,-12.695
1626.4656079360002,22.461,-37.109,-37.109,-5.371
1626.4656079400002,19.531,-34.668,-58.105,-48.828
1626.4656079420001,-66.406,-30.273000000000003,-33.691,-68.848
1626.465607946,-57.129,-33.203,0.977,-19.531
1626.46560795,16.113,-37.109,-21.973000000000003,0.977
1626.465607954,26.855,-36.621,-59.082,-32.227
1626.465607958,-44.434,-41.504,-41.992,-63.477
1626.4656079620001,-75.195,-38.574,2.441,-33.691
1626.465607966,-17.09,-22.949,-17.578,14.16
1626.4656079689998,18.066,-28.32,-61.523,-15.137
1626.4656079729998,-22.949,-35.156,-62.988,-56.641000000000005
1626.4656079770002,-82.52,-34.18,-25.879,-47.363
1626.465607981,-36.621,-33.691,-10.742,0.0
1626.465607985,21.484,-34.18,-46.875,-4.883
1626.4656079870003,1.953,-38.086,-57.129,-42.968999999999994
1626.465607991,-78.125,-32.715,-12.695,-45.898
1626.4656079949998,-48.34,-22.461,3.906,2.93
1626.4656079989998,8.789,-30.273000000000003,-33.691,8.301
1626.4656080029997,3.906,-35.645,-59.082,-41.992
1626.4656080070001,-65.918,-33.691,-29.785,-63.965
1626.465608011,-67.383,-38.574,6.836,-13.184000000000001
1626.4656080139998,5.859,-31.25,-13.672,16.602
1626.4656080179998,29.785,-38.574,-56.152,-26.366999999999997
1626.465608022,-42.48,-46.387,-49.316,-67.87100000000001
1626.465608026,-81.055,-33.203,2.441,-35.156
1626.4656080299999,-10.742,-20.02,-1.465,14.16
1626.465608033,25.879,-31.738000000000003,-46.387,-11.23
1626.4656080370003,-30.273000000000003,-48.34,-53.711000000000006,-64.453
1626.4656080410002,-91.79700000000001,-41.504,-11.23,-61.035
1626.4656080450002,-31.25,-31.25,9.277000000000001,-3.418
1626.465608049,34.18,-22.461,-25.879,10.742
1626.4656080529999,18.066,-18.066,-59.57,-29.296999999999997
1626.465608057,-69.824,-37.109,-38.086,-57.617
1626.46560806,-59.57,-47.363,-9.766,-16.602
1626.465608064,4.395,-36.621,-27.344,-4.395
1626.465608068,7.324,-33.203,-58.593999999999994,-46.387
1626.4656080720001,-71.289,-39.062,-43.457,-77.637
1626.465608076,-79.59,-31.738000000000003,0.0,-34.668
1626.465608077,-7.324,-24.414,-19.043,0.977
1626.465608081,19.043,-30.273000000000003,-59.082,-33.691
1626.465608085,-46.387,-38.574,-45.898,-72.266
1626.465608089,-90.33200000000001,-39.062,-2.441,-44.434
1626.465608093,-30.273000000000003,-35.156,-11.719000000000001,-0.977
1626.465608097,22.949,-31.25,-42.968999999999994,-20.508000000000003
1626.465608101,-1.953,-33.691,-49.805,-52.246
1626.4656081039998,-85.449,-43.457,-16.113,-56.641000000000005
1626.4656081079997,-52.246,-36.621,-1.465,-16.602
1626.4656081120002,15.625,-42.48,-40.039,-8.301
1626.465608116,5.371,-46.875,-68.359,-48.828
1626.4656081199998,-90.82,-43.945,-41.992,-68.359
1626.4656081220003,-75.684,-33.203,-2.93,-21.973000000000003
1626.4656081260002,9.277000000000001,-28.32,-23.438000000000002,-5.859
1626.4656081300002,31.25,-28.32,-57.129,-35.645
1626.465608134,-50.293,-36.133,-47.852,-69.336
1626.4656081379999,-66.406,-35.645,-7.324,-33.691
1626.4656081420003,-0.977,-27.831999999999997,-10.254000000000001,1.953
1626.4656081460002,22.461,-34.18,-48.828,-24.901999999999997
1626.465608149,-27.344,-44.922,-49.316,-48.828
1626.465608153,-83.008,-37.598,-2.93,-30.761999999999997
1626.4656081570001,-33.691,-28.809,0.0,7.812
1626.465608161,29.785,-37.598,-37.598,-5.859
1626.465608165,16.113,-39.062,-54.688,-41.016000000000005
1626.465608168,-78.125,-36.621,-22.461,-52.246
1626.4656081720002,-46.387,-37.109,1.465,-7.812
1626.4656081760002,27.831999999999997,-32.227,-27.831999999999997,4.395
1626.4656081800001,24.414,-24.901999999999997,-53.223,-25.879
1626.465608184,-56.641000000000005,-26.855,-28.32,-43.945
1626.465608188,-55.176,-30.273000000000003,7.812,-4.883
1626.4656081920002,10.742,-32.227,-17.578,8.301
1626.465608195,29.296999999999997,-32.715,-57.129,-25.391
1626.465608199,-45.898,-28.809,-48.34,-49.805
1626.4656082029999,-81.055,-33.691,-7.324,-23.926
1626.465608207,-9.766,-36.133,-13.184000000000001,7.324
1626.465608211,36.133,-30.273000000000003,-52.733999999999995,-13.184000000000001
1626.4656082420001,-24.901999999999997,-37.598,-50.781000000000006,-51.27
1626.465608246,-99.12100000000001,-40.039,-6.348,-47.363
1626.46560825,-30.761999999999997,-31.25,1.953,7.812
1626.465608254,35.645,-37.109,-36.621,3.906
1626.465608258,10.254000000000001,-41.016000000000005,-60.547,-41.504
1626.4656082620002,-75.684,-39.551,-30.273000000000003,-56.641000000000005
1626.4656082660001,-51.758,-37.109,-2.93,-3.418
1626.465608269,19.043,-31.25,-25.879,13.672
1626.4656082729998,24.901999999999997,-34.18,-55.176,-27.831999999999997
1626.4656082770002,-59.082,-41.992,-38.086,-57.129
1626.4656082810002,-63.477,-40.039,2.93,-9.766
1626.4656082850001,-1.953,-35.645,-14.16,13.184000000000001
1626.465608272,29.296999999999997,-34.668,-57.617,-20.996
1626.465608276,-27.344,-39.062,-52.246,-48.34
1626.46560828,-69.336,-43.457,0.488,-24.414
1626.465608284,-7.324,-35.645,3.906,15.625
1626.4656082879999,44.922,-24.414,-30.273000000000003,-0.977
1626.465608292,3.906,-27.831999999999997,-43.457,-47.852
1626.465608296,-81.055,-33.691,-8.301,-46.875
1626.465608299,-41.504,-24.414,9.277000000000001,10.254000000000001
1626.465608303,25.879,-25.879,-34.18,0.488
1626.4656083070001,11.23,-33.203,-64.941,-41.992
1626.465608311,-73.73,-32.715,-27.831999999999997,-48.34
1626.465608315,-57.129,-32.715,6.348,-10.254000000000001
1626.4656083170003,10.742,-29.785,-26.855,2.93
1626.465608321,15.137,-37.109,-59.57,-39.062
1626.465608325,-70.312,-33.203,-37.598,-73.242
1626.465608329,-71.289,-25.391,3.418,-26.855
1626.4656083329999,-1.465,-30.761999999999997,-15.137,9.766
1626.465608337,30.273000000000003,-33.203,-55.663999999999994,-24.901999999999997
1626.465608341,-28.32,-34.18,-52.733999999999995,-62.5
1626.465608344,-82.031,-35.645,-5.859,-30.761999999999997
1626.4656083479997,-17.578,-32.227,-2.441,7.812
1626.4656083520003,33.691,-35.645,-41.504,-8.789
1626.4656083559998,-5.371,-34.18,-52.246,-41.504
1626.4656083599998,-81.055,-23.438000000000002,-12.207,-45.41
1626.4656083620002,-42.968999999999994,-23.926,8.301,-1.465
1626.4656083660002,17.09,-32.715,-34.668,-5.859
1626.46560837,18.066,-33.691,-65.918,-45.41
1626.4656083739999,-68.848,-26.366999999999997,-29.785,-54.199
1626.4656083779998,-67.87100000000001,-39.551,2.441,-8.789
1626.4656083820003,7.324,-39.062,-29.296999999999997,8.789
1626.4656083860002,30.761999999999997,-24.414,-54.199,-18.555
1626.465608389,-48.34,-34.18,-39.551,-49.316
1626.465608393,-87.891,-43.945,-12.695,-25.879
1626.465608397,-21.973000000000003,-35.645,-25.391,2.93
1626.465608401,25.391,-25.391,-57.617,-19.043
1626.465608405,-32.715,-29.296999999999997,-53.223,-59.082
1626.465608407,-93.262,-35.645,-8.301,-47.363
1626.465608411,-23.926,-30.273000000000003,-8.301,-0.977
1626.465608415,25.391,-32.715,-51.27,-22.949
1626.4656084189999,-20.996,-41.016000000000005,-58.105,-59.57
1626.4656084229998,-93.75,-35.156,-12.695,-55.663999999999994
1626.465608427,-59.082,-28.809,-0.977,-11.719000000000001
1626.465608431,8.301,-30.273000000000003,-42.968999999999994,-6.348
1626.465608434,1.953,-41.504,-66.406,-51.27
1626.465608438,-85.449,-42.48,-35.156,-70.312
1626.465608442,-72.266,-30.761999999999997,4.395,-24.901999999999997
1626.465608446,1.465,-28.32,-26.855,-9.766
1626.46560845,16.113,-34.668,-67.383,-45.898
1626.4656084520002,-57.617,-32.227,-44.922,-68.359
1626.4656084560002,-85.93799999999999,-28.32,-0.488,-39.062
1626.46560846,-24.901999999999997,-31.25,-22.461,-7.324
1626.465608464,20.996,-28.32,-63.477,-29.785
1626.465608468,-25.391,-33.691,-57.617,-62.5
1626.4656084720002,-93.75,-39.062,-11.23,-48.828
1626.4656084760002,-41.992,-34.18,-5.859,-7.324
1626.465608479,14.648,-40.527,-49.805,-16.113
1626.4656084829999,-10.254000000000001,-46.875,-68.359,-59.57
1626.4656084870003,-88.867,-43.945,-30.273000000000003,-55.663999999999994
1626.4656084910002,-63.965,-42.968999999999994,-6.348,-6.348
1626.465608495,9.277000000000001,-38.574,-33.691,-4.883
1626.465608498,19.531,-37.598,-51.27,-37.598
1626.4656085020001,-68.359,-42.48,-31.25,-56.152
1626.465608506,-70.801,-34.668,1.465,-19.531
1626.46560851,5.371,-23.438000000000002,-20.996,3.906
1626.465608514,21.973000000000003,-25.879,-61.523,-23.438000000000002
1626.465608518,-55.176,-37.109,-49.805,-65.918
1626.4656085220001,-92.773,-39.551,-8.301,-44.434
1626.465608525,-31.25,-37.109,-14.16,1.953
1626.465608529,25.391,-31.25,-46.387,-11.23
1626.465608533,-15.625,-29.785,-49.316,-42.48
1626.4656085370002,-92.285,-33.203,-9.277000000000001,-35.645
1626.4656085410002,-46.387,-26.855,-2.93,0.0
1626.4656085420002,17.578,-26.366999999999997,-41.504,-7.324
1626.465608546,-1.465,-38.086,-59.082,-47.363
1626.4656085499998,-86.426,-44.434,-19.043,-57.617
1626.4656085539998,-48.828,-40.039,9.277000000000001,-3.906
1626.4656085579998,25.879,-28.32,-29.785,2.93
1626.465608562,20.996,-29.296999999999997,-64.453,-40.039
1626.465608566,-75.195,-45.41,-46.387,-69.336
1626.465608569,-85.93799999999999,-38.086,3.418,-28.32
1626.465608573,-4.395,-24.414,-5.859,10.742
1626.4656085770002,26.366999999999997,-28.32,-50.781000000000006,-21.973000000000003
1626.4656085810002,-41.016000000000005,-42.48,-47.363,-59.57
1626.465608585,-82.52,-43.945,-4.883,-30.273000000000003
1626.4656086020002,-8.789,-28.32,-4.395,13.672
1626.465608606,42.968999999999994,-30.273000000000003,-40.527,-3.906
1626.46560861,-4.883,-35.156,-51.758,-45.41
1626.4656086139998,-82.52,-28.809,-4.883,-47.363
1626.4656086179998,-30.761999999999997,-22.949,14.648,-3.418
1626.4656086220002,38.086,-22.949,-27.831999999999997,-0.977
1626.4656086260002,20.996,-22.461,-54.688,-38.574
1626.465608629,-70.801,-23.438000000000002,-28.32,-50.293
1626.4656086329999,-66.406,-36.621,4.395,-6.836
1626.465608637,-4.883,-51.758,-26.855,-2.441
1626.465608641,13.184000000000001,-48.34,-54.688,-32.227
1626.465608645,-64.941,-40.039,-31.738000000000003,-57.129
1626.4656086479997,-91.309,-32.715,1.465,-31.738000000000003
1626.4656086520001,-25.879,-27.831999999999997,-14.648,0.977
1626.465608656,18.066,-24.414,-54.688,-20.996
1626.46560866,-30.273000000000003,-24.414,-52.246,-55.663999999999994
1626.465608664,-93.75,-29.785,-11.719000000000001,-39.062
1626.465608668,-25.879,-20.996,-9.277000000000001,2.441
1626.4656086720001,36.621,-19.531,-43.945,-4.883
1626.4656086749999,4.395,-32.227,-50.781000000000006,-42.968999999999994
1626.4656086789998,-76.172,-37.598,-16.602,-50.781000000000006
1626.4656086829998,-48.34,-41.504,-9.277000000000001,-6.348
1626.465608687,17.578,-41.016000000000005,-43.945,-3.906
1626.465608691,8.301,-33.203,-63.477,-46.875
1626.465608693,-74.219,-29.296999999999997,-30.273000000000003,-60.059
1626.465608697,-71.777,-29.296999999999997,0.0,-11.719000000000001
1626.465608701,-2.93,-28.32,-30.273000000000003,6.836
1626.465608705,17.09,-36.133,-63.477,-34.668
1626.465608709,-59.57,-37.598,-47.363,-62.012
1626.4656087129997,-83.49600000000001,-29.785,-0.488,-17.578
1626.465608717,-8.301,-31.25,-11.719000000000001,9.766
1626.46560872,37.109,-36.133,-49.805,-17.578
1626.465608724,-28.32,-43.945,-52.733999999999995,-61.035
1626.465608728,-96.191,-43.945,-14.16,-54.688
1626.4656087320002,-30.761999999999997,-31.738000000000003,-3.906,7.324
1626.4656087360001,32.715,-31.738000000000003,-36.133,-6.836
1626.4656087370001,5.859,-41.504,-53.711000000000006,-58.105
1626.465608741,-77.637,-39.551,-21.484,-52.733999999999995
1626.4656087449998,-56.152,-34.18,-3.906,-4.395
1626.4656087489998,12.207,-34.18,-38.574,-5.371
1626.4656087529997,24.901999999999997,-33.203,-55.663999999999994,-39.551
1626.4656087570002,-57.617,-33.691,-28.809,-57.617
1626.465608761,-62.012,-39.551,-0.488,-15.625
1626.4656087639999,-3.418,-42.48,-22.949,4.395
1626.4656087679998,14.16,-44.434,-60.059,-33.691
1626.465608772,-51.758,-48.34,-53.711000000000006,-68.848
1626.465608776,-86.914,-42.968999999999994,-15.137,-38.574
1626.46560878,-26.855,-34.668,-22.949,9.277000000000001
1626.4656087820001,21.973000000000003,-37.109,-53.711000000000006,-17.578
1626.465608786,-11.23,-43.457,-43.945,-59.57
1626.46560879,-85.449,-48.828,-6.836,-50.781000000000006
1626.465608794,-42.48,-41.016000000000005,-7.324,-10.254000000000001
1626.465608798,24.414,-27.831999999999997,-40.527,-8.301
1626.4656088020001,11.719000000000001,-35.156,-52.246,-49.805
1626.465608806,-70.801,-41.504,-22.949,-62.012
1626.465608809,-64.453,-38.574,-3.906,-21.973000000000003
1626.465608813,4.883,-36.621,-28.32,-14.648
1626.4656088170002,30.273000000000003,-37.109,-47.852,-38.574
1626.4656088210002,-53.711000000000006,-41.016000000000005,-23.926,-58.593999999999994
1626.4656088250001,-67.383,-31.738000000000003,12.207,-27.344
1626.465608827,4.883,-27.344,-13.672,-2.441
1626.465608831,41.992,-35.645,-52.246,-20.996
1626.465608835,-31.25,-41.016000000000005,-41.016000000000005,-55.176
1626.465608839,-95.215,-46.387,-5.859,-38.086
1626.465608843,-29.785,-41.504,-7.324,6.836
1626.465608847,27.831999999999997,-33.203,-42.48,-12.207
1626.465608851,-9.277000000000001,-40.039,-48.828,-53.223
1626.4656088539998,-87.402,-40.039,-4.883,-48.828
1626.4656088579998,-48.828,-29.785,-2.441,-3.906
1626.4656088620002,11.719000000000001,-38.574,-35.156,-9.766
1626.4656088660001,7.324,-42.48,-41.992,-44.922
1626.4656088699999,-78.613,-37.109,-20.508000000000003,-56.152
1626.4656088720003,-63.477,-36.621,4.395,-6.348
1626.4656088760003,15.137,-34.18,-17.578,11.719000000000001
1626.4656088800002,39.062,-28.32,-42.968999999999994,-23.926
1626.4656088839997,-48.34,-32.715,-25.391,-60.059
1626.4656088879997,-77.148,-21.973000000000003,15.137,-22.461
1626.465608892,-0.977,-12.695,3.418,19.531
1626.465608896,38.086,-24.414,-37.598,-5.371
1626.465608899,-36.621,-36.621,-42.968999999999994,-46.387
1626.465608903,-98.145,-40.527,-0.488,-37.598
1626.4656089070002,-24.414,-28.32,-3.418,-0.488
1626.4656089110001,32.227,-31.25,-53.223,-19.043
1626.465608915,-3.418,-38.574,-63.477,-51.27
1626.465608917,-83.008,-31.25,-10.742,-44.434
1626.465608921,-43.945,-23.926,5.859,4.883
1626.465608925,22.949,-32.227,-38.086,6.348
1626.465608929,18.555,-39.062,-58.593999999999994,-34.18
1626.4656089329999,-71.289,-31.738000000000003,-31.738000000000003,-55.176
1626.465608937,-72.75399999999999,-30.273000000000003,0.977,-15.625
1626.465608941,-2.441,-41.992,-31.25,5.859
1626.465608944,27.344,-35.645,-61.523,-21.484
1626.465608948,-46.875,-26.366999999999997,-37.109,-53.223
1626.4656089520001,-84.961,-33.203,0.488,-24.414
1626.465608956,-23.926,-37.598,-18.066,6.836
1626.46560896,23.926,-32.227,-51.27,-11.23
1626.4656089770003,-31.25,-35.645,-46.387,-52.733999999999995
1626.465608981,-105.95700000000001,-39.551,-16.602,-49.805
1626.4656089849998,-52.246,-36.621,-12.695,-8.301
1626.4656089889997,10.254000000000001,-41.992,-48.34,-20.02
1626.4656089929997,-10.742,-39.551,-65.918,-59.57
1626.4656089970001,-84.961,-37.109,-34.668,-62.5
1626.465609001,-52.246,-36.621,-14.16,-15.625
1626.465609004,22.949,-31.25,-41.016000000000005,-7.324
1626.465609008,26.366999999999997,-30.273000000000003,-62.988,-37.109
1626.4656090120002,-75.684,-37.109,-32.715,-56.152
1626.4656090160001,-77.148,-30.761999999999997,4.883,-17.578
1626.4656090199999,-3.906,-31.738000000000003,-24.414,-7.812
1626.465609022,20.996,-41.016000000000005,-62.5,-40.039
1626.465609026,-41.016000000000005,-38.574,-44.922,-62.5
1626.46560903,-83.008,-35.156,-6.836,-39.062
1626.465609034,-18.555,-23.926,-10.254000000000001,-2.93
1626.465609038,40.039,-25.391,-43.457,-25.879
1626.465609042,-3.906,-30.273000000000003,-41.992,-57.617
1626.465609046,-84.473,-25.391,-5.859,-46.875
1626.465609049,-36.621,-14.16,3.906,0.488
1626.465609053,28.809,-25.391,-36.133,-5.859
1626.4656090570002,3.906,-45.41,-66.895,-50.293
1626.4656090610001,-94.727,-50.293,-35.645,-62.5
1626.465609065,-62.988,-41.016000000000005,-1.465,-13.672
1626.465609067,21.973000000000003,-26.855,-17.578,5.371
1626.465609071,34.18,-28.809,-49.805,-30.273000000000003
1626.465609075,-58.105,-32.227,-34.18,-65.43
1626.465609079,-78.613,-37.598,3.418,-35.645
1626.465609083,-6.348,-41.504,-14.648,-5.859
1626.465609087,34.668,-38.086,-57.129,-36.133
1626.465609091,-18.066,-42.48,-48.828,-60.547
1626.4656090939998,-72.75399999999999,-38.086,1.953,-26.366999999999997
1626.4656090979997,-30.761999999999997,-43.945,-1.953,8.789
1626.4656091020001,14.648,-50.781000000000006,-41.504,-18.066
1626.4656091059999,-14.648,-43.457,-46.387,-49.316
1626.4656091099998,-98.145,-44.922,-11.719000000000001,-44.434
1626.4656091120003,-58.105,-38.086,-0.977,-3.418
1626.4656091160002,20.02,-32.715,-32.227,-2.93
1626.46560912,5.371,-45.898,-46.875,-41.504
1626.465609124,-83.984,-45.41,-10.254000000000001,-46.387
1626.4656091279999,-63.477,-36.133,20.508000000000003,2.441
1626.4656091320003,17.09,-34.668,-13.184000000000001,7.812
1626.4656091360002,21.484,-41.992,-56.641000000000005,-35.156
1626.465609139,-75.195,-54.688,-45.898,-65.918
1626.465609143,-89.844,-53.223,-4.395,-26.366999999999997
1626.4656091470001,-5.371,-39.551,-14.648,8.301
1626.465609151,39.062,-33.203,-52.246,-19.531
1626.465609155,-21.484,-41.016000000000005,-52.733999999999995,-55.176
1626.465609157,-82.52,-42.48,-8.789,-38.574
1626.465609161,-27.344,-30.273000000000003,-6.836,3.906
1626.465609165,27.344,-32.715,-48.34,-7.812
1626.465609169,-8.301,-39.551,-53.223,-51.27
1626.4656091729998,-89.355,-39.062,-9.766,-57.617
1626.465609177,-45.41,-29.785,12.695,-3.418
1626.465609181,29.785,-28.809,-33.203,-7.324
1626.465609184,13.672,-42.968999999999994,-64.941,-56.152
1626.465609188,-82.031,-40.039,-26.855,-71.289
1626.465609192,-59.57,-25.391,3.906,-20.508000000000003
1626.465609196,14.648,-25.879,-25.879,-7.812
1626.4656092,31.25,-28.809,-50.293,-42.48
1626.4656092029998,-49.805,-30.273000000000003,-36.133,-62.988
1626.465609207,-79.59,-29.785,-5.371,-32.227
1626.465609211,-5.859,-30.273000000000003,-19.043,3.418
1626.4656092149999,29.785,-29.296999999999997,-55.176,-16.602
1626.4656092189998,-29.785,-33.203,-53.711000000000006,-57.617
1626.4656092229998,-89.355,-35.645,-11.719000000000001,-50.781000000000006
1626.4656092270002,-27.831999999999997,-26.366999999999997,-7.812,-5.371
1626.46560923,20.996,-33.691,-44.434,-22.949
1626.4656092339999,-20.02,-39.551,-55.176,-68.848
1626.4656092379998,-97.656,-34.668,-16.602,-69.336
1626.465609242,-56.641000000000005,-31.738000000000003,1.465,-11.23
1626.465609246,10.742,-31.738000000000003,-34.668,-1.953
1626.4656092470002,5.371,-29.785,-62.988,-44.922
1626.4656092510002,-75.684,-34.668,-31.738000000000003,-63.965
1626.4656092550001,-65.43,-34.18,-0.488,-22.461
1626.4656092589998,5.371,-28.32,-30.761999999999997,0.977
1626.4656092629998,23.438000000000002,-23.926,-54.688,-23.438000000000002
1626.4656092670002,-37.598,-16.113,-27.831999999999997,-39.551
1626.4656092710002,-71.777,-23.438000000000002,8.301,-19.531
1626.465609274,-15.625,-31.25,-7.812,1.953
1626.4656092779999,33.203,-28.809,-43.945,-13.184000000000001
1626.465609282,-17.578,-39.551,-53.223,-58.105
1626.465609286,-77.148,-35.156,-15.625,-51.27
1626.46560929,-33.691,-29.785,-13.184000000000001,-0.977
1626.465609293,15.137,-33.203,-49.805,-14.648
1626.4656092970001,-8.789,-38.086,-56.152,-53.711000000000006
1626.465609301,-96.191,-44.434,-14.16,-53.711000000000006
1626.465609305,-65.918,-39.551,9.766,-7.324
1626.465609309,6.348,-42.48,-25.391,-7.812
1626.465609313,10.254000000000001,-44.922,-56.152,-48.34
1626.4656093170001,-77.637,-33.691,-36.133,-66.895
1626.4656093199999,-80.566,-26.366999999999997,5.371,-20.996
1626.4656093239998,-16.602,-29.296999999999997,-19.531,-3.418
1626.4656093279998,1.465,-35.645,-60.059,-33.691
1626.465609332,-61.035,-43.945,-43.945,-60.547
1626.465609336,-91.309,-33.691,3.418,-36.133
1626.4656093520002,-27.344,-32.227,-7.812,0.977
1626.465609356,19.043,-41.504,-53.223,-20.996
1626.46560936,-21.484,-44.922,-60.059,-62.988
1626.4656093639999,-98.633,-39.062,-16.602,-58.105
1626.4656093679998,-40.527,-23.438000000000002,6.836,-1.465
1626.4656093720002,34.668,-20.508000000000003,-29.785,-4.395
1626.4656093760002,12.695,-33.203,-59.57,-54.199
1626.465609379,-88.867,-44.922,-32.227,-68.848
1626.465609383,-62.988,-39.551,-4.883,-12.207
1626.465609387,25.879,-34.18,-31.25,10.254000000000001
1626.465609391,21.973000000000003,-37.109,-60.059,-27.831999999999997
1626.465609395,-70.801,-44.922,-39.062,-62.5
1626.465609397,-70.312,-37.598,-0.488,-19.531
1626.465609401,0.0,-27.831999999999997,-21.484,15.625
1626.465609405,38.086,-33.203,-58.105,-13.184000000000001
1626.4656094089999,-30.273000000000003,-32.227,-51.27,-52.246
1626.4656094129998,-84.473,-26.366999999999997,-2.441,-23.438000000000002
1626.465609417,-3.906,-16.113,2.441,27.344
1626.465609421,32.227,-25.879,-50.781000000000006,-8.301
1626.465609424,-21.973000000000003,-33.691,-60.059,-48.828
1626.4656094279999,-77.148,-36.133,-11.719000000000001,-32.227
1626.465609432,-34.18,-41.016000000000005,-13.672,4.883
1626.465609436,30.273000000000003,-27.831999999999997,-47.363,4.395
1626.46560944,21.973000000000003,-25.391,-55.663999999999994,-43.457
1626.4656094420002,-69.824,-26.366999999999997,-26.855,-66.406
1626.4656094460001,-52.246,-21.484,5.859,-3.418
1626.46560945,20.508000000000003,-25.879,-25.879,12.695
1626.465609454,31.738000000000003,-27.344,-58.105,-25.879
1626.465609458,-44.434,-25.879,-38.574,-47.363
1626.4656094620002,-59.57,-25.879,1.465,-10.254000000000001
1626.4656094660002,6.836,-29.785,-20.508000000000003,17.09
1626.465609469,41.016000000000005,-37.598,-62.5,-19.043
1626.4656094729999,-25.879,-36.133,-58.593999999999994,-59.082
1626.4656094770003,-73.242,-25.879,-13.184000000000001,-34.668
1626.465609481,-6.836,-20.996,-8.789,3.906
1626.465609485,48.828,-24.901999999999997,-45.898,-10.254000000000001
1626.4656094870002,11.23,-34.668,-52.246,-44.434
1626.4656094910001,-76.172,-40.039,-10.742,-44.434
1626.4656094949999,-31.25,-32.715,1.953,3.418
1626.4656094989998,24.414,-33.691,-46.387,1.465
1626.4656095029998,10.254000000000001,-31.738000000000003,-77.637,-38.574
1626.4656095070002,-58.593999999999994,-18.066,-36.133,-50.781000000000006
1626.4656095110001,-42.968999999999994,-8.789,1.953,-7.812
1626.4656095139999,17.578,-16.602,-25.879,4.883
1626.4656095179998,29.785,-25.391,-58.105,-27.344
1626.465609522,-58.105,-32.715,-54.688,-59.082
1626.465609526,-86.914,-29.296999999999997,-15.625,-25.879
1626.46560953,-11.23,-23.438000000000002,-23.438000000000002,8.789
1626.4656095320001,27.344,-22.949,-61.035,-18.555
1626.465609536,-28.809,-23.926,-62.5,-62.988
1626.46560954,-90.33200000000001,-23.438000000000002,-17.578,-51.758
1626.465609544,-31.25,-20.508000000000003,-8.789,-4.883
1626.4656095479997,23.926,-32.227,-45.898,-14.16
1626.465609552,-4.883,-41.992,-58.105,-56.152
1626.465609556,-82.52,-32.227,-20.996,-64.941
1626.465609559,-57.129,-32.715,-11.719000000000001,-18.066
1626.465609563,10.254000000000001,-35.156,-48.34,-5.859
1626.4656095670002,29.296999999999997,-24.901999999999997,-64.941,-31.738000000000003
1626.4656095710002,-57.129,-20.996,-38.086,-48.828
1626.4656095750001,-68.359,-24.414,-7.812,-17.09
1626.4656095770001,6.836,-22.949,-29.785,0.0
1626.465609581,31.25,-24.414,-62.012,-29.785
1626.465609585,-42.48,-32.227,-51.758,-57.617
1626.465609589,-78.125,-33.691,-9.766,-28.32
1626.465609593,-11.719000000000001,-35.156,-13.184000000000001,2.93
1626.4656095970001,30.761999999999997,-32.715,-41.504,-20.508000000000003
1626.465609601,-28.809,-43.945,-54.688,-63.477
1626.4656096039998,-89.844,-51.27,-29.296999999999997,-54.688
1626.4656096079998,-25.391,-35.645,-16.602,3.418
1626.4656096120002,24.901999999999997,-35.645,-54.688,-2.93
1626.4656096160002,-7.324,-51.758,-72.75399999999999,-44.922
1626.46560962,-86.914,-55.663999999999994,-30.761999999999997,-53.223
1626.4656096220003,-53.711000000000006,-42.968999999999994,-4.395,-6.836
1626.465609626,8.301,-39.062,-38.574,5.371
1626.46560963,14.648,-42.968999999999994,-63.477,-32.227
1626.4656096339997,-71.289,-41.992,-44.434,-55.663999999999994
1626.4656096379997,-76.66,-31.25,-5.859,-7.324
1626.4656096420001,5.859,-21.484,-13.672,20.02
1626.465609646,28.809,-24.901999999999997,-56.152,-17.578
1626.4656096489998,-42.968999999999994,-41.992,-54.688,-55.663999999999994
1626.4656096529998,-77.148,-39.551,-5.371,-23.438000000000002
1626.465609657,-16.602,-37.109,-10.254000000000001,18.555
1626.465609661,15.625,-41.504,-56.152,-10.742
1626.4656096649999,-36.621,-46.387,-59.082,-58.105
