timestamps,TP9,AF7,AF8,TP10
1626466377.741,-44.434,-44.922,-9.766,-8.301
1626466377.745,8.301,-11.719,-5.859,51.758
1626466377.749,-29.297,-44.434,-51.758,-23.926
1626466377.753,-77.637,-80.566,-60.059,-69.824
1626466377.757,-44.922,-57.617,-27.344,-25.879
1626466377.761,15.625,-5.859,10.254,64.453
1626466377.765,-21.484,-23.926,-32.227,19.531
1626466377.768,-64.941,-70.312,-55.176,-61.035
1626466377.772,-28.809,-62.500,-27.344,-37.598
1626466377.776,13.184,-30.273,7.812,43.457
1626466377.780,8.301,-28.320,-15.137,42.969
1626466377.784,-49.316,-68.848,-45.898,-40.039
1626466377.785,-61.035,-75.195,-34.668,-54.688
1626466377.789,0.977,-34.180,-2.930,20.020
1626466377.793,23.438,-11.230,-8.301,60.059
1626466377.797,-28.320,-49.316,-44.434,-13.672
1626466377.801,-50.293,-68.359,-33.691,-38.574
1626466377.805,-12.207,-32.715,7.812,20.508
1626466377.809,33.203,-0.977,17.090,73.730
1626466377.812,3.906,-33.203,-20.020,13.184
1626466377.816,-38.574,-65.430,-21.973,-59.570
1626466377.820,-30.273,-58.594,15.137,-41.992
1626466377.824,30.762,-17.090,45.410,42.480
1626466377.828,24.902,-23.926,12.207,21.973
1626466377.845,-32.715,-62.500,3.906,-46.875
1626466377.849,-41.504,-62.012,28.320,-28.809
1626466377.853,9.766,-20.508,66.406,43.945
1626466377.857,14.160,-15.137,45.898,47.852
1626466377.861,-46.875,-63.965,10.742,-29.297
1626466377.865,-51.270,-66.895,24.902,-55.176
1626466377.869,-3.418,-39.062,56.641,0.000
1626466377.872,29.785,-24.902,56.152,50.293
1626466377.876,-14.648,-60.547,15.137,-13.184
1626466377.880,-50.293,-94.238,6.348,-50.781
1626466377.884,-15.137,-80.566,42.969,-9.766
1626466377.888,34.180,-45.410,62.988,45.898
1626466377.890,-1.465,-67.871,21.484,-5.859
1626466377.894,-51.758,-100.098,11.719,-72.754
1626466377.898,-36.621,-92.285,40.527,-38.086
1626466377.902,12.207,-57.129,72.266,40.039
1626466377.906,11.719,-56.641,35.645,12.207
1626466377.910,-41.992,-85.449,9.766,-62.012
1626466377.914,-63.477,-93.750,31.738,-65.430
1626466377.917,-3.418,-67.383,71.777,1.953
1626466377.921,12.695,-47.363,48.340,13.184
1626466377.925,-60.059,-99.609,-3.418,-69.336
1626466377.929,-75.684,-125.488,2.930,-96.680
1626466377.933,-14.648,-83.496,38.574,-26.855
1626466377.935,16.602,-60.059,29.297,22.461
1626466377.939,-30.273,-95.703,-20.020,-38.574
1626466377.943,-64.453,-119.629,-21.973,-86.426
1626466377.947,-29.297,-102.051,9.766,-63.477
1626466377.951,20.508,-55.664,30.762,14.160
1626466377.955,-11.719,-68.359,-7.324,-34.668
1626466377.959,-59.082,-110.840,-25.391,-106.445
1626466377.962,-40.527,-108.887,1.465,-80.566
1626466377.966,14.648,-62.988,37.598,-1.953
1626466377.970,-0.488,-62.012,5.371,-3.418
1626466377.974,-54.199,-103.516,-24.414,-75.195
1626466377.978,-60.059,-102.539,-11.230,-88.867
1626466377.983,-8.301,-60.059,23.926,-17.090
1626466377.987,12.695,-49.805,12.207,17.090
1626466377.991,-49.805,-97.168,-31.738,-58.594
1626466377.995,-69.824,-122.070,-34.180,-87.402
1626466377.999,-23.926,-86.426,-1.953,-31.738
1626466378.003,21.484,-40.039,9.277,27.344
1626466378.007,-20.996,-73.730,-39.062,-27.832
1626466378.010,-67.383,-113.281,-47.852,-81.055
1626466378.014,-43.945,-98.145,-5.859,-44.922
1626466378.018,14.648,-59.082,13.184,24.902
1626466378.022,-11.719,-71.289,-35.645,-7.812
1626466378.026,-64.941,-106.934,-49.316,-64.453
1626466378.026,-55.664,-94.238,-16.602,-42.480
1626466378.030,2.930,-50.293,10.254,14.160
1626466378.034,-0.977,-55.176,-23.926,8.789
1626466378.038,-60.059,-94.238,-53.223,-62.988
1626466378.042,-75.684,-95.703,-38.086,-82.520
1626466378.046,-10.742,-51.758,1.953,-12.695
1626466378.050,30.273,-20.996,-10.254,19.531
1626466378.053,-43.457,-72.754,-54.199,-46.875
1626466378.057,-70.801,-102.539,-51.758,-83.984
1626466378.061,-13.184,-66.406,-16.113,-29.785
1626466378.065,27.344,-27.832,-0.488,30.273
1626466378.069,-13.672,-59.570,-43.457,-26.367
1626466378.070,-26.367,-86.426,-53.223,-71.289
1626466378.074,-3.418,-65.918,-20.996,-44.922
1626466378.078,42.480,-29.785,0.000,18.555
1626466378.082,26.855,-42.969,-41.016,-11.230
1626466378.086,-45.898,-91.797,-57.129,-73.242
1626466378.090,-43.945,-78.125,-28.320,-65.918
1626466378.094,10.742,-35.156,2.441,-12.207
1626466378.097,10.254,-37.598,-20.508,0.488
1626466378.101,-49.805,-72.266,-45.410,-57.617
1626466378.105,-52.246,-86.426,-32.715,-83.008
1626466378.109,0.488,-61.523,7.324,-25.391
1626466378.113,10.742,-49.805,6.348,20.508
1626466378.115,-47.852,-84.473,-30.273,-41.016
1626466378.119,-71.777,-111.816,-29.297,-90.332
1626466378.123,-24.902,-97.168,11.719,-31.738
1626466378.127,29.297,-63.965,33.691,31.250
1626466378.131,-2.441,-83.008,-3.906,-22.949
1626466378.135,-77.148,-119.141,-19.531,-77.637
1626466378.139,-51.758,-114.258,4.883,-59.082
1626466378.142,35.645,-72.266,40.527,16.113
1626466378.146,4.395,-80.078,1.465,7.324
1626466378.150,-48.340,-118.652,-26.855,-64.941
1626466378.154,-42.969,-101.562,-0.488,-69.336
1626466378.158,5.859,-56.641,41.992,6.348
1626466378.162,8.301,-56.641,14.160,19.531
1626466378.166,-48.828,-95.703,-24.414,-57.617
1626466378.170,-55.176,-100.098,-2.441,-76.660
1626466378.174,-7.812,-61.523,35.645,-13.672
1626466378.178,20.020,-38.574,21.484,38.574
1626466378.182,-35.156,-68.359,-28.809,-33.203
1626466378.186,-65.918,-90.820,-21.484,-81.055
1626466378.189,-33.691,-73.730,20.508,-29.297
1626466378.193,8.301,-34.668,32.715,26.855
1626466378.197,-27.344,-62.500,-20.020,-29.785
1626466378.201,-83.008,-110.840,-35.645,-93.262
1626466378.205,-62.012,-96.680,-4.395,-61.035
1626466378.221,8.789,-49.316,27.832,20.508
1626466378.225,-7.812,-49.805,-0.488,-1.465
1626466378.229,-89.355,-87.891,-24.414,-90.332
1626466378.233,-82.520,-92.773,-8.789,-99.609
1626466378.237,-16.113,-58.594,26.367,-33.203
1626466378.241,-15.137,-46.875,5.859,-6.348
1626466378.245,-72.754,-85.938,-32.715,-75.684
1626466378.248,-94.727,-104.980,-20.996,-103.516
1626466378.252,-36.621,-78.125,16.113,-35.645
1626466378.256,1.465,-44.922,22.461,37.109
1626466378.260,-50.293,-74.707,-17.578,-37.109
1626466378.264,-76.660,-101.562,-17.578,-93.262
1626466378.265,-35.645,-73.730,14.160,-44.434
1626466378.269,15.137,-37.598,33.203,19.043
1626466378.273,-18.555,-56.641,-14.160,-9.277
1626466378.277,-55.176,-84.961,-26.367,-66.406
1626466378.281,-41.504,-76.660,2.930,-59.082
1626466378.285,2.930,-28.809,27.832,5.371
1626466378.289,-6.348,-27.344,-13.672,1.465
1626466378.292,-60.059,-69.336,-51.758,-71.289
1626466378.296,-62.988,-77.148,-29.297,-93.750
1626466378.300,-19.531,-57.617,1.953,-32.715
1626466378.304,7.324,-37.598,-9.277,1.465
1626466378.308,-34.668,-68.359,-45.410,-61.523
1626466378.310,-62.012,-81.055,-36.133,-76.660
1626466378.314,-20.508,-48.828,2.930,-26.367
1626466378.318,27.344,-21.973,10.742,17.090
1626466378.322,-20.996,-48.340,-30.762,-40.039
1626466378.326,-69.336,-73.242,-42.969,-90.820
1626466378.330,-38.574,-49.805,-21.973,-49.316
1626466378.334,17.578,-1.465,8.301,28.320
1626466378.337,-8.789,-22.461,-23.438,-3.906
1626466378.341,-66.406,-68.359,-56.641,-76.172
1626466378.345,-61.035,-69.336,-37.598,-76.172
1626466378.349,1.953,-31.250,8.301,-9.766
1626466378.353,-0.977,-20.508,-16.602,-7.812
1626466378.355,-80.566,-56.152,-53.223,-78.613
1626466378.359,-89.355,-69.824,-47.363,-90.820
1626466378.363,-26.855,-38.574,-18.066,-37.598
1626466378.367,4.395,-18.066,-30.762,-7.812
1626466378.371,-44.434,-55.664,-68.848,-71.777
1626466378.375,-77.148,-67.383,-56.152,-114.258
1626466378.379,-32.715,-37.598,-19.531,-54.688
1626466378.382,17.578,-7.812,-11.719,4.883
1626466378.386,-38.086,-41.992,-63.477,-57.129
1626466378.390,-88.867,-79.590,-65.430,-94.727
1626466378.394,-58.594,-65.918,-30.762,-54.688
1626466378.398,-3.418,-40.527,-9.277,0.488
1626466378.400,-21.973,-51.270,-50.293,-21.484
1626466378.404,-62.988,-78.125,-75.684,-79.590
1626466378.408,-54.688,-81.543,-54.688,-79.102
1626466378.412,-7.324,-47.852,-14.648,-9.277
1626466378.416,8.301,-30.762,-35.156,-8.789
1626466378.420,-60.547,-62.500,-63.965,-84.473
1626466378.424,-81.055,-72.266,-48.340,-86.426
1626466378.427,-21.973,-49.316,-16.602,-32.227
1626466378.431,-1.465,-26.855,-12.695,8.789
1626466378.435,-52.734,-60.059,-60.059,-48.828
1626466378.439,-93.750,-85.449,-61.523,-94.238
1626466378.443,-64.453,-58.594,-21.973,-50.781
1626466378.445,7.812,-19.043,-3.906,18.555
1626466378.449,-23.438,-39.062,-38.574,-24.414
1626466378.453,-79.102,-72.754,-44.922,-87.891
1626466378.457,-56.152,-62.012,-13.184,-61.523
1626466378.461,2.930,-22.949,21.484,13.672
1626466378.465,4.883,-26.367,-13.184,7.812
1626466378.469,-51.270,-74.707,-45.410,-66.895
1626466378.472,-55.176,-77.637,-37.109,-81.543
1626466378.476,0.000,-38.574,-7.324,-17.090
1626466378.480,6.348,-35.645,-15.137,1.953
1626466378.484,-56.152,-77.637,-46.387,-63.477
1626466378.488,-76.660,-87.891,-43.945,-84.473
1626466378.490,-24.414,-52.246,-12.207,-24.902
1626466378.494,13.672,-26.855,-5.859,20.508
1626466378.498,-39.551,-58.594,-54.688,-39.062
1626466378.502,-77.637,-80.566,-68.848,-97.656
1626466378.506,-48.828,-54.688,-35.645,-81.543
1626466378.510,-0.488,-19.043,-11.719,-1.465
1626466378.514,-31.738,-43.945,-61.035,-31.250
1626466378.517,-79.590,-93.262,-78.613,-94.238
1626466378.521,-63.965,-83.984,-56.152,-77.148
1626466378.525,-7.324,-40.527,-26.855,-3.906
1626466378.529,-3.906,-33.203,-44.922,6.836
1626466378.533,-66.895,-66.895,-70.801,-74.707
1626466378.535,-77.637,-76.660,-57.129,-96.191
1626466378.539,-23.926,-46.387,-17.578,-15.137
1626466378.543,-1.465,-23.926,-28.320,21.973
1626466378.547,-38.086,-52.734,-68.848,-51.758
1626466378.551,-57.617,-80.078,-63.477,-85.449
1626466378.555,-20.996,-49.316,-24.414,-44.922
1626466378.559,22.461,-6.348,-11.719,19.043
1626466378.562,-7.812,-46.875,-58.594,-31.738
1626466378.566,-49.805,-64.941,-69.336,-86.426
1626466378.570,-44.434,-47.852,-50.293,-58.105
1626466378.574,-1.953,-28.809,-30.762,4.883
1626466378.578,-9.277,-37.598,-66.406,-29.785
1626466378.595,-55.176,-78.613,-70.312,-100.098
1626466378.599,-56.641,-76.660,-48.340,-83.496
1626466378.603,-3.418,-39.551,-25.391,-19.043
1626466378.607,3.418,-35.645,-34.668,-17.090
1626466378.611,-51.758,-71.777,-62.012,-87.891
1626466378.615,-62.500,-74.219,-51.758,-97.656
1626466378.619,-17.090,-43.945,-19.531,-27.344
1626466378.622,12.695,-27.344,-28.809,5.859
1626466378.626,-34.668,-54.688,-65.918,-66.406
1626466378.630,-67.383,-78.125,-68.359,-86.914
1626466378.634,-23.438,-54.688,-34.668,-37.598
1626466378.638,15.137,-13.184,-15.625,18.066
1626466378.640,-25.879,-33.691,-60.547,-32.227
1626466378.644,-67.871,-73.242,-80.078,-90.820
1626466378.648,-62.988,-65.430,-43.457,-64.941
1626466378.652,-11.230,-31.250,-2.441,4.883
1626466378.656,-15.137,-41.504,-41.992,-10.742
1626466378.660,-75.195,-71.777,-60.547,-77.637
1626466378.664,-70.801,-62.988,-38.574,-75.195
1626466378.667,0.977,-25.879,-8.789,2.441
1626466378.671,7.812,-24.902,-27.832,7.324
1626466378.675,-56.152,-66.895,-66.406,-79.102
1626466378.679,-68.848,-73.730,-58.105,-88.867
1626466378.683,-24.414,-54.199,-13.184,-26.855
1626466378.686,10.254,-26.367,-0.977,27.344
1626466378.690,-45.410,-50.293,-33.691,-35.645
1626466378.694,-70.801,-66.406,-29.297,-85.449
1626466378.698,-28.809,-49.316,-8.789,-36.621
1626466378.702,19.043,-22.949,0.488,25.391
1626466378.706,-16.113,-37.109,-29.297,-18.066
1626466378.710,-72.754,-67.383,-34.180,-81.055
1626466378.713,-48.828,-69.336,-14.160,-64.453
1626466378.717,11.230,-41.504,5.371,12.207
1626466378.721,-1.465,-42.969,-16.113,-3.906
1626466378.725,-49.805,-77.148,-35.156,-78.613
1626466378.729,-60.547,-77.637,-21.973,-91.309
1626466378.730,-11.230,-39.551,15.625,-24.414
1626466378.734,15.625,-23.438,-0.977,9.766
1626466378.738,-33.203,-55.176,-45.898,-61.035
1626466378.742,-47.363,-66.895,-32.227,-85.938
1626466378.746,-3.906,-44.922,11.230,-17.578
1626466378.750,29.297,-18.555,2.441,41.992
1626466378.754,-16.113,-41.016,-46.387,-35.645
1626466378.757,-44.922,-70.801,-50.781,-80.078
1626466378.761,-22.461,-70.312,-23.926,-41.016
1626466378.765,21.973,-46.875,-3.906,15.137
1626466378.769,-12.207,-54.688,-38.574,-10.742
1626466378.773,-67.383,-86.914,-52.734,-87.402
1626466378.775,-65.430,-79.102,-33.691,-86.426
1626466378.779,-11.719,-32.715,-3.906,-0.977
1626466378.783,-9.766,-32.715,-29.297,-8.301
1626466378.787,-68.848,-70.801,-57.129,-72.266
1626466378.791,-65.918,-76.660,-52.246,-70.801
1626466378.795,-4.883,-32.227,-23.438,-24.414
1626466378.799,12.695,-12.207,-38.086,-13.672
1626466378.802,-45.410,-61.523,-71.777,-83.984
1626466378.806,-62.988,-77.148,-62.988,-105.957
1626466378.810,-20.508,-41.016,-32.227,-44.434
1626466378.814,17.578,-14.160,-25.879,20.020
1626466378.818,-27.832,-45.410,-67.871,-30.273
1626466378.820,-48.340,-65.430,-68.848,-74.219
1626466378.824,-15.625,-51.758,-45.410,-49.316
1626466378.828,26.855,-28.320,-29.297,12.695
1626466378.832,3.418,-40.039,-72.266,-18.066
1626466378.836,-43.945,-71.289,-88.867,-83.984
1626466378.840,-39.062,-62.012,-55.176,-66.895
1626466378.844,16.113,-24.414,-22.461,-0.488
1626466378.847,26.855,-30.762,-52.246,11.230
1626466378.851,-27.344,-71.777,-80.566,-50.781
1626466378.855,-35.645,-74.219,-70.312,-75.195
1626466378.859,4.395,-43.457,-42.969,-14.160
1626466378.863,19.531,-35.156,-44.434,26.855
1626466378.866,-34.668,-58.594,-73.730,-36.621
1626466378.870,-72.754,-76.660,-71.777,-79.590
1626466378.874,-37.598,-59.082,-40.527,-56.152
1626466378.878,19.043,-27.344,-23.438,17.090
1626466378.882,-35.156,-58.594,-62.500,-31.738
1626466378.886,-83.984,-76.172,-72.266,-103.516
1626466378.890,-41.504,-62.988,-48.828,-64.941
1626466378.893,11.719,-39.062,-25.879,5.371
1626466378.897,-2.441,-43.945,-58.594,-15.137
1626466378.901,-58.105,-79.590,-85.938,-77.148
1626466378.905,-48.340,-76.172,-68.359,-65.430
1626466378.909,14.648,-40.527,-20.996,6.348
1626466378.910,13.672,-29.297,-30.273,14.648
1626466378.914,-49.805,-76.172,-68.848,-61.523
1626466378.918,-64.453,-91.309,-64.453,-80.078
1626466378.922,-7.324,-56.641,-26.367,-15.625
1626466378.926,27.832,-33.691,-26.367,26.367
1626466378.930,-24.902,-62.988,-71.777,-37.109
1626466378.934,-51.758,-96.191,-76.660,-82.520
1626466378.937,-19.043,-82.031,-41.992,-51.270
1626466378.941,18.066,-34.668,-28.809,9.766
1626466378.945,-21.973,-56.152,-72.266,-26.367
1626466378.949,-64.941,-85.449,-75.684,-77.637
1626466378.953,-30.762,-64.453,-46.875,-61.035
1626466378.970,20.508,-35.645,-17.090,11.230
1626466378.974,-4.883,-49.316,-55.176,-2.441
1626466378.978,-45.410,-79.590,-78.613,-80.566
1626466378.982,-49.316,-73.242,-52.246,-83.008
1626466378.986,-1.953,-38.574,-18.066,-22.461
1626466378.990,26.855,-27.344,-31.738,9.277
1626466378.994,-29.297,-62.500,-67.383,-53.711
1626466378.997,-61.035,-84.961,-62.500,-85.938
1626466379.001,-15.137,-63.477,-30.273,-29.785
1626466379.005,17.090,-28.320,-21.973,30.273
1626466379.009,-32.715,-59.082,-57.617,-42.480
1626466379.013,-60.059,-87.402,-62.012,-92.773
1626466379.015,-34.180,-65.918,-26.855,-47.852
1626466379.019,15.625,-30.762,-4.395,11.230
1626466379.023,-16.602,-47.852,-48.340,-30.762
1626466379.027,-77.637,-83.984,-62.988,-89.355
1626466379.031,-61.035,-78.125,-45.898,-67.871
1626466379.035,4.395,-31.250,-12.207,9.277
1626466379.039,-11.719,-27.344,-34.668,14.160
1626466379.042,-61.035,-71.777,-62.500,-55.664
1626466379.046,-47.852,-79.102,-40.039,-66.895
1626466379.050,1.953,-55.176,-11.230,-8.789
1626466379.054,25.879,-39.551,-26.855,20.996
1626466379.058,-37.598,-71.777,-61.035,-52.734
1626466379.061,-64.941,-84.961,-58.594,-93.262
1626466379.065,-32.715,-55.664,-38.574,-36.133
1626466379.069,4.395,-26.367,-26.855,10.254
1626466379.073,-43.457,-53.223,-62.988,-61.035
1626466379.077,-84.961,-91.309,-63.965,-106.445
1626466379.081,-45.410,-68.848,-42.480,-70.312
1626466379.085,6.348,-29.785,-27.344,4.395
1626466379.088,-17.090,-53.223,-48.340,-18.555
1626466379.092,-66.895,-86.914,-59.082,-87.891
1626466379.096,-59.570,-75.195,-39.062,-67.383
1626466379.100,4.395,-37.598,-3.418,19.043
1626466379.104,9.766,-40.527,-28.809,22.461
1626466379.105,-56.152,-79.102,-61.035,-55.664
1626466379.109,-61.523,-76.172,-45.410,-66.406
1626466379.113,0.488,-43.945,-10.742,-0.488
1626466379.117,26.855,-27.832,-17.578,39.062
1626466379.121,-28.809,-60.547,-61.523,-24.902
1626466379.125,-59.082,-73.242,-56.152,-68.359
1626466379.129,-24.414,-44.922,-13.672,-21.973
1626466379.132,22.461,-15.137,4.883,44.434
1626466379.136,-15.137,-45.898,-39.062,-11.230
1626466379.140,-65.430,-81.055,-48.340,-66.895
1626466379.144,-41.504,-78.125,-21.973,-41.504
1626466379.148,19.531,-42.969,1.465,35.156
1626466379.150,4.395,-42.969,-29.297,13.184
1626466379.154,-49.316,-87.891,-54.688,-70.312
1626466379.158,-42.969,-75.684,-45.898,-60.059
1626466379.162,8.789,-34.668,-11.719,8.301
1626466379.166,18.555,-42.969,-27.832,11.719
1626466379.170,-41.016,-66.406,-64.941,-59.570
1626466379.174,-50.781,-62.500,-63.477,-84.961
1626466379.177,11.230,-50.781,-22.461,-13.184
1626466379.181,27.832,-34.668,-6.836,37.598
1626466379.185,-55.176,-70.312,-48.340,-59.570
1626466379.189,-97.168,-99.121,-49.805,-96.191
1626466379.193,-70.312,-82.031,-11.719,-56.641
1626466379.195,-23.438,-54.688,8.789,-14.648
1626466379.199,-59.082,-73.730,-29.297,-50.293
1626466379.203,-116.211,-112.305,-34.180,-111.328
1626466379.207,-99.609,-105.957,-1.465,-92.773
1626466379.211,-48.828,-69.824,28.809,-11.230
1626466379.215,-60.059,-67.383,0.488,-25.879
1626466379.219,-107.422,-99.121,-27.832,-97.656
1626466379.222,-118.652,-120.605,-29.297,-95.703
1626466379.226,-58.105,-91.797,5.371,-13.672
1626466379.230,-24.902,-73.242,4.883,25.879
1626466379.234,-87.891,-115.234,-34.668,-47.852
1626466379.238,-101.562,-129.883,-25.391,-63.477
1626466379.240,-47.363,-89.844,10.254,-2.930
1626466379.244,-3.418,-52.246,19.531,38.086
1626466379.248,-51.758,-79.102,-14.160,-19.531
1626466379.252,-92.285,-107.910,-29.785,-68.359
1626466379.256,-53.711,-84.473,-7.324,-41.016
1626466379.260,-0.488,-41.016,18.066,21.973
1626466379.264,-48.828,-66.406,-32.227,-10.254
1626466379.267,-101.562,-109.863,-56.152,-73.242
1626466379.271,-73.242,-103.516,-10.742,-63.965
1626466379.275,-12.695,-65.430,28.320,12.207
1626466379.279,-7.812,-59.082,-12.695,14.160
1626466379.283,-63.965,-94.238,-45.898,-60.059
1626466379.285,-81.543,-102.051,-28.320,-74.219
1626466379.289,-20.996,-65.430,3.906,-14.160
1626466379.293,15.625,-38.574,-15.625,24.414
1626466379.297,-35.645,-71.289,-49.316,-46.875
1626466379.301,-68.359,-87.891,-37.109,-79.102
1626466379.305,-29.785,-59.570,-13.672,-18.555
1626466379.309,10.254,-34.180,-9.277,31.738
1626466379.312,-29.297,-71.777,-46.875,-37.109
1626466379.316,-65.430,-92.773,-41.504,-81.543
1626466379.320,-47.852,-67.871,-13.672,-38.574
1626466379.324,11.719,-31.250,3.906,32.227
1626466379.328,-0.977,-39.062,-20.020,-3.418
1626466379.345,-55.664,-70.312,-37.598,-71.777
1626466379.349,-52.734,-76.660,-31.738,-60.059
1626466379.353,5.859,-50.293,-1.953,7.812
1626466379.357,5.859,-44.922,-14.648,9.766
1626466379.361,-60.547,-79.102,-41.992,-72.266
1626466379.365,-65.918,-75.684,-26.367,-91.797
1626466379.369,-12.207,-44.434,0.000,-35.156
1626466379.372,16.602,-33.203,-10.742,5.371
1626466379.376,-40.039,-67.871,-45.410,-63.965
1626466379.380,-82.031,-92.773,-54.688,-118.164
1626466379.384,-41.016,-62.500,-18.555,-65.918
1626466379.388,12.207,-23.438,6.348,6.348
1626466379.390,-34.180,-52.246,-35.645,-42.480
1626466379.394,-78.613,-85.449,-50.293,-98.633
1626466379.398,-60.059,-69.824,-21.484,-81.055
1626466379.402,2.441,-34.180,10.742,-5.859
1626466379.406,-12.207,-44.434,-36.133,-26.855
1626466379.410,-70.801,-80.566,-62.012,-108.887
1626466379.414,-60.547,-85.938,-29.297,-98.633
1626466379.417,3.906,-43.945,20.020,-15.137
1626466379.421,13.672,-33.203,-10.742,2.930
1626466379.425,-45.410,-85.938,-63.477,-75.195
1626466379.429,-64.453,-94.727,-53.711,-97.656
1626466379.433,-17.090,-55.176,-15.625,-36.133
1626466379.435,17.578,-28.809,-9.766,9.766
1626466379.439,-43.457,-62.988,-43.945,-52.734
1626466379.443,-84.961,-86.426,-50.293,-100.098
1626466379.447,-41.504,-64.941,-19.043,-37.598
1626466379.451,18.555,-32.715,-18.066,30.273
1626466379.455,-19.531,-43.457,-70.801,-25.879
1626466379.459,-61.035,-63.477,-43.945,-82.031
1626466379.462,-43.457,-62.012,1.465,-67.871
1626466379.466,1.953,-37.109,13.184,-6.836
1626466379.470,-5.859,-40.039,-28.320,-17.090
1626466379.474,-69.824,-85.938,-51.270,-81.543
1626466379.478,-83.008,-90.820,-37.598,-91.309
1626466379.480,-27.832,-43.945,-11.719,-21.484
1626466379.484,-0.977,-34.180,-22.461,9.766
1626466379.488,-55.664,-69.336,-53.711,-58.594
1626466379.492,-88.379,-85.938,-47.852,-75.195
1626466379.496,-36.621,-58.594,-24.414,-32.227
1626466379.500,2.441,-21.484,-21.484,14.160
1626466379.504,-49.316,-58.594,-57.129,-24.902
1626466379.507,-83.496,-89.844,-62.500,-70.801
1626466379.511,-48.828,-55.176,-28.320,-41.992
1626466379.515,6.348,-22.949,-2.441,30.762
1626466379.519,-19.043,-51.758,-41.016,0.488
1626466379.523,-64.941,-82.031,-62.988,-72.266
1626466379.526,-40.527,-64.941,-39.062,-67.383
1626466379.530,18.066,-28.809,1.953,12.695
1626466379.534,6.836,-37.598,-26.855,-0.977
1626466379.538,-50.293,-72.754,-57.617,-68.848
1626466379.542,-66.895,-72.754,-50.781,-78.125
1626466379.546,-21.973,-33.203,-29.297,-25.391
1626466379.550,12.695,-14.648,-33.203,14.648
1626466379.553,-43.457,-62.988,-55.664,-41.016
1626466379.557,-74.707,-78.613,-50.781,-65.918
1626466379.561,-19.043,-51.758,-19.531,-18.555
1626466379.565,23.926,-27.832,-3.418,37.109
1626466379.569,-33.203,-52.734,-35.645,-23.926
1626466379.572,-74.707,-75.684,-41.992,-82.031
1626466379.576,-41.504,-58.594,-25.391,-29.785
1626466379.580,10.254,-25.879,-8.789,42.480
1626466379.584,-10.254,-46.875,-39.062,4.883
1626466379.588,-43.945,-70.801,-47.363,-54.688
1626466379.592,-33.203,-52.246,-23.926,-41.504
1626466379.596,14.648,-23.926,-3.906,34.668
1626466379.599,0.000,-24.902,-21.973,32.715
1626466379.603,-46.875,-67.383,-37.109,-45.898
1626466379.607,-15.625,-70.312,-24.902,-41.992
1626466379.611,22.461,-39.551,5.859,29.297
1626466379.615,37.109,-25.391,6.836,66.406
1626466379.615,0.977,-42.969,-33.691,2.930
1626466379.619,-44.922,-61.523,-43.457,-58.594
1626466379.623,0.977,-34.668,5.371,-29.297
1626466379.627,60.059,1.953,21.973,40.527
1626466379.631,13.672,-28.809,-28.320,-5.859
1626466379.635,-41.504,-50.781,-30.273,-77.637
1626466379.639,-8.789,-36.621,-13.184,-63.965
1626466379.642,41.504,-9.766,5.371,7.324
1626466379.646,3.418,-14.160,-38.574,-16.113
1626466379.650,-37.109,-47.363,-63.477,-68.848
1626466379.654,4.883,-41.504,-37.109,-70.801
1626466379.658,60.547,-3.418,-4.883,0.000
1626466379.661,56.641,0.977,-28.320,20.508
1626466379.665,-14.648,-42.480,-60.547,-62.988
1626466379.669,-51.758,-54.688,-48.828,-79.102
1626466379.673,0.488,-20.020,-15.625,-15.137
1626466379.677,40.039,11.719,-13.184,32.715
1626466379.681,-8.789,-16.113,-51.270,-26.855
1626466379.685,-46.387,-42.969,-65.430,-67.383
1626466379.688,-5.859,-29.785,-27.832,-21.973
1626466379.692,54.688,5.371,3.418,46.875
1626466379.696,4.883,-24.902,-40.039,5.859
1626466379.700,-54.199,-72.266,-60.547,-55.176
1626466379.704,-26.367,-53.711,-38.086,-25.879
1626466379.720,9.277,-16.602,-10.254,41.016
1626466379.724,3.906,-22.949,-41.504,5.371
1626466379.728,-33.691,-53.711,-61.523,-50.293
1626466379.732,-45.410,-58.594,-48.340,-48.340
1626466379.736,11.230,-23.926,-14.160,6.348
1626466379.740,21.973,-9.277,-20.508,30.273
1626466379.744,-33.691,-58.105,-68.848,-45.410
1626466379.747,-43.457,-82.520,-71.289,-62.012
1626466379.751,-3.418,-50.293,-23.926,-3.418
1626466379.755,28.320,-24.902,-18.066,41.992
1626466379.759,-10.254,-48.340,-62.012,-14.160
1626466379.763,-34.180,-73.242,-60.547,-63.477
1626466379.765,-1.953,-59.082,-19.043,-19.043
1626466379.769,46.875,-15.137,1.465,40.527
1626466379.773,19.531,-32.715,-46.875,-15.625
1626466379.777,-29.297,-70.801,-63.965,-73.242
1626466379.781,-15.137,-66.406,-35.156,-51.758
1626466379.785,38.086,-22.461,-0.977,16.602
1626466379.789,17.090,-20.508,-46.387,13.184
1626466379.792,-47.852,-61.035,-77.148,-60.059
1626466379.796,-52.246,-69.824,-52.246,-78.613
1626466379.800,6.348,-48.828,-15.137,-17.578
1626466379.804,20.508,-30.273,-27.344,17.090
1626466379.808,-44.922,-68.848,-64.941,-63.477
1626466379.810,-66.406,-87.891,-62.012,-90.820
1626466379.814,-18.555,-50.781,-24.902,-36.621
1626466379.818,22.461,-20.996,-8.789,11.719
1626466379.822,-31.250,-51.758,-51.270,-45.410
1626466379.826,-62.500,-76.660,-54.199,-83.008
1626466379.830,-33.691,-53.223,-24.902,-39.551
1626466379.834,2.930,-13.672,3.906,20.996
1626466379.837,-17.578,-40.527,-40.039,-11.719
1626466379.841,-64.453,-74.707,-68.848,-76.172
1626466379.845,-47.363,-69.336,-31.738,-72.266
1626466379.849,4.395,-41.016,4.395,-20.996
1626466379.853,0.977,-28.809,-30.273,-11.230
1626466379.855,-55.664,-58.105,-55.176,-66.406
1626466379.859,-63.965,-69.824,-37.598,-76.172
1626466379.863,-13.184,-38.086,2.441,-11.230
1626466379.867,5.371,-22.461,-2.930,12.207
1626466379.871,-59.082,-62.988,-53.711,-69.336
1626466379.875,-94.727,-76.172,-42.480,-92.285
1626466379.879,-47.852,-52.246,-3.906,-39.062
1626466379.882,-5.371,-24.902,-3.906,20.508
1626466379.886,-62.012,-57.129,-53.711,-44.434
1626466379.890,-97.168,-98.145,-50.293,-90.332
1626466379.894,-51.270,-81.543,-8.301,-39.062
1626466379.898,-5.371,-25.879,20.020,11.230
1626466379.900,-38.086,-24.902,-26.367,-14.648
1626466379.904,-84.473,-65.918,-56.152,-80.078
1626466379.908,-80.078,-65.918,-38.086,-90.332
1626466379.912,-22.949,-35.645,-3.906,-6.348
1626466379.916,-6.348,-25.879,-22.461,20.508
1626466379.920,-66.895,-57.617,-48.340,-66.895
1626466379.924,-89.355,-66.406,-43.945,-95.215
1626466379.927,-46.875,-55.176,-20.020,-28.320
1626466379.931,-18.066,-34.668,-18.066,7.324
1626466379.935,-63.965,-58.594,-57.129,-69.336
1626466379.939,-92.285,-83.496,-61.523,-113.281
1626466379.943,-61.035,-62.500,-28.809,-62.988
1626466379.945,-16.602,-32.227,-4.883,3.906
1626466379.949,-45.410,-46.875,-48.828,-42.480
1626466379.953,-73.730,-73.730,-58.594,-98.633
1626466379.957,-47.852,-62.988,-33.203,-67.383
1626466379.961,-0.488,-26.855,-8.301,15.137
1626466379.965,-8.789,-21.973,-33.203,10.742
1626466379.969,-68.848,-60.547,-58.594,-70.312
1626466379.972,-71.289,-70.801,-39.551,-63.477
1626466379.976,-27.344,-32.227,-1.953,-8.789
1626466379.980,-19.531,-25.391,-20.996,-5.859
1626466379.984,-69.336,-67.871,-56.641,-70.801
1626466379.988,-100.098,-81.543,-55.176,-97.168
1626466379.990,-48.828,-46.875,-23.438,-41.992
1626466379.994,5.859,-20.020,-14.648,13.184
1626466379.998,-34.668,-46.387,-62.500,-40.039
1626466380.002,-63.477,-71.777,-64.453,-82.520
1626466380.006,-28.320,-55.664,-24.902,-42.969
1626466380.010,28.320,-13.184,3.906,20.508
1626466380.014,-0.488,-33.691,-34.180,-27.344
1626466380.017,-49.316,-72.266,-56.152,-79.590
1626466380.021,-44.434,-67.871,-39.062,-58.594
1626466380.025,7.812,-36.133,-5.859,13.672
1626466380.029,6.836,-36.621,-26.367,-1.953
1626466380.033,-73.730,-77.637,-53.223,-88.379
1626466380.052,-78.613,-74.219,-39.062,-84.961
1626466380.056,-29.297,-43.945,-8.301,-14.160
1626466380.060,-23.438,-40.527,-24.902,9.277
1626466380.064,-67.871,-76.172,-59.082,-64.453
1626466380.068,-74.219,-81.055,-51.270,-99.609
1626466380.072,-46.387,-54.199,-22.461,-39.062
1626466380.076,-8.789,-29.297,-17.578,20.020
1626466380.079,-31.738,-53.711,-50.293,-44.922
1626466380.083,-53.223,-73.242,-50.781,-95.703
1626466380.087,-16.602,-61.523,-26.855,-60.547
1626466380.091,23.926,-31.738,-12.207,2.930
1626466380.095,2.930,-39.062,-55.664,-32.715
1626466380.095,-42.969,-74.219,-66.895,-99.609
1626466380.099,-36.621,-70.312,-40.527,-84.473
1626466380.103,3.906,-36.621,-15.625,-0.977
1626466380.107,-4.395,-33.691,-47.363,0.488
1626466380.111,-56.152,-71.777,-72.266,-82.031
1626466380.115,-73.242,-75.684,-46.875,-88.867
1626466380.119,-19.531,-46.875,-12.695,-33.203
1626466380.122,0.000,-39.551,-20.996,11.230
1626466380.126,-58.594,-75.195,-50.293,-64.453
1626466380.130,-85.449,-100.098,-49.316,-102.539
1626466380.134,-46.875,-72.754,-29.785,-51.270
1626466380.138,2.441,-35.645,-19.531,1.465
1626466380.140,-37.598,-58.594,-57.617,-44.434
1626466380.144,-70.801,-83.496,-66.406,-100.586
1626466380.148,-50.293,-78.613,-36.621,-62.988
1626466380.152,-0.488,-45.410,-10.742,9.766
1626466380.156,-20.508,-46.387,-44.922,-29.297
1626466380.160,-82.520,-75.684,-61.035,-108.398
1626466380.164,-96.191,-76.660,-41.992,-105.957
1626466380.167,-43.457,-43.457,-8.789,-36.133
1626466380.171,-31.738,-39.062,-30.762,-30.273
1626466380.175,-105.957,-83.008,-66.406,-132.812
1626466380.179,-129.883,-92.285,-52.246,-170.898
1626466380.183,-74.219,-52.734,-8.789,-97.168
1626466380.185,-62.988,-29.297,-14.160,-73.730
1626466380.189,-136.719,-63.965,-61.523,-171.387
1626466380.193,-187.500,-90.332,-62.012,-222.656
1626466380.197,-168.945,-77.148,-28.320,-188.965
1626466380.201,-133.789,-41.992,-13.672,-133.789
1626466380.205,-176.758,-49.805,-54.199,-184.570
1626466380.209,-213.379,-78.125,-66.895,-245.117
1626466380.212,-195.312,-75.684,-43.945,-220.215
1626466380.216,-143.555,-40.039,-19.043,-135.254
1626466380.220,-139.648,-41.504,-55.664,-142.090
1626466380.224,-194.336,-81.055,-82.031,-213.867
1626466380.228,-191.406,-83.008,-60.547,-195.801
1626466380.230,-127.441,-43.457,-20.508,-124.023
1626466380.234,-119.141,-28.809,-39.551,-105.469
1626466380.238,-170.410,-66.895,-85.938,-174.316
1626466380.242,-174.805,-75.684,-75.195,-187.988
1626466380.246,-116.699,-43.457,-27.832,-108.398
1626466380.250,-69.824,-22.949,-26.855,-44.922
1626466380.254,-112.305,-53.711,-68.848,-95.215
1626466380.257,-137.695,-72.266,-65.430,-135.254
1626466380.261,-83.496,-66.406,-36.133,-85.938
1626466380.265,-21.484,-28.320,-17.578,4.395
1626466380.269,-49.316,-39.062,-54.199,-27.344
1626466380.273,-83.008,-78.125,-60.547,-78.613
1626466380.276,-55.176,-63.477,-30.273,-43.945
1626466380.280,0.000,-29.297,-3.906,26.367
1626466380.284,0.488,-29.785,-32.227,28.809
1626466380.288,-55.176,-63.477,-59.570,-30.762
1626466380.292,-46.387,-71.289,-49.316,-38.086
1626466380.296,32.715,-36.621,-15.137,40.039
1626466380.300,52.246,-19.531,-21.973,56.152
1626466380.303,-10.254,-63.477,-56.641,-24.902
1626466380.307,-22.949,-82.520,-41.992,-22.461
1626466380.311,35.645,-49.316,3.906,46.387
1626466380.315,82.520,-21.484,6.836,93.750
1626466380.319,35.645,-50.781,-41.504,46.387
1626466380.320,-0.488,-69.824,-45.898,11.230
1626466380.324,16.602,-62.012,-8.301,41.016
1626466380.328,61.035,-28.809,25.391,96.191
1626466380.332,38.086,-34.668,-20.508,50.781
1626466380.336,-20.020,-71.289,-42.969,-4.883
1626466380.340,-7.812,-55.664,-20.020,12.695
1626466380.344,49.805,-21.973,8.301,67.871
1626466380.347,39.062,-34.668,-8.301,69.824
1626466380.351,-23.438,-73.730,-37.109,-1.953
1626466380.355,-23.926,-88.379,-35.156,-11.230
1626466380.359,26.855,-63.477,-6.836,42.480
1626466380.363,48.828,-36.133,-12.695,66.895
1626466380.365,1.465,-58.594,-46.387,7.324
1626466380.369,-30.273,-91.309,-42.480,-30.762
1626466380.373,-3.418,-73.242,-6.836,10.254
1626466380.377,41.504,-28.320,2.930,65.918
1626466380.381,-8.789,-61.523,-39.062,9.766
1626466380.385,-60.059,-93.262,-38.574,-39.551
1626466380.389,-29.297,-66.895,-16.602,-9.277
1626466380.392,42.969,-34.180,2.441,68.359
1626466380.396,40.039,-39.551,-20.996,41.992
1626466380.400,-38.574,-76.172,-37.109,-20.020
1626466380.404,-26.367,-78.125,-20.996,-7.324
1626466380.408,53.711,-36.621,17.578,59.082
1626466380.410,45.410,-30.762,0.488,72.266
1626466380.414,-8.301,-68.848,-28.320,-4.395
1626466380.418,-13.672,-77.148,-21.973,-18.066
1626466380.422,28.809,-50.293,6.836,24.902
1626466380.426,59.570,-26.367,7.812,65.918
1626466380.430,-8.789,-60.059,-35.156,10.254
1626466380.434,-41.016,-91.309,-34.668,-46.875
1626466380.437,14.648,-70.312,-0.977,-10.254
1626466380.441,38.086,-24.414,14.160,51.270
1626466380.445,-5.371,-44.434,-27.344,11.230
1626466380.449,-44.434,-87.891,-41.504,-54.199
1626466380.453,-32.715,-79.102,-1.953,-39.062
1626466380.470,29.297,-41.016,35.645,20.508
1626466380.474,20.020,-43.457,-4.883,10.254
1626466380.478,-41.992,-80.566,-41.504,-61.035
1626466380.482,-49.805,-83.008,-30.273,-55.664
1626466380.486,9.766,-44.922,10.254,23.438
1626466380.490,21.973,-30.762,-1.465,32.227
1626466380.494,-32.715,-73.730,-29.785,-29.297
1626466380.497,-33.691,-94.727,-16.113,-37.598
1626466380.501,12.207,-75.684,20.020,22.949
1626466380.505,51.270,-52.734,19.043,67.383
1626466380.509,2.930,-72.754,-22.949,4.395
1626466380.513,-37.109,-90.332,-21.973,-15.625
1626466380.515,4.883,-69.336,1.953,20.508
1626466380.519,68.848,-44.922,19.043,63.965
1626466380.523,43.945,-59.570,-7.812,32.715
1626466380.527,-25.879,-87.402,-18.555,-30.273
1626466380.531,-6.836,-78.125,10.254,-6.836
1626466380.535,55.664,-37.109,31.738,69.336
1626466380.539,34.180,-38.574,-12.695,49.805
1626466380.542,-26.367,-75.684,-32.715,-19.043
1626466380.546,-34.180,-89.355,-26.855,-21.973
1626466380.550,18.066,-68.848,-10.742,24.902
1626466380.554,35.156,-46.387,-19.043,42.480
1626466380.558,-26.367,-78.613,-52.734,-22.949
1626466380.561,-50.781,-91.309,-40.039,-46.875
1626466380.565,-5.371,-57.617,3.418,0.488
1626466380.569,26.367,-25.391,10.742,44.922
1626466380.573,-37.109,-55.664,-37.109,-10.254
1626466380.577,-83.008,-91.309,-50.781,-60.547
1626466380.581,-42.480,-61.035,-14.648,-25.391
1626466380.585,26.367,-18.066,11.230,35.156
1626466380.588,-5.371,-51.758,-40.527,-4.883
1626466380.592,-62.012,-88.867,-59.570,-66.406
1626466380.596,-46.387,-80.078,-23.438,-52.246
1626466380.600,15.137,-40.527,15.137,12.207
1626466380.604,-3.418,-31.738,-18.066,19.043
1626466380.605,-63.477,-68.848,-45.898,-61.035
1626466380.609,-65.918,-79.102,-24.902,-79.102
1626466380.613,-18.555,-49.805,4.395,-4.883
1626466380.617,13.184,-32.227,-11.719,33.203
1626466380.621,-32.227,-64.941,-47.363,-37.598
1626466380.625,-56.152,-77.148,-45.410,-69.336
1626466380.629,-26.855,-34.668,-25.879,-8.301
1626466380.632,7.324,-15.625,-19.043,45.410
1626466380.636,-33.691,-68.359,-58.105,-24.902
1626466380.640,-67.383,-87.402,-51.270,-74.707
1626466380.644,-24.902,-70.801,-10.254,-40.527
1626466380.648,39.062,-41.504,4.395,19.531
1626466380.650,20.508,-37.598,-43.457,6.836
1626466380.654,-29.297,-70.801,-61.035,-53.223
1626466380.658,-28.320,-80.566,-38.086,-62.988
1626466380.662,20.020,-41.016,-10.254,-0.488
1626466380.666,29.785,-24.414,-32.227,17.578
1626466380.670,-38.086,-63.477,-57.129,-52.246
1626466380.674,-56.152,-77.148,-44.922,-82.520
1626466380.677,-3.906,-57.617,-18.555,-26.855
1626466380.681,19.043,-28.320,-20.508,7.324
1626466380.685,-42.480,-49.316,-53.711,-56.152
1626466380.689,-78.613,-79.590,-46.387,-82.520
1626466380.693,-38.574,-60.059,-11.230,-52.734
1626466380.695,8.789,-31.250,-11.230,2.930
1626466380.699,-29.297,-59.082,-62.500,-35.156
1626466380.703,-72.754,-86.426,-62.988,-90.820
1626466380.707,-43.457,-67.383,-22.461,-54.688
1626466380.711,9.766,-29.785,11.719,8.301
1626466380.715,-21.973,-26.855,-21.973,-17.090
1626466380.719,-86.426,-66.406,-56.641,-76.172
1626466380.722,-89.355,-79.102,-50.781,-85.938
1626466380.726,-40.039,-42.969,-18.555,-22.461
1626466380.730,-32.227,-32.715,-30.762,-8.301
1626466380.734,-94.727,-75.684,-62.012,-94.727
1626466380.738,-110.840,-86.914,-54.688,-112.793
1626466380.741,-55.176,-54.199,-20.996,-50.293
1626466380.745,-19.043,-39.551,-27.344,-6.348
1626466380.749,-62.500,-66.895,-70.801,-66.406
1626466380.753,-87.402,-83.496,-63.965,-105.957
1626466380.757,-44.434,-57.129,-25.879,-64.941
1626466380.761,6.348,-10.254,-4.395,2.930
1626466380.765,-35.156,-31.738,-46.387,-39.551
1626466380.768,-88.379,-88.379,-62.012,-101.074
1626466380.772,-71.289,-76.660,-41.016,-92.773
1626466380.776,-9.766,-31.738,-17.578,-39.062
1626466380.780,-15.137,-40.527,-42.969,-51.270
1626466380.784,-78.613,-79.102,-54.688,-117.188
1626466380.787,-80.566,-77.637,-31.738,-101.074
1626466380.791,-30.762,-53.223,-23.926,-46.875
1626466380.795,-17.090,-34.180,-53.223,-36.621
1626466380.799,-65.430,-59.570,-71.289,-87.891
1626466380.803,-92.773,-90.332,-57.129,-121.582
1626466380.807,-64.453,-55.176,-11.230,-71.777
1626466380.811,-21.484,-19.043,-3.906,-13.184
1626466380.814,-48.828,-51.758,-43.457,-55.176
1626466380.818,-92.773,-79.102,-52.734,-99.121
1626466380.822,-70.801,-75.195,-32.227,-77.637
1626466380.826,-17.578,-43.945,-2.441,-11.719
1626466380.830,-42.480,-54.199,-28.809,-26.855
1626466380.845,-90.820,-92.285,-41.016,-78.613
1626466380.849,-82.520,-88.867,-27.344,-77.637
1626466380.853,-17.090,-47.363,4.395,-20.020
1626466380.857,-25.391,-46.875,-35.156,-23.438
1626466380.861,-88.867,-92.773,-73.242,-92.773
1626466380.865,-79.590,-89.355,-52.734,-91.309
1626466380.869,-28.809,-48.340,-26.855,-30.273
1626466380.872,-11.719,-36.621,-30.762,1.953
1626466380.876,-64.941,-71.289,-51.758,-53.711
1626466380.880,-84.961,-96.680,-46.875,-85.938
1626466380.884,-42.969,-76.660,-11.719,-46.875
1626466380.888,-12.695,-40.039,3.906,6.836
1626466380.890,-69.336,-65.430,-44.922,-38.086
1626466380.894,-122.070,-99.609,-58.105,-101.074
1626466380.898,-83.008,-83.008,-33.203,-97.656
1626466380.902,-17.578,-48.828,-6.836,-34.180
1626466380.906,-41.504,-54.199,-33.203,-39.062
1626466380.910,-91.309,-75.684,-33.691,-86.914
1626466380.914,-87.402,-76.660,-8.789,-75.195
1626466380.917,-27.832,-42.480,9.766,-7.812
1626466380.921,-20.996,-35.645,-31.250,-1.465
1626466380.925,-95.215,-87.891,-66.406,-73.242
1626466380.929,-92.285,-102.051,-39.062,-74.707
1626466380.933,-28.320,-56.152,5.371,-31.250
1626466380.935,5.371,-24.902,-5.859,7.812
1626466380.939,-38.574,-60.059,-57.617,-39.062
1626466380.943,-67.383,-83.008,-53.711,-84.473
1626466380.947,-21.973,-62.988,-13.672,-41.504
1626466380.951,12.695,-27.344,-10.742,20.020
1626466380.955,-31.250,-38.086,-51.758,-16.602
1626466380.959,-73.242,-61.523,-44.922,-72.266
1626466380.962,-57.129,-66.895,-22.461,-60.059
1626466380.966,-4.395,-37.109,4.395,7.324
1626466380.970,-20.508,-35.156,-23.926,-27.832
1626466380.974,-71.289,-71.289,-41.992,-89.355
1626466380.978,-72.754,-79.102,-21.973,-67.871
1626466380.980,-14.160,-40.527,-2.930,-13.672
1626466380.984,-3.418,-24.414,-20.508,-0.488
1626466380.988,-72.754,-59.570,-41.504,-62.988
1626466380.992,-87.891,-77.637,-40.527,-86.914
1626466380.996,-29.785,-49.805,-11.719,-42.969
1626466381.000,9.277,-15.625,-3.906,-2.441
1626466381.004,-49.316,-54.199,-42.480,-55.176
1626466381.007,-79.590,-83.984,-49.316,-90.820
1626466381.011,-25.391,-53.223,-16.113,-44.922
1626466381.015,26.855,-24.902,10.254,17.090
1626466381.019,-20.020,-50.293,-32.227,-24.414
1626466381.023,-71.777,-78.125,-35.645,-79.102
1626466381.026,-55.664,-67.383,-2.441,-69.824
1626466381.030,-2.930,-34.180,26.367,-0.977
1626466381.034,-1.465,-35.645,-4.883,-14.160
1626466381.038,-69.336,-71.289,-29.297,-84.473
1626466381.042,-80.078,-76.172,-16.113,-63.965
1626466381.046,-14.160,-39.062,4.395,-13.672
1626466381.050,3.906,-29.785,-10.254,0.000
1626466381.053,-56.152,-79.590,-33.203,-59.082
1626466381.057,-69.824,-88.867,-15.625,-83.008
1626466381.061,-23.438,-52.246,13.184,-25.391
1626466381.065,9.766,-27.344,16.113,11.719
1626466381.069,-48.340,-56.152,-16.113,-45.898
1626466381.070,-86.914,-82.031,-21.973,-83.008
1626466381.074,-54.199,-67.383,4.395,-54.199
1626466381.078,-0.488,-26.855,29.785,13.184
1626466381.082,-28.320,-35.645,-16.113,-17.090
1626466381.086,-103.027,-69.336,-39.551,-71.289
1626466381.090,-94.238,-62.988,1.953,-54.199
1626466381.094,-17.578,-22.949,32.227,18.555
1626466381.097,-20.996,-23.438,-18.066,3.906
1626466381.101,-88.379,-70.801,-34.180,-64.941
1626466381.105,-85.449,-75.684,-5.371,-62.012
1626466381.109,-28.320,-45.410,15.625,-17.090
1626466381.113,-16.113,-27.344,0.977,9.766
1626466381.115,-61.035,-54.199,-30.273,-53.223
1626466381.119,-78.613,-67.383,-19.531,-70.312
1626466381.123,-35.156,-48.340,8.789,-21.973
1626466381.127,6.836,-22.461,19.043,21.973
1626466381.131,-47.852,-44.434,-18.066,-30.273
1626466381.135,-90.820,-68.848,-17.090,-69.336
1626466381.139,-58.594,-55.176,9.277,-42.480
1626466381.142,-0.488,-24.902,18.066,14.160
1626466381.146,-25.391,-28.320,-15.137,-13.184
1626466381.150,-84.473,-66.406,-32.715,-80.078
1626466381.154,-77.637,-75.684,-20.508,-76.172
1626466381.158,-12.695,-41.992,18.066,-11.719
1626466381.161,-4.395,-29.785,-7.324,1.953
1626466381.165,-69.824,-65.430,-51.270,-62.988
1626466381.169,-86.426,-83.008,-31.738,-91.309
1626466381.173,-32.715,-62.012,8.301,-35.156
1626466381.177,6.836,-24.414,3.906,12.207
1626466381.181,-52.734,-41.992,-29.297,-48.828
1626466381.185,-89.355,-71.289,-23.438,-82.031
1626466381.188,-46.875,-54.688,7.324,-45.898
1626466381.192,4.395,-18.066,12.207,10.254
1626466381.196,-37.109,-38.086,-29.785,-26.367
1626466381.200,-83.984,-75.195,-43.457,-87.402
1626466381.204,-48.828,-66.895,-13.672,-66.895
1626466381.220,19.043,-27.344,15.137,-1.465
1626466381.224,11.719,-34.180,-27.832,-12.695
1626466381.228,-43.945,-71.777,-34.180,-59.570
1626466381.232,-51.758,-70.312,-5.371,-55.664
1626466381.236,8.301,-29.297,19.531,2.930
1626466381.240,25.391,-2.930,-2.930,10.254
1626466381.244,-36.133,-45.410,-40.039,-58.594
1626466381.247,-55.176,-75.195,-31.738,-62.988
1626466381.251,4.395,-38.574,9.766,-20.020
1626466381.255,28.809,-17.578,0.488,14.648
1626466381.259,-32.227,-54.688,-52.246,-38.574
1626466381.263,-47.363,-68.848,-38.086,-85.449
1626466381.265,-11.230,-44.434,-8.301,-41.016
1626466381.269,32.227,-8.301,-1.465,23.438
1626466381.273,-3.906,-20.996,-31.250,-27.832
1626466381.277,-61.523,-54.199,-32.227,-76.660
1626466381.281,-44.922,-58.594,-15.625,-62.500
1626466381.285,9.277,-26.855,6.836,-1.953
1626466381.289,-12.207,-31.738,-20.020,-1.465
1626466381.292,-62.988,-68.359,-38.086,-78.613
1626466381.296,-57.129,-68.848,-12.207,-93.262
1626466381.300,-21.484,-45.898,3.418,-8.301
1626466381.304,7.812,-26.367,-16.113,22.949
1626466381.308,-43.945,-64.941,-45.898,-47.363
1626466381.310,-61.035,-76.172,-45.410,-40.039
1626466381.314,-1.465,-42.480,-7.812,8.301
1626466381.318,35.156,-21.484,2.441,42.969
1626466381.322,-3.906,-48.340,-41.504,0.977
1626466381.326,-46.387,-65.918,-34.668,-44.434
1626466381.330,-25.391,-44.922,11.719,-26.367
1626466381.334,24.414,-8.789,36.621,24.414
1626466381.337,-12.695,-34.668,-6.348,-21.973
1626466381.341,-83.984,-86.426,-21.484,-78.613
1626466381.345,-76.660,-84.473,-1.953,-75.684
1626466381.349,-13.672,-43.457,21.484,-20.996
1626466381.353,-17.578,-47.852,-2.441,-16.602
1626466381.355,-92.773,-94.238,-29.785,-90.332
1626466381.359,-119.141,-105.469,-17.090,-99.121
1626466381.363,-69.824,-75.684,28.809,-39.062
1626466381.367,-51.758,-52.246,26.855,-18.555
1626466381.371,-100.098,-78.125,-20.020,-89.844
1626466381.375,-117.676,-95.215,-16.113,-111.328
1626466381.379,-65.430,-72.266,18.555,-48.828
1626466381.382,-18.555,-38.574,24.414,9.766
1626466381.386,-72.266,-67.871,-31.250,-46.875
1626466381.390,-104.004,-94.727,-39.551,-85.449
1626466381.394,-52.246,-74.219,5.859,-47.852
1626466381.398,8.301,-37.598,37.598,15.625
1626466381.400,-26.367,-49.805,-3.906,-7.812
1626466381.404,-76.660,-87.891,-29.297,-64.941
1626466381.408,-57.129,-86.426,-11.230,-53.711
1626466381.412,-4.395,-46.875,20.020,26.367
1626466381.416,-2.930,-35.156,-0.977,39.062
1626466381.420,-75.195,-64.453,-42.480,-49.805
1626466381.424,-80.078,-62.500,-30.273,-69.336
1626466381.427,-10.742,-45.898,19.043,-24.902
1626466381.431,7.812,-31.738,9.766,7.812
1626466381.435,-51.758,-55.176,-35.645,-42.969
1626466381.439,-71.289,-77.148,-33.691,-76.660
1626466381.443,-20.996,-56.152,3.418,-28.320
1626466381.446,29.785,-12.695,19.043,32.715
1626466381.450,-18.555,-40.039,-38.574,-23.926
1626466381.454,-74.707,-79.102,-53.711,-80.078
1626466381.458,-44.922,-64.941,-15.625,-68.359
1626466381.462,9.766,-26.367,15.137,3.418
1626466381.466,-17.578,-24.414,-11.719,8.301
1626466381.470,-75.195,-67.871,-40.039,-82.031
1626466381.473,-57.129,-77.148,-28.320,-78.125
1626466381.477,4.883,-37.598,20.020,0.977
1626466381.481,9.277,-30.762,-1.465,5.859
1626466381.485,-59.570,-73.730,-41.504,-67.383
1626466381.489,-81.543,-84.961,-20.020,-72.754
1626466381.490,-20.996,-47.852,19.531,-13.184
1626466381.494,8.789,-25.391,8.789,31.738
1626466381.498,-50.781,-55.664,-26.367,-32.715
1626466381.502,-67.383,-64.453,-8.789,-86.426
1626466381.506,-19.531,-48.828,19.531,-26.367
1626466381.510,15.625,-18.066,38.086,47.852
1626466381.514,-16.113,-34.668,-5.859,-4.395
1626466381.517,-49.316,-72.754,-23.926,-73.730
1626466381.521,-30.762,-59.570,12.207,-62.988
1626466381.525,22.461,-24.902,55.664,11.719
1626466381.529,15.625,-22.461,25.879,1.953
1626466381.533,-41.504,-59.082,-12.207,-69.824
1626466381.535,-44.922,-66.895,0.000,-77.148
1626466381.539,7.812,-30.762,37.598,-7.812
1626466381.543,10.254,-14.648,23.438,28.809
1626466381.547,-66.406,-53.711,-24.902,-67.383
1626466381.551,-78.613,-57.129,-7.324,-91.797
1626466381.555,-38.086,-31.250,37.598,-22.949
1626466381.559,-0.977,-5.859,29.785,27.832
1626466381.562,-31.250,-26.855,-11.230,-15.625
1626466381.566,-75.195,-65.918,-13.184,-81.055
1626466381.570,-56.152,-61.523,14.648,-58.594
1626466381.574,-5.859,-30.762,36.621,34.180
1626466381.578,-20.996,-35.645,-9.277,17.578
1626466381.595,-69.336,-58.594,-35.156,-64.453
1626466381.599,-62.012,-50.781,-13.184,-61.523
1626466381.603,0.977,-9.766,20.020,10.742
1626466381.607,14.160,-12.207,-5.859,-4.395
1626466381.611,-49.805,-48.828,-34.180,-87.891
1626466381.615,-59.082,-35.156,-21.484,-90.332
1626466381.619,6.348,-0.977,9.766,-25.391
1626466381.622,24.902,-1.465,-0.977,7.812
1626466381.626,-18.555,-34.668,-35.156,-35.156
1626466381.630,-37.109,-48.340,-32.715,-60.547
1626466381.634,4.883,-31.738,-1.465,-8.789
1626466381.638,34.180,-4.395,1.465,33.691
1626466381.640,-11.230,-26.855,-36.621,-35.156
1626466381.644,-46.387,-50.781,-31.250,-81.055
1626466381.648,-25.391,-47.852,-11.230,-38.574
1626466381.652,24.414,-14.160,14.160,28.320
1626466381.656,0.977,-18.555,-14.648,-12.207
1626466381.660,-43.457,-47.363,-39.551,-65.430
1626466381.664,-31.250,-39.551,-17.090,-48.340
1626466381.667,15.137,-10.742,25.879,13.672
1626466381.671,12.695,-20.508,-4.395,12.695
1626466381.675,-44.434,-67.871,-41.992,-60.059
1626466381.679,-57.129,-62.988,-28.809,-68.359
1626466381.683,-5.859,-32.715,-0.488,-1.465
1626466381.685,26.367,-14.160,-5.371,32.715
1626466381.689,-33.203,-37.598,-34.180,-45.898
1626466381.693,-71.289,-68.359,-25.879,-77.637
1626466381.697,-22.949,-42.969,3.906,-29.785
1626466381.701,32.715,1.953,6.348,31.738
1626466381.705,-7.812,-24.902,-27.832,-16.113
1626466381.709,-44.922,-53.711,-33.203,-65.430
1626466381.712,-15.625,-55.664,-15.137,-37.598
1626466381.716,31.250,-23.926,20.996,20.996
1626466381.720,-5.859,-14.648,-5.371,6.836
1626466381.724,-51.270,-51.270,-37.109,-58.105
1626466381.728,-30.762,-62.012,-28.809,-62.012
1626466381.730,13.672,-20.508,7.812,9.277
1626466381.734,9.766,-13.184,-13.184,20.996
1626466381.738,-44.434,-55.176,-44.922,-53.223
1626466381.742,-55.664,-57.129,-31.738,-80.078
1626466381.746,-6.836,-35.156,9.766,-21.484
1626466381.750,10.742,-20.508,7.812,35.156
1626466381.754,-48.340,-42.480,-45.410,-31.738
1626466381.757,-70.801,-57.129,-35.156,-71.777
1626466381.761,-49.805,-44.434,-5.371,-28.809
1626466381.765,0.000,-28.320,4.395,20.508
1626466381.769,-7.324,-45.898,-32.715,-37.598
1626466381.773,-53.711,-63.477,-40.527,-82.520
1626466381.775,-42.969,-46.875,-17.578,-55.176
1626466381.779,10.254,-13.184,12.207,2.441
1626466381.783,-2.441,-23.438,-11.230,-7.812
1626466381.787,-46.875,-59.082,-36.133,-62.500
1626466381.791,-59.570,-64.453,-25.879,-65.430
1626466381.795,-12.695,-28.320,15.137,-3.906
1626466381.799,13.184,-0.977,6.836,32.227
1626466381.802,-45.410,-47.852,-41.016,-33.203
1626466381.806,-69.336,-72.266,-36.621,-59.082
1626466381.810,-22.461,-42.969,5.371,-9.277
1626466381.814,21.484,-15.137,8.301,35.645
1626466381.818,-21.484,-27.832,-35.645,-17.090
1626466381.820,-54.199,-49.316,-37.598,-60.547
1626466381.824,-23.926,-39.062,-2.441,-27.832
1626466381.828,17.578,-7.324,23.926,25.391
1626466381.832,-11.230,-24.414,-18.066,-8.789
1626466381.836,-37.109,-57.617,-33.691,-54.199
1626466381.840,-32.227,-49.316,-8.301,-61.523
1626466381.844,-6.836,-22.461,1.465,-17.090
1626466381.847,3.906,-19.043,-30.762,-6.836
1626466381.851,-44.922,-50.293,-47.852,-75.195
1626466381.855,-56.152,-61.523,-41.504,-85.449
1626466381.859,-6.836,-40.039,-10.254,-15.137
1626466381.863,6.836,-31.738,-20.508,8.301
1626466381.865,-45.410,-50.781,-54.688,-56.641
1626466381.869,-68.848,-62.988,-53.711,-77.637
1626466381.873,-30.762,-40.039,-16.113,-32.715
1626466381.877,-9.766,-16.113,1.953,6.348
1626466381.881,-55.176,-52.246,-45.898,-41.504
1626466381.885,-70.801,-60.059,-61.523,-74.707
1626466381.889,-54.688,-44.434,-43.457,-49.805
1626466381.892,-6.836,-35.645,-7.812,11.719
1626466381.896,-20.996,-41.992,-29.785,-25.879
1626466381.900,-73.730,-72.266,-61.035,-83.496
1626466381.904,-62.012,-72.754,-41.504,-65.430
1626466381.908,-5.859,-35.645,8.789,23.926
1626466381.911,23.438,-7.324,-9.277,39.062
1626466381.915,-43.457,-41.504,-54.688,-62.012
1626466381.919,-88.867,-65.918,-52.734,-101.562
1626466381.923,-26.855,-33.691,-14.160,-46.387
1626466381.927,6.836,-7.812,-23.438,-16.113
1626466381.931,-65.430,-37.598,-67.871,-91.309
1626466381.935,-94.727,-59.570,-71.289,-135.742
1626466381.938,-67.383,-30.273,-43.457,-105.957
1626466381.942,-27.832,-1.953,-33.691,-56.152
1626466381.946,-62.988,-33.691,-79.102,-104.492
1626466381.950,-108.887,-55.664,-83.008,-159.180
1626466381.954,-75.195,-30.762,-48.828,-120.117
1626466381.970,-28.809,0.977,-29.785,-18.066
1626466381.974,-42.480,-16.602,-67.383,-51.758
1626466381.978,-88.867,-54.688,-83.984,-141.602
1626466381.982,-85.938,-51.758,-56.641,-118.652
1626466381.986,-22.461,-21.484,-15.137,-36.133
1626466381.990,-26.855,-18.066,-44.434,-31.250
1626466381.994,-85.938,-47.363,-83.496,-114.746
1626466381.997,-92.285,-55.664,-60.547,-131.348
1626466382.001,-45.410,-33.203,-20.996,-65.918
1626466382.005,-6.836,-18.066,-11.230,-7.812
1626466382.009,-56.152,-45.410,-46.387,-76.660
1626466382.013,-79.102,-59.082,-49.805,-106.934
1626466382.015,-30.762,-34.180,-22.949,-62.012
1626466382.019,22.461,-1.953,-4.395,0.488
1626466382.023,-1.953,-20.020,-44.434,-27.344
1626466382.027,-52.734,-50.781,-67.383,-77.148
1626466382.031,-32.715,-41.992,-28.809,-63.965
1626466382.035,22.461,-4.395,14.160,9.766
1626466382.039,3.906,-6.348,-29.297,9.766
1626466382.042,-47.852,-41.992,-49.805,-60.059
1626466382.046,-46.387,-45.898,-29.297,-63.965
1626466382.050,-3.418,-23.926,-8.789,-10.254
1626466382.054,15.137,-11.230,-26.367,4.395
1626466382.058,-21.973,-38.086,-42.969,-43.945
1626466382.060,-50.781,-51.270,-24.902,-55.664
1626466382.064,-35.156,-33.203,-2.441,-27.832
1626466382.068,-1.953,-11.719,0.488,6.348
1626466382.072,-44.434,-37.109,-35.645,-38.086
1626466382.076,-90.332,-63.965,-36.133,-84.961
1626466382.080,-66.895,-45.898,-2.441,-56.152
1626466382.084,-9.766,-15.137,15.625,17.578
1626466382.087,-28.809,-32.715,-25.879,-25.879
1626466382.091,-90.332,-69.824,-41.016,-84.961
1626466382.095,-65.430,-64.941,-22.949,-64.941
1626466382.099,-9.766,-26.855,5.859,5.859
1626466382.103,-20.996,-34.668,-10.254,-8.301
1626466382.105,-69.336,-64.453,-28.320,-71.289
1626466382.109,-79.590,-61.523,-11.230,-74.707
1626466382.113,-39.551,-36.133,21.973,-23.438
1626466382.117,-21.484,-23.438,10.254,1.465
1626466382.121,-59.082,-61.523,-28.320,-69.824
1626466382.125,-77.637,-67.871,-26.367,-83.496
1626466382.129,-37.109,-39.551,5.371,-25.391
1626466382.132,14.648,-14.160,22.949,28.320
1626466382.136,-45.898,-40.527,-19.043,-37.109
1626466382.140,-89.355,-73.242,-33.691,-78.613
1626466382.144,-42.480,-55.664,-10.254,-41.992
1626466382.148,6.836,-19.531,20.020,18.066
1626466382.151,-5.371,-17.578,-9.766,0.000
1626466382.155,-53.711,-46.387,-38.574,-60.547
1626466382.159,-54.199,-58.105,-29.297,-56.152
1626466382.163,-6.836,-28.320,5.859,13.184
1626466382.167,1.953,-13.184,-4.883,28.809
1626466382.171,-60.547,-41.504,-27.344,-43.945
1626466382.175,-66.406,-55.176,-12.207,-57.617
1626466382.178,-20.996,-33.203,16.113,9.766
1626466382.182,-20.996,-19.531,8.301,40.039
1626466382.186,-66.895,-54.199,-29.297,-39.062
1626466382.190,-69.824,-70.312,-26.367,-60.547
1626466382.194,-45.410,-53.711,0.000,-19.043
1626466382.197,-4.395,-12.695,-4.883,34.180
1626466382.201,-26.855,-18.555,-37.598,-6.348
1626466382.205,-73.730,-51.270,-29.785,-67.383
1626466382.209,-52.246,-40.039,2.930,-42.969
1626466382.213,-6.836,-10.742,27.832,25.879
1626466382.217,-20.508,-13.672,-9.277,6.348
1626466382.221,-63.477,-47.852,-34.180,-52.734
1626466382.224,-73.730,-70.312,-23.926,-62.012
1626466382.228,-9.766,-33.691,0.977,-5.371
1626466382.232,11.230,-15.137,-26.855,6.836
1626466382.236,-58.105,-45.410,-55.176,-55.664
1626466382.240,-69.824,-56.641,-30.273,-67.383
1626466382.240,-5.371,-41.016,6.348,-8.789
1626466382.244,28.320,-20.020,-4.395,35.645
1626466382.248,-35.645,-39.551,-50.293,-27.832
1626466382.252,-59.570,-60.059,-43.457,-69.336
1626466382.256,-15.137,-39.062,4.883,-22.949
1626466382.260,25.879,0.000,15.625,37.598
1626466382.264,-2.930,-20.020,-47.852,-4.883
1626466382.267,-38.086,-61.523,-53.223,-48.828
1626466382.271,-45.898,-58.594,-17.090,-31.738
1626466382.275,5.859,-18.555,3.418,20.996
1626466382.279,7.324,-20.996,-25.879,2.441
1626466382.283,-59.570,-72.754,-43.457,-48.340
1626466382.285,-62.012,-78.125,-26.367,-62.012
1626466382.289,-4.395,-38.574,5.371,-18.555
1626466382.293,10.742,-29.785,-14.648,5.371
1626466382.297,-48.828,-69.824,-48.828,-74.707
1626466382.301,-72.266,-82.031,-41.504,-103.027
1626466382.305,-25.879,-34.668,-13.672,-40.039
1626466382.309,10.254,-1.953,-15.625,18.066
1626466382.312,-37.598,-45.410,-58.594,-43.457
1626466382.316,-65.430,-65.918,-62.012,-84.961
1626466382.320,-43.457,-55.176,-24.902,-38.574
1626466382.324,11.719,-29.785,-1.953,18.555
1626466382.328,-17.578,-39.551,-39.551,-17.090
1626466382.345,-83.008,-77.637,-48.340,-68.359
1626466382.349,-52.734,-75.195,-17.090,-32.715
1626466382.353,20.996,-25.391,9.766,52.246
1626466382.357,16.113,-11.719,-30.273,36.133
1626466382.361,-38.086,-46.387,-56.641,-39.062
1626466382.365,-18.555,-38.574,-34.668,-38.086
1626466382.369,45.410,1.953,-7.324,30.273
1626466382.372,62.988,9.277,-30.762,57.617
1626466382.376,24.902,-23.926,-66.406,-0.977
1626466382.380,10.254,-36.621,-58.594,-22.949
1626466382.384,55.176,-11.230,-29.297,31.738
1626466382.388,118.652,16.602,-27.832,91.309
1626466382.390,87.402,-3.906,-68.359,47.363
1626466382.394,52.246,-29.785,-80.078,-0.977
1626466382.398,82.520,-20.996,-49.316,27.832
1626466382.402,132.812,15.137,-14.648,96.191
1626466382.406,85.938,-0.488,-53.711,46.387
1626466382.410,27.344,-33.691,-64.941,-15.137
1626466382.414,37.109,-27.344,-42.480,-6.836
1626466382.417,70.312,0.488,-17.578,50.293
1626466382.421,72.754,-1.953,-44.434,52.734
1626466382.425,21.973,-48.340,-81.543,-30.762
1626466382.429,5.371,-52.246,-63.477,-45.898
1626466382.433,59.570,-14.648,-30.762,18.066
1626466382.435,84.961,4.395,-41.992,57.129
1626466382.439,15.137,-32.227,-61.035,-11.719
1626466382.443,-23.926,-57.617,-45.898,-42.969
1626466382.447,20.020,-26.855,-20.996,-9.766
1626466382.451,55.176,7.324,-14.160,44.922
1626466382.455,3.418,-19.043,-52.734,3.418
1626466382.459,-47.363,-52.246,-67.383,-64.941
1626466382.462,-20.020,-50.781,-46.387,-34.180
1626466382.466,42.480,-17.090,-26.367,36.133
1626466382.470,15.137,-20.508,-54.199,17.578
1626466382.474,-30.762,-52.734,-60.547,-42.480
1626466382.478,-18.066,-56.641,-39.062,-47.852
1626466382.480,23.926,-18.066,-15.625,26.855
1626466382.484,33.691,-13.184,-39.062,52.246
1626466382.488,-24.414,-54.199,-64.453,-20.508
1626466382.492,-46.875,-59.570,-59.570,-42.969
1626466382.496,8.301,-30.762,-30.273,14.648
1626466382.500,30.273,-4.395,-28.320,49.316
1626466382.504,-26.367,-21.973,-60.059,-12.695
1626466382.507,-42.480,-50.781,-58.105,-49.805
1626466382.511,-7.324,-50.781,-35.645,-14.648
1626466382.515,25.391,-24.414,-16.113,44.434
1626466382.519,-18.555,-41.504,-49.316,2.441
1626466382.523,-62.012,-68.848,-62.500,-60.547
1626466382.526,-39.062,-50.293,-44.434,-44.922
1626466382.530,6.836,-18.066,-21.973,20.020
1626466382.534,-13.184,-22.461,-46.387,4.395
1626466382.538,-69.336,-63.965,-69.824,-67.383
1626466382.542,-72.266,-72.754,-60.059,-66.406
1626466382.546,-20.020,-21.973,-26.855,1.953
1626466382.550,-10.742,-4.395,-36.133,15.625
1626466382.553,-64.453,-51.270,-76.172,-58.105
1626466382.557,-89.355,-67.871,-75.195,-95.703
1626466382.561,-43.457,-34.180,-36.133,-50.293
1626466382.565,3.906,-7.812,-33.691,-2.930
1626466382.569,-42.480,-43.945,-69.824,-64.453
1626466382.570,-81.055,-69.336,-60.547,-102.051
1626466382.574,-45.898,-49.805,-39.551,-49.805
1626466382.578,14.160,-20.996,-32.227,9.277
1626466382.582,-15.625,-41.992,-64.453,-35.156
1626466382.586,-65.918,-70.312,-65.918,-79.102
1626466382.590,-50.293,-48.828,-37.109,-62.988
1626466382.594,-3.906,-14.648,-18.555,-7.812
1626466382.597,-10.254,-20.996,-48.340,-7.324
1626466382.601,-56.641,-47.363,-65.430,-64.941
1626466382.605,-57.617,-52.246,-56.152,-73.730
1626466382.609,-8.301,-32.715,-26.855,-25.879
1626466382.613,0.488,-23.926,-34.668,3.906
1626466382.616,-56.641,-41.016,-58.105,-58.105
1626466382.620,-70.312,-57.129,-47.363,-85.938
1626466382.624,-34.180,-53.711,-25.391,-41.992
1626466382.628,-1.953,-32.227,-16.602,11.230
1626466382.632,-38.086,-46.387,-56.152,-40.527
1626466382.636,-76.660,-60.547,-59.082,-71.289
1626466382.640,-67.383,-47.363,-29.297,-46.387
1626466382.643,-15.625,-26.855,-17.090,0.488
1626466382.647,-18.066,-34.180,-43.457,-18.555
1626466382.651,-63.477,-56.641,-56.152,-77.637
1626466382.655,-69.336,-52.734,-40.039,-51.758
1626466382.659,-5.859,-23.926,-11.230,12.207
1626466382.661,11.230,-20.020,-34.668,7.324
1626466382.665,-35.645,-55.176,-59.570,-47.363
1626466382.669,-42.969,-63.477,-47.363,-60.059
1626466382.673,-9.766,-35.156,-20.020,-10.254
1626466382.677,12.207,-18.555,-22.949,14.160
1626466382.681,-29.785,-41.992,-52.246,-41.992
1626466382.685,-62.988,-59.570,-62.988,-66.895
1626466382.688,-36.621,-46.387,-36.133,-43.945
1626466382.692,15.137,-19.531,-20.020,0.977
1626466382.696,-14.648,-44.922,-63.477,-37.598
1626466382.700,-62.988,-75.684,-59.570,-79.102
1626466382.704,-52.734,-62.500,-27.832,-58.594
1626466382.720,-9.766,-38.086,-11.230,-3.418
1626466382.724,-31.250,-47.852,-37.598,-18.555
1626466382.728,-82.031,-72.266,-47.852,-65.430
1626466382.732,-82.031,-71.777,-36.133,-62.988
1626466382.736,-39.062,-42.480,-18.066,-8.789
1626466382.740,-22.461,-23.926,-32.227,18.066
1626466382.744,-63.477,-49.316,-44.434,-28.320
1626466382.747,-106.445,-62.500,-33.691,-83.008
1626466382.751,-82.520,-45.898,-24.414,-60.059
1626466382.755,-49.316,-47.852,-31.250,-22.461
1626466382.759,-124.512,-79.590,-46.387,-91.797
1626466382.763,-160.156,-96.680,-41.992,-135.254
1626466382.765,-138.184,-88.867,-17.578,-114.746
1626466382.769,-139.648,-69.336,-3.906,-82.031
1626466382.773,-165.039,-84.961,-36.621,-117.188
1626466382.777,-213.867,-110.840,-55.664,-182.129
1626466382.781,-197.266,-99.121,-36.133,-162.109
1626466382.785,-148.438,-69.336,-1.465,-89.355
1626466382.789,-146.484,-83.496,-29.785,-117.188
1626466382.792,-159.180,-109.375,-48.340,-154.297
1626466382.796,-140.625,-101.562,-35.645,-134.766
1626466382.800,-96.680,-83.008,-21.484,-81.543
1626466382.804,-83.496,-77.637,-32.715,-52.246
1626466382.808,-110.840,-106.934,-47.363,-99.609
1626466382.810,-125.488,-105.957,-30.762,-110.840
1626466382.814,-82.520,-82.520,-2.441,-55.176
1626466382.818,-45.410,-63.477,2.441,-13.672
1626466382.822,-82.031,-75.684,-35.156,-73.730
1626466382.826,-107.422,-93.262,-41.504,-112.793
1626466382.830,-87.402,-63.477,-16.602,-44.434
1626466382.834,-24.902,-31.738,-6.348,13.672
1626466382.837,-40.039,-62.988,-30.762,-39.551
1626466382.841,-90.820,-93.750,-40.039,-79.102
1626466382.845,-68.848,-80.566,-22.461,-58.105
1626466382.849,-32.227,-66.406,-16.602,-12.695
1626466382.853,-36.133,-75.195,-44.922,-17.578
1626466382.856,-66.406,-79.102,-46.875,-47.852
1626466382.860,-63.477,-71.777,-26.367,-48.828
1626466382.864,-10.742,-46.875,5.859,-9.766
1626466382.868,5.859,-35.156,5.859,10.254
1626466382.872,-39.551,-67.383,-29.785,-45.410
1626466382.876,-51.758,-65.918,-29.785,-64.941
1626466382.880,-36.133,-39.062,-1.953,-22.949
1626466382.883,3.418,-22.461,-8.789,8.301
1626466382.887,-15.137,-51.270,-46.387,-27.344
1626466382.891,-49.805,-78.125,-44.434,-60.059
1626466382.895,-12.207,-54.688,-20.996,-42.969
1626466382.899,31.250,-32.715,-18.066,11.719
1626466382.900,-10.742,-47.852,-49.316,-9.766
1626466382.904,-75.195,-67.871,-49.316,-60.547
1626466382.908,-65.918,-72.266,-36.133,-49.316
1626466382.912,-2.930,-36.621,-16.113,5.859
1626466382.916,11.719,-17.578,-14.648,13.672
1626466382.920,-43.945,-48.340,-39.062,-51.270
1626466382.924,-73.242,-55.664,-53.223,-71.777
1626466382.927,-43.945,-41.504,-26.367,-20.020
1626466382.931,-16.602,-37.109,-14.160,-2.930
1626466382.935,-54.199,-61.035,-31.250,-52.734
1626466382.939,-71.777,-73.730,-29.297,-67.383
1626466382.943,-37.598,-52.734,-11.230,-46.387
1626466382.945,-9.277,-25.879,-6.836,0.488
1626466382.949,-41.016,-44.434,-36.621,-27.344
1626466382.953,-71.777,-67.383,-44.434,-68.359
1626466382.957,-51.270,-59.082,-23.438,-39.062
1626466382.961,-3.418,-40.039,-15.625,17.578
1626466382.965,-7.812,-31.738,-39.551,-5.859
1626466382.969,-55.664,-41.992,-43.945,-58.105
1626466382.972,-61.523,-60.059,-34.180,-58.105
1626466382.976,-26.367,-50.781,-13.672,-17.090
1626466382.980,-25.879,-46.387,-40.039,-1.465
1626466382.984,-59.570,-73.242,-60.547,-55.176
1626466382.988,-61.035,-72.754,-34.180,-65.430
1626466382.990,-13.184,-40.039,-16.602,-13.184
1626466382.994,4.395,-35.156,-24.414,2.930
1626466382.998,-52.246,-68.359,-41.016,-57.617
1626466383.002,-75.195,-80.078,-40.039,-73.730
1626466383.006,-41.016,-56.152,-28.809,-23.438
1626466383.010,0.977,-14.160,-24.414,18.066
1626466383.014,-26.855,-32.227,-55.664,-28.809
1626466383.017,-52.246,-74.219,-59.570,-72.266
1626466383.021,-37.598,-58.105,-40.039,-49.805
1626466383.025,1.953,-14.648,-27.832,-0.488
1626466383.029,-13.184,-18.066,-46.875,-12.695
1626466383.033,-63.965,-55.664,-58.105,-62.012
1626466383.035,-68.359,-60.059,-49.805,-64.941
1626466383.039,-24.414,-34.180,-25.391,-5.371
1626466383.043,4.395,-29.297,-40.039,15.137
1626466383.047,-30.762,-62.500,-66.895,-40.039
1626466383.051,-46.875,-59.570,-46.875,-67.383
1626466383.055,-7.324,-24.902,-31.738,-33.691
1626466383.059,20.996,-13.672,-36.621,7.812
1626466383.062,-26.855,-52.246,-49.805,-45.410
1626466383.066,-64.941,-77.148,-53.223,-87.891
1626466383.070,-37.598,-55.664,-43.945,-62.500
1626466383.074,22.949,-26.367,-35.156,-11.719
1626466383.078,5.859,-44.434,-55.664,-36.621
1626466383.095,-45.898,-60.059,-49.316,-73.242
1626466383.099,-41.016,-48.340,-30.273,-54.688
1626466383.103,9.277,-31.250,-20.996,-4.395
1626466383.107,4.395,-37.598,-37.598,-15.625
1626466383.111,-66.406,-64.453,-44.922,-76.660
1626466383.115,-69.336,-59.570,-30.762,-61.035
1626466383.119,-10.742,-32.715,-24.902,-8.301
1626466383.122,6.836,-26.367,-42.480,2.930
1626466383.126,-30.273,-46.387,-40.527,-39.062
1626466383.130,-54.199,-59.570,-31.250,-60.547
1626466383.134,-22.461,-46.387,-23.438,-33.691
1626466383.138,-3.418,-32.227,-24.414,8.789
1626466383.140,-31.250,-51.758,-44.434,-23.926
1626466383.144,-47.363,-60.059,-42.969,-71.289
1626466383.148,-34.180,-51.758,-14.160,-43.457
1626466383.152,3.906,-35.645,4.883,15.625
1626466383.156,-18.066,-39.551,-26.367,-18.066
1626466383.160,-65.430,-57.129,-37.109,-61.523
1626466383.164,-57.617,-57.617,-21.973,-51.758
1626466383.167,-7.324,-32.227,0.000,-7.324
1626466383.171,-18.555,-26.855,-21.484,-3.906
1626466383.175,-89.844,-65.430,-40.527,-56.641
1626466383.179,-94.238,-79.102,-30.762,-73.242
1626466383.183,-40.039,-51.270,-10.254,-28.809
1626466383.185,-13.184,-25.879,-10.742,2.441
1626466383.189,-58.594,-50.781,-36.621,-54.199
1626466383.193,-79.590,-73.730,-39.551,-78.125
1626466383.197,-45.410,-58.105,-12.207,-37.598
1626466383.201,-3.906,-42.969,-9.766,13.672
1626466383.205,-28.809,-51.758,-45.410,-25.391
1626466383.209,-70.801,-62.988,-46.387,-80.566
1626466383.212,-45.410,-52.246,-22.949,-62.012
1626466383.216,18.066,-29.785,-12.207,5.371
1626466383.220,12.695,-39.551,-42.480,0.977
1626466383.224,-24.414,-57.617,-47.852,-37.598
1626466383.228,-10.742,-51.270,-32.715,-29.785
1626466383.230,41.016,-25.879,-19.043,24.414
1626466383.234,46.875,-22.949,-32.227,49.316
1626466383.238,1.465,-44.434,-46.875,-2.441
1626466383.242,1.465,-47.363,-38.086,-21.484
1626466383.246,53.223,-21.484,-11.230,42.480
1626466383.250,80.566,2.441,-5.859,78.613
1626466383.254,33.203,-16.602,-33.203,20.020
1626466383.257,2.441,-39.062,-34.180,-17.090
1626466383.261,36.133,-32.227,-12.207,18.555
1626466383.265,77.148,-11.230,-4.395,82.031
1626466383.269,40.527,-22.949,-29.785,44.434
1626466383.273,-6.836,-48.828,-37.598,-19.531
1626466383.275,4.883,-37.109,-19.531,-13.672
1626466383.279,52.246,-13.184,6.348,43.945
1626466383.283,37.109,-21.973,-23.926,33.203
1626466383.287,-20.996,-48.828,-47.363,-18.066
1626466383.291,-11.230,-58.105,-26.367,-14.160
1626466383.295,27.832,-25.391,15.625,35.156
1626466383.299,22.949,-5.859,7.812,37.598
1626466383.302,-19.043,-45.410,-26.855,-19.043
1626466383.306,-28.320,-60.059,-29.297,-34.180
1626466383.310,16.602,-32.227,-13.672,0.977
1626466383.314,43.457,-9.766,-8.301,29.785
1626466383.318,-14.160,-39.551,-39.062,-11.230
1626466383.321,-40.527,-57.129,-41.992,-42.480
1626466383.325,-6.348,-32.227,-9.277,-7.324
1626466383.329,37.598,-13.672,5.371,46.387
1626466383.333,16.602,-35.156,-27.832,15.137
1626466383.337,-40.039,-52.734,-28.809,-33.203
1626466383.341,-28.320,-37.109,-1.953,-18.066
1626466383.345,38.086,-14.160,8.789,41.504
1626466383.348,34.668,-25.391,-15.625,24.414
1626466383.352,-20.996,-48.828,-29.785,-17.578
1626466383.356,-34.668,-51.758,-28.320,-25.391
1626466383.360,3.906,-32.227,-6.836,-7.324
1626466383.364,22.949,-25.391,-12.207,13.672
1626466383.365,-27.832,-52.734,-37.598,-27.344
1626466383.369,-51.270,-58.105,-33.203,-47.852
1626466383.373,-10.254,-27.344,-9.277,-10.254
1626466383.377,16.602,-7.812,-4.883,27.344
1626466383.381,-26.367,-28.809,-28.809,-22.949
1626466383.385,-51.270,-43.457,-23.926,-56.152
1626466383.389,-31.250,-41.016,-11.719,-21.973
1626466383.392,9.277,-24.902,-4.883,8.301
1626466383.396,-10.742,-32.715,-32.715,-19.531
1626466383.400,-59.570,-53.711,-41.504,-52.246
1626466383.404,-54.688,-43.457,-19.043,-52.246
1626466383.408,-9.766,-21.484,-1.953,-18.555
1626466383.410,-6.836,-25.879,-20.508,-19.531
1626466383.414,-55.664,-51.270,-32.227,-57.129
1626466383.418,-72.754,-55.664,-24.414,-66.406
1626466383.422,-24.902,-35.156,-12.695,-21.973
1626466383.426,-3.906,-25.391,-15.625,13.672
1626466383.430,-63.477,-43.457,-29.297,-51.270
1626466383.434,-83.496,-57.129,-20.996,-77.148
1626466383.437,-36.621,-43.457,-7.324,-27.344
1626466383.441,0.488,-20.508,-9.277,14.160
1626466383.445,-47.852,-53.711,-35.156,-34.180
1626466383.449,-78.613,-79.102,-31.738,-80.566
1626466383.453,-53.223,-53.223,-12.695,-53.223
1626466383.471,-12.695,-20.020,-11.719,-7.812
1626466383.475,-30.762,-30.762,-40.527,-29.785
1626466383.479,-67.383,-62.012,-38.086,-69.824
1626466383.483,-52.734,-57.617,-16.113,-61.523
1626466383.487,0.000,-28.809,-3.906,-8.301
1626466383.491,14.160,-18.555,-26.855,-2.441
1626466383.495,-41.504,-42.480,-32.715,-44.922
1626466383.498,-62.500,-60.547,-13.672,-53.711
1626466383.502,-11.230,-38.574,4.395,-24.414
1626466383.506,10.254,-25.879,-0.488,2.930
1626466383.510,-48.340,-49.316,-26.367,-42.480
1626466383.514,-67.383,-59.082,-23.926,-78.613
1626466383.515,-31.738,-46.387,-2.441,-48.828
1626466383.519,-13.672,-38.086,4.395,1.953
1626466383.523,-57.617,-60.059,-23.438,-47.363
1626466383.527,-80.566,-71.777,-33.691,-77.637
1626466383.531,-61.035,-65.430,-16.113,-58.594
1626466383.535,-27.344,-41.992,14.648,-19.531
1626466383.539,-32.227,-41.016,-13.184,-27.832
1626466383.542,-86.426,-71.289,-31.738,-91.309
1626466383.546,-87.402,-78.125,-8.789,-86.426
1626466383.550,-33.203,-62.988,0.000,-30.273
1626466383.554,-23.438,-49.805,-13.672,-8.301
1626466383.558,-62.012,-68.359,-17.090,-49.805
1626466383.562,-72.266,-78.125,-8.789,-68.848
1626466383.566,-32.227,-59.570,3.906,-36.621
1626466383.570,6.348,-46.875,-5.371,7.324
1626466383.574,-36.621,-63.965,-33.203,-22.949
1626466383.578,-67.383,-74.707,-15.625,-56.152
1626466383.582,-36.621,-58.105,15.625,-33.691
1626466383.586,4.883,-38.574,17.578,11.719
1626466383.589,-14.160,-55.176,-13.672,-20.996
1626466383.593,-54.688,-76.172,-24.902,-70.801
1626466383.597,-43.945,-67.383,-7.324,-49.805
1626466383.601,3.906,-36.621,15.625,0.977
1626466383.605,3.906,-41.016,-3.418,-15.625
1626466383.605,-35.645,-73.242,-13.184,-61.523
1626466383.609,-46.387,-68.359,-5.371,-60.059
1626466383.613,-9.277,-41.016,6.836,-8.301
1626466383.617,8.301,-41.016,2.441,6.348
1626466383.621,-37.598,-60.059,-27.344,-55.664
1626466383.625,-66.406,-61.523,-25.391,-68.848
1626466383.629,-32.715,-53.711,5.859,-21.973
1626466383.632,13.184,-42.480,15.137,9.277
1626466383.636,-22.461,-63.965,-14.648,-36.621
1626466383.640,-55.176,-83.496,-11.719,-66.406
1626466383.644,-28.809,-68.359,17.090,-40.039
1626466383.648,13.672,-38.086,18.066,6.836
1626466383.650,-19.531,-35.156,-14.648,-30.273
1626466383.654,-66.406,-61.035,-20.996,-76.172
1626466383.658,-41.992,-65.918,-1.465,-48.828
1626466383.662,19.043,-36.621,20.020,18.555
1626466383.666,20.996,-34.180,-4.395,13.672
1626466383.670,-41.504,-58.105,-21.484,-35.645
1626466383.674,-54.688,-54.199,-11.230,-42.969
1626466383.677,-4.883,-33.691,6.836,-2.930
1626466383.681,16.113,-27.832,-0.977,24.414
1626466383.685,-43.945,-56.152,-26.367,-38.086
1626466383.689,-75.195,-69.336,-29.297,-71.289
1626466383.693,-29.297,-43.945,-1.953,-27.344
1626466383.695,3.906,-27.832,9.277,11.719
1626466383.699,-28.320,-57.129,-30.762,-33.691
1626466383.703,-68.848,-70.312,-37.109,-75.684
1626466383.707,-48.340,-51.758,-8.301,-65.918
1626466383.711,9.766,-22.461,10.742,-8.789
1626466383.715,-16.113,-28.320,-18.066,-17.090
1626466383.719,-65.430,-60.547,-34.180,-82.520
1626466383.722,-51.758,-60.059,-16.113,-84.961
1626466383.726,-2.930,-27.344,13.184,-30.273
1626466383.730,3.418,-26.855,-2.441,-22.949
1626466383.734,-44.434,-52.734,-23.438,-65.430
1626466383.738,-53.223,-62.500,-14.648,-68.848
1626466383.740,-4.883,-49.316,12.695,-21.484
1626466383.744,18.555,-35.645,2.930,9.766
1626466383.748,-31.250,-52.734,-33.203,-31.738
1626466383.752,-48.828,-73.242,-33.203,-44.434
1626466383.756,-11.719,-51.270,0.977,-3.418
1626466383.760,17.090,-17.578,17.090,37.109
1626466383.764,-25.879,-46.875,-25.879,0.977
1626466383.767,-67.383,-80.078,-16.113,-42.969
1626466383.771,-52.246,-71.289,14.160,-39.551
1626466383.775,-6.348,-45.898,17.578,15.137
1626466383.779,-5.371,-40.039,-16.602,6.348
1626466383.783,-45.410,-63.477,-30.762,-47.852
1626466383.786,-44.434,-70.312,-1.465,-43.457
1626466383.790,6.836,-33.203,16.113,9.277
1626466383.794,18.066,-11.719,-14.160,20.996
1626466383.798,-34.180,-49.805,-32.715,-45.898
1626466383.802,-41.504,-68.359,-32.715,-68.848
1626466383.806,12.695,-30.273,-8.789,-13.184
1626466383.810,41.992,-17.090,4.395,37.109
1626466383.813,-55.664,-52.734,-26.855,-51.758
1626466383.817,-121.582,-71.289,-20.020,-114.258
1626466383.821,-94.727,-74.219,-1.953,-89.355
1626466383.825,-77.637,-52.246,-7.812,-61.523
1626466383.829,-127.930,-60.547,-19.043,-115.234
1626466383.845,-173.340,-91.309,-23.438,-184.570
1626466383.849,-160.156,-88.867,-31.250,-166.016
1626466383.853,-133.789,-65.430,-24.414,-131.836
1626466383.857,-143.555,-65.430,-39.551,-148.926
1626466383.861,-190.918,-93.262,-18.555,-185.059
1626466383.865,-203.613,-96.680,11.719,-199.707
1626466383.869,-143.555,-65.430,6.836,-138.672
1626466383.872,-112.793,-59.082,-9.277,-100.586
1626466383.876,-157.715,-92.773,-21.973,-149.414
1626466383.880,-157.227,-99.609,-14.648,-140.137
1626466383.884,-97.656,-70.312,8.301,-78.613
1626466383.888,-55.664,-45.898,5.859,-31.250
1626466383.890,-92.773,-68.848,-31.250,-69.336
1626466383.894,-118.164,-83.496,-21.973,-93.750
1626466383.898,-76.660,-61.035,-1.465,-51.270
1626466383.902,-16.602,-37.598,10.742,5.859
1626466383.906,-35.156,-59.082,-10.742,-32.715
1626466383.910,-80.566,-73.730,-14.648,-87.891
1626466383.914,-60.059,-64.941,2.441,-77.148
1626466383.917,-7.324,-47.363,23.438,-16.602
1626466383.921,-5.859,-39.062,-2.930,-16.113
1626466383.925,-60.547,-76.172,-24.414,-73.242
1626466383.929,-70.801,-86.426,-15.137,-70.312
1626466383.933,-21.484,-47.852,5.371,-23.438
1626466383.935,-14.160,-28.809,2.930,-5.371
1626466383.939,-69.336,-59.570,-20.508,-55.664
1626466383.943,-78.613,-76.660,-13.672,-65.918
1626466383.947,-39.551,-61.035,8.301,-23.926
1626466383.951,-13.184,-34.668,15.137,18.555
1626466383.955,-54.688,-50.781,-20.020,-38.086
1626466383.959,-89.844,-71.289,-25.879,-73.730
1626466383.962,-63.965,-66.895,-9.277,-41.504
1626466383.966,-18.066,-48.828,5.371,0.488
1626466383.970,-23.438,-51.270,-11.230,-19.531
1626466383.974,-57.129,-67.383,-22.949,-61.523
1626466383.978,-46.875,-61.523,-14.648,-50.781
1626466383.980,6.836,-30.762,11.230,2.930
1626466383.984,4.883,-28.320,0.488,4.883
1626466383.988,-59.082,-65.430,-21.973,-46.875
1626466383.992,-76.660,-76.172,-21.973,-58.594
1626466383.996,-34.668,-55.664,1.953,-19.043
1626466384.000,-1.465,-28.320,6.836,24.902
1626466384.004,-48.828,-52.734,-29.297,-24.414
1626466384.007,-78.613,-83.008,-32.715,-82.031
1626466384.011,-39.062,-64.453,-6.348,-40.039
1626466384.015,26.855,-28.809,3.906,28.809
1626466384.019,5.371,-46.387,-30.273,-20.020
1626466384.023,-46.875,-77.148,-30.273,-65.430
1626466384.027,-25.879,-54.688,1.465,-30.762
1626466384.031,33.691,-15.625,16.602,23.438
1626466384.035,29.785,-33.203,-28.320,-6.836
1626466384.039,-26.367,-63.965,-47.852,-66.895
1626466384.043,-36.621,-65.918,-27.344,-61.035
1626466384.047,12.207,-34.668,0.488,3.906
1626466384.051,22.461,-18.066,-8.789,18.555
1626466384.054,-36.133,-65.430,-39.551,-48.340
1626466384.058,-46.387,-78.613,-35.156,-65.430
1626466384.062,6.348,-48.340,-1.953,-7.324
1626466384.066,36.133,-26.855,-5.859,23.926
1626466384.070,-1.953,-47.363,-36.621,-19.043
1626466384.070,-25.879,-61.035,-24.902,-43.945
1626466384.074,6.836,-46.875,9.277,-8.301
1626466384.078,44.922,-20.996,19.043,54.688
1626466384.082,17.090,-39.062,-12.695,15.625
1626466384.086,-27.832,-65.918,-20.508,-32.227
1626466384.090,-22.461,-53.711,-14.160,-10.254
1626466384.094,39.551,-24.414,6.348,58.594
1626466384.097,41.504,-23.926,-5.371,43.457
1626466384.101,-7.812,-57.617,-23.438,-31.250
1626466384.105,-4.883,-67.871,-21.484,-34.668
1626466384.109,44.434,-40.527,-1.465,24.902
1626466384.113,51.270,-34.180,-6.348,41.504
1626466384.115,-1.465,-63.965,-29.297,-14.648
1626466384.119,-15.625,-74.219,-22.949,-35.645
1626466384.123,28.320,-45.898,3.418,7.324
1626466384.127,60.547,-23.438,9.277,54.688
1626466384.131,18.066,-58.105,-24.902,-11.230
1626466384.135,-27.344,-78.125,-32.715,-59.570
1626466384.139,-16.602,-62.012,-13.184,-16.602
1626466384.142,28.809,-31.738,5.859,48.828
1626466384.146,1.465,-33.203,-22.949,20.996
1626466384.150,-52.246,-69.824,-38.086,-45.898
1626466384.154,-40.527,-71.289,-20.508,-35.645
1626466384.158,-6.348,-39.062,-14.160,37.598
1626466384.161,-11.719,-35.645,-35.156,29.297
1626466384.165,-67.383,-67.871,-32.715,-42.480
1626466384.169,-88.379,-74.707,-21.484,-56.641
1626466384.173,-34.668,-46.387,2.930,-7.812
1626466384.177,-14.160,-37.598,-0.488,19.043
1626466384.181,-68.848,-63.477,-32.227,-34.180
1626466384.185,-79.590,-74.219,-33.203,-42.969
1626466384.188,-20.508,-51.758,-10.254,3.906
1626466384.192,15.625,-29.785,-6.348,40.039
1626466384.196,-28.320,-59.082,-46.387,-11.719
1626466384.200,-61.523,-77.637,-39.062,-63.477
1626466384.204,-23.926,-64.941,-10.254,-41.504
1626466384.220,20.508,-33.691,5.859,18.066
1626466384.224,-17.578,-32.715,-25.879,-6.348
1626466384.228,-65.430,-61.523,-53.711,-60.059
1626466384.232,-52.246,-65.918,-30.762,-46.387
1626466384.236,4.395,-28.320,-0.488,20.508
1626466384.240,-1.465,-15.137,-23.926,16.602
1626466384.244,-66.406,-54.688,-46.387,-48.340
1626466384.247,-77.637,-81.055,-39.062,-64.453
1626466384.251,-25.879,-59.082,-5.371,-8.301
1626466384.255,6.836,-31.250,-2.441,35.156
1626466384.259,-47.852,-59.570,-38.086,-33.203
1626466384.263,-78.613,-81.543,-33.203,-59.082
1626466384.268,-40.039,-59.570,1.953,-16.602
1626466384.272,-2.441,-34.180,15.137,36.133
1626466384.276,-37.598,-58.594,-27.344,-19.043
1626466384.280,-75.195,-83.984,-39.062,-67.383
1626466384.284,-58.105,-74.707,-10.742,-41.992
1626466384.288,-3.418,-31.738,15.137,15.137
1626466384.292,-15.137,-35.156,-10.742,7.812
1626466384.295,-65.918,-72.266,-40.527,-44.922
1626466384.299,-58.594,-69.824,-27.832,-38.574
1626466384.303,-9.766,-43.457,9.277,21.484
1626466384.307,-1.953,-28.320,-18.555,29.297
1626466384.311,-49.316,-61.035,-53.223,-53.223
1626466384.310,-61.035,-71.777,-32.227,-75.684
1626466384.314,-14.160,-39.551,5.371,-11.719
1626466384.318,19.531,-20.508,5.371,34.180
1626466384.322,-22.461,-53.223,-39.062,-21.484
1626466384.326,-48.828,-74.219,-42.480,-62.012
1626466384.330,-7.812,-39.551,-7.324,-26.855
1626466384.334,31.250,-13.184,9.277,28.809
1626466384.337,-2.930,-49.316,-25.879,-4.883
1626466384.341,-43.945,-77.637,-45.898,-60.059
1626466384.345,-25.879,-58.105,-34.180,-50.293
1626466384.349,28.320,-17.578,-2.441,27.344
1626466384.353,18.066,-22.461,-22.461,17.578
1626466384.355,-40.039,-58.105,-39.551,-70.312
1626466384.359,-56.641,-61.035,-31.250,-78.613
1626466384.363,-9.277,-35.156,-3.418,-16.113
1626466384.367,6.836,-20.508,-20.996,6.348
1626466384.371,-52.246,-56.152,-65.430,-55.176
1626466384.375,-72.754,-64.453,-49.316,-75.195
1626466384.379,-26.367,-36.621,-8.301,-19.043
1626466384.382,6.836,-23.438,-10.742,19.043
1626466384.386,-42.969,-46.387,-53.223,-46.875
1626466384.390,-80.078,-77.637,-41.016,-80.078
1626466384.394,-59.570,-66.895,-2.930,-43.457
1626466384.398,-25.391,-32.227,7.812,11.230
1626466384.400,-40.039,-42.969,-22.949,-15.137
1626466384.404,-79.102,-76.172,-40.039,-79.102
1626466384.408,-76.172,-73.242,-19.043,-76.660
1626466384.412,-16.602,-34.668,13.672,-3.418
1626466384.416,-16.602,-37.109,-13.184,4.395
1626466384.420,-71.777,-67.383,-40.039,-62.500
1626466384.424,-70.801,-62.500,-33.203,-83.496
1626466384.427,-13.672,-32.715,-7.812,-22.461
1626466384.431,11.230,-25.391,-15.625,14.160
1626466384.435,-27.832,-56.152,-44.922,-47.363
1626466384.439,-39.062,-55.664,-43.945,-78.613
1626466384.443,-5.859,-29.785,-29.785,-30.273
1626466384.445,41.504,-6.836,-21.484,24.414
1626466384.449,11.230,-36.133,-43.945,-30.273
1626466384.453,-36.133,-68.359,-34.180,-73.730
1626466384.457,-9.766,-52.734,-2.441,-32.715
1626466384.461,43.945,-16.602,7.812,31.250
1626466384.465,16.602,-16.602,-26.855,1.953
1626466384.469,-28.809,-53.711,-42.480,-46.387
1626466384.472,-17.578,-56.641,-20.508,-35.645
1626466384.476,30.273,-16.113,7.812,19.531
1626466384.480,22.461,-20.508,-25.391,19.531
1626466384.484,-38.574,-58.594,-50.293,-48.340
1626466384.488,-44.922,-65.918,-35.156,-60.059
1626466384.491,-7.324,-39.551,-6.836,5.371
1626466384.495,26.367,-10.254,-12.207,46.875
1626466384.499,-15.137,-41.992,-46.387,-13.672
1626466384.503,-78.613,-78.125,-43.457,-69.824
1626466384.507,-55.176,-56.152,-6.348,-44.434
1626466384.511,-11.719,-18.555,7.324,21.973
1626466384.515,-51.758,-45.898,-36.133,-30.273
1626466384.518,-80.566,-83.984,-45.410,-88.379
1626466384.522,-60.547,-64.941,-24.414,-77.637
1626466384.526,-17.578,-32.715,-7.812,-23.438
1626466384.530,-25.391,-43.457,-35.645,-34.180
1626466384.534,-76.660,-80.078,-52.246,-102.051
1626466384.535,-73.730,-67.871,-32.715,-99.121
1626466384.539,-20.996,-31.738,-8.301,-24.902
1626466384.543,-11.230,-39.062,-38.086,-6.836
1626466384.547,-57.617,-65.430,-62.012,-76.172
1626466384.551,-61.035,-54.199,-36.621,-84.473
1626466384.555,-19.043,-27.344,-1.465,-20.996
1626466384.559,8.789,-23.438,-1.953,27.344
1626466384.562,-37.109,-52.246,-37.598,-35.645
1626466384.566,-75.684,-76.660,-38.574,-79.590
1626466384.570,-33.691,-63.477,-15.625,-42.480
1626466384.574,8.301,-27.344,-2.441,12.207
1626466384.578,-30.273,-49.316,-32.715,-16.602
1626466384.595,-62.500,-74.707,-47.363,-72.754
1626466384.599,-42.969,-65.430,-25.391,-52.734
1626466384.603,-4.883,-39.551,0.977,19.043
1626466384.607,-15.625,-37.598,-28.320,17.090
1626466384.611,-70.801,-70.312,-41.016,-57.617
1626466384.615,-87.402,-66.895,-20.020,-66.406
1626466384.619,-26.367,-37.109,-3.906,-8.301
1626466384.622,-8.789,-26.855,-26.855,2.930
1626466384.626,-69.824,-56.152,-45.410,-62.012
1626466384.630,-85.938,-74.219,-29.785,-89.844
1626466384.634,-39.062,-45.410,-6.348,-31.250
1626466384.638,-0.977,-24.414,-11.719,33.691
1626466384.640,-50.781,-56.152,-48.828,-32.715
1626466384.644,-82.031,-81.543,-46.875,-88.867
1626466384.648,-46.875,-60.059,-20.996,-50.781
1626466384.652,0.977,-19.043,-13.184,15.137
1626466384.656,-20.996,-30.273,-48.828,-16.602
1626466384.660,-63.965,-54.688,-56.641,-73.242
1626466384.664,-51.758,-51.758,-26.855,-49.805
1626466384.667,2.441,-24.414,8.789,10.742
1626466384.671,-2.930,-20.996,-29.785,12.207
1626466384.675,-56.641,-69.824,-62.012,-47.852
1626466384.679,-55.664,-67.383,-41.992,-81.055
1626466384.683,-1.465,-31.250,-15.137,-24.414
1626466384.685,10.254,-28.320,-25.879,21.484
1626466384.689,-57.129,-59.082,-49.316,-50.781
1626466384.693,-75.195,-71.289,-38.086,-73.730
1626466384.697,-32.715,-42.969,-5.371,-20.508
1626466384.701,8.789,-18.555,1.953,34.668
1626466384.705,-35.156,-33.691,-31.250,-12.207
1626466384.709,-63.477,-56.152,-37.109,-70.312
1626466384.712,-38.086,-59.082,-15.625,-36.133
1626466384.716,9.766,-24.414,2.930,24.902
1626466384.720,-14.160,-27.832,-38.086,1.465
1626466384.724,-78.613,-61.035,-50.293,-63.965
1626466384.728,-71.289,-61.035,-21.973,-64.941
1626466384.732,-21.484,-28.809,2.441,0.977
1626466384.736,-7.812,-19.043,-23.438,20.996
1626466384.740,-36.133,-57.129,-45.410,-44.434
1626466384.744,-53.223,-80.078,-32.715,-72.266
1626466384.748,-15.625,-48.340,-3.906,-20.996
1626466384.752,19.531,-17.090,-9.277,9.766
1626466384.756,-38.086,-47.852,-48.340,-51.758
1626466384.759,-64.453,-71.289,-46.875,-91.797
1626466384.763,-38.574,-53.711,-25.391,-51.758
1626466384.767,-1.953,-34.668,-23.438,-1.953
1626466384.771,-35.645,-57.617,-51.758,-46.387
1626466384.775,-73.242,-76.172,-50.293,-90.332
1626466384.775,-48.828,-61.523,-25.879,-56.152
1626466384.779,-5.859,-28.320,-3.418,24.902
1626466384.783,-18.555,-32.227,-33.691,-0.488
1626466384.787,-74.707,-75.684,-55.176,-76.172
1626466384.791,-62.500,-73.730,-38.574,-78.125
1626466384.795,-2.441,-23.438,-8.301,-14.648
1626466384.799,-8.789,-17.090,-20.996,8.301
1626466384.802,-71.289,-69.336,-52.246,-61.035
1626466384.806,-85.449,-91.797,-45.898,-75.684
1626466384.810,-19.531,-56.641,-12.695,-21.973
1626466384.814,15.625,-24.414,-11.719,18.555
1626466384.818,-40.527,-52.734,-46.875,-29.297
1626466384.820,-56.641,-75.684,-53.223,-79.102
1626466384.824,-12.695,-48.340,-27.832,-39.062
1626466384.828,32.715,-19.043,-12.695,33.203
1626466384.832,-5.371,-47.852,-51.758,-23.438
1626466384.836,-49.316,-74.707,-64.453,-85.938
1626466384.840,-25.879,-50.781,-31.250,-56.152
1626466384.844,10.254,-18.555,2.441,20.020
1626466384.847,-10.254,-35.645,-35.645,6.348
1626466384.851,-50.781,-55.176,-55.664,-73.730
1626466384.855,-35.645,-53.711,-36.621,-77.637
1626466384.859,7.812,-41.016,-14.160,-0.977
1626466384.863,17.578,-33.691,-41.504,17.578
1626466384.865,-31.250,-59.082,-68.359,-59.082
1626466384.869,-50.781,-68.848,-53.223,-87.402
1626466384.873,-5.371,-46.387,-13.672,-24.414
1626466384.877,29.785,-20.508,4.883,38.086
1626466384.881,-8.789,-39.062,-35.156,-14.160
1626466384.885,-37.598,-45.410,-48.828,-60.547
1626466384.889,-15.137,-35.156,-27.344,-16.113
1626466384.892,24.414,-25.879,-4.395,56.641
1626466384.896,-6.348,-41.992,-38.574,3.906
1626466384.900,-52.246,-70.801,-60.059,-68.359
1626466384.904,-39.551,-60.547,-39.062,-54.688
1626466384.908,7.324,-31.250,-10.742,17.090
1626466384.911,3.418,-35.645,-41.992,16.113
1626466384.915,-52.734,-68.848,-67.871,-63.477
1626466384.919,-65.918,-69.336,-41.016,-69.336
1626466384.923,-0.488,-32.715,-0.977,5.371
1626466384.927,30.762,-9.277,-8.301,40.527
1626466384.931,-43.945,-37.598,-50.293,-34.180
1626466384.935,-67.871,-73.730,-54.688,-80.566
1626466384.938,-19.043,-52.734,-14.648,-25.391
1626466384.942,13.672,-12.207,-7.812,38.574
1626466384.946,-23.438,-45.410,-49.805,-9.766
1626466384.950,-61.523,-76.172,-51.758,-61.523
1626466384.954,-35.156,-58.105,-22.949,-27.344
1626466384.970,11.719,-30.273,-5.859,30.273
1626466384.974,-16.113,-38.574,-42.480,3.418
1626466384.978,-61.523,-68.359,-55.176,-58.594
1626466384.982,-45.410,-61.035,-35.156,-64.453
1626466384.986,-2.441,-23.926,-4.883,11.719
1626466384.990,-10.254,-22.949,-29.297,36.621
1626466384.994,-56.152,-68.359,-62.988,-39.062
1626466384.997,-62.500,-85.449,-44.434,-68.359
1626466385.001,-12.695,-48.340,-7.324,-2.930
1626466385.005,13.184,-21.973,-14.648,39.062
1626466385.009,-36.621,-57.129,-46.387,-20.020
1626466385.013,-60.059,-77.148,-40.527,-62.012
1626466385.015,-19.043,-48.828,-13.184,-18.555
1626466385.019,29.297,-17.090,-9.277,45.410
1626466385.023,-14.648,-39.062,-42.480,-2.930
1626466385.027,-68.359,-69.824,-47.363,-69.336
1626466385.031,-44.434,-57.617,-32.715,-48.828
1626466385.035,12.207,-10.254,-14.160,20.020
1626466385.039,-1.465,-15.625,-50.293,1.465
1626466385.042,-61.035,-60.547,-64.453,-57.129
1626466385.046,-63.965,-64.941,-49.316,-61.523
1626466385.050,-2.930,-42.480,-19.043,1.953
1626466385.054,13.184,-32.715,-30.762,21.973
1626466385.058,-48.340,-66.895,-61.523,-53.223
1626466385.060,-65.918,-84.473,-40.527,-72.754
1626466385.064,-12.695,-57.617,-9.766,-16.113
1626466385.068,11.230,-31.738,-14.160,23.926
1626466385.072,-33.203,-57.129,-46.875,-34.668
1626466385.076,-53.711,-74.219,-52.734,-63.477
1626466385.080,-23.438,-48.340,-23.438,-16.113
1626466385.084,27.832,-14.160,-5.371,40.039
1626466385.087,-8.789,-36.621,-42.969,0.000
1626466385.091,-58.105,-63.965,-53.223,-62.988
1626466385.095,-39.062,-57.617,-26.855,-39.062
1626466385.099,21.484,-24.902,2.930,34.668
1626466385.103,13.672,-22.461,-29.785,19.043
1626466385.105,-41.992,-54.688,-55.176,-48.828
1626466385.109,-41.016,-54.688,-31.738,-53.223
1626466385.113,8.789,-20.508,6.836,12.695
1626466385.117,24.902,-9.766,-12.695,33.691
1626466385.121,-35.645,-42.969,-52.246,-32.227
1626466385.125,-56.152,-57.617,-51.758,-60.547
1626466385.129,-5.371,-35.156,-18.555,-16.602
1626466385.132,30.762,-4.883,-2.930,28.320
1626466385.136,-20.020,-38.086,-41.504,-29.297
1626466385.140,-51.758,-70.312,-42.480,-69.824
1626466385.144,-34.668,-45.410,-10.254,-32.227
1626466385.148,6.836,-9.277,0.977,41.016
1626466385.150,-11.719,-31.738,-29.785,10.742
1626466385.154,-64.453,-70.801,-39.551,-62.988
1626466385.158,-58.594,-67.871,-24.902,-51.270
1626466385.162,-4.395,-30.762,2.930,13.184
1626466385.166,-10.254,-26.855,-15.625,-4.883
1626466385.170,-63.477,-55.664,-34.668,-70.801
1626466385.174,-70.312,-54.199,-22.949,-73.730
1626466385.177,-32.715,-38.574,-6.836,-19.531
1626466385.181,-8.789,-31.738,-16.602,8.789
1626466385.185,-39.062,-55.176,-44.434,-41.504
1626466385.189,-53.223,-66.895,-44.922,-74.219
1626466385.193,-26.855,-52.734,-25.391,-25.879
1626466385.196,1.953,-28.320,-14.648,22.949
1626466385.200,-32.715,-38.574,-37.109,-34.668
1626466385.204,-66.406,-54.199,-40.527,-75.195
1626466385.208,-38.574,-45.410,-16.602,-44.922
1626466385.212,4.395,-24.902,0.488,2.441
1626466385.216,-7.812,-33.203,-33.691,-34.180
1626466385.220,-57.129,-63.965,-46.387,-76.172
1626466385.223,-62.988,-62.988,-30.273,-63.477
1626466385.227,-12.207,-28.320,-12.695,-16.602
1626466385.231,-8.789,-29.297,-27.832,-7.324
1626466385.235,-62.988,-61.035,-42.480,-57.617
1626466385.239,-73.242,-64.453,-32.227,-66.895
1626466385.240,-30.762,-41.992,-12.207,-34.180
1626466385.244,-8.301,-33.203,-16.602,-9.277
1626466385.248,-53.223,-61.035,-39.062,-60.547
1626466385.252,-83.984,-73.242,-43.945,-88.867
1626466385.256,-51.758,-51.758,-25.391,-41.992
1626466385.260,-10.742,-23.926,-9.766,6.836
1626466385.264,-35.645,-41.504,-50.293,-30.273
1626466385.267,-71.289,-66.406,-55.664,-69.336
1626466385.271,-53.223,-52.734,-26.367,-51.758
1626466385.275,-13.672,-32.227,-14.160,-4.883
1626466385.279,-20.508,-36.621,-37.598,-5.371
1626466385.283,-64.941,-58.594,-44.922,-60.547
1626466385.285,-58.594,-55.176,-29.785,-66.895
1626466385.289,4.395,-27.832,-10.254,-5.859
1626466385.293,-0.977,-31.250,-26.367,10.254
1626466385.297,-54.688,-60.547,-42.480,-48.828
1626466385.301,-57.129,-67.383,-32.715,-79.102
1626466385.305,-26.367,-38.574,-14.648,-24.902
1626466385.309,2.930,-20.508,-17.090,24.414
1626466385.312,-23.438,-53.711,-40.039,-30.273
1626466385.316,-56.641,-65.430,-41.504,-60.059
1626466385.320,-40.527,-41.504,-27.832,-31.250
1626466385.324,-1.953,-16.113,-12.207,4.395
1626466385.328,-24.902,-36.133,-34.668,-17.090
1626466385.345,-65.918,-58.105,-45.898,-63.965
1626466385.349,-41.504,-49.805,-25.391,-58.105
1626466385.353,-9.766,-31.738,-5.859,-8.301
1626466385.357,-30.762,-32.715,-31.250,-24.414
1626466385.361,-75.195,-56.641,-41.504,-71.289
1626466385.365,-75.195,-48.828,-27.832,-70.801
1626466385.369,-25.879,-27.832,-8.301,-19.043
1626466385.372,-19.531,-39.062,-23.926,-2.930
1626466385.376,-58.594,-61.523,-51.758,-58.105
1626466385.380,-69.336,-66.895,-45.410,-75.684
1626466385.384,-41.504,-45.898,-17.090,-30.762
1626466385.388,-23.926,-21.484,-10.742,-13.672
1626466385.390,-40.039,-41.504,-41.992,-65.430
1626466385.394,-62.500,-59.082,-43.945,-78.125
1626466385.398,-47.852,-54.199,-23.438,-54.199
1626466385.402,14.160,-38.086,-12.207,-6.836
1626466385.406,-6.348,-40.039,-37.598,-17.578
1626466385.410,-61.035,-50.781,-45.898,-71.289
1626466385.414,-46.875,-53.223,-36.133,-69.336
1626466385.417,-7.812,-32.227,-19.531,-16.602
1626466385.421,-16.602,-29.297,-39.062,-15.137
1626466385.425,-75.195,-70.801,-64.941,-76.660
1626466385.429,-81.055,-70.312,-50.781,-76.660
1626466385.433,-33.203,-39.062,-19.043,-28.809
1626466385.436,-19.531,-35.156,-24.414,-20.020
1626466385.440,-55.176,-53.711,-46.387,-57.617
1626466385.444,-67.383,-62.012,-51.270,-64.941
1626466385.448,-36.133,-56.641,-36.621,-41.504
1626466385.452,-0.977,-38.574,-25.391,-23.926
1626466385.456,-17.090,-40.527,-42.969,-40.527
1626466385.460,-53.711,-60.059,-48.828,-55.664
1626466385.463,-44.434,-57.129,-41.504,-49.805
1626466385.467,10.254,-34.668,-27.832,-4.883
1626466385.471,-35.156,-48.828,-42.969,-33.203
1626466385.475,-92.285,-70.312,-41.016,-97.168
1626466385.479,-52.734,-67.871,-32.715,-76.172
1626466385.480,-7.324,-43.945,-21.484,-15.137
1626466385.484,-10.742,-43.945,-35.156,-20.996
1626466385.488,-46.875,-61.523,-43.457,-62.500
1626466385.492,-54.199,-62.988,-39.551,-69.336
1626466385.496,-12.695,-39.551,-26.367,-34.668
1626466385.500,9.277,-16.113,-25.391,-5.859
1626466385.504,-19.531,-44.434,-47.852,-35.645
1626466385.507,-35.156,-72.266,-47.363,-62.012
1626466385.511,-20.996,-53.711,-27.832,-36.621
1626466385.515,4.395,-27.344,-23.438,2.930
1626466385.519,-23.926,-45.898,-48.340,-24.902
1626466385.523,-50.293,-63.477,-48.340,-61.035
1626466385.526,-38.086,-57.129,-27.344,-51.270
1626466385.530,6.348,-32.715,-7.324,18.066
1626466385.534,-5.859,-36.621,-31.738,11.719
1626466385.538,-50.781,-59.570,-44.922,-39.551
1626466385.542,-48.828,-60.547,-28.320,-40.527
1626466385.546,-20.996,-37.598,-13.672,10.742
1626466385.550,-9.277,-27.832,-30.762,17.578
1626466385.553,-47.852,-60.547,-42.969,-42.969
1626466385.557,-65.430,-64.453,-30.762,-52.246
1626466385.561,-25.879,-41.992,-8.789,-13.184
1626466385.565,0.488,-32.715,-14.648,11.719
1626466385.569,-56.152,-62.988,-48.340,-46.387
1626466385.570,-83.008,-71.777,-46.387,-75.195
1626466385.574,-40.527,-52.734,-18.555,-34.180
1626466385.578,-0.977,-31.738,-6.836,3.906
1626466385.582,-36.621,-46.875,-34.180,-22.949
1626466385.586,-62.988,-63.965,-39.062,-54.199
1626466385.590,-31.738,-49.805,-25.391,-44.922
1626466385.594,0.977,-32.227,-20.020,13.184
1626466385.597,-11.719,-47.363,-41.992,8.301
1626466385.601,-62.012,-75.195,-46.387,-54.688
1626466385.605,-56.152,-71.777,-25.879,-54.688
1626466385.609,-11.719,-39.551,-10.254,-20.996
1626466385.613,-14.160,-34.180,-26.855,-1.465
1626466385.616,-56.152,-62.988,-37.598,-41.016
1626466385.620,-66.895,-74.219,-32.715,-63.965
1626466385.624,-24.902,-52.734,-20.508,-13.672
1626466385.628,-2.930,-29.297,-20.508,25.879
1626466385.632,-56.641,-55.176,-41.504,-20.508
1626466385.636,-76.172,-66.406,-38.574,-68.848
1626466385.640,-43.945,-56.641,-21.973,-39.062
1626466385.643,-16.602,-35.645,-6.836,21.973
1626466385.647,-39.551,-41.504,-36.133,-20.508
1626466385.651,-76.660,-69.336,-44.434,-58.594
1626466385.655,-56.152,-60.547,-27.832,-55.664
1626466385.659,-8.789,-31.738,-16.602,-22.461
1626466385.663,-10.254,-29.297,-34.180,-6.348
1626466385.667,-50.781,-64.453,-54.199,-66.406
1626466385.671,-67.871,-74.707,-46.875,-82.031
1626466385.675,-29.785,-35.156,-15.137,-22.949
1626466385.679,-6.348,-18.066,-20.020,-3.418
1626466385.683,-40.039,-41.016,-41.016,-53.711
1626466385.687,-70.801,-61.035,-41.504,-66.895
1626466385.690,-48.340,-54.199,-21.973,-24.902
1626466385.694,-0.488,-21.484,-13.672,20.996
1626466385.698,-37.109,-43.457,-51.758,-36.621
1626466385.702,-77.637,-68.848,-53.711,-86.426
1626466385.706,-50.781,-59.082,-23.926,-52.734
1626466385.720,-4.883,-29.297,-0.977,13.184
1626466385.724,-20.508,-36.621,-29.785,-16.113
1626466385.728,-64.941,-62.500,-48.340,-79.590
1626466385.732,-87.891,-61.523,-32.227,-75.195
1626466385.736,-47.363,-39.062,-15.625,-31.738
1626466385.740,-24.902,-28.809,-34.180,-35.645
1626466385.744,-76.660,-61.035,-46.387,-93.750
1626466385.747,-91.797,-73.730,-32.227,-98.633
1626466385.751,-48.828,-55.176,-14.160,-48.340
1626466385.755,-36.621,-38.574,-26.367,-26.855
1626466385.759,-78.613,-58.594,-46.875,-93.750
1626466385.763,-105.957,-74.219,-38.574,-111.816
1626466385.765,-63.965,-49.316,-19.043,-60.547
1626466385.769,-31.738,-25.879,-23.926,-24.902
1626466385.773,-71.289,-48.340,-61.035,-70.801
1626466385.777,-104.980,-74.219,-55.664,-102.539
1626466385.781,-91.797,-61.035,-28.809,-73.242
1626466385.785,-38.086,-23.438,-12.695,-7.812
1626466385.789,-56.641,-34.668,-41.504,-31.738
1626466385.792,-91.309,-62.988,-56.641,-101.562
1626466385.796,-72.266,-48.828,-43.945,-97.656
1626466385.800,-32.715,-43.457,-40.527,-32.227
1626466385.804,-28.809,-49.805,-59.082,-18.066
1626466385.808,-71.289,-59.082,-62.500,-67.871
1626466385.810,-86.426,-73.242,-52.246,-93.262
1626466385.814,-34.180,-58.105,-26.855,-43.945
1626466385.818,-4.395,-31.250,-20.996,-6.348
1626466385.822,-51.270,-48.340,-43.945,-61.523
1626466385.826,-70.312,-63.477,-44.434,-79.590
1626466385.830,-34.668,-46.387,-31.250,-48.828
1626466385.834,-4.395,-15.137,-31.738,-15.625
1626466385.837,-34.668,-27.832,-60.547,-46.387
1626466385.841,-62.500,-54.688,-57.617,-83.496
1626466385.845,-41.016,-44.434,-33.203,-66.406
1626466385.849,0.000,-17.578,-12.207,-11.230
1626466385.853,-7.812,-25.879,-34.180,-30.273
1626466385.855,-42.969,-57.129,-49.316,-72.754
1626466385.859,-48.828,-55.664,-38.574,-63.965
1626466385.863,2.930,-29.297,-15.137,-25.879
1626466385.867,11.230,-24.414,-33.203,1.953
1626466385.871,-42.969,-52.734,-49.316,-46.387
1626466385.875,-49.316,-52.734,-29.297,-68.848
1626466385.879,-3.418,-27.344,-17.090,-29.297
1626466385.882,40.039,-13.184,-17.090,31.250
1626466385.886,-14.160,-38.574,-43.457,-11.719
1626466385.890,-68.359,-62.988,-48.340,-82.520
1626466385.894,-30.273,-54.688,-21.484,-55.664
1626466385.898,9.277,-36.621,-12.695,0.977
1626466385.901,-22.461,-45.410,-44.922,-45.410
1626466385.905,-62.012,-67.871,-49.316,-93.750
1626466385.909,-54.199,-54.688,-34.668,-57.129
1626466385.913,0.488,-32.715,-20.020,-1.953
1626466385.917,-5.371,-35.156,-35.645,-13.672
1626466385.921,-58.594,-47.852,-41.016,-49.316
1626466385.925,-25.879,-48.340,-31.738,-65.430
1626466385.928,12.695,-41.016,-20.020,-30.273
1626466385.932,-18.555,-29.785,-29.785,10.254
1626466385.936,-48.828,-47.363,-51.758,-35.156
1626466385.940,-66.895,-67.871,-48.828,-81.055
1626466385.944,-48.828,-47.852,-17.090,-39.551
1626466385.945,5.859,-19.043,-3.418,20.996
1626466385.949,-31.250,-43.457,-34.668,-20.508
1626466385.953,-87.891,-67.871,-32.227,-74.707
1626466385.957,-53.711,-56.152,-7.324,-44.434
1626466385.961,-9.766,-33.691,-3.418,15.137
1626466385.965,-26.367,-37.598,-42.969,-38.086
1626466385.969,-73.730,-67.871,-49.316,-84.473
1626466385.972,-83.008,-72.266,-37.598,-54.688
1626466385.976,-11.230,-38.574,-20.996,-2.930
1626466385.980,-10.254,-37.598,-29.785,-8.789
1626466385.984,-88.379,-76.172,-48.340,-54.688
1626466385.988,-76.660,-84.961,-40.039,-38.086
1626466385.990,-12.207,-46.387,-11.719,23.438
1626466385.994,-6.348,-29.785,-15.625,29.297
1626466385.998,-42.969,-65.430,-41.992,-32.715
1626466386.002,-56.152,-75.684,-40.527,-44.434
1626466386.006,-34.180,-49.805,-17.578,-21.973
1626466386.010,14.648,-11.719,-7.812,7.324
1626466386.014,-7.324,-28.320,-43.457,-17.578
1626466386.017,-48.340,-72.754,-53.223,-61.035
1626466386.021,-27.344,-61.523,-20.020,-28.320
1626466386.025,15.625,-24.902,3.906,30.273
1626466386.029,-0.977,-31.738,-30.762,6.348
1626466386.033,-42.969,-62.988,-44.922,-49.316
1626466386.035,-24.414,-61.035,-26.367,-39.551
1626466386.039,17.578,-31.250,1.953,30.273
1626466386.043,21.484,-23.926,-19.043,37.598
1626466386.047,-19.043,-49.316,-50.293,-32.227
1626466386.051,-39.551,-61.523,-28.320,-39.551
1626466386.055,0.000,-37.109,6.836,28.320
1626466386.059,12.207,-20.020,-4.883,36.621
1626466386.062,-38.574,-47.852,-39.551,-36.621
1626466386.066,-54.199,-66.895,-35.156,-49.805
1626466386.070,-24.414,-64.941,-7.324,-4.883
1626466386.074,3.418,-36.133,4.395,30.762
1626466386.078,-20.508,-46.875,-33.691,-1.465
1626466386.084,-52.246,-76.172,-41.992,-36.621
1626466386.088,-46.387,-67.383,-21.484,-23.926
1626466386.092,-5.371,-38.086,-7.812,38.086
1626466386.096,-11.719,-47.852,-42.480,15.137
1626466386.100,-61.035,-80.078,-58.105,-49.805
1626466386.104,-54.688,-75.684,-34.668,-41.992
1626466386.108,-2.930,-36.621,-8.789,11.719
1626466386.111,0.000,-28.809,-24.902,24.902
1626466386.115,-50.293,-61.523,-45.410,-38.086
1626466386.119,-61.523,-70.312,-41.016,-78.613
1626466386.123,-29.297,-44.922,-15.625,-34.180
1626466386.127,-19.531,-24.414,-9.766,21.484
1626466386.140,-63.965,-44.922,-44.434,-40.527
1626466386.144,-86.914,-62.988,-47.852,-86.426
1626466386.148,-68.848,-47.363,-20.020,-44.434
1626466386.152,-7.324,-15.137,-4.883,13.184
1626466386.156,-34.180,-33.203,-43.457,-18.066
1626466386.160,-90.332,-56.152,-48.340,-82.031
1626466386.164,-70.801,-53.711,-23.438,-80.078
1626466386.167,-12.207,-24.902,0.000,-10.742
1626466386.171,-8.301,-17.578,-32.227,-12.695
1626466386.175,-65.918,-65.430,-62.012,-89.355
1626466386.179,-63.965,-66.406,-44.922,-87.402
1626466386.183,-22.949,-26.855,-15.137,-32.715
1626466386.185,-18.555,-19.043,-25.391,-24.902
1626466386.189,-82.031,-53.711,-51.758,-99.121
1626466386.193,-123.535,-62.988,-45.898,-143.555
1626466386.197,-101.074,-37.109,-20.996,-102.539
1626466386.201,-82.031,-18.066,-15.625,-68.848
1626466386.205,-140.137,-41.016,-52.246,-135.742
1626466386.209,-196.289,-64.453,-54.688,-201.660
1626466386.212,-200.684,-58.105,-28.320,-185.059
1626466386.216,-168.457,-36.621,-15.625,-145.020
1626466386.220,-198.730,-50.781,-54.688,-184.570
1626466386.224,-255.859,-81.055,-60.547,-242.676
1626466386.228,-251.953,-79.590,-32.715,-240.234
1626466386.231,-194.824,-44.434,-7.812,-167.480
1626466386.235,-181.152,-28.320,-32.715,-154.297
1626466386.239,-229.004,-59.082,-62.012,-216.309
1626466386.243,-217.285,-70.801,-53.223,-229.492
1626466386.247,-149.902,-38.086,-24.902,-159.668
1626466386.251,-116.699,-16.113,-28.320,-107.422
1626466386.255,-143.066,-48.340,-56.152,-157.227
1626466386.258,-151.855,-73.242,-51.758,-171.387
1626466386.262,-108.398,-40.527,-24.414,-96.191
1626466386.266,-54.688,-7.812,-20.996,-33.691
1626466386.270,-71.289,-37.109,-53.711,-74.707
1626466386.274,-82.520,-62.500,-51.758,-75.195
1626466386.275,-47.852,-50.293,-24.902,-50.781
1626466386.279,4.395,-20.508,-3.418,3.418
1626466386.283,-0.977,-29.785,-38.086,8.789
1626466386.287,-50.293,-61.035,-48.828,-46.875
1626466386.291,-35.645,-61.523,-25.391,-28.320
1626466386.295,31.738,-19.043,8.301,56.152
1626466386.299,41.992,-4.395,-8.301,74.707
1626466386.302,-14.648,-51.758,-49.316,0.488
1626466386.306,-30.273,-63.965,-45.898,-23.438
1626466386.310,38.086,-28.320,-5.859,45.898
1626466386.314,58.105,-11.719,-6.348,78.125
1626466386.318,-1.953,-43.945,-48.828,16.602
1626466386.321,-7.812,-65.918,-39.551,-6.348
1626466386.325,28.809,-39.551,-1.953,34.668
1626466386.329,71.777,-5.859,-1.953,91.309
1626466386.333,42.969,-26.855,-53.223,32.227
1626466386.337,-0.977,-51.758,-56.641,-13.672
1626466386.341,16.113,-34.668,-13.184,16.602
1626466386.345,75.684,-9.277,2.930,59.082
1626466386.348,58.594,-25.391,-31.250,48.340
1626466386.352,-3.418,-59.082,-39.062,-2.930
1626466386.356,8.301,-68.359,-28.809,-13.184
1626466386.360,52.734,-33.203,-6.836,55.176
1626466386.364,55.176,-21.484,-23.926,77.148
1626466386.366,15.625,-55.176,-40.039,0.977
1626466386.370,3.906,-63.477,-31.738,-25.879
1626466386.374,47.852,-30.762,-13.672,22.461
1626466386.378,69.824,-4.883,-8.789,60.547
1626466386.382,23.926,-35.156,-37.598,20.020
1626466386.386,-1.953,-54.688,-37.109,-20.020
1626466386.390,14.160,-38.574,-22.949,6.348
1626466386.393,45.410,-21.973,-12.695,67.383
1626466386.397,12.207,-42.969,-37.598,8.301
1626466386.401,-33.691,-66.406,-50.781,-29.785
1626466386.405,-12.207,-52.734,-34.668,3.906
1626466386.409,41.504,-24.902,-9.766,64.453
1626466386.410,36.621,-30.273,-38.574,45.410
1626466386.414,-18.555,-63.477,-60.059,-42.969
1626466386.418,-25.879,-63.965,-37.598,-51.758
1626466386.422,16.113,-33.203,-9.766,20.020
1626466386.426,32.715,-20.020,-24.414,40.527
1626466386.430,-21.484,-50.293,-50.293,-26.367
1626466386.434,-42.969,-58.594,-41.016,-53.223
1626466386.437,3.906,-30.273,-3.906,8.789
1626466386.441,41.992,-7.812,-6.836,46.387
1626466386.445,-5.859,-39.062,-55.176,-20.020
1626466386.449,-53.711,-74.219,-54.688,-55.176
1626466386.453,-9.277,-53.711,-19.531,-27.832
1626466386.470,34.180,-16.113,2.441,33.691
1626466386.474,-13.184,-35.156,-38.574,-3.906
1626466386.478,-51.758,-65.918,-47.852,-51.270
1626466386.482,-34.668,-54.688,-23.926,-36.621
1626466386.486,7.812,-21.484,5.371,16.602
1626466386.490,6.836,-16.113,-14.648,8.789
1626466386.494,-38.574,-56.641,-56.152,-63.965
1626466386.497,-48.340,-71.289,-47.852,-62.500
1626466386.501,-5.859,-27.344,-10.254,-3.906
1626466386.505,7.812,-16.602,-20.020,13.184
1626466386.509,-46.387,-54.199,-55.664,-39.551
1626466386.513,-65.918,-68.848,-49.805,-66.895
1626466386.515,-28.320,-39.551,-24.902,-26.367
1626466386.519,20.020,-15.625,-17.090,24.902
1626466386.523,-20.996,-39.551,-37.598,-21.484
1626466386.527,-78.125,-61.035,-39.062,-63.965
1626466386.531,-49.316,-52.246,-21.973,-42.969
1626466386.535,13.184,-9.766,5.371,17.578
1626466386.539,-14.648,-20.020,-27.832,-17.090
1626466386.542,-69.336,-62.012,-51.270,-81.543
1626466386.546,-57.617,-61.523,-41.504,-75.684
1626466386.550,-14.160,-37.598,-22.461,-19.531
1626466386.554,-7.812,-30.762,-35.156,-0.977
1626466386.558,-65.918,-51.270,-58.105,-62.988
1626466386.561,-86.426,-59.082,-53.711,-73.730
1626466386.565,-13.672,-34.668,-11.230,1.465
1626466386.569,18.066,-15.625,-5.371,29.297
1626466386.573,-48.340,-52.246,-47.852,-49.805
1626466386.577,-66.895,-73.242,-46.875,-74.707
1626466386.581,-26.855,-48.340,-10.742,-20.996
1626466386.585,-10.254,-27.344,-4.395,0.488
1626466386.588,-54.688,-47.852,-49.805,-59.082
1626466386.592,-90.332,-71.777,-52.734,-71.777
1626466386.596,-75.195,-66.895,-27.832,-67.871
1626466386.600,-11.230,-31.250,-0.977,-25.391
1626466386.604,-24.414,-35.645,-30.273,-41.016
1626466386.605,-82.031,-73.730,-54.688,-89.355
1626466386.609,-76.660,-66.895,-27.832,-83.008
1626466386.613,-24.902,-25.879,4.395,-25.879
1626466386.617,-12.207,-22.461,-16.113,3.906
1626466386.621,-68.359,-56.152,-47.363,-78.613
1626466386.625,-88.867,-62.988,-41.992,-108.398
1626466386.629,-50.781,-35.156,-16.602,-45.898
1626466386.632,-6.836,-16.602,-24.414,0.488
1626466386.636,-51.758,-49.316,-65.918,-42.480
1626466386.640,-80.078,-74.219,-62.500,-89.355
1626466386.644,-41.992,-49.805,-22.949,-52.734
1626466386.648,-4.883,-20.996,2.930,16.113
1626466386.650,-25.391,-42.480,-30.273,-30.273
1626466386.654,-71.289,-67.871,-49.805,-91.797
1626466386.658,-48.828,-60.547,-34.180,-58.105
1626466386.662,14.648,-25.391,0.488,26.367
1626466386.666,-2.930,-27.344,-24.902,-8.789
1626466386.670,-48.828,-50.781,-58.105,-69.824
1626466386.674,-45.898,-43.945,-50.781,-54.199
1626466386.677,-8.789,-29.785,-18.555,0.488
1626466386.681,7.812,-22.949,-25.879,24.414
1626466386.685,-44.922,-43.457,-48.828,-43.457
1626466386.689,-59.570,-52.246,-39.551,-65.430
1626466386.693,-17.578,-31.738,-9.766,-12.207
1626466386.695,20.996,-8.301,-10.254,39.551
1626466386.699,-14.160,-27.832,-53.711,-14.648
1626466386.703,-53.711,-51.758,-51.270,-65.918
1626466386.707,-30.273,-49.316,-25.391,-41.016
1626466386.711,4.395,-24.414,-8.301,24.414
1626466386.715,-17.090,-29.785,-32.715,-2.441
1626466386.719,-68.848,-57.617,-56.152,-62.500
1626466386.722,-70.312,-62.012,-50.293,-55.664
1626466386.726,-25.879,-28.320,-18.066,-3.906
1626466386.730,-10.742,-23.926,-32.227,0.488
1626466386.734,-57.617,-62.500,-53.711,-51.758
1626466386.738,-86.914,-70.801,-50.293,-80.078
1626466386.740,-33.203,-39.551,-18.555,-27.832
1626466386.744,-9.766,-22.949,-21.484,5.371
1626466386.748,-68.848,-50.293,-44.922,-61.035
1626466386.752,-94.238,-61.035,-34.668,-82.031
1626466386.756,-46.875,-38.574,-11.719,-38.086
1626466386.760,0.977,-7.812,-7.812,9.766
1626466386.764,-37.598,-35.156,-49.316,-28.809
1626466386.767,-73.242,-69.824,-51.270,-75.684
1626466386.771,-49.316,-54.199,-21.973,-54.688
1626466386.775,1.953,-20.020,-6.836,10.254
1626466386.779,-12.695,-26.367,-41.016,-13.672
1626466386.783,-66.406,-55.664,-55.664,-71.289
1626466386.786,-62.012,-57.617,-44.922,-66.406
1626466386.790,-7.812,-33.203,-20.020,-1.953
1626466386.794,-0.977,-26.855,-28.320,7.324
1626466386.798,-38.574,-55.176,-46.875,-50.781
1626466386.802,-51.758,-63.477,-38.574,-64.453
1626466386.806,-24.902,-28.809,-12.207,-16.602
1626466386.810,4.883,-7.324,-15.625,19.531
1626466386.813,-49.316,-44.922,-50.293,-39.551
1626466386.817,-72.266,-62.500,-49.805,-75.195
1626466386.821,-29.297,-50.781,-15.625,-21.484
1626466386.825,-3.906,-28.320,-0.488,36.621
1626466386.829,-26.367,-43.457,-34.668,-26.855
1626466386.845,-76.172,-67.871,-43.457,-81.543
1626466386.849,-65.918,-50.781,-26.367,-53.223
1626466386.853,10.254,-13.672,-6.836,19.043
1626466386.857,-7.324,-28.320,-34.668,-7.324
1626466386.861,-74.219,-60.059,-53.711,-61.035
1626466386.865,-75.684,-57.129,-34.180,-59.570
1626466386.869,-17.090,-34.668,-10.742,-21.973
1626466386.872,0.000,-24.902,-31.250,2.930
1626466386.876,-55.664,-56.152,-52.734,-57.617
1626466386.880,-65.430,-62.500,-42.969,-75.684
1626466386.884,-27.344,-34.180,-19.043,-20.508
1626466386.888,-5.371,-21.973,-19.531,14.648
1626466386.890,-58.594,-46.875,-39.551,-28.320
1626466386.894,-83.984,-66.895,-34.180,-58.105
1626466386.898,-34.180,-52.246,-29.297,-43.457
1626466386.902,10.254,-21.973,-24.902,6.836
1626466386.906,-23.926,-27.832,-43.457,-20.020
1626466386.910,-68.848,-48.340,-45.898,-74.219
1626466386.914,-54.688,-49.805,-34.180,-67.383
1626466386.917,-7.812,-27.344,-19.043,-20.508
1626466386.921,-36.621,-36.621,-42.969,-27.344
1626466386.925,-107.910,-81.543,-55.664,-76.172
1626466386.929,-91.309,-85.938,-36.621,-72.266
1626466386.933,-22.949,-44.434,-3.906,-12.207
1626466386.935,-20.996,-26.855,-18.555,-9.766
1626466386.939,-65.918,-58.105,-52.246,-88.379
1626466386.943,-64.453,-67.383,-46.387,-90.332
1626466386.947,-24.902,-44.434,-16.113,-49.316
1626466386.951,9.277,-24.414,-9.766,-14.160
1626466386.955,-33.203,-45.898,-44.922,-53.223
1626466386.959,-82.520,-70.801,-54.688,-95.703
1626466386.962,-61.523,-63.965,-41.016,-51.270
1626466386.966,-13.184,-24.414,-6.348,3.906
1626466386.970,-32.715,-35.156,-21.973,-31.250
1626466386.974,-62.500,-59.082,-50.293,-73.730
1626466386.978,-49.316,-49.316,-40.039,-47.852
1626466386.980,-1.953,-26.367,-0.977,11.230
1626466386.984,-10.742,-26.855,-23.926,-12.207
1626466386.988,-55.664,-47.363,-46.387,-74.707
1626466386.992,-59.570,-53.223,-35.156,-77.148
1626466386.996,-14.160,-27.832,-10.742,-11.719
1626466387.000,3.906,-6.348,-13.184,16.113
1626466387.004,-50.293,-36.621,-44.922,-54.688
1626466387.007,-70.801,-48.340,-43.945,-74.707
1626466387.011,-34.668,-34.668,-24.902,-37.598
1626466387.015,-5.371,-27.344,-20.508,-7.324
1626466387.019,-49.805,-46.387,-46.875,-50.781
1626466387.023,-71.289,-60.547,-48.340,-95.703
1626466387.026,-52.734,-41.992,-21.484,-70.801
1626466387.030,-36.621,-17.090,-4.395,-6.348
1626466387.034,-51.758,-25.879,-39.062,-32.715
1626466387.038,-82.031,-54.199,-55.664,-95.215
1626466387.042,-79.102,-54.688,-38.086,-83.496
1626466387.046,-33.691,-14.648,-10.254,-14.160
1626466387.050,-31.738,-12.207,-33.691,-7.812
1626466387.053,-82.031,-60.547,-58.105,-75.195
1626466387.057,-84.961,-61.523,-36.621,-83.984
1626466387.061,-42.969,-30.273,-7.324,-29.297
1626466387.065,-23.438,-20.508,-20.020,-0.977
1626466387.069,-77.148,-54.199,-57.617,-69.824
1626466387.070,-107.910,-67.383,-55.664,-91.797
1626466387.074,-51.270,-43.457,-23.438,-38.086
1626466387.078,4.395,-9.277,-10.254,21.484
1626466387.082,-46.875,-27.832,-45.898,-20.996
1626466387.086,-79.590,-62.988,-48.340,-82.031
1626466387.090,-52.246,-35.645,-20.508,-52.734
1626466387.094,4.395,-2.930,-1.465,13.672
1626466387.097,-7.812,-16.113,-39.062,-9.766
1626466387.101,-68.848,-39.551,-62.012,-71.289
1626466387.105,-74.219,-51.270,-35.645,-76.660
1626466387.109,-21.973,-30.762,-2.441,-27.832
1626466387.113,-24.414,-17.090,-30.273,-8.789
1626466387.115,-75.195,-40.527,-59.570,-69.824
1626466387.119,-79.102,-57.129,-43.945,-88.379
1626466387.123,-46.387,-40.039,-12.695,-33.203
1626466387.127,-17.578,-15.625,-16.113,7.324
1626466387.131,-53.223,-42.480,-55.176,-52.246
1626466387.135,-89.844,-56.152,-54.199,-91.309
1626466387.139,-57.129,-33.203,-28.320,-57.617
1626466387.142,-10.742,-18.555,-17.578,10.742
1626466387.146,-38.574,-40.039,-45.410,-37.109
1626466387.150,-61.523,-55.176,-45.410,-96.680
1626466387.154,-41.504,-45.410,-27.832,-67.871
1626466387.158,-10.742,-23.438,-11.719,-10.254
1626466387.161,-22.949,-21.973,-39.551,-9.277
1626466387.165,-64.453,-52.246,-68.848,-73.242
1626466387.169,-68.359,-56.641,-43.457,-91.797
1626466387.173,-6.836,-23.926,2.441,-34.180
1626466387.177,1.953,-16.602,-9.766,2.930
1626466387.181,-61.035,-43.945,-41.016,-48.340
1626466387.185,-81.055,-55.664,-38.086,-85.938
1626466387.188,-38.086,-39.062,-6.836,-50.781
1626466387.192,-15.625,-11.719,-3.418,3.906
1626466387.196,-52.246,-35.645,-45.410,-39.551
1626466387.200,-68.359,-65.918,-52.246,-87.402
1626466387.204,-29.297,-46.875,-21.484,-68.848
1626466387.220,11.719,-11.230,-7.812,-2.441
1626466387.224,-36.133,-38.086,-48.828,-27.344
1626466387.228,-67.871,-68.359,-57.129,-83.984
1626466387.232,-55.664,-57.617,-37.109,-71.289
1626466387.236,-13.672,-32.715,-6.836,-1.953
1626466387.240,-13.184,-24.902,-27.832,-0.977
1626466387.244,-68.359,-54.688,-55.176,-62.012
1626466387.247,-72.754,-70.801,-41.504,-76.172
1626466387.251,-20.508,-33.203,-4.883,-8.789
1626466387.255,-8.301,-11.230,-12.207,32.715
1626466387.259,-50.293,-44.434,-46.875,-45.898
1626466387.263,-58.105,-56.152,-41.016,-75.684
1626466387.265,-30.273,-36.133,-10.742,-27.344
1626466387.269,-8.301,-14.160,-7.324,16.113
1626466387.273,-45.410,-34.668,-39.551,-34.668
1626466387.277,-69.336,-60.059,-44.922,-74.219
1626466387.281,-41.016,-47.852,-22.461,-40.527
1626466387.285,16.113,-10.254,5.371,34.180
1626466387.289,1.953,-20.020,-25.391,6.348
1626466387.292,-44.434,-46.387,-45.898,-57.129
1626466387.296,-46.387,-39.551,-35.645,-50.781
1626466387.300,5.371,-31.738,-7.324,-0.488
1626466387.304,14.160,-25.879,-23.926,-2.441
1626466387.308,-43.945,-52.734,-48.828,-64.453
1626466387.310,-51.758,-51.270,-31.250,-62.500
1626466387.314,-8.789,-21.484,-5.859,-13.184
1626466387.318,23.926,-10.742,-20.996,14.648
1626466387.322,-26.855,-43.457,-51.758,-50.293
1626466387.326,-56.152,-65.430,-47.363,-89.355
1626466387.330,-12.695,-32.227,-19.531,-30.273
1626466387.334,20.996,-3.906,-7.812,25.391
1626466387.337,-18.555,-34.668,-47.852,-33.691
1626466387.341,-57.129,-60.059,-58.105,-74.219
1626466387.345,-36.133,-47.852,-24.414,-44.922
1626466387.349,7.324,-17.090,-1.953,9.277
1626466387.353,-11.230,-22.949,-46.875,11.230
1626466387.355,-54.688,-51.270,-58.594,-44.922
1626466387.359,-54.688,-57.129,-34.180,-63.477
1626466387.363,-11.719,-25.879,-16.602,-6.348
1626466387.367,11.230,-10.254,-26.367,21.973
1626466387.371,-42.480,-39.062,-42.480,-62.500
1626466387.375,-64.453,-50.781,-39.551,-86.914
1626466387.379,-23.438,-29.785,-11.230,-19.531
1626466387.382,0.488,-15.137,-5.859,14.160
1626466387.386,-34.180,-50.293,-47.363,-52.734
1626466387.390,-75.684,-74.707,-61.523,-92.285
1626466387.394,-45.898,-49.316,-28.320,-55.664
1626466387.398,7.324,-19.043,-9.766,9.766
1626466387.400,-35.645,-37.598,-44.922,-30.762
1626466387.404,-74.219,-53.711,-45.410,-76.660
1626466387.408,-53.711,-41.016,-25.879,-59.570
1626466387.412,-14.648,-18.066,-9.766,-10.254
1626466387.416,-16.113,-23.926,-40.039,-6.348
1626466387.420,-65.430,-50.293,-62.988,-62.988
1626466387.424,-71.777,-52.246,-30.273,-73.730
1626466387.427,-20.996,-34.668,10.254,-14.160
1626466387.431,-5.859,-22.461,-11.719,13.672
1626466387.435,-51.270,-42.969,-40.527,-33.691
1626466387.439,-59.082,-58.105,-30.762,-55.176
1626466387.443,-25.391,-38.086,-8.301,-12.207
1626466387.445,0.488,-14.648,-8.301,51.758
1626466387.449,-23.926,-43.457,-42.480,-6.836
1626466387.453,-68.848,-66.406,-47.363,-64.453
1626466387.457,-47.852,-47.363,-20.508,-27.344
1626466387.461,12.207,-18.066,-0.977,15.625
1626466387.465,-22.461,-26.855,-39.551,-12.207
1626466387.469,-79.102,-57.129,-55.664,-67.383
1626466387.472,-62.500,-54.688,-24.414,-65.918
1626466387.476,-3.906,-22.949,5.371,-1.953
1626466387.480,-8.301,-30.273,-26.367,4.395
1626466387.484,-55.176,-62.500,-48.828,-57.129
1626466387.488,-59.082,-66.895,-38.086,-80.078
1626466387.494,-22.461,-35.156,-13.672,-28.809
1626466387.498,0.000,-16.113,-23.438,3.418
1626466387.502,-46.387,-45.410,-53.223,-55.176
1626466387.506,-66.406,-62.988,-49.805,-87.891
1626466387.510,-39.062,-43.457,-16.113,-47.852
1626466387.514,1.953,-7.324,-10.742,4.395
1626466387.518,-25.391,-40.039,-61.035,-47.852
1626466387.521,-63.477,-77.637,-53.711,-94.727
1626466387.525,-45.410,-54.199,-15.625,-57.129
1626466387.529,8.789,-20.020,-8.789,10.254
1626466387.533,0.000,-27.832,-50.293,-14.160
1626466387.537,-59.082,-60.547,-57.129,-84.961
1626466387.535,-57.129,-66.406,-33.691,-73.730
1626466387.539,1.953,-29.785,-1.953,5.859
1626466387.543,-1.953,-19.531,-15.137,19.043
1626466387.547,-66.406,-59.082,-57.617,-54.688
1626466387.551,-56.152,-57.129,-52.734,-69.824
1626466387.555,1.953,-13.184,-5.371,-23.438
1626466387.559,8.789,-8.789,-14.648,-0.488
1626466387.562,-31.738,-47.852,-49.316,-45.410
1626466387.566,-49.316,-59.082,-42.969,-65.918
1626466387.570,-24.902,-37.109,-18.066,-31.738
1626466387.574,6.348,-17.578,-8.789,21.973
1626466387.578,-32.715,-47.363,-43.457,-37.109
1626466387.595,-80.078,-67.871,-54.199,-91.309
1626466387.599,-65.430,-54.688,-36.133,-63.965
1626466387.603,-2.930,-27.344,-18.555,-9.277
1626466387.607,-8.789,-33.203,-41.016,-20.508
1626466387.611,-71.777,-64.941,-50.781,-75.195
1626466387.615,-68.848,-62.500,-29.785,-78.125
1626466387.619,-7.324,-21.973,2.441,-0.488
1626466387.622,-6.836,-21.484,-25.391,15.625
1626466387.626,-59.082,-65.430,-60.059,-55.176
1626466387.630,-62.500,-79.102,-53.223,-76.660
1626466387.634,-22.461,-47.852,-20.996,-11.719
1626466387.638,3.418,-20.996,-14.648,29.297
1626466387.640,-45.898,-47.852,-42.969,-51.270
1626466387.644,-72.266,-62.012,-35.645,-83.984
1626466387.648,-33.203,-42.969,-16.113,-35.156
1626466387.652,-2.930,-17.578,0.000,28.809
1626466387.656,-35.645,-36.133,-30.762,-17.090
1626466387.660,-64.453,-53.711,-44.922,-70.801
1626466387.664,-54.199,-49.316,-32.715,-68.848
1626466387.667,9.277,-20.508,-13.672,-7.324
1626466387.671,7.324,-10.742,-41.992,3.906
1626466387.675,-48.828,-56.152,-69.824,-65.430
1626466387.679,-53.711,-69.824,-48.340,-77.148
1626466387.683,-21.484,-36.621,-8.301,-7.812
1626466387.685,-8.301,-22.949,-25.391,9.766
1626466387.689,-45.410,-48.828,-59.082,-73.730
1626466387.693,-62.988,-61.523,-58.594,-85.938
1626466387.697,-20.020,-40.527,-25.391,-27.344
1626466387.701,18.066,-13.184,-13.672,3.418
1626466387.705,-22.461,-32.227,-55.664,-43.945
1626466387.709,-63.477,-59.082,-60.547,-87.891
1626466387.712,-33.691,-56.152,-27.832,-66.895
1626466387.716,14.648,-28.809,-4.395,3.906
1626466387.720,-23.926,-30.273,-41.992,-29.785
1626466387.724,-63.477,-51.758,-55.664,-80.566
1626466387.728,-61.035,-42.969,-25.391,-52.734
1626466387.730,-19.043,-13.184,12.695,11.719
1626466387.734,-0.488,-16.602,-18.066,6.348
1626466387.738,-62.988,-49.316,-50.293,-60.547
1626466387.742,-76.660,-59.082,-37.598,-74.219
1626466387.746,-20.508,-28.809,-2.441,-17.578
1626466387.750,-1.465,-3.906,-17.578,11.719
1626466387.754,-46.387,-40.039,-56.152,-45.898
1626466387.757,-68.848,-62.012,-48.340,-70.801
1626466387.761,-33.203,-39.551,-22.949,-30.273
1626466387.765,5.859,-21.484,-7.324,21.484
1626466387.769,-41.504,-44.434,-33.691,-25.879
1626466387.773,-81.055,-64.941,-37.598,-73.242
1626466387.775,-52.246,-44.434,-8.301,-50.293
1626466387.779,-15.137,-14.648,0.977,11.719
1626466387.783,-40.039,-24.902,-43.457,-5.859
1626466387.787,-79.102,-59.570,-56.152,-64.453
1626466387.791,-65.918,-58.594,-27.832,-53.711
1626466387.795,-23.926,-12.695,4.883,2.441
1626466387.799,-22.949,-12.695,-25.879,1.953
1626466387.802,-64.453,-62.988,-61.035,-65.918
1626466387.806,-83.008,-69.824,-55.664,-83.984
1626466387.810,-31.250,-35.156,-15.625,-0.977
1626466387.814,1.953,-15.137,-12.207,34.180
1626466387.818,-43.457,-45.410,-44.922,-40.527
1626466387.820,-62.500,-62.500,-39.062,-76.660
1626466387.824,-23.438,-40.527,-11.230,-30.762
1626466387.828,11.719,-15.137,-8.301,31.250
1626466387.832,-24.414,-30.762,-42.480,-24.414
1626466387.836,-62.012,-51.270,-44.922,-87.891
1626466387.840,-37.109,-39.551,-27.344,-51.270
1626466387.844,16.113,-6.348,-15.625,23.926
1626466387.847,-6.836,-22.949,-50.781,-12.207
1626466387.851,-55.176,-59.570,-59.082,-74.707
1626466387.855,-39.551,-60.059,-29.785,-55.664
1626466387.859,9.766,-34.180,2.441,7.812
1626466387.863,13.672,-25.391,-22.949,18.066
1626466387.865,-37.109,-50.781,-48.340,-39.551
1626466387.869,-75.684,-66.406,-38.086,-61.035
1626466387.873,-39.551,-38.086,-15.625,-7.324
1626466387.877,0.000,-12.207,-11.719,42.969
1626466387.881,-46.875,-43.457,-40.527,-27.344
1626466387.885,-74.219,-64.941,-43.945,-79.102
1626466387.889,-33.691,-50.781,-26.855,-49.805
1626466387.892,13.184,-22.461,-13.672,12.207
1626466387.896,-21.484,-30.762,-44.922,-18.066
1626466387.900,-69.824,-56.641,-54.199,-73.730
1626466387.904,-50.781,-58.594,-38.574,-60.547
1626466387.908,1.953,-26.855,-14.160,-4.883
1626466387.910,-7.324,-19.531,-39.062,-14.160
1626466387.914,-61.523,-48.340,-61.035,-65.430
1626466387.918,-59.570,-50.293,-34.668,-68.848
1626466387.922,4.883,-24.902,-3.418,-9.277
1626466387.926,10.254,-20.020,-29.785,9.766
1626466387.930,-51.758,-41.016,-52.246,-62.988
1626466387.934,-70.312,-58.594,-39.551,-77.637
